Data from Ni(NO3)2Standard.Agarose3%.GreenCap.LampEnergy5.5.E.O_HRD10591_14-43-00-188.txt Node
Date: Mon Jul 22 14:43:00 EDT 2019
User: cochatt
Spectrometer: HR+D1059
Trigger mode: 1
Integration Time (sec): 1.000000E-1
Scans to average: 1
Electric dark correction enabled: true
Nonlinearity correction enabled: false
Boxcar width: 0
XAxis mode: Wavelengths
Number of Pixels in Spectrum: 2048
>>>>>Begin Spectral Data<<<<<
223.165	-24.44
223.4	-24.44
223.635	-24.44
223.869	-24.44
224.104	-35.44
224.338	-18.44
224.573	-5.44
224.808	-6.44
225.042	-5.44
225.277	-3.44
225.511	-1.44
225.746	-2.44
225.98	9.56
226.215	19.56
226.449	15.56
226.683	19.56
226.918	37.56
227.152	25.56
227.387	37.56
227.621	54.56
227.856	55.56
228.09	54.56
228.324	55.56
228.559	59.56
228.793	60.56
229.027	56.56
229.262	58.56
229.496	73.56
229.73	74.56
229.964	77.56
230.199	66.56
230.433	66.56
230.667	78.56
230.901	84.56
231.136	87.56
231.37	83.56
231.604	82.56
231.838	89.56
232.072	87.56
232.306	86.56
232.541	91.56
232.775	82.56
233.009	76.56
233.243	74.56
233.477	75.56
233.711	86.56
233.945	86.56
234.179	92.56
234.413	84.56
234.647	76.56
234.881	72.56
235.115	85.56
235.349	71.56
235.583	74.56
235.817	84.56
236.051	87.56
236.285	81.56
236.519	88.56
236.753	93.56
236.987	82.56
237.221	85.56
237.455	71.56
237.689	71.56
237.922	83.56
238.156	76.56
238.39	77.56
238.624	85.56
238.858	85.56
239.091	80.56
239.325	75.56
239.559	79.56
239.793	79.56
240.027	82.56
240.26	62.56
240.494	89.56
240.728	86.56
240.961	81.56
241.195	76.56
241.429	80.56
241.662	79.56
241.896	75.56
242.13	65.56
242.363	70.56
242.597	72.56
242.83	72.56
243.064	85.56
243.298	76.56
243.531	76.56
243.765	65.56
243.998	73.56
244.232	78.56
244.465	86.56
244.699	83.56
244.932	85.56
245.166	91.56
245.399	88.56
245.633	82.56
245.866	80.56
246.099	92.56
246.333	78.56
246.566	70.56
246.8	63.56
247.033	65.56
247.266	88.56
247.5	84.56
247.733	89.56
247.966	79.56
248.2	76.56
248.433	89.56
248.666	74.56
248.899	82.56
249.133	87.56
249.366	75.56
249.599	82.56
249.832	89.56
250.066	82.56
250.299	87.56
250.532	82.56
250.765	79.56
250.998	79.56
251.231	72.56
251.465	82.56
251.698	73.56
251.931	91.56
252.164	73.56
252.397	86.56
252.63	84.56
252.863	81.56
253.096	74.56
253.329	79.56
253.562	85.56
253.795	82.56
254.028	73.56
254.261	74.56
254.494	67.56
254.727	67.56
254.96	82.56
255.193	84.56
255.426	81.56
255.659	85.56
255.892	81.56
256.124	80.56
256.357	90.56
256.59	93.56
256.823	83.56
257.056	95.56
257.289	79.56
257.521	88.56
257.754	91.56
257.987	84.56
258.22	109.56
258.452	83.56
258.685	86.56
258.918	66.56
259.151	90.56
259.383	82.56
259.616	83.56
259.849	89.56
260.081	83.56
260.314	87.56
260.547	84.56
260.779	94.56
261.012	88.56
261.244	75.56
261.477	82.56
261.71	77.56
261.942	84.56
262.175	78.56
262.407	81.56
262.64	91.56
262.872	92.56
263.105	88.56
263.337	78.56
263.57	84.56
263.802	93.56
264.035	79.56
264.267	82.56
264.499	87.56
264.732	85.56
264.964	88.56
265.197	102.56
265.429	76.56
265.661	82.56
265.894	92.56
266.126	87.56
266.358	87.56
266.591	91.56
266.823	72.56
267.055	76.56
267.287	79.56
267.52	87.56
267.752	88.56
267.984	69.56
268.216	85.56
268.448	83.56
268.681	95.56
268.913	92.56
269.145	95.56
269.377	79.56
269.609	72.56
269.841	75.56
270.073	92.56
270.306	85.56
270.538	92.56
270.77	88.56
271.002	86.56
271.234	78.56
271.466	83.56
271.698	80.56
271.93	79.56
272.162	87.56
272.394	86.56
272.626	82.56
272.858	83.56
273.09	87.56
273.322	90.56
273.553	102.56
273.785	102.56
274.017	87.56
274.249	97.56
274.481	70.56
274.713	72.56
274.945	86.56
275.176	71.56
275.408	82.56
275.64	97.56
275.872	95.56
276.104	77.56
276.335	82.56
276.567	74.56
276.799	87.56
277.031	88.56
277.262	85.56
277.494	80.56
277.726	76.56
277.957	93.56
278.189	93.56
278.421	78.56
278.652	94.56
278.884	77.56
279.115	87.56
279.347	86.56
279.579	106.56
279.81	97.56
280.042	96.56
280.273	89.56
280.505	91.56
280.736	88.56
280.968	88.56
281.199	96.56
281.431	83.56
281.662	91.56
281.894	86.56
282.125	80.56
282.356	94.56
282.588	91.56
282.819	89.56
283.051	94.56
283.282	77.56
283.513	83.56
283.745	86.56
283.976	79.56
284.207	95.56
284.439	91.56
284.67	91.56
284.901	76.56
285.132	83.56
285.364	77.56
285.595	91.56
285.826	77.56
286.057	68.56
286.288	79.56
286.52	91.56
286.751	92.56
286.982	72.56
287.213	66.56
287.444	74.56
287.675	90.56
287.906	105.56
288.138	92.56
288.369	98.56
288.6	91.56
288.831	69.56
289.062	89.56
289.293	84.56
289.524	83.56
289.755	95.56
289.986	103.56
290.217	85.56
290.448	87.56
290.679	89.56
290.91	92.56
291.141	93.56
291.371	83.56
291.602	78.56
291.833	97.56
292.064	87.56
292.295	97.56
292.526	83.56
292.757	82.56
292.987	81.56
293.218	87.56
293.449	93.56
293.68	83.56
293.91	86.56
294.141	85.56
294.372	79.56
294.603	78.56
294.833	91.56
295.064	92.56
295.295	100.56
295.525	97.56
295.756	92.56
295.987	86.56
296.217	90.56
296.448	77.56
296.679	87.56
296.909	85.56
297.14	88.56
297.37	102.56
297.601	84.56
297.831	85.56
298.062	92.56
298.292	98.56
298.523	75.56
298.753	74.56
298.984	82.56
299.214	94.56
299.445	96.56
299.675	81.56
299.905	90.56
300.136	99.56
300.366	87.56
300.597	87.56
300.827	88.56
301.057	87.56
301.288	101.56
301.518	91.56
301.748	85.56
301.979	86.56
302.209	95.56
302.439	100.56
302.669	95.56
302.9	107.56
303.13	94.56
303.36	89.56
303.59	85.56
303.82	88.56
304.051	83.56
304.281	86.56
304.511	98.56
304.741	100.56
304.971	74.56
305.201	79.56
305.431	73.56
305.661	104.56
305.891	87.56
306.121	97.56
306.352	81.56
306.582	98.56
306.812	93.56
307.042	80.56
307.272	93.56
307.502	89.56
307.731	93.56
307.961	87.56
308.191	84.56
308.421	85.56
308.651	83.56
308.881	85.56
309.111	74.56
309.341	82.56
309.571	67.56
309.8	80.56
310.03	102.56
310.26	90.56
310.49	102.56
310.72	88.56
310.949	90.56
311.179	86.56
311.409	82.56
311.639	76.56
311.868	89.56
312.098	100.56
312.328	107.56
312.557	97.56
312.787	78.56
313.017	93.56
313.246	91.56
313.476	95.56
313.706	86.56
313.935	85.56
314.165	88.56
314.394	87.56
314.624	79.56
314.853	78.56
315.083	83.56
315.312	89.56
315.542	74.56
315.771	103.56
316.001	106.56
316.23	94.56
316.46	90.56
316.689	83.56
316.919	97.56
317.148	87.56
317.377	83.56
317.607	93.56
317.836	76.56
318.065	89.56
318.295	87.56
318.524	85.56
318.753	92.56
318.983	86.56
319.212	85.56
319.441	75.56
319.67	86.56
319.9	85.56
320.129	89.56
320.358	82.56
320.587	102.56
320.816	92.56
321.046	89.56
321.275	91.56
321.504	77.56
321.733	79.56
321.962	93.56
322.191	86.56
322.42	88.56
322.649	85.56
322.878	85.56
323.108	76.56
323.337	83.56
323.566	93.56
323.795	80.56
324.024	90.56
324.253	93.56
324.482	84.56
324.71	92.56
324.939	94.56
325.168	98.56
325.397	82.56
325.626	77.56
325.855	95.56
326.084	82.56
326.313	74.56
326.542	100.56
326.77	81.56
326.999	82.56
327.228	99.56
327.457	85.56
327.686	93.56
327.914	103.56
328.143	100.56
328.372	85.56
328.6	90.56
328.829	90.56
329.058	84.56
329.287	97.56
329.515	88.56
329.744	86.56
329.972	77.56
330.201	83.56
330.43	77.56
330.658	90.56
330.887	99.56
331.115	94.56
331.344	86.56
331.572	87.56
331.801	84.56
332.03	91.56
332.258	90.56
332.486	81.56
332.715	81.56
332.943	93.56
333.172	75.56
333.4	93.56
333.629	95.56
333.857	95.56
334.085	82.56
334.314	99.56
334.542	102.56
334.771	92.56
334.999	93.56
335.227	99.56
335.455	84.56
335.684	93.56
335.912	86.56
336.14	83.56
336.369	87.56
336.597	92.56
336.825	78.56
337.053	88.56
337.281	81.56
337.51	90.56
337.738	91.56
337.966	77.56
338.194	85.56
338.422	95.56
338.65	102.56
338.878	98.56
339.106	89.56
339.334	89.56
339.562	79.56
339.79	103.56
340.018	90.56
340.246	87.56
340.474	87.56
340.702	91.56
340.93	98.56
341.158	108.56
341.386	94.56
341.614	83.56
341.842	79.56
342.07	68.56
342.298	92.56
342.526	87.56
342.754	85.56
342.981	78.56
343.209	88.56
343.437	99.56
343.665	83.56
343.893	93.56
344.12	85.56
344.348	84.56
344.576	86.56
344.804	85.56
345.031	91.56
345.259	79.56
345.487	92.56
345.714	73.56
345.942	89.56
346.17	93.56
346.397	83.56
346.625	90.56
346.853	96.56
347.08	91.56
347.308	100.56
347.535	88.56
347.763	85.56
347.99	80.56
348.218	79.56
348.445	78.56
348.673	90.56
348.9	91.56
349.128	89.56
349.355	88.56
349.583	95.56
349.81	79.56
350.037	91.56
350.265	84.56
350.492	90.56
350.72	100.56
350.947	81.56
351.174	99.56
351.402	83.56
351.629	79.56
351.856	94.56
352.083	102.56
352.311	81.56
352.538	75.56
352.765	97.56
352.992	87.56
353.22	99.56
353.447	94.56
353.674	83.56
353.901	72.56
354.128	86.56
354.355	83.56
354.583	92.56
354.81	91.56
355.037	82.56
355.264	90.56
355.491	86.56
355.718	88.56
355.945	82.56
356.172	78.56
356.399	97.56
356.626	83.56
356.853	86.56
357.08	95.56
357.307	90.56
357.534	102.56
357.761	92.56
357.988	85.56
358.215	107.56
358.441	82.56
358.668	91.56
358.895	79.56
359.122	78.56
359.349	91.56
359.576	92.56
359.802	84.56
360.029	81.56
360.256	94.56
360.483	79.56
360.709	97.56
360.936	102.56
361.163	94.56
361.39	99.56
361.616	95.56
361.843	106.56
362.07	85.56
362.296	81.56
362.523	95.56
362.749	89.56
362.976	91.56
363.203	105.56
363.429	92.56
363.656	93.56
363.882	92.56
364.109	87.56
364.335	85.56
364.562	90.56
364.788	79.56
365.015	87.56
365.241	94.56
365.468	92.56
365.694	83.56
365.92	91.56
366.147	85.56
366.373	91.56
366.599	88.56
366.826	83.56
367.052	111.56
367.278	90.56
367.505	86.56
367.731	94.56
367.957	86.56
368.184	84.56
368.41	90.56
368.636	91.56
368.862	85.56
369.089	79.56
369.315	99.56
369.541	77.56
369.767	104.56
369.993	90.56
370.219	80.56
370.445	82.56
370.672	87.56
370.898	88.56
371.124	97.56
371.35	75.56
371.576	97.56
371.802	89.56
372.028	84.56
372.254	83.56
372.48	85.56
372.706	98.56
372.932	85.56
373.158	87.56
373.384	96.56
373.61	83.56
373.835	85.56
374.061	83.56
374.287	86.56
374.513	76.56
374.739	90.56
374.965	82.56
375.191	71.56
375.416	85.56
375.642	85.56
375.868	84.56
376.094	83.56
376.319	98.56
376.545	94.56
376.771	95.56
376.997	85.56
377.222	80.56
377.448	94.56
377.674	85.56
377.899	74.56
378.125	77.56
378.35	91.56
378.576	94.56
378.802	88.56
379.027	85.56
379.253	81.56
379.478	90.56
379.704	78.56
379.929	88.56
380.155	91.56
380.38	64.56
380.606	86.56
380.831	90.56
381.057	103.56
381.282	99.56
381.507	102.56
381.733	92.56
381.958	85.56
382.184	90.56
382.409	84.56
382.634	101.56
382.86	102.56
383.085	77.56
383.31	101.56
383.535	76.56
383.761	97.56
383.986	98.56
384.211	86.56
384.436	87.56
384.662	88.56
384.887	83.56
385.112	91.56
385.337	79.56
385.562	87.56
385.787	87.56
386.013	91.56
386.238	85.56
386.463	83.56
386.688	79.56
386.913	95.56
387.138	88.56
387.363	92.56
387.588	93.56
387.813	91.56
388.038	90.56
388.263	93.56
388.488	94.56
388.713	75.56
388.938	76.56
389.163	90.56
389.387	82.56
389.612	80.56
389.837	89.56
390.062	72.56
390.287	88.56
390.512	94.56
390.736	89.56
390.961	84.56
391.186	71.56
391.411	87.56
391.636	97.56
391.86	75.56
392.085	84.56
392.31	92.56
392.534	93.56
392.759	99.56
392.984	88.56
393.208	89.56
393.433	86.56
393.658	93.56
393.882	77.56
394.107	83.56
394.331	88.56
394.556	74.56
394.78	103.56
395.005	101.56
395.229	79.56
395.454	104.56
395.678	91.56
395.903	86.56
396.127	94.56
396.352	91.56
396.576	74.56
396.801	101.56
397.025	97.56
397.249	85.56
397.474	92.56
397.698	87.56
397.922	104.56
398.147	94.56
398.371	98.56
398.595	93.56
398.82	70.56
399.044	91.56
399.268	93.56
399.492	78.56
399.717	76.56
399.941	92.56
400.165	85.56
400.389	82.56
400.613	84.56
400.837	84.56
401.062	85.56
401.286	95.56
401.51	87.56
401.734	92.56
401.958	87.56
402.182	94.56
402.406	93.56
402.63	78.56
402.854	91.56
403.078	91.56
403.302	85.56
403.526	90.56
403.75	74.56
403.974	97.56
404.198	85.56
404.422	78.56
404.645	84.56
404.869	87.56
405.093	82.56
405.317	80.56
405.541	85.56
405.765	82.56
405.988	102.56
406.212	94.56
406.436	99.56
406.66	91.56
406.883	81.56
407.107	78.56
407.331	84.56
407.555	99.56
407.778	77.56
408.002	98.56
408.226	79.56
408.449	100.56
408.673	87.56
408.896	82.56
409.12	91.56
409.344	99.56
409.567	88.56
409.791	105.56
410.014	92.56
410.238	84.56
410.461	88.56
410.685	79.56
410.908	83.56
411.132	95.56
411.355	89.56
411.578	91.56
411.802	87.56
412.025	91.56
412.249	79.56
412.472	92.56
412.695	89.56
412.919	98.56
413.142	87.56
413.365	93.56
413.589	82.56
413.812	92.56
414.035	92.56
414.258	88.56
414.482	79.56
414.705	75.56
414.928	92.56
415.151	92.56
415.374	75.56
415.597	89.56
415.821	86.56
416.044	100.56
416.267	96.56
416.49	76.56
416.713	86.56
416.936	74.56
417.159	87.56
417.382	79.56
417.605	85.56
417.828	90.56
418.051	83.56
418.274	80.56
418.497	86.56
418.72	92.56
418.943	96.56
419.166	86.56
419.389	79.56
419.611	99.56
419.834	80.56
420.057	100.56
420.28	87.56
420.503	69.56
420.726	95.56
420.948	89.56
421.171	85.56
421.394	80.56
421.617	85.56
421.839	82.56
422.062	77.56
422.285	88.56
422.507	92.56
422.73	89.56
422.953	99.56
423.175	78.56
423.398	84.56
423.621	79.56
423.843	82.56
424.066	77.56
424.288	80.56
424.511	88.56
424.733	83.56
424.956	94.56
425.178	86.56
425.401	102.56
425.623	76.56
425.846	72.56
426.068	82.56
426.291	87.56
426.513	82.56
426.735	102.56
426.958	89.56
427.18	94.56
427.402	90.56
427.625	86.56
427.847	68.56
428.069	97.56
428.292	101.56
428.514	91.56
428.736	96.56
428.958	91.56
429.181	85.56
429.403	89.56
429.625	93.56
429.847	92.56
430.069	93.56
430.292	83.56
430.514	97.56
430.736	101.56
430.958	83.56
431.18	85.56
431.402	94.56
431.624	105.56
431.846	100.56
432.068	95.56
432.29	92.56
432.512	84.56
432.734	106.56
432.956	83.56
433.178	102.56
433.4	105.56
433.622	99.56
433.844	91.56
434.066	98.56
434.287	80.56
434.509	75.56
434.731	90.56
434.953	89.56
435.175	75.56
435.397	92.56
435.618	75.56
435.84	88.56
436.062	74.56
436.284	97.56
436.505	81.56
436.727	100.56
436.949	89.56
437.17	83.56
437.392	95.56
437.614	84.56
437.835	70.56
438.057	67.56
438.278	102.56
438.5	95.56
438.721	92.56
438.943	74.56
439.165	84.56
439.386	94.56
439.608	102.56
439.829	81.56
440.05	88.56
440.272	87.56
440.493	85.56
440.715	81.56
440.936	78.56
441.158	83.56
441.379	88.56
441.6	85.56
441.822	83.56
442.043	78.56
442.264	83.56
442.486	89.56
442.707	84.56
442.928	92.56
443.149	68.56
443.371	80.56
443.592	86.56
443.813	75.56
444.034	78.56
444.255	99.56
444.476	83.56
444.698	93.56
444.919	97.56
445.14	199.56
445.361	135.56
445.582	98.56
445.803	75.56
446.024	83.56
446.245	101.56
446.466	88.56
446.687	93.56
446.908	82.56
447.129	92.56
447.35	85.56
447.571	85.56
447.792	84.56
448.013	80.56
448.234	80.56
448.455	87.56
448.675	83.56
448.896	87.56
449.117	87.56
449.338	76.56
449.559	92.56
449.779	93.56
450	91.56
450.221	95.56
450.442	88.56
450.662	93.56
450.883	98.56
451.104	77.56
451.324	89.56
451.545	85.56
451.766	93.56
451.986	98.56
452.207	86.56
452.428	85.56
452.648	86.56
452.869	86.56
453.089	87.56
453.31	97.56
453.53	80.56
453.751	77.56
453.971	88.56
454.192	96.56
454.412	92.56
454.633	86.56
454.853	101.56
455.073	94.56
455.294	76.56
455.514	93.56
455.734	85.56
455.955	93.56
456.175	76.56
456.395	80.56
456.616	85.56
456.836	79.56
457.056	73.56
457.276	83.56
457.497	85.56
457.717	100.56
457.937	68.56
458.157	89.56
458.377	89.56
458.598	75.56
458.818	89.56
459.038	80.56
459.258	91.56
459.478	86.56
459.698	77.56
459.918	86.56
460.138	84.56
460.358	90.56
460.578	98.56
460.798	102.56
461.018	85.56
461.238	95.56
461.458	94.56
461.678	89.56
461.898	89.56
462.118	82.56
462.338	87.56
462.558	86.56
462.777	92.56
462.997	98.56
463.217	79.56
463.437	90.56
463.657	87.56
463.876	87.56
464.096	96.56
464.316	77.56
464.536	99.56
464.755	85.56
464.975	86.56
465.195	93.56
465.414	97.56
465.634	87.56
465.854	86.56
466.073	91.56
466.293	100.56
466.512	89.56
466.732	92.56
466.951	94.56
467.171	77.56
467.391	81.56
467.61	88.56
467.829	78.56
468.049	84.56
468.268	92.56
468.488	93.56
468.707	88.56
468.927	91.56
469.146	88.56
469.365	89.56
469.585	92.56
469.804	92.56
470.023	91.56
470.243	95.56
470.462	79.56
470.681	100.56
470.901	89.56
471.12	69.56
471.339	86.56
471.558	92.56
471.777	91.56
471.997	84.56
472.216	81.56
472.435	90.56
472.654	91.56
472.873	99.56
473.092	82.56
473.311	86.56
473.53	79.56
473.749	97.56
473.968	94.56
474.187	93.56
474.406	80.56
474.625	96.56
474.844	93.56
475.063	85.56
475.282	85.56
475.501	80.56
475.72	99.56
475.939	92.56
476.158	91.56
476.377	102.56
476.596	92.56
476.814	91.56
477.033	82.56
477.252	81.56
477.471	92.56
477.69	86.56
477.908	88.56
478.127	101.56
478.346	95.56
478.564	81.56
478.783	101.56
479.002	86.56
479.22	84.56
479.439	90.56
479.658	84.56
479.876	98.56
480.095	89.56
480.313	75.56
480.532	89.56
480.751	91.56
480.969	83.56
481.188	85.56
481.406	87.56
481.624	78.56
481.843	90.56
482.061	94.56
482.28	96.56
482.498	95.56
482.717	103.56
482.935	95.56
483.153	87.56
483.372	88.56
483.59	97.56
483.808	86.56
484.027	102.56
484.245	103.56
484.463	99.56
484.681	107.56
484.9	89.56
485.118	94.56
485.336	90.56
485.554	93.56
485.772	102.56
485.99	98.56
486.209	87.56
486.427	95.56
486.645	98.56
486.863	99.56
487.081	96.56
487.299	89.56
487.517	100.56
487.735	101.56
487.953	114.56
488.171	113.56
488.389	92.56
488.607	102.56
488.825	92.56
489.043	102.56
489.261	87.56
489.479	84.56
489.696	81.56
489.914	82.56
490.132	103.56
490.35	94.56
490.568	101.56
490.786	90.56
491.003	98.56
491.221	101.56
491.439	93.56
491.657	92.56
491.874	107.56
492.092	103.56
492.31	102.56
492.527	100.56
492.745	102.56
492.963	115.56
493.18	85.56
493.398	111.56
493.615	95.56
493.833	107.56
494.05	99.56
494.268	93.56
494.485	97.56
494.703	86.56
494.92	79.56
495.138	101.56
495.355	99.56
495.573	108.56
495.79	97.56
496.008	90.56
496.225	83.56
496.442	92.56
496.66	81.56
496.877	77.56
497.094	97.56
497.312	89.56
497.529	89.56
497.746	95.56
497.963	102.56
498.181	91.56
498.398	96.56
498.615	99.56
498.832	99.56
499.049	105.56
499.267	101.56
499.484	109.56
499.701	113.56
499.918	112.56
500.135	100.56
500.352	110.56
500.569	109.56
500.786	95.56
501.003	123.56
501.22	110.56
501.437	104.56
501.654	102.56
501.871	109.56
502.088	103.56
502.305	113.56
502.522	94.56
502.739	100.56
502.956	102.56
503.172	104.56
503.389	109.56
503.606	98.56
503.823	92.56
504.04	81.56
504.256	96.56
504.473	95.56
504.69	102.56
504.907	114.56
505.123	91.56
505.34	86.56
505.557	99.56
505.773	115.56
505.99	81.56
506.207	93.56
506.423	77.56
506.64	93.56
506.856	98.56
507.073	97.56
507.289	101.56
507.506	89.56
507.722	98.56
507.939	84.56
508.155	93.56
508.372	105.56
508.588	95.56
508.805	89.56
509.021	89.56
509.238	103.56
509.454	100.56
509.67	86.56
509.887	85.56
510.103	87.56
510.319	95.56
510.536	107.56
510.752	99.56
510.968	87.56
511.184	94.56
511.401	88.56
511.617	91.56
511.833	81.56
512.049	102.56
512.265	100.56
512.481	91.56
512.698	95.56
512.914	91.56
513.13	97.56
513.346	84.56
513.562	85.56
513.778	106.56
513.994	81.56
514.21	88.56
514.426	85.56
514.642	99.56
514.858	89.56
515.074	83.56
515.29	97.56
515.506	97.56
515.721	98.56
515.937	93.56
516.153	94.56
516.369	84.56
516.585	86.56
516.801	96.56
517.016	92.56
517.232	78.56
517.448	85.56
517.664	93.56
