Data from Ni(NO3)2Standard.Agarose3%.GreenCap.LampEnergy5.5.E.O_HRD10591_14-42-51-188.txt Node
Date: Mon Jul 22 14:42:51 EDT 2019
User: cochatt
Spectrometer: HR+D1059
Trigger mode: 1
Integration Time (sec): 1.000000E-1
Scans to average: 1
Electric dark correction enabled: true
Nonlinearity correction enabled: false
Boxcar width: 0
XAxis mode: Wavelengths
Number of Pixels in Spectrum: 2048
>>>>>Begin Spectral Data<<<<<
223.165	-20.69
223.4	-20.69
223.635	-20.69
223.869	-20.69
224.104	-23.69
224.338	-12.69
224.573	-19.69
224.808	2.31
225.042	-19.69
225.277	-7.69
225.511	8.31
225.746	6.31
225.98	13.31
226.215	3.31
226.449	22.31
226.683	27.31
226.918	13.31
227.152	28.31
227.387	31.31
227.621	22.31
227.856	38.31
228.09	43.31
228.324	52.31
228.559	70.31
228.793	61.31
229.027	69.31
229.262	85.31
229.496	78.31
229.73	67.31
229.964	82.31
230.199	71.31
230.433	63.31
230.667	75.31
230.901	86.31
231.136	85.31
231.37	80.31
231.604	80.31
231.838	74.31
232.072	69.31
232.306	85.31
232.541	88.31
232.775	84.31
233.009	89.31
233.243	84.31
233.477	97.31
233.711	75.31
233.945	81.31
234.179	94.31
234.413	103.31
234.647	79.31
234.881	79.31
235.115	77.31
235.349	86.31
235.583	76.31
235.817	85.31
236.051	85.31
236.285	62.31
236.519	88.31
236.753	77.31
236.987	83.31
237.221	76.31
237.455	80.31
237.689	73.31
237.922	81.31
238.156	81.31
238.39	85.31
238.624	65.31
238.858	82.31
239.091	78.31
239.325	72.31
239.559	79.31
239.793	81.31
240.027	67.31
240.26	80.31
240.494	77.31
240.728	65.31
240.961	80.31
241.195	85.31
241.429	74.31
241.662	74.31
241.896	63.31
242.13	86.31
242.363	69.31
242.597	73.31
242.83	74.31
243.064	70.31
243.298	79.31
243.531	70.31
243.765	94.31
243.998	83.31
244.232	65.31
244.465	63.31
244.699	79.31
244.932	73.31
245.166	79.31
245.399	99.31
245.633	73.31
245.866	82.31
246.099	73.31
246.333	72.31
246.566	62.31
246.8	77.31
247.033	83.31
247.266	85.31
247.5	74.31
247.733	78.31
247.966	83.31
248.2	80.31
248.433	86.31
248.666	63.31
248.899	78.31
249.133	63.31
249.366	83.31
249.599	59.31
249.832	78.31
250.066	73.31
250.299	79.31
250.532	85.31
250.765	87.31
250.998	82.31
251.231	66.31
251.465	81.31
251.698	87.31
251.931	82.31
252.164	86.31
252.397	75.31
252.63	71.31
252.863	79.31
253.096	82.31
253.329	83.31
253.562	83.31
253.795	76.31
254.028	78.31
254.261	78.31
254.494	78.31
254.727	84.31
254.96	82.31
255.193	76.31
255.426	85.31
255.659	70.31
255.892	78.31
256.124	74.31
256.357	76.31
256.59	82.31
256.823	88.31
257.056	85.31
257.289	83.31
257.521	89.31
257.754	90.31
257.987	75.31
258.22	81.31
258.452	78.31
258.685	76.31
258.918	102.31
259.151	75.31
259.383	86.31
259.616	82.31
259.849	85.31
260.081	89.31
260.314	90.31
260.547	90.31
260.779	94.31
261.012	82.31
261.244	84.31
261.477	78.31
261.71	85.31
261.942	101.31
262.175	82.31
262.407	94.31
262.64	86.31
262.872	93.31
263.105	83.31
263.337	91.31
263.57	80.31
263.802	92.31
264.035	72.31
264.267	89.31
264.499	82.31
264.732	84.31
264.964	83.31
265.197	74.31
265.429	76.31
265.661	79.31
265.894	86.31
266.126	93.31
266.358	81.31
266.591	86.31
266.823	94.31
267.055	78.31
267.287	79.31
267.52	81.31
267.752	84.31
267.984	97.31
268.216	83.31
268.448	85.31
268.681	98.31
268.913	86.31
269.145	74.31
269.377	70.31
269.609	85.31
269.841	79.31
270.073	91.31
270.306	83.31
270.538	80.31
270.77	85.31
271.002	78.31
271.234	94.31
271.466	78.31
271.698	75.31
271.93	87.31
272.162	87.31
272.394	89.31
272.626	85.31
272.858	86.31
273.09	91.31
273.322	73.31
273.553	91.31
273.785	71.31
274.017	102.31
274.249	92.31
274.481	85.31
274.713	82.31
274.945	91.31
275.176	78.31
275.408	97.31
275.64	86.31
275.872	77.31
276.104	82.31
276.335	89.31
276.567	93.31
276.799	81.31
277.031	91.31
277.262	76.31
277.494	70.31
277.726	84.31
277.957	81.31
278.189	94.31
278.421	79.31
278.652	87.31
278.884	77.31
279.115	82.31
279.347	89.31
279.579	65.31
279.81	77.31
280.042	89.31
280.273	73.31
280.505	96.31
280.736	93.31
280.968	82.31
281.199	86.31
281.431	76.31
281.662	87.31
281.894	90.31
282.125	97.31
282.356	98.31
282.588	76.31
282.819	76.31
283.051	91.31
283.282	80.31
283.513	77.31
283.745	86.31
283.976	78.31
284.207	70.31
284.439	93.31
284.67	91.31
284.901	81.31
285.132	82.31
285.364	95.31
285.595	80.31
285.826	85.31
286.057	98.31
286.288	82.31
286.52	83.31
286.751	74.31
286.982	84.31
287.213	78.31
287.444	99.31
287.675	97.31
287.906	96.31
288.138	85.31
288.369	75.31
288.6	94.31
288.831	79.31
289.062	97.31
289.293	91.31
289.524	83.31
289.755	88.31
289.986	93.31
290.217	91.31
290.448	75.31
290.679	82.31
290.91	82.31
291.141	91.31
291.371	97.31
291.602	92.31
291.833	101.31
292.064	92.31
292.295	81.31
292.526	80.31
292.757	87.31
292.987	78.31
293.218	83.31
293.449	94.31
293.68	91.31
293.91	84.31
294.141	86.31
294.372	84.31
294.603	88.31
294.833	89.31
295.064	79.31
295.295	82.31
295.525	87.31
295.756	89.31
295.987	87.31
296.217	80.31
296.448	79.31
296.679	98.31
296.909	73.31
297.14	81.31
297.37	93.31
297.601	92.31
297.831	106.31
298.062	75.31
298.292	93.31
298.523	78.31
298.753	89.31
298.984	85.31
299.214	76.31
299.445	92.31
299.675	78.31
299.905	80.31
300.136	89.31
300.366	90.31
300.597	73.31
300.827	80.31
301.057	78.31
301.288	94.31
301.518	81.31
301.748	94.31
301.979	90.31
302.209	91.31
302.439	84.31
302.669	89.31
302.9	71.31
303.13	93.31
303.36	83.31
303.59	87.31
303.82	93.31
304.051	110.31
304.281	83.31
304.511	97.31
304.741	86.31
304.971	90.31
305.201	86.31
305.431	80.31
305.661	98.31
305.891	88.31
306.121	82.31
306.352	73.31
306.582	88.31
306.812	64.31
307.042	91.31
307.272	97.31
307.502	85.31
307.731	97.31
307.961	87.31
308.191	96.31
308.421	103.31
308.651	98.31
308.881	102.31
309.111	76.31
309.341	93.31
309.571	86.31
309.8	89.31
310.03	88.31
310.26	85.31
310.49	84.31
310.72	83.31
310.949	84.31
311.179	90.31
311.409	86.31
311.639	68.31
311.868	74.31
312.098	86.31
312.328	94.31
312.557	88.31
312.787	74.31
313.017	86.31
313.246	74.31
313.476	82.31
313.706	96.31
313.935	87.31
314.165	87.31
314.394	82.31
314.624	68.31
314.853	94.31
315.083	78.31
315.312	97.31
315.542	85.31
315.771	91.31
316.001	88.31
316.23	87.31
316.46	76.31
316.689	85.31
316.919	89.31
317.148	95.31
317.377	76.31
317.607	91.31
317.836	97.31
318.065	95.31
318.295	79.31
318.524	90.31
318.753	89.31
318.983	84.31
319.212	81.31
319.441	82.31
319.67	105.31
319.9	91.31
320.129	89.31
320.358	79.31
320.587	83.31
320.816	80.31
321.046	75.31
321.275	95.31
321.504	91.31
321.733	91.31
321.962	91.31
322.191	93.31
322.42	86.31
322.649	94.31
322.878	83.31
323.108	88.31
323.337	88.31
323.566	86.31
323.795	95.31
324.024	92.31
324.253	85.31
324.482	77.31
324.71	81.31
324.939	79.31
325.168	92.31
325.397	95.31
325.626	96.31
325.855	85.31
326.084	95.31
326.313	75.31
326.542	88.31
326.77	91.31
326.999	91.31
327.228	85.31
327.457	83.31
327.686	87.31
327.914	98.31
328.143	100.31
328.372	84.31
328.6	82.31
328.829	89.31
329.058	106.31
329.287	98.31
329.515	85.31
329.744	79.31
329.972	73.31
330.201	94.31
330.43	89.31
330.658	86.31
330.887	85.31
331.115	88.31
331.344	91.31
331.572	94.31
331.801	87.31
332.03	81.31
332.258	95.31
332.486	87.31
332.715	88.31
332.943	84.31
333.172	71.31
333.4	79.31
333.629	87.31
333.857	102.31
334.085	91.31
334.314	87.31
334.542	100.31
334.771	98.31
334.999	94.31
335.227	88.31
335.455	95.31
335.684	88.31
335.912	93.31
336.14	87.31
336.369	92.31
336.597	92.31
336.825	90.31
337.053	87.31
337.281	98.31
337.51	84.31
337.738	88.31
337.966	87.31
338.194	84.31
338.422	91.31
338.65	86.31
338.878	90.31
339.106	90.31
339.334	83.31
339.562	89.31
339.79	85.31
340.018	93.31
340.246	98.31
340.474	98.31
340.702	82.31
340.93	92.31
341.158	87.31
341.386	83.31
341.614	78.31
341.842	93.31
342.07	96.31
342.298	82.31
342.526	87.31
342.754	85.31
342.981	90.31
343.209	97.31
343.437	91.31
343.665	78.31
343.893	104.31
344.12	98.31
344.348	79.31
344.576	94.31
344.804	91.31
345.031	85.31
345.259	82.31
345.487	90.31
345.714	91.31
345.942	94.31
346.17	107.31
346.397	83.31
346.625	87.31
346.853	80.31
347.08	97.31
347.308	84.31
347.535	79.31
347.763	87.31
347.99	89.31
348.218	81.31
348.445	82.31
348.673	95.31
348.9	103.31
349.128	78.31
349.355	77.31
349.583	95.31
349.81	78.31
350.037	84.31
350.265	96.31
350.492	106.31
350.72	79.31
350.947	85.31
351.174	73.31
351.402	83.31
351.629	91.31
351.856	76.31
352.083	101.31
352.311	83.31
352.538	84.31
352.765	80.31
352.992	82.31
353.22	79.31
353.447	72.31
353.674	82.31
353.901	90.31
354.128	96.31
354.355	86.31
354.583	90.31
354.81	100.31
355.037	83.31
355.264	87.31
355.491	93.31
355.718	77.31
355.945	83.31
356.172	77.31
356.399	78.31
356.626	91.31
356.853	93.31
357.08	85.31
357.307	90.31
357.534	90.31
357.761	89.31
357.988	90.31
358.215	86.31
358.441	94.31
358.668	79.31
358.895	82.31
359.122	95.31
359.349	80.31
359.576	90.31
359.802	90.31
360.029	87.31
360.256	82.31
360.483	80.31
360.709	91.31
360.936	93.31
361.163	102.31
361.39	88.31
361.616	89.31
361.843	81.31
362.07	90.31
362.296	81.31
362.523	82.31
362.749	86.31
362.976	89.31
363.203	92.31
363.429	86.31
363.656	94.31
363.882	97.31
364.109	86.31
364.335	94.31
364.562	83.31
364.788	86.31
365.015	87.31
365.241	87.31
365.468	91.31
365.694	92.31
365.92	88.31
366.147	88.31
366.373	82.31
366.599	94.31
366.826	93.31
367.052	69.31
367.278	82.31
367.505	87.31
367.731	78.31
367.957	85.31
368.184	94.31
368.41	82.31
368.636	76.31
368.862	85.31
369.089	87.31
369.315	88.31
369.541	98.31
369.767	82.31
369.993	81.31
370.219	79.31
370.445	89.31
370.672	83.31
370.898	94.31
371.124	83.31
371.35	85.31
371.576	86.31
371.802	83.31
372.028	78.31
372.254	93.31
372.48	72.31
372.706	86.31
372.932	86.31
373.158	95.31
373.384	81.31
373.61	78.31
373.835	96.31
374.061	97.31
374.287	86.31
374.513	85.31
374.739	80.31
374.965	82.31
375.191	81.31
375.416	80.31
375.642	86.31
375.868	83.31
376.094	88.31
376.319	98.31
376.545	92.31
376.771	76.31
376.997	75.31
377.222	72.31
377.448	94.31
377.674	89.31
377.899	95.31
378.125	90.31
378.35	81.31
378.576	83.31
378.802	85.31
379.027	79.31
379.253	77.31
379.478	79.31
379.704	88.31
379.929	87.31
380.155	81.31
380.38	90.31
380.606	76.31
380.831	82.31
381.057	79.31
381.282	90.31
381.507	85.31
381.733	72.31
381.958	92.31
382.184	98.31
382.409	85.31
382.634	87.31
382.86	80.31
383.085	76.31
383.31	79.31
383.535	99.31
383.761	81.31
383.986	93.31
384.211	102.31
384.436	80.31
384.662	90.31
384.887	88.31
385.112	85.31
385.337	89.31
385.562	87.31
385.787	82.31
386.013	92.31
386.238	75.31
386.463	93.31
386.688	83.31
386.913	76.31
387.138	82.31
387.363	81.31
387.588	82.31
387.813	91.31
388.038	89.31
388.263	83.31
388.488	93.31
388.713	86.31
388.938	93.31
389.163	85.31
389.387	86.31
389.612	90.31
389.837	96.31
390.062	75.31
390.287	82.31
390.512	97.31
390.736	89.31
390.961	85.31
391.186	88.31
391.411	94.31
391.636	67.31
391.86	83.31
392.085	76.31
392.31	96.31
392.534	94.31
392.759	103.31
392.984	86.31
393.208	81.31
393.433	72.31
393.658	87.31
393.882	90.31
394.107	82.31
394.331	78.31
394.556	92.31
394.78	86.31
395.005	83.31
395.229	81.31
395.454	87.31
395.678	74.31
395.903	96.31
396.127	89.31
396.352	78.31
396.576	77.31
396.801	77.31
397.025	91.31
397.249	86.31
397.474	96.31
397.698	90.31
397.922	99.31
398.147	93.31
398.371	80.31
398.595	92.31
398.82	88.31
399.044	87.31
399.268	84.31
399.492	90.31
399.717	92.31
399.941	91.31
400.165	96.31
400.389	87.31
400.613	94.31
400.837	94.31
401.062	89.31
401.286	84.31
401.51	83.31
401.734	91.31
401.958	101.31
402.182	87.31
402.406	79.31
402.63	83.31
402.854	88.31
403.078	93.31
403.302	93.31
403.526	78.31
403.75	103.31
403.974	76.31
404.198	104.31
404.422	98.31
404.645	91.31
404.869	87.31
405.093	86.31
405.317	98.31
405.541	86.31
405.765	102.31
405.988	83.31
406.212	75.31
406.436	73.31
406.66	95.31
406.883	83.31
407.107	86.31
407.331	76.31
407.555	79.31
407.778	90.31
408.002	89.31
408.226	90.31
408.449	94.31
408.673	96.31
408.896	79.31
409.12	72.31
409.344	97.31
409.567	86.31
409.791	94.31
410.014	98.31
410.238	91.31
410.461	82.31
410.685	92.31
410.908	71.31
411.132	92.31
411.355	81.31
411.578	98.31
411.802	81.31
412.025	103.31
412.249	89.31
412.472	89.31
412.695	91.31
412.919	89.31
413.142	84.31
413.365	105.31
413.589	68.31
413.812	78.31
414.035	85.31
414.258	93.31
414.482	84.31
414.705	92.31
414.928	92.31
415.151	74.31
415.374	81.31
415.597	96.31
415.821	87.31
416.044	88.31
416.267	89.31
416.49	91.31
416.713	91.31
416.936	90.31
417.159	84.31
417.382	99.31
417.605	86.31
417.828	79.31
418.051	77.31
418.274	86.31
418.497	82.31
418.72	90.31
418.943	98.31
419.166	82.31
419.389	82.31
419.611	89.31
419.834	92.31
420.057	86.31
420.28	102.31
420.503	87.31
420.726	84.31
420.948	85.31
421.171	70.31
421.394	89.31
421.617	83.31
421.839	86.31
422.062	88.31
422.285	73.31
422.507	79.31
422.73	89.31
422.953	88.31
423.175	81.31
423.398	93.31
423.621	85.31
423.843	84.31
424.066	76.31
424.288	91.31
424.511	88.31
424.733	81.31
424.956	80.31
425.178	89.31
425.401	79.31
425.623	72.31
425.846	89.31
426.068	84.31
426.291	86.31
426.513	82.31
426.735	92.31
426.958	82.31
427.18	78.31
427.402	88.31
427.625	103.31
427.847	93.31
428.069	93.31
428.292	99.31
428.514	89.31
428.736	83.31
428.958	77.31
429.181	98.31
429.403	100.31
429.625	84.31
429.847	84.31
430.069	84.31
430.292	92.31
430.514	95.31
430.736	84.31
430.958	81.31
431.18	75.31
431.402	83.31
431.624	89.31
431.846	80.31
432.068	77.31
432.29	88.31
432.512	107.31
432.734	90.31
432.956	93.31
433.178	80.31
433.4	95.31
433.622	73.31
433.844	96.31
434.066	96.31
434.287	82.31
434.509	73.31
434.731	75.31
434.953	73.31
435.175	86.31
435.397	81.31
435.618	87.31
435.84	78.31
436.062	85.31
436.284	77.31
436.505	82.31
436.727	83.31
436.949	82.31
437.17	87.31
437.392	72.31
437.614	89.31
437.835	108.31
438.057	86.31
438.278	87.31
438.5	97.31
438.721	78.31
438.943	93.31
439.165	77.31
439.386	84.31
439.608	89.31
439.829	92.31
440.05	94.31
440.272	91.31
440.493	82.31
440.715	73.31
440.936	83.31
441.158	86.31
441.379	87.31
441.6	91.31
441.822	91.31
442.043	89.31
442.264	95.31
442.486	84.31
442.707	82.31
442.928	93.31
443.149	84.31
443.371	90.31
443.592	93.31
443.813	83.31
444.034	82.31
444.255	100.31
444.476	90.31
444.698	90.31
444.919	85.31
445.14	217.31
445.361	130.31
445.582	95.31
445.803	98.31
446.024	81.31
446.245	101.31
446.466	92.31
446.687	89.31
446.908	87.31
447.129	77.31
447.35	74.31
447.571	78.31
447.792	81.31
448.013	83.31
448.234	92.31
448.455	79.31
448.675	83.31
448.896	89.31
449.117	91.31
449.338	77.31
449.559	99.31
449.779	92.31
450	94.31
450.221	97.31
450.442	92.31
450.662	75.31
450.883	70.31
451.104	98.31
451.324	97.31
451.545	88.31
451.766	90.31
451.986	78.31
452.207	85.31
452.428	81.31
452.648	79.31
452.869	86.31
453.089	90.31
453.31	84.31
453.53	88.31
453.751	75.31
453.971	79.31
454.192	87.31
454.412	76.31
454.633	81.31
454.853	82.31
455.073	83.31
455.294	93.31
455.514	99.31
455.734	77.31
455.955	89.31
456.175	89.31
456.395	85.31
456.616	80.31
456.836	89.31
457.056	85.31
457.276	88.31
457.497	80.31
457.717	90.31
457.937	98.31
458.157	89.31
458.377	87.31
458.598	82.31
458.818	73.31
459.038	74.31
459.258	70.31
459.478	88.31
459.698	78.31
459.918	88.31
460.138	92.31
460.358	98.31
460.578	86.31
460.798	86.31
461.018	76.31
461.238	87.31
461.458	104.31
461.678	86.31
461.898	86.31
462.118	72.31
462.338	91.31
462.558	88.31
462.777	91.31
462.997	83.31
463.217	98.31
463.437	73.31
463.657	86.31
463.876	101.31
464.096	87.31
464.316	91.31
464.536	90.31
464.755	78.31
464.975	83.31
465.195	63.31
465.414	79.31
465.634	87.31
465.854	80.31
466.073	85.31
466.293	97.31
466.512	87.31
466.732	83.31
466.951	78.31
467.171	97.31
467.391	84.31
467.61	89.31
467.829	85.31
468.049	79.31
468.268	82.31
468.488	90.31
468.707	90.31
468.927	87.31
469.146	98.31
469.365	88.31
469.585	99.31
469.804	89.31
470.023	75.31
470.243	79.31
470.462	87.31
470.681	78.31
470.901	96.31
471.12	90.31
471.339	90.31
471.558	90.31
471.777	88.31
471.997	89.31
472.216	91.31
472.435	100.31
472.654	98.31
472.873	87.31
473.092	89.31
473.311	82.31
473.53	78.31
473.749	105.31
473.968	78.31
474.187	96.31
474.406	97.31
474.625	81.31
474.844	93.31
475.063	82.31
475.282	79.31
475.501	102.31
475.72	84.31
475.939	77.31
476.158	83.31
476.377	95.31
476.596	86.31
476.814	94.31
477.033	86.31
477.252	93.31
477.471	91.31
477.69	90.31
477.908	95.31
478.127	104.31
478.346	98.31
478.564	95.31
478.783	88.31
479.002	90.31
479.22	97.31
479.439	99.31
479.658	88.31
479.876	97.31
480.095	77.31
480.313	78.31
480.532	77.31
480.751	99.31
480.969	95.31
481.188	79.31
481.406	87.31
481.624	78.31
481.843	88.31
482.061	97.31
482.28	89.31
482.498	99.31
482.717	95.31
482.935	88.31
483.153	84.31
483.372	103.31
483.59	102.31
483.808	92.31
484.027	89.31
484.245	94.31
484.463	97.31
484.681	85.31
484.9	92.31
485.118	93.31
485.336	101.31
485.554	103.31
485.772	90.31
485.99	99.31
486.209	89.31
486.427	100.31
486.645	86.31
486.863	91.31
487.081	105.31
487.299	96.31
487.517	100.31
487.735	78.31
487.953	89.31
488.171	92.31
488.389	89.31
488.607	102.31
488.825	92.31
489.043	93.31
489.261	79.31
489.479	97.31
489.696	106.31
489.914	105.31
490.132	97.31
490.35	93.31
490.568	104.31
490.786	104.31
491.003	93.31
491.221	89.31
491.439	97.31
491.657	91.31
491.874	79.31
492.092	86.31
492.31	92.31
492.527	91.31
492.745	102.31
492.963	107.31
493.18	98.31
493.398	113.31
493.615	83.31
493.833	89.31
494.05	100.31
494.268	93.31
494.485	89.31
494.703	102.31
494.92	91.31
495.138	84.31
495.355	99.31
495.573	99.31
495.79	88.31
496.008	92.31
496.225	102.31
496.442	92.31
496.66	90.31
496.877	102.31
497.094	92.31
497.312	102.31
497.529	88.31
497.746	107.31
497.963	98.31
498.181	92.31
498.398	93.31
498.615	96.31
498.832	89.31
499.049	114.31
499.267	95.31
499.484	88.31
499.701	105.31
499.918	106.31
500.135	105.31
500.352	103.31
500.569	105.31
500.786	125.31
501.003	104.31
501.22	116.31
501.437	96.31
501.654	99.31
501.871	95.31
502.088	88.31
502.305	88.31
502.522	103.31
502.739	98.31
502.956	96.31
503.172	112.31
503.389	86.31
503.606	83.31
503.823	104.31
504.04	99.31
504.256	105.31
504.473	102.31
504.69	93.31
504.907	98.31
505.123	95.31
505.34	109.31
505.557	105.31
505.773	93.31
505.99	87.31
506.207	81.31
506.423	81.31
506.64	110.31
506.856	97.31
507.073	91.31
507.289	89.31
507.506	99.31
507.722	90.31
507.939	90.31
508.155	87.31
508.372	103.31
508.588	79.31
508.805	78.31
509.021	86.31
509.238	89.31
509.454	97.31
509.67	97.31
509.887	96.31
510.103	92.31
510.319	88.31
510.536	89.31
510.752	81.31
510.968	85.31
511.184	91.31
511.401	111.31
511.617	92.31
511.833	90.31
512.049	97.31
512.265	87.31
512.481	84.31
512.698	83.31
512.914	83.31
513.13	91.31
513.346	92.31
513.562	103.31
513.778	95.31
513.994	93.31
514.21	86.31
514.426	88.31
514.642	95.31
514.858	102.31
515.074	95.31
515.29	86.31
515.506	90.31
515.721	80.31
515.937	84.31
516.153	100.31
516.369	86.31
516.585	86.31
516.801	98.31
517.016	82.31
517.232	92.31
517.448	95.31
517.664	106.31
517.879	102.31
518.095	99.31
518.311	95.31
