Data from Ni(NO3)2@0.5M.TitratingCurve.Agarose3%dH2O.NegLispCup.LampEnergy10.LIBS07252019_HRD10591_17-57-21-564.txt Node
Date: Thu Jul 25 17:57:21 EDT 2019
User: cochatt
Spectrometer: HR+D1059
Trigger mode: 1
Integration Time (sec): 1.000000E-1
Scans to average: 1
Electric dark correction enabled: true
Nonlinearity correction enabled: false
Boxcar width: 0
XAxis mode: Wavelengths
Number of Pixels in Spectrum: 2048
>>>>>Begin Spectral Data<<<<<
223.165	-28.06
223.4	-28.06
223.635	-28.06
223.869	-16.06
224.104	-20.06
224.338	0.94
224.573	-8.06
224.808	-4.06
225.042	-17.06
225.277	-16.06
225.511	10.94
225.746	0.94
225.98	20.94
226.215	15.94
226.449	12.94
226.683	8.94
226.918	13.94
227.152	23.94
227.387	28.94
227.621	33.94
227.856	46.94
228.09	46.94
228.324	59.94
228.559	54.94
228.793	70.94
229.027	152.94
229.262	144.94
229.496	159.94
229.73	166.94
229.964	181.94
230.199	227.94
230.433	211.94
230.667	211.94
230.901	206.94
231.136	182.94
231.37	196.94
231.604	224.94
231.838	228.94
232.072	230.94
232.306	230.94
232.541	201.94
232.775	216.94
233.009	184.94
233.243	205.94
233.477	185.94
233.711	199.94
233.945	206.94
234.179	221.94
234.413	196.94
234.647	222.94
234.881	203.94
235.115	226.94
235.349	208.94
235.583	214.94
235.817	201.94
236.051	213.94
236.285	215.94
236.519	206.94
236.753	208.94
236.987	218.94
237.221	201.94
237.455	207.94
237.689	203.94
237.922	214.94
238.156	210.94
238.39	224.94
238.624	205.94
238.858	216.94
239.091	234.94
239.325	239.94
239.559	240.94
239.793	271.94
240.027	266.94
240.26	242.94
240.494	239.94
240.728	248.94
240.961	255.94
241.195	250.94
241.429	265.94
241.662	278.94
241.896	288.94
242.13	290.94
242.363	282.94
242.597	269.94
242.83	278.94
243.064	276.94
243.298	272.94
243.531	290.94
243.765	270.94
243.998	301.94
244.232	290.94
244.465	302.94
244.699	278.94
244.932	302.94
245.166	284.94
245.399	295.94
245.633	319.94
245.866	309.94
246.099	306.94
246.333	308.94
246.566	321.94
246.8	311.94
247.033	314.94
247.266	320.94
247.5	331.94
247.733	321.94
247.966	320.94
248.2	346.94
248.433	364.94
248.666	339.94
248.899	335.94
249.133	348.94
249.366	351.94
249.599	347.94
249.832	354.94
250.066	376.94
250.299	365.94
250.532	380.94
250.765	392.94
250.998	378.94
251.231	391.94
251.465	416.94
251.698	417.94
251.931	374.94
252.164	394.94
252.397	409.94
252.63	413.94
252.863	387.94
253.096	363.94
253.329	393.94
253.562	406.94
253.795	418.94
254.028	400.94
254.261	424.94
254.494	422.94
254.727	413.94
254.96	452.94
255.193	437.94
255.426	453.94
255.659	423.94
255.892	450.94
256.124	450.94
256.357	445.94
256.59	462.94
256.823	482.94
257.056	456.94
257.289	452.94
257.521	464.94
257.754	454.94
257.987	475.94
258.22	481.94
258.452	494.94
258.685	490.94
258.918	486.94
259.151	483.94
259.383	506.94
259.616	483.94
259.849	507.94
260.081	495.94
260.314	504.94
260.547	519.94
260.779	513.94
261.012	530.94
261.244	535.94
261.477	536.94
261.71	512.94
261.942	531.94
262.175	534.94
262.407	543.94
262.64	537.94
262.872	546.94
263.105	546.94
263.337	538.94
263.57	531.94
263.802	547.94
264.035	559.94
264.267	560.94
264.499	562.94
264.732	570.94
264.964	568.94
265.197	579.94
265.429	593.94
265.661	585.94
265.894	570.94
266.126	575.94
266.358	574.94
266.591	554.94
266.823	581.94
267.055	599.94
267.287	582.94
267.52	576.94
267.752	573.94
267.984	608.94
268.216	577.94
268.448	585.94
268.681	592.94
268.913	590.94
269.145	605.94
269.377	618.94
269.609	603.94
269.841	586.94
270.073	614.94
270.306	631.94
270.538	614.94
270.77	621.94
271.002	597.94
271.234	631.94
271.466	644.94
271.698	623.94
271.93	620.94
272.162	654.94
272.394	628.94
272.626	633.94
272.858	644.94
273.09	639.94
273.322	666.94
273.553	683.94
273.785	651.94
274.017	655.94
274.249	668.94
274.481	657.94
274.713	662.94
274.945	653.94
275.176	673.94
275.408	666.94
275.64	681.94
275.872	685.94
276.104	686.94
276.335	669.94
276.567	678.94
276.799	675.94
277.031	711.94
277.262	705.94
277.494	723.94
277.726	699.94
277.957	715.94
278.189	706.94
278.421	697.94
278.652	675.94
278.884	713.94
279.115	717.94
279.347	706.94
279.579	715.94
279.81	713.94
280.042	712.94
280.273	720.94
280.505	742.94
280.736	714.94
280.968	734.94
281.199	755.94
281.431	740.94
281.662	732.94
281.894	739.94
282.125	730.94
282.356	731.94
282.588	735.94
282.819	736.94
283.051	736.94
283.282	742.94
283.513	758.94
283.745	726.94
283.976	735.94
284.207	758.94
284.439	768.94
284.67	757.94
284.901	766.94
285.132	778.94
285.364	757.94
285.595	790.94
285.826	779.94
286.057	764.94
286.288	771.94
286.52	753.94
286.751	793.94
286.982	795.94
287.213	771.94
287.444	773.94
287.675	819.94
287.906	776.94
288.138	808.94
288.369	781.94
288.6	815.94
288.831	796.94
289.062	788.94
289.293	802.94
289.524	806.94
289.755	784.94
289.986	811.94
290.217	819.94
290.448	807.94
290.679	796.94
290.91	788.94
291.141	791.94
291.371	791.94
291.602	806.94
291.833	809.94
292.064	821.94
292.295	840.94
292.526	809.94
292.757	807.94
292.987	798.94
293.218	854.94
293.449	835.94
293.68	852.94
293.91	790.94
294.141	808.94
294.372	825.94
294.603	831.94
294.833	821.94
295.064	838.94
295.295	847.94
295.525	826.94
295.756	845.94
295.987	819.94
296.217	844.94
296.448	859.94
296.679	823.94
296.909	846.94
297.14	832.94
297.37	820.94
297.601	874.94
297.831	838.94
298.062	848.94
298.292	867.94
298.523	860.94
298.753	893.94
298.984	838.94
299.214	848.94
299.445	870.94
299.675	872.94
299.905	903.94
300.136	886.94
300.366	928.94
300.597	928.94
300.827	919.94
301.057	899.94
301.288	894.94
301.518	893.94
301.748	891.94
301.979	887.94
302.209	918.94
302.439	912.94
302.669	915.94
302.9	898.94
303.13	916.94
303.36	934.94
303.59	917.94
303.82	930.94
304.051	960.94
304.281	942.94
304.511	926.94
304.741	932.94
304.971	935.94
305.201	956.94
305.431	974.94
305.661	935.94
305.891	956.94
306.121	981.94
306.352	953.94
306.582	934.94
306.812	919.94
307.042	951.94
307.272	927.94
307.502	959.94
307.731	954.94
307.961	934.94
308.191	943.94
308.421	958.94
308.651	952.94
308.881	981.94
309.111	949.94
309.341	951.94
309.571	975.94
309.8	994.94
310.03	976.94
310.26	988.94
310.49	1036.94
310.72	968.94
310.949	990.94
311.179	1017.94
311.409	1008.94
311.639	1006.94
311.868	991.94
312.098	1010.94
312.328	999.94
312.557	1007.94
312.787	1011.94
313.017	1024.94
313.246	1046.94
313.476	1043.94
313.706	1069.94
313.935	1061.94
314.165	1032.94
314.394	1032.94
314.624	1063.94
314.853	1020.94
315.083	1047.94
315.312	1062.94
315.542	1058.94
315.771	1050.94
316.001	1057.94
316.23	1059.94
316.46	1072.94
316.689	1098.94
316.919	1076.94
317.148	1059.94
317.377	1082.94
317.607	1102.94
317.836	1105.94
318.065	1131.94
318.295	1104.94
318.524	1076.94
318.753	1098.94
318.983	1076.94
319.212	1049.94
319.441	1125.94
319.67	1120.94
319.9	1112.94
320.129	1120.94
320.358	1108.94
320.587	1130.94
320.816	1115.94
321.046	1151.94
321.275	1124.94
321.504	1160.94
321.733	1140.94
321.962	1177.94
322.191	1172.94
322.42	1179.94
322.649	1170.94
322.878	1188.94
323.108	1187.94
323.337	1186.94
323.566	1172.94
323.795	1204.94
324.024	1190.94
324.253	1202.94
324.482	1189.94
324.71	1175.94
324.939	1194.94
325.168	1176.94
325.397	1221.94
325.626	1204.94
325.855	1235.94
326.084	1218.94
326.313	1213.94
326.542	1210.94
326.77	1253.94
326.999	1251.94
327.228	1248.94
327.457	1215.94
327.686	1236.94
327.914	1235.94
328.143	1260.94
328.372	1274.94
328.6	1268.94
328.829	1254.94
329.058	1270.94
329.287	1278.94
329.515	1300.94
329.744	1236.94
329.972	1255.94
330.201	1268.94
330.43	1287.94
330.658	1276.94
330.887	1285.94
331.115	1307.94
331.344	1293.94
331.572	1286.94
331.801	1342.94
332.03	1334.94
332.258	1287.94
332.486	1260.94
332.715	1314.94
332.943	1335.94
333.172	1362.94
333.4	1320.94
333.629	1336.94
333.857	1371.94
334.085	1351.94
334.314	1374.94
334.542	1381.94
334.771	1389.94
334.999	1338.94
335.227	1368.94
335.455	1376.94
335.684	1339.94
335.912	1387.94
336.14	1366.94
336.369	1366.94
336.597	1441.94
336.825	1388.94
337.053	1420.94
337.281	1423.94
337.51	1374.94
337.738	1394.94
337.966	1414.94
338.194	1408.94
338.422	1391.94
338.65	1382.94
338.878	1365.94
339.106	1368.94
339.334	1416.94
339.562	1394.94
339.79	1381.94
340.018	1350.94
340.246	1408.94
340.474	1370.94
340.702	1369.94
340.93	1374.94
341.158	1396.94
341.386	1408.94
341.614	1495.94
341.842	1391.94
342.07	1316.94
342.298	1359.94
342.526	1390.94
342.754	1352.94
342.981	1383.94
343.209	1337.94
343.437	1406.94
343.665	1406.94
343.893	1402.94
344.12	1386.94
344.348	1383.94
344.576	1404.94
344.804	1414.94
345.031	1368.94
345.259	1360.94
345.487	1354.94
345.714	1398.94
345.942	1415.94
346.17	1432.94
346.397	1395.94
346.625	1412.94
346.853	1354.94
347.08	1355.94
347.308	1355.94
347.535	1336.94
347.763	1321.94
347.99	1309.94
348.218	1326.94
348.445	1322.94
348.673	1316.94
348.9	1332.94
349.128	1320.94
349.355	1366.94
349.583	1338.94
349.81	1332.94
350.037	1290.94
350.265	1290.94
350.492	1305.94
350.72	1304.94
350.947	1293.94
351.174	1350.94
351.402	1332.94
351.629	1368.94
351.856	1338.94
352.083	1320.94
352.311	1358.94
352.538	1382.94
352.765	1394.94
352.992	1321.94
353.22	1276.94
353.447	1299.94
353.674	1278.94
353.901	1278.94
354.128	1288.94
354.355	1306.94
354.583	1300.94
354.81	1279.94
355.037	1273.94
355.264	1285.94
355.491	1310.94
355.718	1295.94
355.945	1291.94
356.172	1286.94
356.399	1274.94
356.626	1335.94
356.853	1343.94
357.08	1283.94
357.307	1302.94
357.534	1285.94
357.761	1289.94
357.988	1296.94
358.215	1296.94
358.441	1285.94
358.668	1277.94
358.895	1290.94
359.122	1282.94
359.349	1282.94
359.576	1278.94
359.802	1323.94
360.029	1306.94
360.256	1314.94
360.483	1307.94
360.709	1242.94
360.936	1297.94
361.163	1333.94
361.39	1331.94
361.616	1309.94
361.843	1343.94
362.07	1372.94
362.296	1350.94
362.523	1307.94
362.749	1322.94
362.976	1292.94
363.203	1283.94
363.429	1277.94
363.656	1290.94
363.882	1310.94
364.109	1268.94
364.335	1286.94
364.562	1303.94
364.788	1286.94
365.015	1295.94
365.241	1311.94
365.468	1280.94
365.694	1308.94
365.92	1296.94
366.147	1308.94
366.373	1296.94
366.599	1318.94
366.826	1314.94
367.052	1313.94
367.278	1307.94
367.505	1271.94
367.731	1305.94
367.957	1308.94
368.184	1304.94
368.41	1348.94
368.636	1276.94
368.862	1316.94
369.089	1302.94
369.315	1316.94
369.541	1369.94
369.767	1314.94
369.993	1332.94
370.219	1289.94
370.445	1307.94
370.672	1349.94
370.898	1306.94
371.124	1353.94
371.35	1326.94
371.576	1315.94
371.802	1346.94
372.028	1375.94
372.254	1354.94
372.48	1346.94
372.706	1302.94
372.932	1325.94
373.158	1338.94
373.384	1334.94
373.61	1345.94
373.835	1346.94
374.061	1332.94
374.287	1341.94
374.513	1313.94
374.739	1336.94
374.965	1336.94
375.191	1399.94
375.416	1339.94
375.642	1330.94
375.868	1329.94
376.094	1323.94
376.319	1298.94
376.545	1314.94
376.771	1277.94
376.997	1317.94
377.222	1306.94
377.448	1304.94
377.674	1338.94
377.899	1322.94
378.125	1308.94
378.35	1283.94
378.576	1314.94
378.802	1273.94
379.027	1305.94
379.253	1316.94
379.478	1264.94
379.704	1293.94
379.929	1305.94
380.155	1312.94
380.38	1294.94
380.606	1278.94
380.831	1299.94
381.057	1261.94
381.282	1282.94
381.507	1295.94
381.733	1311.94
381.958	1333.94
382.184	1319.94
382.409	1296.94
382.634	1300.94
382.86	1300.94
383.085	1327.94
383.31	1308.94
383.535	1335.94
383.761	1323.94
383.986	1347.94
384.211	1315.94
384.436	1346.94
384.662	1368.94
384.887	1345.94
385.112	1354.94
385.337	1345.94
385.562	1362.94
385.787	1349.94
386.013	1372.94
386.238	1387.94
386.463	1366.94
386.688	1355.94
386.913	1345.94
387.138	1377.94
387.363	1380.94
387.588	1404.94
387.813	1374.94
388.038	1363.94
388.263	1366.94
388.488	1383.94
388.713	1410.94
388.938	1378.94
389.163	1405.94
389.387	1392.94
389.612	1346.94
389.837	1360.94
390.062	1392.94
390.287	1394.94
390.512	1378.94
390.736	1388.94
390.961	1410.94
391.186	1408.94
391.411	1414.94
391.636	1408.94
391.86	1406.94
392.085	1398.94
392.31	1405.94
392.534	1383.94
392.759	1404.94
392.984	1378.94
393.208	1381.94
393.433	1359.94
393.658	1378.94
393.882	1409.94
394.107	1386.94
394.331	1416.94
394.556	1389.94
394.78	1389.94
395.005	1411.94
395.229	1406.94
395.454	1396.94
395.678	1428.94
395.903	1408.94
396.127	1399.94
396.352	1407.94
396.576	1440.94
396.801	1404.94
397.025	1428.94
397.249	1382.94
397.474	1436.94
397.698	1479.94
397.922	1439.94
398.147	1462.94
398.371	1476.94
398.595	1478.94
398.82	1485.94
399.044	1520.94
399.268	1535.94
399.492	1558.94
399.717	1509.94
399.941	1543.94
400.165	1523.94
400.389	1564.94
400.613	1558.94
400.837	1540.94
401.062	1534.94
401.286	1499.94
401.51	1461.94
401.734	1505.94
401.958	1507.94
402.182	1485.94
402.406	1506.94
402.63	1472.94
402.854	1502.94
403.078	1511.94
403.302	1496.94
403.526	1507.94
403.75	1486.94
403.974	1526.94
404.198	1516.94
404.422	1487.94
404.645	1517.94
404.869	1473.94
405.093	1502.94
405.317	1535.94
405.541	1540.94
405.765	1477.94
405.988	1535.94
406.212	1557.94
406.436	1565.94
406.66	1576.94
406.883	1556.94
407.107	1631.94
407.331	1598.94
407.555	1602.94
407.778	1620.94
408.002	1579.94
408.226	1594.94
408.449	1624.94
408.673	1591.94
408.896	1588.94
409.12	1614.94
409.344	1601.94
409.567	1548.94
409.791	1585.94
410.014	1574.94
410.238	1552.94
410.461	1571.94
410.685	1573.94
410.908	1538.94
411.132	1554.94
411.355	1531.94
411.578	1523.94
411.802	1520.94
412.025	1547.94
412.249	1561.94
412.472	1526.94
412.695	1525.94
412.919	1510.94
413.142	1501.94
413.365	1478.94
413.589	1524.94
413.812	1493.94
414.035	1534.94
414.258	1526.94
414.482	1483.94
414.705	1532.94
414.928	1498.94
415.151	1468.94
415.374	1524.94
415.597	1447.94
415.821	1440.94
416.044	1475.94
416.267	1461.94
416.49	1474.94
416.713	1486.94
416.936	1471.94
417.159	1482.94
417.382	1480.94
417.605	1461.94
417.828	1471.94
418.051	1460.94
418.274	1439.94
418.497	1403.94
418.72	1464.94
418.943	1423.94
419.166	1445.94
419.389	1582.94
419.611	1549.94
419.834	1502.94
420.057	1491.94
420.28	1454.94
420.503	1413.94
420.726	1424.94
420.948	1409.94
421.171	1407.94
421.394	1456.94
421.617	1423.94
421.839	1448.94
422.062	1450.94
422.285	1437.94
422.507	1449.94
422.73	1467.94
422.953	1458.94
423.175	1448.94
423.398	1461.94
423.621	1407.94
423.843	1408.94
424.066	1411.94
424.288	1428.94
424.511	1445.94
424.733	1482.94
424.956	1426.94
425.178	1416.94
425.401	1454.94
425.623	1445.94
425.846	1440.94
426.068	1452.94
426.291	1434.94
426.513	1450.94
426.735	1445.94
426.958	1419.94
427.18	1416.94
427.402	1462.94
427.625	1451.94
427.847	1414.94
428.069	1427.94
428.292	1424.94
428.514	1413.94
428.736	1433.94
428.958	1410.94
429.181	1434.94
429.403	1416.94
429.625	1421.94
429.847	1438.94
430.069	1443.94
430.292	1413.94
430.514	1432.94
430.736	1455.94
430.958	1462.94
431.18	1430.94
431.402	1469.94
431.624	1391.94
431.846	1420.94
432.068	1401.94
432.29	1431.94
432.512	1440.94
432.734	1426.94
432.956	1476.94
433.178	1472.94
433.4	1482.94
433.622	1461.94
433.844	1492.94
434.066	1471.94
434.287	1419.94
434.509	1445.94
434.731	1447.94
434.953	1438.94
435.175	1498.94
435.397	1500.94
435.618	1472.94
435.84	1443.94
436.062	1436.94
436.284	1414.94
436.505	1419.94
436.727	1435.94
436.949	1430.94
437.17	1432.94
437.392	1435.94
437.614	1428.94
437.835	1361.94
438.057	1410.94
438.278	1348.94
438.5	1412.94
438.721	1395.94
438.943	1420.94
439.165	1382.94
439.386	1397.94
439.608	1414.94
439.829	1435.94
440.05	1430.94
440.272	1429.94
440.493	1442.94
440.715	1426.94
440.936	1437.94
441.158	1443.94
441.379	1447.94
441.6	1448.94
441.822	1455.94
442.043	1513.94
442.264	1454.94
442.486	1418.94
442.707	1429.94
442.928	1451.94
443.149	1436.94
443.371	1477.94
443.592	1505.94
443.813	1476.94
444.034	1427.94
444.255	1455.94
444.476	1445.94
444.698	1485.94
444.919	1463.94
445.14	1587.94
445.361	1535.94
445.582	1481.94
445.803	1416.94
446.024	1420.94
446.245	1431.94
446.466	1418.94
446.687	1377.94
446.908	1421.94
447.129	1362.94
447.35	1340.94
447.571	1385.94
447.792	1363.94
448.013	1363.94
448.234	1357.94
448.455	1338.94
448.675	1356.94
448.896	1299.94
449.117	1337.94
449.338	1318.94
449.559	1321.94
449.779	1304.94
450	1314.94
450.221	1327.94
450.442	1314.94
450.662	1333.94
450.883	1341.94
451.104	1323.94
451.324	1356.94
451.545	1286.94
451.766	1338.94
451.986	1283.94
452.207	1310.94
452.428	1296.94
452.648	1271.94
452.869	1295.94
453.089	1267.94
453.31	1311.94
453.53	1325.94
453.751	1310.94
453.971	1292.94
454.192	1301.94
454.412	1294.94
454.633	1290.94
454.853	1303.94
455.073	1255.94
455.294	1316.94
455.514	1296.94
455.734	1334.94
455.955	1324.94
456.175	1325.94
456.395	1282.94
456.616	1254.94
456.836	1272.94
457.056	1300.94
457.276	1276.94
457.497	1294.94
457.717	1318.94
457.937	1282.94
458.157	1291.94
458.377	1285.94
458.598	1283.94
458.818	1314.94
459.038	1320.94
459.258	1355.94
459.478	1378.94
459.698	1478.94
459.918	1470.94
460.138	1411.94
460.358	1444.94
460.578	1413.94
460.798	1451.94
461.018	1494.94
461.238	1412.94
461.458	1397.94
461.678	1416.94
461.898	1424.94
462.118	1412.94
462.338	1420.94
462.558	1459.94
462.777	1466.94
462.997	1497.94
463.217	1507.94
463.437	1535.94
463.657	1540.94
463.876	1493.94
464.096	1524.94
464.316	1476.94
464.536	1526.94
464.755	1462.94
464.975	1440.94
465.195	1438.94
465.414	1419.94
465.634	1439.94
465.854	1382.94
466.073	1380.94
466.293	1388.94
466.512	1346.94
466.732	1352.94
466.951	1374.94
467.171	1371.94
467.391	1395.94
467.61	1379.94
467.829	1364.94
468.049	1371.94
468.268	1355.94
468.488	1369.94
468.707	1409.94
468.927	1408.94
469.146	1388.94
469.365	1404.94
469.585	1383.94
469.804	1361.94
470.023	1370.94
470.243	1368.94
470.462	1382.94
470.681	1358.94
470.901	1395.94
471.12	1391.94
471.339	1394.94
471.558	1380.94
471.777	1404.94
471.997	1399.94
472.216	1378.94
472.435	1372.94
472.654	1406.94
472.873	1385.94
473.092	1406.94
473.311	1366.94
473.53	1426.94
473.749	1402.94
473.968	1404.94
474.187	1424.94
474.406	1394.94
474.625	1452.94
474.844	1471.94
475.063	1430.94
475.282	1460.94
475.501	1443.94
475.72	1476.94
475.939	1481.94
476.158	1480.94
476.377	1513.94
476.596	1486.94
476.814	1523.94
477.033	1564.94
477.252	1516.94
477.471	1521.94
477.69	1562.94
477.908	1552.94
478.127	1540.94
478.346	1536.94
478.564	1611.94
478.783	1576.94
479.002	1672.94
479.22	1699.94
479.439	1667.94
479.658	1624.94
479.876	1620.94
480.095	1626.94
480.313	1627.94
480.532	1617.94
480.751	1650.94
480.969	1620.94
481.188	1682.94
481.406	1642.94
481.624	1643.94
481.843	1636.94
482.061	1647.94
482.28	1690.94
482.498	1692.94
482.717	1688.94
482.935	1682.94
483.153	1762.94
483.372	1744.94
483.59	1808.94
483.808	1734.94
484.027	1710.94
484.245	1725.94
484.463	1709.94
484.681	1772.94
484.9	1739.94
485.118	1752.94
485.336	1760.94
485.554	1733.94
485.772	1730.94
485.99	1750.94
486.209	1731.94
486.427	1744.94
486.645	1768.94
486.863	1751.94
487.081	1764.94
487.299	1762.94
487.517	1758.94
487.735	1788.94
487.953	1810.94
488.171	1833.94
488.389	1782.94
488.607	1808.94
488.825	1788.94
489.043	1756.94
489.261	1770.94
489.479	1779.94
489.696	1768.94
489.914	1756.94
490.132	1769.94
490.35	1740.94
490.568	1777.94
