Data from Ni(NO3)2@0.25M.TitratingCurve.Agarose3%dH2O.NegLispCup.LampEnergy10.LIBS07252019_HRD10591_18-04-29-566.txt Node
Date: Thu Jul 25 18:04:29 EDT 2019
User: cochatt
Spectrometer: HR+D1059
Trigger mode: 1
Integration Time (sec): 1.000000E-1
Scans to average: 1
Electric dark correction enabled: true
Nonlinearity correction enabled: false
Boxcar width: 0
XAxis mode: Wavelengths
Number of Pixels in Spectrum: 2048
>>>>>Begin Spectral Data<<<<<
223.165	-20
223.4	-20
223.635	-20
223.869	-13
224.104	-18
224.338	-15
224.573	-13
224.808	-19
225.042	-13
225.277	-11
225.511	-4
225.746	-4
225.98	9
226.215	12
226.449	20
226.683	17
226.918	30
227.152	42
227.387	35
227.621	49
227.856	43
228.09	40
228.324	55
228.559	60
228.793	64
229.027	93
229.262	92
229.496	85
229.73	106
229.964	104
230.199	99
230.433	111
230.667	103
230.901	104
231.136	116
231.37	103
231.604	103
231.838	130
232.072	124
232.306	110
232.541	118
232.775	100
233.009	113
233.243	113
233.477	108
233.711	113
233.945	110
234.179	119
234.413	117
234.647	109
234.881	109
235.115	106
235.349	122
235.583	110
235.817	120
236.051	113
236.285	124
236.519	116
236.753	115
236.987	115
237.221	111
237.455	131
237.689	127
237.922	126
238.156	127
238.39	124
238.624	117
238.858	127
239.091	110
239.325	121
239.559	127
239.793	123
240.027	121
240.26	131
240.494	122
240.728	122
240.961	136
241.195	123
241.429	129
241.662	137
241.896	140
242.13	127
242.363	131
242.597	126
242.83	136
243.064	144
243.298	149
243.531	137
243.765	141
243.998	164
244.232	131
244.465	134
244.699	139
244.932	134
245.166	134
245.399	146
245.633	155
245.866	151
246.099	139
246.333	153
246.566	137
246.8	146
247.033	152
247.266	148
247.5	141
247.733	165
247.966	149
248.2	157
248.433	164
248.666	147
248.899	141
249.133	166
249.366	156
249.599	175
249.832	156
250.066	172
250.299	189
250.532	175
250.765	174
250.998	184
251.231	171
251.465	186
251.698	167
251.931	181
252.164	185
252.397	179
252.63	166
252.863	189
253.096	187
253.329	179
253.562	196
253.795	192
254.028	198
254.261	185
254.494	195
254.727	208
254.96	193
255.193	177
255.426	179
255.659	198
255.892	210
256.124	206
256.357	201
256.59	207
256.823	210
257.056	206
257.289	215
257.521	199
257.754	199
257.987	219
258.22	210
258.452	207
258.685	219
258.918	204
259.151	214
259.383	225
259.616	226
259.849	221
260.081	211
260.314	223
260.547	214
260.779	207
261.012	234
261.244	222
261.477	233
261.71	220
261.942	229
262.175	227
262.407	228
262.64	225
262.872	234
263.105	229
263.337	230
263.57	242
263.802	239
264.035	245
264.267	221
264.499	240
264.732	255
264.964	245
265.197	263
265.429	231
265.661	220
265.894	228
266.126	261
266.358	253
266.591	236
266.823	258
267.055	262
267.287	257
267.52	251
267.752	253
267.984	269
268.216	251
268.448	256
268.681	250
268.913	259
269.145	246
269.377	259
269.609	257
269.841	265
270.073	264
270.306	273
270.538	265
270.77	251
271.002	269
271.234	258
271.466	267
271.698	249
271.93	279
272.162	292
272.394	274
272.626	271
272.858	277
273.09	292
273.322	271
273.553	271
273.785	269
274.017	261
274.249	265
274.481	270
274.713	271
274.945	272
275.176	270
275.408	275
275.64	278
275.872	287
276.104	286
276.335	282
276.567	286
276.799	301
277.031	292
277.262	294
277.494	296
277.726	291
277.957	258
278.189	285
278.421	298
278.652	303
278.884	289
279.115	308
279.347	290
279.579	279
279.81	286
280.042	303
280.273	294
280.505	292
280.736	301
280.968	286
281.199	290
281.431	311
281.662	308
281.894	315
282.125	302
282.356	310
282.588	301
282.819	310
283.051	326
283.282	300
283.513	297
283.745	297
283.976	296
284.207	289
284.439	311
284.67	305
284.901	324
285.132	317
285.364	320
285.595	339
285.826	328
286.057	324
286.288	297
286.52	308
286.751	342
286.982	321
287.213	317
287.444	321
287.675	328
287.906	330
288.138	308
288.369	316
288.6	313
288.831	325
289.062	340
289.293	332
289.524	304
289.755	317
289.986	318
290.217	319
290.448	337
290.679	343
290.91	321
291.141	333
291.371	339
291.602	347
291.833	326
292.064	329
292.295	332
292.526	319
292.757	333
292.987	330
293.218	333
293.449	323
293.68	311
293.91	320
294.141	331
294.372	335
294.603	312
294.833	334
295.064	341
295.295	321
295.525	321
295.756	337
295.987	332
296.217	334
296.448	335
296.679	317
296.909	342
297.14	358
297.37	343
297.601	345
297.831	353
298.062	349
298.292	333
298.523	351
298.753	345
298.984	349
299.214	355
299.445	347
299.675	349
299.905	363
300.136	371
300.366	355
300.597	371
300.827	377
301.057	360
301.288	374
301.518	385
301.748	378
301.979	415
302.209	382
302.439	375
302.669	369
302.9	370
303.13	379
303.36	374
303.59	353
303.82	393
304.051	393
304.281	383
304.511	360
304.741	364
304.971	389
305.201	380
305.431	389
305.661	404
305.891	356
306.121	365
306.352	381
306.582	348
306.812	353
307.042	377
307.272	369
307.502	354
307.731	379
307.961	383
308.191	376
308.421	379
308.651	363
308.881	375
309.111	365
309.341	377
309.571	375
309.8	370
310.03	390
310.26	393
310.49	403
310.72	405
310.949	370
311.179	387
311.409	395
311.639	394
311.868	404
312.098	404
312.328	405
312.557	391
312.787	385
313.017	404
313.246	409
313.476	384
313.706	412
313.935	401
314.165	382
314.394	413
314.624	414
314.853	441
315.083	423
315.312	425
315.542	419
315.771	414
316.001	409
316.23	420
316.46	403
316.689	424
316.919	390
317.148	435
317.377	409
317.607	420
317.836	427
318.065	403
318.295	423
318.524	418
318.753	437
318.983	424
319.212	424
319.441	422
319.67	415
319.9	414
320.129	401
320.358	450
320.587	449
320.816	459
321.046	433
321.275	425
321.504	430
321.733	449
321.962	457
322.191	450
322.42	417
322.649	431
322.878	443
323.108	450
323.337	457
323.566	479
323.795	464
324.024	471
324.253	451
324.482	470
324.71	469
324.939	479
325.168	494
325.397	454
325.626	471
325.855	489
326.084	489
326.313	495
326.542	492
326.77	498
326.999	489
327.228	470
327.457	511
327.686	485
327.914	488
328.143	489
328.372	493
328.6	490
328.829	503
329.058	494
329.287	522
329.515	522
329.744	508
329.972	515
330.201	514
330.43	500
330.658	529
330.887	533
331.115	527
331.344	542
331.572	554
331.801	550
332.03	559
332.258	566
332.486	555
332.715	565
332.943	595
333.172	619
333.4	626
333.629	593
333.857	629
334.085	651
334.314	652
334.542	630
334.771	655
334.999	639
335.227	636
335.455	652
335.684	630
335.912	627
336.14	633
336.369	631
336.597	640
336.825	638
337.053	602
337.281	628
337.51	606
337.738	594
337.966	600
338.194	617
338.422	613
338.65	594
338.878	604
339.106	582
339.334	607
339.562	573
339.79	577
340.018	577
340.246	566
340.474	557
340.702	583
340.93	580
341.158	574
341.386	565
341.614	583
341.842	603
342.07	554
342.298	566
342.526	575
342.754	569
342.981	573
343.209	572
343.437	603
343.665	595
343.893	618
344.12	641
344.348	631
344.576	622
344.804	618
345.031	636
345.259	573
345.487	590
345.714	597
345.942	586
346.17	575
346.397	593
346.625	563
346.853	535
347.08	549
347.308	566
347.535	567
347.763	545
347.99	558
348.218	542
348.445	561
348.673	533
348.9	547
349.128	533
349.355	536
349.583	567
349.81	553
350.037	530
350.265	537
350.492	529
350.72	526
350.947	540
351.174	551
351.402	553
351.629	542
351.856	567
352.083	557
352.311	540
352.538	540
352.765	565
352.992	540
353.22	530
353.447	524
353.674	508
353.901	522
354.128	526
354.355	510
354.583	507
354.81	541
355.037	521
355.264	523
355.491	522
355.718	528
355.945	528
356.172	517
356.399	531
356.626	528
356.853	548
357.08	554
357.307	543
357.534	537
357.761	537
357.988	549
358.215	518
358.441	532
358.668	554
358.895	540
359.122	524
359.349	523
359.576	517
359.802	521
360.029	528
360.256	542
360.483	540
360.709	528
360.936	502
361.163	534
361.39	538
361.616	535
361.843	541
362.07	551
362.296	545
362.523	522
362.749	533
362.976	529
363.203	528
363.429	527
363.656	524
363.882	528
364.109	533
364.335	519
364.562	526
364.788	528
365.015	521
365.241	512
365.468	524
365.694	522
365.92	524
366.147	520
366.373	518
366.599	506
366.826	531
367.052	527
367.278	523
367.505	510
367.731	523
367.957	537
368.184	547
368.41	542
368.636	526
368.862	540
369.089	522
369.315	520
369.541	540
369.767	539
369.993	539
370.219	527
370.445	561
370.672	536
370.898	543
371.124	537
371.35	558
371.576	556
371.802	565
372.028	574
372.254	541
372.48	571
372.706	564
372.932	573
373.158	566
373.384	565
373.61	566
373.835	550
374.061	543
374.287	580
374.513	592
374.739	573
374.965	592
375.191	583
375.416	587
375.642	599
375.868	613
376.094	584
376.319	570
376.545	552
376.771	547
376.997	557
377.222	554
377.448	543
377.674	553
377.899	556
378.125	549
378.35	515
378.576	545
378.802	523
379.027	539
379.253	542
379.478	535
379.704	552
379.929	519
380.155	528
380.38	523
380.606	533
380.831	534
381.057	554
381.282	567
381.507	554
381.733	581
381.958	554
382.184	552
382.409	532
382.634	549
382.86	555
383.085	572
383.31	579
383.535	566
383.761	565
383.986	599
384.211	605
384.436	602
384.662	585
384.887	618
385.112	615
385.337	630
385.562	608
385.787	611
386.013	629
386.238	627
386.463	597
386.688	628
386.913	621
387.138	638
387.363	611
387.588	630
387.813	611
388.038	627
388.263	634
388.488	623
388.713	646
388.938	605
389.163	606
389.387	632
389.612	653
389.837	639
390.062	638
390.287	626
390.512	638
390.736	626
390.961	641
391.186	649
391.411	667
391.636	665
391.86	679
392.085	698
392.31	706
392.534	695
392.759	657
392.984	665
393.208	649
393.433	663
393.658	659
393.882	659
394.107	668
394.331	643
394.556	680
394.78	666
395.005	663
395.229	679
395.454	705
395.678	704
395.903	697
396.127	685
396.352	665
396.576	678
396.801	676
397.025	696
397.249	700
397.474	731
397.698	737
397.922	726
398.147	710
398.371	725
398.595	751
398.82	770
399.044	828
399.268	865
399.492	935
399.717	997
399.941	987
400.165	946
400.389	879
400.613	862
400.837	823
401.062	782
401.286	786
401.51	775
401.734	786
401.958	795
402.182	807
402.406	794
402.63	793
402.854	818
403.078	809
403.302	812
403.526	817
403.75	843
403.974	843
404.198	819
404.422	842
404.645	829
404.869	822
405.093	861
405.317	842
405.541	838
405.765	839
405.988	825
406.212	822
406.436	835
406.66	861
406.883	881
407.107	901
407.331	930
407.555	963
407.778	935
408.002	918
408.226	929
408.449	921
408.673	892
408.896	881
409.12	867
409.344	883
409.567	881
409.791	861
410.014	855
410.238	839
410.461	875
410.685	857
410.908	801
411.132	834
411.355	799
411.578	807
411.802	828
412.025	808
412.249	833
412.472	823
412.695	818
412.919	812
413.142	817
413.365	809
413.589	800
413.812	820
414.035	808
414.258	801
414.482	817
414.705	813
414.928	810
415.151	814
415.374	814
415.597	802
415.821	783
416.044	797
416.267	778
416.49	789
416.713	784
416.936	777
417.159	798
417.382	767
417.605	788
417.828	792
418.051	773
418.274	805
418.497	797
418.72	810
418.943	795
419.166	813
419.389	874
419.611	876
419.834	865
420.057	839
420.28	810
420.503	798
420.726	778
420.948	804
421.171	753
421.394	785
421.617	794
421.839	804
422.062	829
422.285	794
422.507	800
422.73	763
422.953	789
423.175	800
423.398	801
423.621	814
423.843	838
424.066	806
424.288	821
424.511	821
424.733	820
424.956	808
425.178	785
425.401	793
425.623	787
425.846	760
426.068	818
426.291	774
426.513	768
426.735	777
426.958	792
427.18	775
427.402	791
427.625	763
427.847	759
428.069	777
428.292	771
428.514	755
428.736	754
428.958	717
429.181	745
429.403	743
429.625	749
429.847	735
430.069	724
430.292	762
430.514	741
430.736	760
430.958	738
431.18	774
431.402	729
431.624	746
431.846	723
432.068	761
432.29	775
432.512	739
432.734	745
432.956	760
433.178	748
433.4	764
433.622	765
433.844	778
434.066	766
434.287	750
434.509	797
434.731	813
434.953	804
435.175	819
435.397	828
435.618	783
435.84	793
436.062	761
436.284	767
436.505	761
436.727	750
436.949	778
437.17	723
437.392	746
437.614	735
437.835	716
438.057	734
438.278	698
438.5	726
438.721	732
438.943	772
439.165	761
439.386	750
439.608	774
439.829	761
440.05	756
440.272	779
440.493	775
440.715	773
440.936	787
441.158	792
441.379	804
441.6	847
441.822	834
442.043	825
442.264	799
442.486	791
442.707	823
442.928	807
443.149	837
443.371	847
443.592	842
443.813	846
444.034	823
444.255	848
444.476	862
444.698	878
444.919	925
445.14	986
445.361	922
445.582	882
445.803	843
446.024	845
446.245	841
446.466	766
446.687	775
446.908	794
447.129	759
447.35	769
447.571	762
447.792	750
448.013	745
448.234	724
448.455	702
448.675	707
448.896	724
449.117	719
449.338	705
449.559	702
449.779	722
450	699
450.221	716
450.442	729
450.662	713
450.883	723
451.104	726
451.324	720
451.545	701
451.766	737
451.986	707
452.207	717
452.428	677
452.648	682
452.869	706
453.089	708
453.31	702
453.53	683
453.751	666
453.971	664
454.192	679
454.412	651
454.633	657
454.853	659
455.073	679
455.294	665
455.514	653
455.734	663
455.955	666
456.175	671
456.395	680
456.616	641
456.836	643
457.056	654
457.276	669
457.497	680
457.717	673
457.937	680
458.157	695
458.377	705
458.598	694
458.818	702
459.038	726
459.258	735
459.478	773
459.698	765
459.918	821
460.138	808
460.358	843
460.578	825
460.798	859
461.018	850
461.238	874
461.458	882
461.678	851
461.898	871
462.118	866
462.338	914
462.558	955
462.777	949
462.997	1000
463.217	1038
463.437	1038
463.657	985
463.876	939
464.096	932
464.316	964
464.536	957
464.755	950
464.975	927
465.195	891
465.414	848
465.634	841
465.854	787
466.073	774
466.293	745
466.512	763
466.732	750
466.951	765
467.171	757
467.391	745
467.61	733
467.829	753
468.049	748
468.268	710
468.488	712
468.707	725
468.927	716
469.146	702
469.365	736
469.585	725
469.804	762
470.023	735
470.243	769
470.462	787
470.681	769
470.901	731
471.12	765
471.339	742
471.558	721
471.777	722
471.997	722
472.216	715
472.435	715
472.654	734
472.873	695
473.092	718
473.311	726
473.53	741
473.749	692
473.968	725
474.187	727
474.406	716
474.625	711
474.844	701
475.063	737
475.282	704
475.501	726
475.72	719
475.939	711
476.158	723
476.377	742
476.596	719
476.814	745
477.033	783
477.252	768
477.471	780
477.69	802
477.908	794
478.127	823
478.346	804
478.564	832
478.783	826
479.002	862
479.22	855
479.439	865
479.658	860
479.876	812
480.095	825
480.313	889
480.532	863
480.751	870
480.969	848
481.188	836
481.406	853
481.624	807
481.843	813
482.061	821
482.28	818
482.498	805
482.717	818
482.935	811
483.153	811
483.372	833
483.59	847
483.808	810
484.027	828
484.245	831
484.463	833
484.681	862
484.9	818
485.118	851
485.336	821
485.554	845
485.772	847
485.99	863
486.209	841
486.427	830
486.645	851
486.863	869
487.081	824
487.299	863
487.517	839
487.735	857
487.953	867
488.171	878
488.389	844
488.607	842
488.825	833
489.043	834
489.261	852
489.479	841
489.696	851
489.914	841
490.132	845
490.35	866
490.568	871
490.786	865
491.003	856
491.221	880
491.439	912
491.657	908
491.874	898
492.092	893
492.31	916
492.527	926
492.745	906
492.963	896
493.18	921
493.398	903
493.615	919
493.833	901
494.05	913
494.268	908
494.485	915
494.703	921
494.92	934
495.138	920
495.355	929
495.573	947
495.79	942
496.008	963
496.225	960
496.442	968
496.66	983
496.877	982
497.094	1037
497.312	1038
497.529	1013
497.746	1068
497.963	1085
498.181	1125
498.398	1166
498.615	1175
498.832	1267
499.049	1298
499.267	1393
499.484	1471
499.701	1597
499.918	1715
500.135	1864
500.352	1946
500.569	2021
500.786	1981
501.003	1897
501.22	1809
501.437	1676
501.654	1566
501.871	1424
502.088	1385
502.305	1315
502.522	1259
502.739	1209
502.956	1179
503.172	1147
503.389	1082
503.606	1068
503.823	1041
504.04	1035
504.256	1034
504.473	1040
504.69	1009
504.907	990
505.123	966
505.34	936
505.557	922
505.773	883
505.99	905
506.207	868
506.423	857
506.64	832
506.856	859
507.073	829
507.289	839
507.506	824
507.722	823
507.939	820
508.155	815
508.372	796
508.588	800
508.805	790
509.021	785
509.238	769
509.454	756
509.67	756
509.887	733
510.103	764
510.319	729
510.536	724
510.752	770
510.968	754
511.184	713
511.401	741
511.617	730
511.833	753
512.049	742
512.265	758
512.481	726
512.698	738
512.914	757
513.13	754
513.346	765
513.562	725
513.778	748
513.994	755
514.21	737
514.426	747
514.642	766
514.858	771
515.074	755
515.29	763
515.506	754
515.721	801
515.937	805
516.153	807
516.369	788
516.585	813
516.801	834
517.016	857
517.232	839
517.448	907
517.664	909
517.879	923
518.095	892
518.311	905
518.527	890
518.742	890
518.958	833
519.173	832
519.389	796
519.605	791
519.82	778
520.036	763
520.251	768
520.467	743
520.682	721
520.898	737
521.113	723
521.329	708
521.544	703
521.76	714
521.975	697
522.19	701
522.406	708
522.621	699
522.836	691
523.052	717
523.267	675
523.482	700
523.698	686
523.913	699
524.128	684
524.343	708
524.559	698
524.774	708
524.989	691
525.204	698
525.419	691
525.634	673
525.849	677
526.064	668
526.28	669
526.495	672
526.71	666
526.925	667
527.14	657
527.355	656
527.57	637
527.785	663
527.999	652
528.214	679
528.429	685
528.644	676
528.859	683
529.074	649
529.289	673
529.503	656
529.718	673
529.933	644
530.148	656
530.363	673
530.577	629
530.792	643
531.007	669
531.221	650
531.436	651
531.651	670
531.865	650
532.08	668
532.295	668
532.509	627
532.724	639
532.938	665
533.153	659
533.367	649
533.582	657
533.796	647
534.011	662
534.225	631
534.44	667
534.654	638
534.868	615
535.083	641
535.297	627
535.511	640
535.726	634
535.94	629
536.154	648
536.369	619
536.583	621
536.797	626
537.011	627
537.225	590
537.44	633
537.654	622
537.868	619
538.082	606
538.296	594
538.51	598
538.724	616
538.938	626
539.153	601
539.367	613
539.581	621
539.795	604
540.009	603
540.222	599
540.436	610
540.65	595
540.864	594
541.078	601
541.292	613
541.506	601
541.72	596
541.934	613
542.147	617
542.361	603
542.575	614
542.789	579
543.002	582
543.216	584
543.43	611
543.644	575
543.857	617
544.071	622
544.285	636
544.498	621
544.712	599
544.925	615
545.139	608
545.352	611
545.566	598
545.779	643
545.993	620
546.206	631
546.42	611
546.633	641
546.847	638
547.06	618
547.274	629
547.487	603
547.7	641
547.914	622
548.127	637
548.34	629
548.554	618
548.767	617
548.98	621
549.193	632
549.407	609
549.62	634
549.833	637
550.046	611
550.259	622
550.473	626
550.686	615
550.899	623
551.112	604
551.325	584
551.538	602
551.751	605
551.964	594
552.177	606
552.39	612
552.603	617
552.816	650
553.029	641
553.242	657
553.455	661
553.667	660
553.88	645
554.093	624
554.306	628
554.519	613
554.732	609
554.944	576
555.157	599
555.37	617
555.583	577
555.795	562
556.008	572
556.221	557
556.433	591
556.646	543
556.859	561
557.071	557
557.284	540
557.496	539
557.709	535
557.921	529
558.134	504
558.346	521
558.559	557
558.771	526
558.984	544
559.196	510
559.409	532
559.621	511
559.833	510
560.046	502
560.258	519
560.47	523
560.683	518
560.895	527
561.107	525
561.32	531
561.532	528
561.744	493
561.956	523
562.168	513
562.381	519
562.593	518
