Data from Ni(NO3)2@0.5M.TitratingCurve.Agarose3%dH2O.NegLispCup.LampEnergy10.LIBS07252019_HRD10591_17-57-40-564.txt Node
Date: Thu Jul 25 17:57:40 EDT 2019
User: cochatt
Spectrometer: HR+D1059
Trigger mode: 1
Integration Time (sec): 1.000000E-1
Scans to average: 1
Electric dark correction enabled: true
Nonlinearity correction enabled: false
Boxcar width: 0
XAxis mode: Wavelengths
Number of Pixels in Spectrum: 2048
>>>>>Begin Spectral Data<<<<<
223.165	-8.06
223.4	-8.06
223.635	-8.06
223.869	-26.06
224.104	-12.06
224.338	-24.06
224.573	-17.06
224.808	-13.06
225.042	-8.06
225.277	-1.06
225.511	6.94
225.746	1.94
225.98	14.94
226.215	4.94
226.449	22.94
226.683	24.94
226.918	9.94
227.152	22.94
227.387	31.94
227.621	32.94
227.856	40.94
228.09	45.94
228.324	58.94
228.559	54.94
228.793	73.94
229.027	125.94
229.262	152.94
229.496	150.94
229.73	147.94
229.964	149.94
230.199	194.94
230.433	182.94
230.667	158.94
230.901	158.94
231.136	157.94
231.37	168.94
231.604	183.94
231.838	195.94
232.072	203.94
232.306	182.94
232.541	167.94
232.775	174.94
233.009	180.94
233.243	171.94
233.477	179.94
233.711	167.94
233.945	179.94
234.179	185.94
234.413	178.94
234.647	199.94
234.881	194.94
235.115	188.94
235.349	176.94
235.583	184.94
235.817	177.94
236.051	195.94
236.285	160.94
236.519	191.94
236.753	196.94
236.987	185.94
237.221	179.94
237.455	179.94
237.689	193.94
237.922	187.94
238.156	184.94
238.39	214.94
238.624	191.94
238.858	190.94
239.091	191.94
239.325	188.94
239.559	202.94
239.793	229.94
240.027	218.94
240.26	214.94
240.494	207.94
240.728	215.94
240.961	219.94
241.195	230.94
241.429	222.94
241.662	222.94
241.896	235.94
242.13	238.94
242.363	230.94
242.597	223.94
242.83	224.94
243.064	238.94
243.298	242.94
243.531	227.94
243.765	254.94
243.998	240.94
244.232	247.94
244.465	255.94
244.699	251.94
244.932	258.94
245.166	266.94
245.399	260.94
245.633	261.94
245.866	256.94
246.099	252.94
246.333	269.94
246.566	242.94
246.8	282.94
247.033	285.94
247.266	265.94
247.5	267.94
247.733	285.94
247.966	289.94
248.2	311.94
248.433	304.94
248.666	287.94
248.899	308.94
249.133	303.94
249.366	290.94
249.599	318.94
249.832	318.94
250.066	330.94
250.299	326.94
250.532	325.94
250.765	323.94
250.998	343.94
251.231	357.94
251.465	361.94
251.698	361.94
251.931	345.94
252.164	343.94
252.397	354.94
252.63	349.94
252.863	357.94
253.096	357.94
253.329	362.94
253.562	367.94
253.795	388.94
254.028	364.94
254.261	364.94
254.494	384.94
254.727	393.94
254.96	408.94
255.193	385.94
255.426	386.94
255.659	403.94
255.892	390.94
256.124	400.94
256.357	422.94
256.59	419.94
256.823	396.94
257.056	421.94
257.289	424.94
257.521	421.94
257.754	410.94
257.987	436.94
258.22	414.94
258.452	401.94
258.685	434.94
258.918	439.94
259.151	437.94
259.383	456.94
259.616	456.94
259.849	465.94
260.081	450.94
260.314	460.94
260.547	446.94
260.779	474.94
261.012	459.94
261.244	455.94
261.477	488.94
261.71	473.94
261.942	452.94
262.175	466.94
262.407	464.94
262.64	466.94
262.872	488.94
263.105	467.94
263.337	481.94
263.57	497.94
263.802	493.94
264.035	489.94
264.267	512.94
264.499	487.94
264.732	510.94
264.964	510.94
265.197	495.94
265.429	500.94
265.661	489.94
265.894	505.94
266.126	519.94
266.358	524.94
266.591	517.94
266.823	529.94
267.055	530.94
267.287	538.94
267.52	531.94
267.752	520.94
267.984	534.94
268.216	544.94
268.448	550.94
268.681	533.94
268.913	543.94
269.145	540.94
269.377	552.94
269.609	532.94
269.841	567.94
270.073	552.94
270.306	552.94
270.538	554.94
270.77	541.94
271.002	547.94
271.234	567.94
271.466	576.94
271.698	564.94
271.93	572.94
272.162	589.94
272.394	549.94
272.626	588.94
272.858	576.94
273.09	576.94
273.322	582.94
273.553	596.94
273.785	575.94
274.017	572.94
274.249	611.94
274.481	611.94
274.713	610.94
274.945	606.94
275.176	614.94
275.408	596.94
275.64	627.94
275.872	611.94
276.104	612.94
276.335	627.94
276.567	608.94
276.799	600.94
277.031	611.94
277.262	595.94
277.494	625.94
277.726	644.94
277.957	643.94
278.189	638.94
278.421	627.94
278.652	624.94
278.884	641.94
279.115	633.94
279.347	626.94
279.579	650.94
279.81	653.94
280.042	638.94
280.273	640.94
280.505	630.94
280.736	635.94
280.968	656.94
281.199	648.94
281.431	642.94
281.662	638.94
281.894	668.94
282.125	645.94
282.356	655.94
282.588	689.94
282.819	658.94
283.051	638.94
283.282	664.94
283.513	679.94
283.745	698.94
283.976	675.94
284.207	677.94
284.439	695.94
284.67	676.94
284.901	694.94
285.132	708.94
285.364	674.94
285.595	679.94
285.826	672.94
286.057	683.94
286.288	674.94
286.52	696.94
286.751	696.94
286.982	687.94
287.213	697.94
287.444	682.94
287.675	686.94
287.906	707.94
288.138	719.94
288.369	693.94
288.6	711.94
288.831	705.94
289.062	683.94
289.293	682.94
289.524	713.94
289.755	720.94
289.986	699.94
290.217	731.94
290.448	710.94
290.679	739.94
290.91	726.94
291.141	718.94
291.371	716.94
291.602	704.94
291.833	714.94
292.064	708.94
292.295	728.94
292.526	720.94
292.757	708.94
292.987	712.94
293.218	718.94
293.449	742.94
293.68	712.94
293.91	732.94
294.141	736.94
294.372	722.94
294.603	718.94
294.833	752.94
295.064	741.94
295.295	727.94
295.525	703.94
295.756	706.94
295.987	716.94
296.217	746.94
296.448	754.94
296.679	724.94
296.909	740.94
297.14	743.94
297.37	742.94
297.601	763.94
297.831	745.94
298.062	725.94
298.292	739.94
298.523	758.94
298.753	754.94
298.984	757.94
299.214	753.94
299.445	785.94
299.675	768.94
299.905	798.94
300.136	779.94
300.366	827.94
300.597	800.94
300.827	802.94
301.057	771.94
301.288	811.94
301.518	794.94
301.748	766.94
301.979	790.94
302.209	795.94
302.439	792.94
302.669	794.94
302.9	798.94
303.13	818.94
303.36	811.94
303.59	798.94
303.82	812.94
304.051	851.94
304.281	836.94
304.511	839.94
304.741	841.94
304.971	834.94
305.201	857.94
305.431	873.94
305.661	859.94
305.891	841.94
306.121	844.94
306.352	858.94
306.582	848.94
306.812	806.94
307.042	851.94
307.272	844.94
307.502	858.94
307.731	844.94
307.961	843.94
308.191	820.94
308.421	874.94
308.651	818.94
308.881	808.94
309.111	855.94
309.341	849.94
309.571	866.94
309.8	882.94
310.03	873.94
310.26	903.94
310.49	895.94
310.72	854.94
310.949	889.94
311.179	898.94
311.409	889.94
311.639	906.94
311.868	900.94
312.098	881.94
312.328	895.94
312.557	923.94
312.787	911.94
313.017	917.94
313.246	931.94
313.476	912.94
313.706	937.94
313.935	940.94
314.165	955.94
314.394	954.94
314.624	952.94
314.853	908.94
315.083	942.94
315.312	937.94
315.542	966.94
315.771	954.94
316.001	986.94
316.23	964.94
316.46	946.94
316.689	959.94
316.919	975.94
317.148	969.94
317.377	954.94
317.607	957.94
317.836	962.94
318.065	973.94
318.295	982.94
318.524	972.94
318.753	992.94
318.983	987.94
319.212	970.94
319.441	999.94
319.67	1001.94
319.9	1008.94
320.129	1027.94
320.358	1008.94
320.587	1032.94
320.816	1019.94
321.046	1019.94
321.275	1025.94
321.504	1042.94
321.733	1036.94
321.962	1054.94
322.191	1058.94
322.42	1065.94
322.649	1057.94
322.878	1066.94
323.108	1027.94
323.337	1079.94
323.566	1059.94
323.795	1064.94
324.024	1076.94
324.253	1084.94
324.482	1051.94
324.71	1081.94
324.939	1097.94
325.168	1074.94
325.397	1096.94
325.626	1121.94
325.855	1108.94
326.084	1131.94
326.313	1128.94
326.542	1099.94
326.77	1132.94
326.999	1131.94
327.228	1141.94
327.457	1115.94
327.686	1116.94
327.914	1113.94
328.143	1118.94
328.372	1137.94
328.6	1124.94
328.829	1116.94
329.058	1134.94
329.287	1156.94
329.515	1160.94
329.744	1118.94
329.972	1136.94
330.201	1157.94
330.43	1138.94
330.658	1182.94
330.887	1172.94
331.115	1184.94
331.344	1208.94
331.572	1198.94
331.801	1176.94
332.03	1168.94
332.258	1175.94
332.486	1202.94
332.715	1182.94
332.943	1184.94
333.172	1246.94
333.4	1191.94
333.629	1235.94
333.857	1243.94
334.085	1236.94
334.314	1231.94
334.542	1221.94
334.771	1260.94
334.999	1246.94
335.227	1238.94
335.455	1274.94
335.684	1230.94
335.912	1278.94
336.14	1241.94
336.369	1247.94
336.597	1267.94
336.825	1290.94
337.053	1276.94
337.281	1290.94
337.51	1272.94
337.738	1293.94
337.966	1281.94
338.194	1311.94
338.422	1292.94
338.65	1263.94
338.878	1262.94
339.106	1258.94
339.334	1284.94
339.562	1270.94
339.79	1227.94
340.018	1236.94
340.246	1252.94
340.474	1257.94
340.702	1262.94
340.93	1222.94
341.158	1258.94
341.386	1255.94
341.614	1292.94
341.842	1286.94
342.07	1259.94
342.298	1240.94
342.526	1259.94
342.754	1212.94
342.981	1234.94
343.209	1237.94
343.437	1249.94
343.665	1278.94
343.893	1272.94
344.12	1240.94
344.348	1222.94
344.576	1302.94
344.804	1287.94
345.031	1259.94
345.259	1263.94
345.487	1268.94
345.714	1249.94
345.942	1288.94
346.17	1298.94
346.397	1246.94
346.625	1249.94
346.853	1203.94
347.08	1225.94
347.308	1233.94
347.535	1209.94
347.763	1201.94
347.99	1195.94
348.218	1204.94
348.445	1228.94
348.673	1230.94
348.9	1218.94
349.128	1227.94
349.355	1212.94
349.583	1235.94
349.81	1204.94
350.037	1180.94
350.265	1202.94
350.492	1191.94
350.72	1180.94
350.947	1227.94
351.174	1234.94
351.402	1253.94
351.629	1250.94
351.856	1252.94
352.083	1251.94
352.311	1230.94
352.538	1195.94
352.765	1225.94
352.992	1210.94
353.22	1196.94
353.447	1172.94
353.674	1153.94
353.901	1150.94
354.128	1188.94
354.355	1178.94
354.583	1166.94
354.81	1206.94
355.037	1182.94
355.264	1193.94
355.491	1171.94
355.718	1192.94
355.945	1183.94
356.172	1194.94
356.399	1182.94
356.626	1172.94
356.853	1231.94
357.08	1212.94
357.307	1186.94
357.534	1176.94
357.761	1178.94
357.988	1199.94
358.215	1183.94
358.441	1182.94
358.668	1155.94
358.895	1195.94
359.122	1174.94
359.349	1200.94
359.576	1210.94
359.802	1189.94
360.029	1174.94
360.256	1190.94
360.483	1198.94
360.709	1205.94
360.936	1202.94
361.163	1178.94
361.39	1187.94
361.616	1210.94
361.843	1200.94
362.07	1228.94
362.296	1249.94
362.523	1195.94
362.749	1190.94
362.976	1159.94
363.203	1178.94
363.429	1205.94
363.656	1202.94
363.882	1200.94
364.109	1228.94
364.335	1163.94
364.562	1187.94
364.788	1169.94
365.015	1195.94
365.241	1201.94
365.468	1217.94
365.694	1184.94
365.92	1172.94
366.147	1204.94
366.373	1174.94
366.599	1190.94
366.826	1189.94
367.052	1213.94
367.278	1187.94
367.505	1171.94
367.731	1209.94
367.957	1201.94
368.184	1203.94
368.41	1215.94
368.636	1168.94
368.862	1219.94
369.089	1200.94
369.315	1203.94
369.541	1221.94
369.767	1223.94
369.993	1234.94
370.219	1202.94
370.445	1225.94
370.672	1198.94
370.898	1206.94
371.124	1236.94
371.35	1220.94
371.576	1211.94
371.802	1231.94
372.028	1214.94
372.254	1232.94
372.48	1223.94
372.706	1251.94
372.932	1206.94
373.158	1182.94
373.384	1225.94
373.61	1218.94
373.835	1208.94
374.061	1225.94
374.287	1192.94
374.513	1216.94
374.739	1230.94
374.965	1218.94
375.191	1187.94
375.416	1230.94
375.642	1192.94
375.868	1240.94
376.094	1199.94
376.319	1204.94
376.545	1206.94
376.771	1170.94
376.997	1182.94
377.222	1182.94
377.448	1167.94
377.674	1200.94
377.899	1196.94
378.125	1196.94
378.35	1163.94
378.576	1179.94
378.802	1195.94
379.027	1195.94
379.253	1190.94
379.478	1182.94
379.704	1208.94
379.929	1188.94
380.155	1182.94
380.38	1198.94
380.606	1198.94
380.831	1178.94
381.057	1154.94
381.282	1170.94
381.507	1181.94
381.733	1198.94
381.958	1203.94
382.184	1183.94
382.409	1203.94
382.634	1183.94
382.86	1223.94
383.085	1193.94
383.31	1198.94
383.535	1226.94
383.761	1185.94
383.986	1192.94
384.211	1211.94
384.436	1187.94
384.662	1208.94
384.887	1227.94
385.112	1190.94
385.337	1247.94
385.562	1267.94
385.787	1243.94
386.013	1269.94
386.238	1255.94
386.463	1260.94
386.688	1260.94
386.913	1255.94
387.138	1249.94
387.363	1286.94
387.588	1286.94
387.813	1275.94
388.038	1255.94
388.263	1244.94
388.488	1284.94
388.713	1256.94
388.938	1298.94
389.163	1281.94
389.387	1267.94
389.612	1299.94
389.837	1300.94
390.062	1253.94
390.287	1296.94
390.512	1278.94
390.736	1279.94
390.961	1307.94
391.186	1288.94
391.411	1285.94
391.636	1259.94
391.86	1280.94
392.085	1290.94
392.31	1288.94
392.534	1243.94
392.759	1301.94
392.984	1301.94
393.208	1304.94
393.433	1311.94
393.658	1342.94
393.882	1262.94
394.107	1254.94
394.331	1310.94
394.556	1250.94
394.78	1273.94
395.005	1273.94
395.229	1267.94
395.454	1290.94
395.678	1271.94
395.903	1278.94
396.127	1320.94
396.352	1306.94
396.576	1291.94
396.801	1283.94
397.025	1326.94
397.249	1319.94
397.474	1360.94
397.698	1331.94
397.922	1342.94
398.147	1344.94
398.371	1322.94
398.595	1308.94
398.82	1353.94
399.044	1383.94
399.268	1399.94
399.492	1382.94
399.717	1420.94
399.941	1421.94
400.165	1431.94
400.389	1433.94
400.613	1413.94
400.837	1397.94
401.062	1403.94
401.286	1399.94
401.51	1385.94
401.734	1374.94
401.958	1357.94
402.182	1395.94
402.406	1391.94
402.63	1350.94
402.854	1376.94
403.078	1355.94
403.302	1383.94
403.526	1356.94
403.75	1379.94
403.974	1349.94
404.198	1370.94
404.422	1394.94
404.645	1356.94
404.869	1386.94
405.093	1363.94
405.317	1379.94
405.541	1373.94
405.765	1401.94
405.988	1418.94
406.212	1415.94
406.436	1422.94
406.66	1459.94
406.883	1403.94
407.107	1443.94
407.331	1435.94
407.555	1467.94
407.778	1434.94
408.002	1473.94
408.226	1467.94
408.449	1484.94
408.673	1456.94
408.896	1436.94
409.12	1452.94
409.344	1419.94
409.567	1441.94
409.791	1459.94
410.014	1439.94
410.238	1426.94
410.461	1411.94
410.685	1432.94
410.908	1428.94
411.132	1410.94
411.355	1396.94
411.578	1409.94
411.802	1417.94
412.025	1391.94
412.249	1410.94
412.472	1415.94
412.695	1379.94
412.919	1364.94
413.142	1381.94
413.365	1407.94
413.589	1378.94
413.812	1394.94
414.035	1412.94
414.258	1390.94
414.482	1375.94
414.705	1380.94
414.928	1385.94
415.151	1398.94
415.374	1368.94
415.597	1369.94
415.821	1334.94
416.044	1356.94
416.267	1342.94
416.49	1364.94
416.713	1331.94
416.936	1378.94
417.159	1338.94
417.382	1351.94
417.605	1305.94
417.828	1332.94
418.051	1351.94
418.274	1326.94
418.497	1330.94
418.72	1344.94
418.943	1306.94
419.166	1365.94
419.389	1436.94
419.611	1447.94
419.834	1402.94
420.057	1362.94
420.28	1333.94
420.503	1309.94
420.726	1274.94
420.948	1309.94
421.171	1323.94
421.394	1314.94
421.617	1292.94
421.839	1331.94
422.062	1351.94
422.285	1287.94
422.507	1339.94
422.73	1302.94
422.953	1336.94
423.175	1347.94
423.398	1338.94
423.621	1310.94
423.843	1289.94
424.066	1326.94
424.288	1317.94
424.511	1306.94
424.733	1330.94
424.956	1322.94
425.178	1313.94
425.401	1349.94
425.623	1336.94
425.846	1338.94
426.068	1305.94
426.291	1332.94
426.513	1347.94
426.735	1311.94
426.958	1317.94
427.18	1312.94
427.402	1332.94
427.625	1330.94
427.847	1299.94
428.069	1334.94
428.292	1378.94
428.514	1296.94
428.736	1314.94
428.958	1352.94
429.181	1320.94
429.403	1296.94
429.625	1305.94
429.847	1316.94
430.069	1330.94
430.292	1325.94
430.514	1322.94
430.736	1297.94
430.958	1315.94
431.18	1331.94
431.402	1315.94
431.624	1280.94
431.846	1298.94
432.068	1318.94
432.29	1339.94
432.512	1310.94
432.734	1344.94
432.956	1331.94
433.178	1367.94
433.4	1352.94
433.622	1328.94
433.844	1372.94
434.066	1378.94
434.287	1323.94
434.509	1340.94
434.731	1293.94
434.953	1334.94
435.175	1364.94
435.397	1390.94
435.618	1351.94
435.84	1334.94
436.062	1342.94
436.284	1370.94
436.505	1308.94
436.727	1372.94
436.949	1342.94
437.17	1328.94
437.392	1320.94
437.614	1308.94
437.835	1288.94
438.057	1288.94
438.278	1286.94
438.5	1299.94
438.721	1276.94
438.943	1330.94
439.165	1289.94
439.386	1299.94
439.608	1328.94
439.829	1332.94
440.05	1291.94
440.272	1308.94
440.493	1305.94
440.715	1322.94
440.936	1325.94
441.158	1302.94
441.379	1323.94
441.6	1346.94
441.822	1376.94
442.043	1355.94
442.264	1324.94
442.486	1286.94
442.707	1349.94
442.928	1339.94
443.149	1337.94
443.371	1358.94
443.592	1401.94
443.813	1384.94
444.034	1331.94
444.255	1333.94
444.476	1349.94
444.698	1359.94
444.919	1385.94
445.14	1484.94
445.361	1480.94
445.582	1366.94
445.803	1326.94
446.024	1317.94
446.245	1331.94
446.466	1299.94
446.687	1291.94
446.908	1282.94
447.129	1256.94
447.35	1287.94
447.571	1247.94
447.792	1259.94
448.013	1220.94
448.234	1260.94
448.455	1265.94
448.675	1255.94
448.896	1248.94
449.117	1224.94
449.338	1239.94
449.559	1227.94
449.779	1195.94
450	1223.94
450.221	1226.94
450.442	1215.94
450.662	1214.94
450.883	1188.94
451.104	1238.94
451.324	1211.94
451.545	1236.94
451.766	1212.94
451.986	1219.94
452.207	1206.94
452.428	1213.94
452.648	1210.94
452.869	1200.94
453.089	1208.94
453.31	1205.94
453.53	1192.94
453.751	1194.94
453.971	1159.94
454.192	1212.94
454.412	1184.94
454.633	1190.94
454.853	1178.94
455.073	1161.94
455.294	1195.94
455.514	1171.94
455.734	1230.94
455.955	1229.94
456.175	1239.94
456.395	1221.94
456.616	1198.94
456.836	1210.94
457.056	1198.94
457.276	1181.94
457.497	1191.94
457.717	1204.94
457.937	1198.94
458.157	1173.94
458.377	1177.94
458.598	1202.94
458.818	1218.94
459.038	1208.94
459.258	1212.94
459.478	1252.94
459.698	1332.94
459.918	1306.94
460.138	1313.94
460.358	1302.94
460.578	1311.94
460.798	1347.94
461.018	1330.94
461.238	1314.94
461.458	1326.94
461.678	1308.94
461.898	1287.94
462.118	1332.94
462.338	1343.94
462.558	1345.94
462.777	1349.94
462.997	1362.94
463.217	1408.94
463.437	1444.94
463.657	1393.94
463.876	1364.94
464.096	1339.94
464.316	1380.94
464.536	1379.94
464.755	1334.94
464.975	1320.94
465.195	1299.94
465.414	1328.94
465.634	1266.94
465.854	1289.94
466.073	1292.94
466.293	1293.94
466.512	1258.94
466.732	1273.94
466.951	1282.94
467.171	1282.94
467.391	1290.94
467.61	1254.94
467.829	1253.94
468.049	1276.94
468.268	1264.94
468.488	1275.94
468.707	1267.94
468.927	1256.94
469.146	1233.94
469.365	1262.94
469.585	1243.94
469.804	1314.94
470.023	1286.94
470.243	1260.94
470.462	1273.94
470.681	1291.94
470.901	1258.94
471.12	1291.94
471.339	1282.94
471.558	1291.94
471.777	1269.94
471.997	1307.94
472.216	1290.94
472.435	1241.94
472.654	1292.94
472.873	1267.94
473.092	1306.94
473.311	1314.94
473.53	1295.94
473.749	1279.94
473.968	1298.94
474.187	1305.94
474.406	1321.94
474.625	1328.94
474.844	1319.94
475.063	1340.94
475.282	1347.94
475.501	1342.94
475.72	1361.94
475.939	1383.94
476.158	1364.94
476.377	1372.94
476.596	1348.94
476.814	1372.94
477.033	1402.94
477.252	1357.94
477.471	1402.94
477.69	1434.94
477.908	1421.94
478.127	1429.94
478.346	1415.94
478.564	1446.94
478.783	1480.94
479.002	1532.94
479.22	1544.94
479.439	1524.94
479.658	1494.94
479.876	1513.94
480.095	1484.94
480.313	1522.94
480.532	1515.94
480.751	1462.94
480.969	1506.94
481.188	1523.94
481.406	1490.94
481.624	1532.94
481.843	1525.94
482.061	1490.94
482.28	1524.94
482.498	1494.94
482.717	1553.94
482.935	1584.94
483.153	1566.94
483.372	1581.94
483.59	1599.94
483.808	1606.94
484.027	1596.94
484.245	1575.94
484.463	1570.94
484.681	1575.94
484.9	1618.94
485.118	1569.94
485.336	1570.94
485.554	1608.94
485.772	1586.94
485.99	1572.94
486.209	1545.94
486.427	1546.94
486.645	1567.94
486.863	1573.94
487.081	1619.94
487.299	1615.94
487.517	1635.94
487.735	1599.94
487.953	1635.94
488.171	1648.94
488.389	1625.94
488.607	1618.94
488.825	1622.94
489.043	1621.94
489.261	1612.94
489.479	1590.94
489.696	1608.94
489.914	1605.94
490.132	1616.94
490.35	1618.94
490.568	1615.94
490.786	1618.94
491.003	1670.94
491.221	1646.94
