Data from Ni(NO3)2@0.125M.TitratingCurve.Agarose3%dH2O.NegLispCup.LampEnergy10.LIBS07252019_HRD10591_18-09-06-567.txt Node
Date: Thu Jul 25 18:09:06 EDT 2019
User: cochatt
Spectrometer: HR+D1059
Trigger mode: 1
Integration Time (sec): 1.000000E-1
Scans to average: 1
Electric dark correction enabled: true
Nonlinearity correction enabled: false
Boxcar width: 0
XAxis mode: Wavelengths
Number of Pixels in Spectrum: 2048
>>>>>Begin Spectral Data<<<<<
223.165	-9.5
223.4	-9.5
223.635	-9.5
223.869	-20.5
224.104	-18.5
224.338	-26.5
224.573	-8.5
224.808	-22.5
225.042	1.5
225.277	-10.5
225.511	-14.5
225.746	12.5
225.98	7.5
226.215	13.5
226.449	13.5
226.683	30.5
226.918	23.5
227.152	28.5
227.387	37.5
227.621	38.5
227.856	44.5
228.09	41.5
228.324	56.5
228.559	40.5
228.793	55.5
229.027	115.5
229.262	117.5
229.496	113.5
229.73	118.5
229.964	146.5
230.199	130.5
230.433	137.5
230.667	131.5
230.901	141.5
231.136	134.5
231.37	168.5
231.604	133.5
231.838	149.5
232.072	143.5
232.306	162.5
232.541	148.5
232.775	139.5
233.009	156.5
233.243	159.5
233.477	146.5
233.711	134.5
233.945	149.5
234.179	158.5
234.413	157.5
234.647	158.5
234.881	138.5
235.115	163.5
235.349	148.5
235.583	152.5
235.817	154.5
236.051	163.5
236.285	160.5
236.519	155.5
236.753	161.5
236.987	149.5
237.221	161.5
237.455	163.5
237.689	153.5
237.922	165.5
238.156	168.5
238.39	173.5
238.624	171.5
238.858	168.5
239.091	180.5
239.325	175.5
239.559	182.5
239.793	192.5
240.027	186.5
240.26	178.5
240.494	192.5
240.728	193.5
240.961	189.5
241.195	196.5
241.429	194.5
241.662	191.5
241.896	207.5
242.13	203.5
242.363	193.5
242.597	211.5
242.83	200.5
243.064	226.5
243.298	219.5
243.531	215.5
243.765	198.5
243.998	195.5
244.232	235.5
244.465	224.5
244.699	222.5
244.932	242.5
245.166	226.5
245.399	233.5
245.633	231.5
245.866	217.5
246.099	224.5
246.333	242.5
246.566	227.5
246.8	228.5
247.033	241.5
247.266	252.5
247.5	249.5
247.733	249.5
247.966	255.5
248.2	240.5
248.433	263.5
248.666	236.5
248.899	249.5
249.133	253.5
249.366	254.5
249.599	267.5
249.832	260.5
250.066	255.5
250.299	274.5
250.532	258.5
250.765	269.5
250.998	271.5
251.231	285.5
251.465	285.5
251.698	291.5
251.931	294.5
252.164	297.5
252.397	284.5
252.63	292.5
252.863	300.5
253.096	301.5
253.329	290.5
253.562	281.5
253.795	297.5
254.028	314.5
254.261	301.5
254.494	288.5
254.727	297.5
254.96	308.5
255.193	311.5
255.426	322.5
255.659	302.5
255.892	331.5
256.124	319.5
256.357	305.5
256.59	312.5
256.823	328.5
257.056	305.5
257.289	329.5
257.521	325.5
257.754	321.5
257.987	335.5
258.22	313.5
258.452	340.5
258.685	330.5
258.918	322.5
259.151	331.5
259.383	338.5
259.616	330.5
259.849	343.5
260.081	335.5
260.314	356.5
260.547	350.5
260.779	349.5
261.012	356.5
261.244	360.5
261.477	349.5
261.71	354.5
261.942	364.5
262.175	355.5
262.407	378.5
262.64	391.5
262.872	381.5
263.105	380.5
263.337	364.5
263.57	360.5
263.802	376.5
264.035	379.5
264.267	406.5
264.499	378.5
264.732	374.5
264.964	378.5
265.197	390.5
265.429	394.5
265.661	369.5
265.894	396.5
266.126	399.5
266.358	384.5
266.591	410.5
266.823	378.5
267.055	402.5
267.287	404.5
267.52	395.5
267.752	393.5
267.984	413.5
268.216	396.5
268.448	409.5
268.681	402.5
268.913	412.5
269.145	418.5
269.377	416.5
269.609	401.5
269.841	397.5
270.073	393.5
270.306	437.5
270.538	402.5
270.77	406.5
271.002	416.5
271.234	400.5
271.466	437.5
271.698	427.5
271.93	429.5
272.162	421.5
272.394	444.5
272.626	424.5
272.858	425.5
273.09	415.5
273.322	420.5
273.553	449.5
273.785	430.5
274.017	428.5
274.249	436.5
274.481	430.5
274.713	440.5
274.945	450.5
275.176	458.5
275.408	457.5
275.64	454.5
275.872	467.5
276.104	459.5
276.335	459.5
276.567	454.5
276.799	458.5
277.031	444.5
277.262	443.5
277.494	441.5
277.726	472.5
277.957	461.5
278.189	474.5
278.421	448.5
278.652	458.5
278.884	482.5
279.115	458.5
279.347	462.5
279.579	458.5
279.81	474.5
280.042	482.5
280.273	487.5
280.505	512.5
280.736	498.5
280.968	483.5
281.199	506.5
281.431	484.5
281.662	466.5
281.894	516.5
282.125	497.5
282.356	502.5
282.588	508.5
282.819	520.5
283.051	530.5
283.282	515.5
283.513	511.5
283.745	531.5
283.976	528.5
284.207	522.5
284.439	515.5
284.67	525.5
284.901	549.5
285.132	528.5
285.364	540.5
285.595	542.5
285.826	541.5
286.057	548.5
286.288	533.5
286.52	548.5
286.751	557.5
286.982	542.5
287.213	551.5
287.444	550.5
287.675	544.5
287.906	544.5
288.138	542.5
288.369	580.5
288.6	562.5
288.831	582.5
289.062	565.5
289.293	542.5
289.524	557.5
289.755	570.5
289.986	563.5
290.217	548.5
290.448	560.5
290.679	591.5
290.91	584.5
291.141	554.5
291.371	582.5
291.602	538.5
291.833	579.5
292.064	583.5
292.295	579.5
292.526	592.5
292.757	550.5
292.987	563.5
293.218	550.5
293.449	573.5
293.68	582.5
293.91	548.5
294.141	567.5
294.372	589.5
294.603	567.5
294.833	585.5
295.064	595.5
295.295	585.5
295.525	585.5
295.756	597.5
295.987	597.5
296.217	610.5
296.448	594.5
296.679	573.5
296.909	598.5
297.14	595.5
297.37	597.5
297.601	607.5
297.831	626.5
298.062	626.5
298.292	676.5
298.523	636.5
298.753	646.5
298.984	603.5
299.214	630.5
299.445	633.5
299.675	627.5
299.905	637.5
300.136	635.5
300.366	638.5
300.597	651.5
300.827	655.5
301.057	652.5
301.288	674.5
301.518	635.5
301.748	655.5
301.979	668.5
302.209	649.5
302.439	642.5
302.669	646.5
302.9	651.5
303.13	640.5
303.36	657.5
303.59	628.5
303.82	626.5
304.051	648.5
304.281	634.5
304.511	634.5
304.741	614.5
304.971	636.5
305.201	628.5
305.431	619.5
305.661	649.5
305.891	625.5
306.121	640.5
306.352	636.5
306.582	645.5
306.812	626.5
307.042	629.5
307.272	648.5
307.502	614.5
307.731	627.5
307.961	619.5
308.191	637.5
308.421	616.5
308.651	617.5
308.881	629.5
309.111	658.5
309.341	627.5
309.571	615.5
309.8	633.5
310.03	646.5
310.26	625.5
310.49	616.5
310.72	654.5
310.949	618.5
311.179	642.5
311.409	638.5
311.639	666.5
311.868	666.5
312.098	655.5
312.328	667.5
312.557	664.5
312.787	675.5
313.017	650.5
313.246	662.5
313.476	680.5
313.706	669.5
313.935	693.5
314.165	695.5
314.394	658.5
314.624	663.5
314.853	676.5
315.083	639.5
315.312	667.5
315.542	674.5
315.771	692.5
316.001	668.5
316.23	698.5
316.46	642.5
316.689	668.5
316.919	673.5
317.148	667.5
317.377	667.5
317.607	649.5
317.836	658.5
318.065	660.5
318.295	672.5
318.524	654.5
318.753	645.5
318.983	654.5
319.212	658.5
319.441	664.5
319.67	673.5
319.9	652.5
320.129	671.5
320.358	672.5
320.587	664.5
320.816	674.5
321.046	660.5
321.275	667.5
321.504	682.5
321.733	697.5
321.962	671.5
322.191	668.5
322.42	676.5
322.649	675.5
322.878	692.5
323.108	693.5
323.337	685.5
323.566	712.5
323.795	711.5
324.024	705.5
324.253	681.5
324.482	726.5
324.71	707.5
324.939	714.5
325.168	722.5
325.397	712.5
325.626	721.5
325.855	715.5
326.084	753.5
326.313	735.5
326.542	765.5
326.77	749.5
326.999	767.5
327.228	731.5
327.457	734.5
327.686	750.5
327.914	741.5
328.143	750.5
328.372	753.5
328.6	756.5
328.829	717.5
329.058	752.5
329.287	752.5
329.515	759.5
329.744	739.5
329.972	757.5
330.201	748.5
330.43	757.5
330.658	762.5
330.887	767.5
331.115	776.5
331.344	795.5
331.572	785.5
331.801	791.5
332.03	822.5
332.258	889.5
332.486	900.5
332.715	886.5
332.943	967.5
333.172	999.5
333.4	1018.5
333.629	1039.5
333.857	1059.5
334.085	1012.5
334.314	973.5
334.542	1000.5
334.771	969.5
334.999	947.5
335.227	964.5
335.455	935.5
335.684	913.5
335.912	901.5
336.14	885.5
336.369	921.5
336.597	927.5
336.825	939.5
337.053	928.5
337.281	936.5
337.51	872.5
337.738	843.5
337.966	864.5
338.194	850.5
338.422	827.5
338.65	838.5
338.878	836.5
339.106	827.5
339.334	835.5
339.562	833.5
339.79	768.5
340.018	777.5
340.246	781.5
340.474	795.5
340.702	769.5
340.93	808.5
341.158	802.5
341.386	794.5
341.614	789.5
341.842	798.5
342.07	798.5
342.298	783.5
342.526	776.5
342.754	770.5
342.981	801.5
343.209	805.5
343.437	840.5
343.665	938.5
343.893	984.5
344.12	986.5
344.348	949.5
344.576	867.5
344.804	860.5
345.031	854.5
345.259	843.5
345.487	823.5
345.714	810.5
345.942	800.5
346.17	799.5
346.397	791.5
346.625	774.5
346.853	748.5
347.08	776.5
347.308	799.5
347.535	769.5
347.763	801.5
347.99	821.5
348.218	806.5
348.445	780.5
348.673	781.5
348.9	778.5
349.128	768.5
349.355	770.5
349.583	756.5
349.81	752.5
350.037	757.5
350.265	738.5
350.492	768.5
350.72	742.5
350.947	759.5
351.174	734.5
351.402	735.5
351.629	752.5
351.856	762.5
352.083	719.5
352.311	766.5
352.538	712.5
352.765	736.5
352.992	737.5
353.22	708.5
353.447	732.5
353.674	741.5
353.901	752.5
354.128	742.5
354.355	726.5
354.583	704.5
354.81	732.5
355.037	745.5
355.264	748.5
355.491	721.5
355.718	734.5
355.945	741.5
356.172	752.5
356.399	748.5
356.626	743.5
356.853	748.5
357.08	754.5
357.307	748.5
357.534	726.5
357.761	761.5
357.988	742.5
358.215	744.5
358.441	725.5
358.668	745.5
358.895	738.5
359.122	725.5
359.349	737.5
359.576	752.5
359.802	754.5
360.029	765.5
360.256	739.5
360.483	736.5
360.709	744.5
360.936	734.5
361.163	739.5
361.39	741.5
361.616	745.5
361.843	742.5
362.07	739.5
362.296	730.5
362.523	732.5
362.749	725.5
362.976	741.5
363.203	722.5
363.429	728.5
363.656	716.5
363.882	736.5
364.109	729.5
364.335	738.5
364.562	730.5
364.788	717.5
365.015	724.5
365.241	712.5
365.468	733.5
365.694	699.5
365.92	727.5
366.147	706.5
366.373	709.5
366.599	707.5
366.826	737.5
367.052	738.5
367.278	715.5
367.505	718.5
367.731	726.5
367.957	745.5
368.184	758.5
368.41	727.5
368.636	748.5
368.862	774.5
369.089	764.5
369.315	747.5
369.541	748.5
369.767	741.5
369.993	768.5
370.219	761.5
370.445	760.5
370.672	778.5
370.898	768.5
371.124	804.5
371.35	817.5
371.576	776.5
371.802	784.5
372.028	812.5
372.254	789.5
372.48	819.5
372.706	820.5
372.932	824.5
373.158	833.5
373.384	824.5
373.61	800.5
373.835	782.5
374.061	779.5
374.287	796.5
374.513	810.5
374.739	846.5
374.965	850.5
375.191	917.5
375.416	882.5
375.642	837.5
375.868	813.5
376.094	822.5
376.319	824.5
376.545	828.5
376.771	815.5
376.997	822.5
377.222	798.5
377.448	812.5
377.674	796.5
377.899	804.5
378.125	781.5
378.35	752.5
378.576	779.5
378.802	759.5
379.027	779.5
379.253	782.5
379.478	742.5
379.704	817.5
379.929	784.5
380.155	809.5
380.38	793.5
380.606	793.5
380.831	794.5
381.057	814.5
381.282	796.5
381.507	786.5
381.733	801.5
381.958	811.5
382.184	811.5
382.409	814.5
382.634	808.5
382.86	829.5
383.085	871.5
383.31	881.5
383.535	854.5
383.761	886.5
383.986	889.5
384.211	922.5
384.436	936.5
384.662	963.5
384.887	942.5
385.112	935.5
385.337	954.5
385.562	973.5
385.787	969.5
386.013	976.5
386.238	951.5
386.463	962.5
386.688	976.5
386.913	933.5
387.138	934.5
387.363	966.5
387.588	932.5
387.813	950.5
388.038	928.5
388.263	915.5
388.488	931.5
388.713	948.5
388.938	948.5
389.163	919.5
389.387	921.5
389.612	927.5
389.837	930.5
390.062	930.5
390.287	940.5
390.512	913.5
390.736	928.5
390.961	936.5
391.186	955.5
391.411	987.5
391.636	1008.5
391.86	1085.5
392.085	1121.5
392.31	1088.5
392.534	1059.5
392.759	1017.5
392.984	980.5
393.208	1004.5
393.433	1045.5
393.658	1022.5
393.882	1042.5
394.107	996.5
394.331	1023.5
394.556	1016.5
394.78	1024.5
395.005	996.5
395.229	999.5
395.454	1061.5
395.678	1102.5
395.903	1088.5
396.127	1048.5
396.352	1025.5
396.576	972.5
396.801	1009.5
397.025	1020.5
397.249	1000.5
397.474	1054.5
397.698	1082.5
397.922	1045.5
398.147	1057.5
398.371	1093.5
398.595	1103.5
398.82	1150.5
399.044	1235.5
399.268	1357.5
399.492	1636.5
399.717	1909.5
399.941	1931.5
400.165	1629.5
400.389	1411.5
400.613	1302.5
400.837	1230.5
401.062	1221.5
401.286	1174.5
401.51	1169.5
401.734	1160.5
401.958	1192.5
402.182	1206.5
402.406	1242.5
402.63	1244.5
402.854	1278.5
403.078	1335.5
403.302	1362.5
403.526	1376.5
403.75	1389.5
403.974	1449.5
404.198	1461.5
404.422	1430.5
404.645	1426.5
404.869	1411.5
405.093	1376.5
405.317	1369.5
405.541	1347.5
405.765	1338.5
405.988	1291.5
406.212	1283.5
406.436	1336.5
406.66	1308.5
406.883	1351.5
407.107	1440.5
407.331	1544.5
407.555	1604.5
407.778	1574.5
408.002	1526.5
408.226	1489.5
408.449	1451.5
408.673	1387.5
408.896	1368.5
409.12	1336.5
409.344	1390.5
409.567	1369.5
409.791	1407.5
410.014	1402.5
410.238	1374.5
410.461	1410.5
410.685	1342.5
410.908	1291.5
411.132	1309.5
411.355	1266.5
411.578	1269.5
411.802	1240.5
412.025	1227.5
412.249	1266.5
412.472	1260.5
412.695	1197.5
412.919	1197.5
413.142	1213.5
413.365	1164.5
413.589	1214.5
413.812	1210.5
414.035	1190.5
414.258	1190.5
414.482	1214.5
414.705	1232.5
414.928	1250.5
415.151	1219.5
415.374	1204.5
415.597	1192.5
415.821	1186.5
416.044	1225.5
416.267	1206.5
416.49	1171.5
416.713	1199.5
416.936	1206.5
417.159	1186.5
417.382	1195.5
417.605	1197.5
417.828	1214.5
418.051	1182.5
418.274	1218.5
418.497	1241.5
418.72	1248.5
418.943	1231.5
419.166	1308.5
419.389	1408.5
419.611	1373.5
419.834	1333.5
420.057	1272.5
420.28	1247.5
420.503	1196.5
420.726	1198.5
420.948	1201.5
421.171	1189.5
421.394	1214.5
421.617	1208.5
421.839	1197.5
422.062	1173.5
422.285	1208.5
422.507	1259.5
422.73	1238.5
422.953	1271.5
423.175	1256.5
423.398	1306.5
423.621	1322.5
423.843	1310.5
424.066	1318.5
424.288	1336.5
424.511	1316.5
424.733	1282.5
424.956	1256.5
425.178	1267.5
425.401	1197.5
425.623	1217.5
425.846	1187.5
426.068	1195.5
426.291	1172.5
426.513	1145.5
426.735	1153.5
426.958	1136.5
427.18	1106.5
427.402	1091.5
427.625	1093.5
427.847	1100.5
428.069	1068.5
428.292	1070.5
428.514	1084.5
428.736	1076.5
428.958	1059.5
429.181	1047.5
429.403	1033.5
429.625	1066.5
429.847	1056.5
430.069	1011.5
430.292	1082.5
430.514	1031.5
430.736	1054.5
430.958	1025.5
431.18	1059.5
431.402	1038.5
431.624	1075.5
431.846	1054.5
432.068	1076.5
432.29	1108.5
432.512	1050.5
432.734	1091.5
432.956	1083.5
433.178	1094.5
433.4	1094.5
433.622	1115.5
433.844	1125.5
434.066	1121.5
434.287	1132.5
434.509	1147.5
434.731	1175.5
434.953	1226.5
435.175	1274.5
435.397	1232.5
435.618	1160.5
435.84	1142.5
436.062	1114.5
436.284	1074.5
436.505	1064.5
436.727	1084.5
436.949	1064.5
437.17	1111.5
437.392	1077.5
437.614	1050.5
437.835	1004.5
438.057	1037.5
438.278	1015.5
438.5	1040.5
438.721	1056.5
438.943	1067.5
439.165	1014.5
439.386	1052.5
439.608	1067.5
439.829	1091.5
440.05	1082.5
440.272	1100.5
440.493	1091.5
440.715	1110.5
440.936	1136.5
441.158	1123.5
441.379	1224.5
441.6	1246.5
441.822	1278.5
442.043	1272.5
442.264	1231.5
442.486	1195.5
442.707	1206.5
442.928	1202.5
443.149	1215.5
443.371	1210.5
443.592	1221.5
443.813	1234.5
444.034	1258.5
444.255	1288.5
444.476	1324.5
444.698	1456.5
444.919	1528.5
445.14	1625.5
445.361	1431.5
445.582	1303.5
445.803	1214.5
446.024	1195.5
446.245	1180.5
446.466	1142.5
446.687	1122.5
446.908	1116.5
447.129	1083.5
447.35	1046.5
447.571	1061.5
447.792	1031.5
448.013	1060.5
448.234	1009.5
448.455	1011.5
448.675	1009.5
448.896	1014.5
449.117	986.5
449.338	1005.5
449.559	982.5
449.779	985.5
450	980.5
450.221	997.5
450.442	1004.5
450.662	1013.5
450.883	1033.5
451.104	1065.5
451.324	1043.5
451.545	1043.5
451.766	1023.5
451.986	999.5
452.207	1022.5
452.428	1008.5
452.648	992.5
452.869	972.5
453.089	974.5
453.31	1007.5
453.53	980.5
453.751	964.5
453.971	1006.5
454.192	1010.5
454.412	965.5
454.633	939.5
454.853	977.5
455.073	928.5
455.294	970.5
455.514	961.5
455.734	935.5
455.955	943.5
456.175	929.5
456.395	928.5
456.616	914.5
456.836	939.5
457.056	925.5
457.276	893.5
457.497	928.5
457.717	925.5
457.937	968.5
458.157	953.5
458.377	965.5
458.598	971.5
458.818	1003.5
459.038	1034.5
459.258	1070.5
459.478	1087.5
459.698	1133.5
459.918	1178.5
460.138	1224.5
460.358	1317.5
460.578	1306.5
460.798	1336.5
461.018	1365.5
461.238	1344.5
461.458	1298.5
461.678	1307.5
461.898	1310.5
462.118	1315.5
462.338	1390.5
462.558	1404.5
462.777	1476.5
462.997	1626.5
463.217	1860.5
463.437	1836.5
463.657	1662.5
463.876	1553.5
464.096	1560.5
464.316	1543.5
464.536	1580.5
464.755	1518.5
464.975	1435.5
465.195	1388.5
465.414	1304.5
465.634	1208.5
465.854	1158.5
466.073	1172.5
466.293	1113.5
466.512	1075.5
466.732	1075.5
466.951	1065.5
467.171	1054.5
467.391	1056.5
467.61	1078.5
467.829	1072.5
468.049	1026.5
468.268	1016.5
468.488	1013.5
468.707	997.5
468.927	1010.5
469.146	967.5
469.365	1042.5
469.585	1014.5
469.804	1064.5
470.023	1079.5
470.243	1077.5
470.462	1084.5
470.681	1089.5
470.901	1129.5
471.12	1079.5
471.339	1058.5
471.558	1036.5
471.777	1026.5
471.997	1029.5
472.216	992.5
472.435	963.5
472.654	992.5
472.873	981.5
473.092	961.5
473.311	1003.5
473.53	979.5
473.749	966.5
473.968	955.5
474.187	978.5
474.406	972.5
474.625	981.5
474.844	987.5
475.063	972.5
475.282	990.5
475.501	990.5
475.72	981.5
475.939	1016.5
476.158	1056.5
476.377	994.5
476.596	1027.5
476.814	1030.5
477.033	1040.5
477.252	1063.5
477.471	1083.5
477.69	1116.5
477.908	1119.5
478.127	1160.5
478.346	1181.5
478.564	1188.5
478.783	1232.5
479.002	1245.5
479.22	1240.5
479.439	1280.5
479.658	1248.5
479.876	1232.5
480.095	1218.5
480.313	1344.5
480.532	1341.5
480.751	1334.5
480.969	1265.5
481.188	1211.5
481.406	1193.5
481.624	1139.5
481.843	1122.5
482.061	1146.5
482.28	1120.5
482.498	1118.5
482.717	1102.5
482.935	1107.5
483.153	1140.5
483.372	1120.5
483.59	1125.5
483.808	1139.5
484.027	1120.5
484.245	1142.5
484.463	1131.5
484.681	1170.5
484.9	1184.5
485.118	1192.5
485.336	1164.5
485.554	1163.5
485.772	1197.5
485.99	1197.5
486.209	1211.5
486.427	1217.5
486.645	1221.5
486.863	1222.5
487.081	1209.5
487.299	1152.5
487.517	1185.5
487.735	1168.5
487.953	1185.5
488.171	1198.5
488.389	1202.5
488.607	1190.5
488.825	1177.5
489.043	1172.5
489.261	1175.5
489.479	1192.5
489.696	1150.5
489.914	1166.5
490.132	1186.5
490.35	1168.5
490.568	1185.5
490.786	1174.5
491.003	1221.5
491.221	1195.5
491.439	1217.5
491.657	1203.5
491.874	1206.5
492.092	1226.5
492.31	1258.5
492.527	1235.5
492.745	1221.5
492.963	1257.5
493.18	1224.5
493.398	1215.5
493.615	1270.5
493.833	1253.5
494.05	1254.5
494.268	1280.5
494.485	1298.5
494.703	1280.5
494.92	1241.5
495.138	1240.5
495.355	1246.5
495.573	1256.5
495.79	1260.5
496.008	1263.5
496.225	1267.5
496.442	1294.5
496.66	1292.5
496.877	1308.5
497.094	1341.5
497.312	1378.5
497.529	1400.5
497.746	1392.5
497.963	1443.5
498.181	1505.5
498.398	1585.5
498.615	1655.5
498.832	1772.5
499.049	1920.5
499.267	2100.5
499.484	2297.5
499.701	2590.5
499.918	2817.5
500.135	3406.5
500.352	3942.5
500.569	4127.5
500.786	4102.5
501.003	3774.5
501.22	3315.5
501.437	2896.5
501.654	2472.5
501.871	2255.5
502.088	2021.5
502.305	1939.5
502.522	1807.5
502.739	1742.5
502.956	1641.5
503.172	1530.5
503.389	1526.5
503.606	1461.5
503.823	1413.5
504.04	1419.5
504.256	1470.5
504.473	1509.5
504.69	1554.5
504.907	1481.5
505.123	1388.5
505.34	1276.5
505.557	1259.5
505.773	1224.5
505.99	1188.5
506.207	1180.5
506.423	1162.5
506.64	1147.5
506.856	1146.5
507.073	1139.5
507.289	1131.5
507.506	1112.5
507.722	1099.5
507.939	1106.5
508.155	1100.5
508.372	1049.5
508.588	1046.5
508.805	1073.5
509.021	1047.5
509.238	1074.5
509.454	1033.5
509.67	1034.5
509.887	1051.5
510.103	1042.5
510.319	1029.5
510.536	1016.5
510.752	1003.5
510.968	994.5
511.184	987.5
511.401	1028.5
511.617	987.5
511.833	1012.5
512.049	1034.5
512.265	993.5
