Data from Ni(NO3)2@0.25M.TitratingCurve.Agarose3%dH2O.NegLispCup.LampEnergy10.LIBS07252019_HRD10591_18-02-33-565.txt Node
Date: Thu Jul 25 18:02:33 EDT 2019
User: cochatt
Spectrometer: HR+D1059
Trigger mode: 1
Integration Time (sec): 1.000000E-1
Scans to average: 1
Electric dark correction enabled: true
Nonlinearity correction enabled: false
Boxcar width: 0
XAxis mode: Wavelengths
Number of Pixels in Spectrum: 2048
>>>>>Begin Spectral Data<<<<<
223.165	0.94
223.4	0.94
223.635	0.94
223.869	-12.06
224.104	-17.06
224.338	-15.06
224.573	-10.06
224.808	-22.06
225.042	-7.06
225.277	-21.06
225.511	-0.06
225.746	8.94
225.98	-8.06
226.215	4.94
226.449	26.94
226.683	15.94
226.918	19.94
227.152	34.94
227.387	33.94
227.621	45.94
227.856	45.94
228.09	40.94
228.324	42.94
228.559	57.94
228.793	75.94
229.027	103.94
229.262	94.94
229.496	88.94
229.73	90.94
229.964	110.94
230.199	109.94
230.433	94.94
230.667	109.94
230.901	117.94
231.136	115.94
231.37	114.94
231.604	123.94
231.838	119.94
232.072	139.94
232.306	118.94
232.541	115.94
232.775	126.94
233.009	129.94
233.243	108.94
233.477	117.94
233.711	104.94
233.945	109.94
234.179	122.94
234.413	119.94
234.647	119.94
234.881	130.94
235.115	127.94
235.349	120.94
235.583	130.94
235.817	125.94
236.051	115.94
236.285	96.94
236.519	123.94
236.753	119.94
236.987	104.94
237.221	123.94
237.455	126.94
237.689	122.94
237.922	121.94
238.156	118.94
238.39	106.94
238.624	121.94
238.858	123.94
239.091	138.94
239.325	132.94
239.559	129.94
239.793	125.94
240.027	138.94
240.26	129.94
240.494	127.94
240.728	125.94
240.961	138.94
241.195	134.94
241.429	138.94
241.662	138.94
241.896	151.94
242.13	145.94
242.363	158.94
242.597	125.94
242.83	155.94
243.064	138.94
243.298	141.94
243.531	142.94
243.765	162.94
243.998	149.94
244.232	142.94
244.465	151.94
244.699	152.94
244.932	135.94
245.166	156.94
245.399	166.94
245.633	142.94
245.866	157.94
246.099	164.94
246.333	157.94
246.566	151.94
246.8	155.94
247.033	147.94
247.266	151.94
247.5	169.94
247.733	157.94
247.966	163.94
248.2	168.94
248.433	158.94
248.666	172.94
248.899	169.94
249.133	169.94
249.366	174.94
249.599	170.94
249.832	179.94
250.066	184.94
250.299	171.94
250.532	195.94
250.765	182.94
250.998	178.94
251.231	178.94
251.465	183.94
251.698	189.94
251.931	186.94
252.164	189.94
252.397	197.94
252.63	185.94
252.863	185.94
253.096	186.94
253.329	198.94
253.562	197.94
253.795	197.94
254.028	195.94
254.261	200.94
254.494	194.94
254.727	204.94
254.96	206.94
255.193	208.94
255.426	223.94
255.659	217.94
255.892	231.94
256.124	207.94
256.357	223.94
256.59	211.94
256.823	226.94
257.056	214.94
257.289	234.94
257.521	232.94
257.754	230.94
257.987	234.94
258.22	235.94
258.452	225.94
258.685	226.94
258.918	248.94
259.151	234.94
259.383	243.94
259.616	225.94
259.849	226.94
260.081	234.94
260.314	231.94
260.547	227.94
260.779	256.94
261.012	225.94
261.244	260.94
261.477	265.94
261.71	236.94
261.942	247.94
262.175	249.94
262.407	268.94
262.64	263.94
262.872	250.94
263.105	239.94
263.337	263.94
263.57	268.94
263.802	255.94
264.035	274.94
264.267	271.94
264.499	261.94
264.732	243.94
264.964	269.94
265.197	254.94
265.429	269.94
265.661	269.94
265.894	239.94
266.126	262.94
266.358	273.94
266.591	269.94
266.823	279.94
267.055	259.94
267.287	272.94
267.52	275.94
267.752	275.94
267.984	282.94
268.216	291.94
268.448	271.94
268.681	283.94
268.913	282.94
269.145	285.94
269.377	297.94
269.609	287.94
269.841	273.94
270.073	283.94
270.306	294.94
270.538	278.94
270.77	273.94
271.002	292.94
271.234	280.94
271.466	291.94
271.698	278.94
271.93	282.94
272.162	287.94
272.394	291.94
272.626	291.94
272.858	285.94
273.09	281.94
273.322	303.94
273.553	293.94
273.785	293.94
274.017	284.94
274.249	317.94
274.481	316.94
274.713	304.94
274.945	291.94
275.176	275.94
275.408	267.94
275.64	297.94
275.872	289.94
276.104	290.94
276.335	325.94
276.567	296.94
276.799	291.94
277.031	315.94
277.262	295.94
277.494	317.94
277.726	337.94
277.957	291.94
278.189	317.94
278.421	321.94
278.652	319.94
278.884	323.94
279.115	312.94
279.347	322.94
279.579	310.94
279.81	332.94
280.042	319.94
280.273	313.94
280.505	323.94
280.736	308.94
280.968	327.94
281.199	323.94
281.431	319.94
281.662	321.94
281.894	335.94
282.125	332.94
282.356	342.94
282.588	334.94
282.819	365.94
283.051	334.94
283.282	326.94
283.513	323.94
283.745	339.94
283.976	337.94
284.207	332.94
284.439	320.94
284.67	323.94
284.901	356.94
285.132	344.94
285.364	330.94
285.595	334.94
285.826	356.94
286.057	360.94
286.288	339.94
286.52	345.94
286.751	338.94
286.982	337.94
287.213	345.94
287.444	356.94
287.675	336.94
287.906	362.94
288.138	349.94
288.369	345.94
288.6	356.94
288.831	345.94
289.062	347.94
289.293	349.94
289.524	354.94
289.755	346.94
289.986	351.94
290.217	342.94
290.448	353.94
290.679	354.94
290.91	353.94
291.141	365.94
291.371	363.94
291.602	341.94
291.833	343.94
292.064	364.94
292.295	369.94
292.526	345.94
292.757	354.94
292.987	374.94
293.218	375.94
293.449	353.94
293.68	353.94
293.91	380.94
294.141	360.94
294.372	360.94
294.603	345.94
294.833	362.94
295.064	365.94
295.295	355.94
295.525	353.94
295.756	375.94
295.987	346.94
296.217	373.94
296.448	353.94
296.679	378.94
296.909	355.94
297.14	356.94
297.37	378.94
297.601	377.94
297.831	375.94
298.062	380.94
298.292	392.94
298.523	393.94
298.753	363.94
298.984	389.94
299.214	391.94
299.445	409.94
299.675	385.94
299.905	396.94
300.136	402.94
300.366	387.94
300.597	392.94
300.827	389.94
301.057	373.94
301.288	414.94
301.518	415.94
301.748	384.94
301.979	393.94
302.209	396.94
302.439	408.94
302.669	403.94
302.9	395.94
303.13	411.94
303.36	399.94
303.59	420.94
303.82	411.94
304.051	427.94
304.281	417.94
304.511	417.94
304.741	416.94
304.971	415.94
305.201	443.94
305.431	432.94
305.661	423.94
305.891	411.94
306.121	403.94
306.352	420.94
306.582	409.94
306.812	437.94
307.042	416.94
307.272	403.94
307.502	404.94
307.731	416.94
307.961	408.94
308.191	418.94
308.421	403.94
308.651	414.94
308.881	405.94
309.111	406.94
309.341	415.94
309.571	421.94
309.8	418.94
310.03	421.94
310.26	439.94
310.49	427.94
310.72	430.94
310.949	434.94
311.179	435.94
311.409	431.94
311.639	429.94
311.868	427.94
312.098	442.94
312.328	446.94
312.557	439.94
312.787	429.94
313.017	427.94
313.246	437.94
313.476	448.94
313.706	457.94
313.935	441.94
314.165	448.94
314.394	466.94
314.624	469.94
314.853	441.94
315.083	452.94
315.312	445.94
315.542	469.94
315.771	468.94
316.001	457.94
316.23	460.94
316.46	460.94
316.689	453.94
316.919	467.94
317.148	469.94
317.377	473.94
317.607	452.94
317.836	471.94
318.065	475.94
318.295	447.94
318.524	446.94
318.753	473.94
318.983	466.94
319.212	458.94
319.441	489.94
319.67	473.94
319.9	489.94
320.129	476.94
320.358	458.94
320.587	482.94
320.816	491.94
321.046	494.94
321.275	491.94
321.504	488.94
321.733	501.94
321.962	496.94
322.191	494.94
322.42	490.94
322.649	490.94
322.878	516.94
323.108	501.94
323.337	504.94
323.566	517.94
323.795	511.94
324.024	515.94
324.253	522.94
324.482	521.94
324.71	520.94
324.939	529.94
325.168	517.94
325.397	533.94
325.626	556.94
325.855	526.94
326.084	563.94
326.313	557.94
326.542	555.94
326.77	545.94
326.999	531.94
327.228	549.94
327.457	554.94
327.686	560.94
327.914	577.94
328.143	543.94
328.372	579.94
328.6	561.94
328.829	549.94
329.058	563.94
329.287	569.94
329.515	575.94
329.744	582.94
329.972	575.94
330.201	576.94
330.43	581.94
330.658	577.94
330.887	594.94
331.115	571.94
331.344	602.94
331.572	579.94
331.801	599.94
332.03	594.94
332.258	615.94
332.486	620.94
332.715	627.94
332.943	611.94
333.172	616.94
333.4	657.94
333.629	645.94
333.857	652.94
334.085	673.94
334.314	645.94
334.542	653.94
334.771	680.94
334.999	665.94
335.227	702.94
335.455	685.94
335.684	678.94
335.912	664.94
336.14	661.94
336.369	685.94
336.597	666.94
336.825	702.94
337.053	657.94
337.281	667.94
337.51	663.94
337.738	649.94
337.966	646.94
338.194	673.94
338.422	662.94
338.65	639.94
338.878	636.94
339.106	652.94
339.334	646.94
339.562	640.94
339.79	643.94
340.018	634.94
340.246	654.94
340.474	622.94
340.702	629.94
340.93	611.94
341.158	643.94
341.386	634.94
341.614	635.94
341.842	665.94
342.07	622.94
342.298	640.94
342.526	631.94
342.754	644.94
342.981	619.94
343.209	643.94
343.437	655.94
343.665	684.94
343.893	667.94
344.12	692.94
344.348	679.94
344.576	681.94
344.804	684.94
345.031	644.94
345.259	663.94
345.487	648.94
345.714	629.94
345.942	659.94
346.17	657.94
346.397	636.94
346.625	595.94
346.853	617.94
347.08	608.94
347.308	628.94
347.535	628.94
347.763	616.94
347.99	615.94
348.218	625.94
348.445	611.94
348.673	633.94
348.9	609.94
349.128	627.94
349.355	606.94
349.583	633.94
349.81	601.94
350.037	606.94
350.265	604.94
350.492	576.94
350.72	608.94
350.947	629.94
351.174	611.94
351.402	621.94
351.629	598.94
351.856	614.94
352.083	598.94
352.311	602.94
352.538	590.94
352.765	597.94
352.992	574.94
353.22	601.94
353.447	598.94
353.674	590.94
353.901	579.94
354.128	597.94
354.355	585.94
354.583	605.94
354.81	584.94
355.037	600.94
355.264	591.94
355.491	569.94
355.718	590.94
355.945	596.94
356.172	596.94
356.399	589.94
356.626	604.94
356.853	602.94
357.08	600.94
357.307	575.94
357.534	614.94
357.761	573.94
357.988	587.94
358.215	579.94
358.441	585.94
358.668	558.94
358.895	584.94
359.122	595.94
359.349	605.94
359.576	568.94
359.802	595.94
360.029	579.94
360.256	588.94
360.483	597.94
360.709	596.94
360.936	587.94
361.163	604.94
361.39	602.94
361.616	580.94
361.843	587.94
362.07	578.94
362.296	606.94
362.523	558.94
362.749	616.94
362.976	591.94
363.203	591.94
363.429	602.94
363.656	591.94
363.882	567.94
364.109	586.94
364.335	589.94
364.562	555.94
364.788	606.94
365.015	588.94
365.241	579.94
365.468	571.94
365.694	600.94
365.92	596.94
366.147	587.94
366.373	597.94
366.599	586.94
366.826	585.94
367.052	607.94
367.278	601.94
367.505	589.94
367.731	609.94
367.957	586.94
368.184	591.94
368.41	600.94
368.636	577.94
368.862	610.94
369.089	619.94
369.315	600.94
369.541	594.94
369.767	591.94
369.993	599.94
370.219	593.94
370.445	616.94
370.672	627.94
370.898	612.94
371.124	614.94
371.35	625.94
371.576	599.94
371.802	616.94
372.028	605.94
372.254	621.94
372.48	598.94
372.706	609.94
372.932	640.94
373.158	608.94
373.384	619.94
373.61	611.94
373.835	639.94
374.061	629.94
374.287	619.94
374.513	622.94
374.739	635.94
374.965	635.94
375.191	631.94
375.416	635.94
375.642	626.94
375.868	644.94
376.094	613.94
376.319	627.94
376.545	604.94
376.771	609.94
376.997	611.94
377.222	611.94
377.448	608.94
377.674	609.94
377.899	618.94
378.125	629.94
378.35	605.94
378.576	593.94
378.802	582.94
379.027	591.94
379.253	598.94
379.478	597.94
379.704	577.94
379.929	618.94
380.155	622.94
380.38	609.94
380.606	597.94
380.831	591.94
381.057	610.94
381.282	596.94
381.507	582.94
381.733	588.94
381.958	611.94
382.184	594.94
382.409	598.94
382.634	630.94
382.86	626.94
383.085	609.94
383.31	619.94
383.535	630.94
383.761	630.94
383.986	637.94
384.211	629.94
384.436	629.94
384.662	647.94
384.887	653.94
385.112	662.94
385.337	655.94
385.562	655.94
385.787	659.94
386.013	673.94
386.238	656.94
386.463	665.94
386.688	667.94
386.913	670.94
387.138	678.94
387.363	680.94
387.588	655.94
387.813	660.94
388.038	684.94
388.263	700.94
388.488	672.94
388.713	675.94
388.938	662.94
389.163	661.94
389.387	699.94
389.612	669.94
389.837	670.94
390.062	683.94
390.287	714.94
390.512	694.94
390.736	713.94
390.961	715.94
391.186	682.94
391.411	718.94
391.636	719.94
391.86	714.94
392.085	714.94
392.31	706.94
392.534	708.94
392.759	708.94
392.984	701.94
393.208	727.94
393.433	713.94
393.658	710.94
393.882	705.94
394.107	705.94
394.331	690.94
394.556	714.94
394.78	723.94
395.005	714.94
395.229	703.94
395.454	750.94
395.678	735.94
395.903	723.94
396.127	742.94
396.352	721.94
396.576	724.94
396.801	729.94
397.025	736.94
397.249	737.94
397.474	754.94
397.698	755.94
397.922	767.94
398.147	778.94
398.371	771.94
398.595	791.94
398.82	803.94
399.044	860.94
399.268	855.94
399.492	884.94
399.717	899.94
399.941	913.94
400.165	883.94
400.389	900.94
400.613	841.94
400.837	838.94
401.062	830.94
401.286	844.94
401.51	798.94
401.734	800.94
401.958	820.94
402.182	802.94
402.406	782.94
402.63	795.94
402.854	792.94
403.078	810.94
403.302	840.94
403.526	808.94
403.75	839.94
403.974	846.94
404.198	810.94
404.422	843.94
404.645	817.94
404.869	807.94
405.093	829.94
405.317	813.94
405.541	840.94
405.765	846.94
405.988	834.94
406.212	848.94
406.436	843.94
406.66	850.94
406.883	869.94
407.107	905.94
407.331	891.94
407.555	929.94
407.778	908.94
408.002	907.94
408.226	910.94
408.449	910.94
408.673	882.94
408.896	884.94
409.12	898.94
409.344	863.94
409.567	875.94
409.791	875.94
410.014	849.94
410.238	842.94
410.461	860.94
410.685	869.94
410.908	842.94
411.132	822.94
411.355	843.94
411.578	847.94
411.802	826.94
412.025	830.94
412.249	839.94
412.472	838.94
412.695	862.94
412.919	827.94
413.142	854.94
413.365	837.94
413.589	845.94
413.812	824.94
414.035	826.94
414.258	826.94
414.482	842.94
414.705	798.94
414.928	814.94
415.151	838.94
415.374	826.94
415.597	802.94
415.821	809.94
416.044	801.94
416.267	793.94
416.49	802.94
416.713	830.94
416.936	807.94
417.159	799.94
417.382	809.94
417.605	795.94
417.828	796.94
418.051	807.94
418.274	792.94
418.497	814.94
418.72	809.94
418.943	784.94
419.166	866.94
419.389	907.94
419.611	866.94
419.834	856.94
420.057	846.94
420.28	813.94
420.503	811.94
420.726	782.94
420.948	805.94
421.171	778.94
421.394	835.94
421.617	794.94
421.839	832.94
422.062	813.94
422.285	782.94
422.507	811.94
422.73	797.94
422.953	797.94
423.175	810.94
423.398	827.94
423.621	801.94
423.843	834.94
424.066	815.94
424.288	847.94
424.511	826.94
424.733	810.94
424.956	809.94
425.178	789.94
425.401	817.94
425.623	833.94
425.846	806.94
426.068	797.94
426.291	789.94
426.513	770.94
426.735	777.94
426.958	797.94
427.18	791.94
427.402	777.94
427.625	789.94
427.847	779.94
428.069	810.94
428.292	815.94
428.514	802.94
428.736	781.94
428.958	801.94
429.181	785.94
429.403	775.94
429.625	789.94
429.847	775.94
430.069	782.94
430.292	781.94
430.514	754.94
430.736	789.94
430.958	780.94
431.18	778.94
431.402	782.94
431.624	787.94
431.846	775.94
432.068	777.94
432.29	797.94
432.512	771.94
432.734	823.94
432.956	801.94
433.178	813.94
433.4	841.94
433.622	827.94
433.844	798.94
434.066	829.94
434.287	781.94
434.509	803.94
434.731	788.94
434.953	813.94
435.175	833.94
435.397	845.94
435.618	778.94
435.84	765.94
436.062	778.94
436.284	819.94
436.505	817.94
436.727	790.94
436.949	785.94
437.17	796.94
437.392	778.94
437.614	773.94
437.835	768.94
438.057	766.94
438.278	758.94
438.5	757.94
438.721	765.94
438.943	774.94
439.165	789.94
439.386	810.94
439.608	797.94
439.829	790.94
440.05	794.94
440.272	813.94
440.493	798.94
440.715	823.94
440.936	775.94
441.158	830.94
441.379	835.94
441.6	862.94
441.822	853.94
442.043	841.94
442.264	814.94
442.486	812.94
442.707	843.94
442.928	818.94
443.149	818.94
443.371	830.94
443.592	860.94
443.813	838.94
444.034	849.94
444.255	839.94
444.476	871.94
444.698	904.94
444.919	899.94
445.14	1006.94
445.361	932.94
445.582	866.94
445.803	848.94
446.024	853.94
446.245	837.94
446.466	818.94
446.687	797.94
446.908	810.94
447.129	811.94
447.35	803.94
447.571	777.94
447.792	811.94
448.013	783.94
448.234	769.94
448.455	770.94
448.675	739.94
448.896	758.94
449.117	742.94
449.338	769.94
449.559	743.94
449.779	746.94
450	755.94
450.221	750.94
450.442	737.94
450.662	735.94
450.883	735.94
451.104	758.94
451.324	732.94
451.545	742.94
451.766	755.94
451.986	745.94
452.207	735.94
452.428	734.94
452.648	749.94
452.869	726.94
453.089	679.94
453.31	718.94
453.53	737.94
453.751	691.94
453.971	725.94
454.192	693.94
454.412	723.94
454.633	729.94
454.853	705.94
455.073	731.94
455.294	712.94
455.514	687.94
455.734	715.94
455.955	714.94
456.175	703.94
456.395	703.94
456.616	684.94
456.836	694.94
457.056	699.94
457.276	699.94
457.497	722.94
457.717	690.94
457.937	677.94
458.157	693.94
458.377	718.94
458.598	707.94
458.818	712.94
459.038	753.94
459.258	751.94
459.478	782.94
459.698	780.94
459.918	822.94
460.138	809.94
460.358	855.94
460.578	848.94
460.798	851.94
461.018	858.94
461.238	865.94
461.458	830.94
461.678	809.94
461.898	911.94
462.118	890.94
462.338	899.94
462.558	886.94
462.777	945.94
462.997	917.94
463.217	942.94
463.437	969.94
463.657	967.94
463.876	955.94
464.096	951.94
464.316	921.94
464.536	910.94
464.755	896.94
464.975	886.94
465.195	878.94
465.414	854.94
465.634	842.94
465.854	829.94
466.073	799.94
466.293	798.94
466.512	813.94
466.732	789.94
466.951	766.94
467.171	775.94
467.391	774.94
467.61	754.94
467.829	750.94
468.049	761.94
468.268	758.94
468.488	748.94
468.707	763.94
468.927	761.94
469.146	757.94
469.365	760.94
469.585	767.94
469.804	787.94
470.023	800.94
470.243	781.94
470.462	797.94
470.681	760.94
470.901	780.94
471.12	773.94
471.339	804.94
471.558	798.94
471.777	804.94
471.997	745.94
472.216	769.94
472.435	767.94
472.654	755.94
472.873	739.94
473.092	743.94
473.311	764.94
473.53	757.94
473.749	763.94
473.968	767.94
474.187	760.94
474.406	763.94
474.625	779.94
474.844	786.94
475.063	766.94
475.282	781.94
475.501	791.94
475.72	801.94
475.939	794.94
476.158	792.94
476.377	803.94
476.596	766.94
476.814	790.94
477.033	808.94
477.252	820.94
477.471	826.94
477.69	832.94
477.908	872.94
478.127	859.94
478.346	868.94
478.564	865.94
478.783	884.94
479.002	898.94
479.22	920.94
479.439	872.94
479.658	895.94
479.876	879.94
480.095	884.94
480.313	897.94
480.532	901.94
480.751	893.94
480.969	881.94
481.188	874.94
481.406	892.94
481.624	886.94
481.843	862.94
482.061	875.94
482.28	861.94
482.498	873.94
482.717	861.94
482.935	870.94
483.153	884.94
483.372	890.94
483.59	921.94
483.808	903.94
484.027	874.94
484.245	855.94
484.463	870.94
484.681	910.94
484.9	865.94
485.118	907.94
485.336	865.94
485.554	895.94
485.772	869.94
485.99	879.94
486.209	914.94
486.427	885.94
486.645	894.94
486.863	909.94
487.081	928.94
487.299	918.94
487.517	890.94
487.735	923.94
487.953	953.94
488.171	924.94
488.389	929.94
488.607	915.94
488.825	905.94
489.043	895.94
489.261	895.94
489.479	891.94
489.696	918.94
489.914	899.94
490.132	919.94
490.35	904.94
490.568	931.94
490.786	921.94
491.003	967.94
491.221	955.94
491.439	947.94
491.657	966.94
491.874	990.94
492.092	984.94
492.31	982.94
492.527	974.94
492.745	1001.94
492.963	1012.94
493.18	981.94
493.398	989.94
493.615	975.94
493.833	998.94
494.05	1012.94
494.268	993.94
494.485	982.94
494.703	990.94
494.92	959.94
495.138	1018.94
495.355	1028.94
495.573	1024.94
495.79	1011.94
496.008	991.94
496.225	1030.94
496.442	1032.94
496.66	1035.94
496.877	1055.94
497.094	1051.94
497.312	1114.94
497.529	1064.94
497.746	1073.94
497.963	1124.94
498.181	1139.94
498.398	1137.94
498.615	1213.94
498.832	1246.94
499.049	1258.94
499.267	1358.94
499.484	1378.94
499.701	1442.94
499.918	1529.94
500.135	1549.94
500.352	1587.94
500.569	1614.94
500.786	1623.94
501.003	1554.94
501.22	1483.94
