Data from Ni(NO3)2@0.5M.TitratingCurve.Agarose3%dH2O.NegLispCup.LampEnergy10.LIBS07252019_HRD10591_17-59-53-565.txt Node
Date: Thu Jul 25 17:59:53 EDT 2019
User: cochatt
Spectrometer: HR+D1059
Trigger mode: 1
Integration Time (sec): 1.000000E-1
Scans to average: 1
Electric dark correction enabled: true
Nonlinearity correction enabled: false
Boxcar width: 0
XAxis mode: Wavelengths
Number of Pixels in Spectrum: 2048
>>>>>Begin Spectral Data<<<<<
223.165	-18.94
223.4	-18.94
223.635	-18.94
223.869	-15.94
224.104	-30.94
224.338	-1.94
224.573	-12.94
224.808	-17.94
225.042	-8.94
225.277	-5.94
225.511	-9.94
225.746	5.06
225.98	-1.94
226.215	10.06
226.449	13.06
226.683	19.06
226.918	39.06
227.152	39.06
227.387	33.06
227.621	31.06
227.856	28.06
228.09	51.06
228.324	48.06
228.559	54.06
228.793	75.06
229.027	124.06
229.262	114.06
229.496	114.06
229.73	114.06
229.964	134.06
230.199	156.06
230.433	161.06
230.667	143.06
230.901	149.06
231.136	139.06
231.37	131.06
231.604	140.06
231.838	147.06
232.072	168.06
232.306	165.06
232.541	160.06
232.775	159.06
233.009	141.06
233.243	137.06
233.477	140.06
233.711	148.06
233.945	150.06
234.179	169.06
234.413	158.06
234.647	147.06
234.881	161.06
235.115	153.06
235.349	139.06
235.583	139.06
235.817	149.06
236.051	141.06
236.285	137.06
236.519	142.06
236.753	161.06
236.987	144.06
237.221	150.06
237.455	151.06
237.689	153.06
237.922	169.06
238.156	155.06
238.39	155.06
238.624	167.06
238.858	166.06
239.091	170.06
239.325	183.06
239.559	171.06
239.793	174.06
240.027	176.06
240.26	173.06
240.494	167.06
240.728	183.06
240.961	176.06
241.195	167.06
241.429	182.06
241.662	189.06
241.896	183.06
242.13	210.06
242.363	188.06
242.597	186.06
242.83	192.06
243.064	172.06
243.298	178.06
243.531	178.06
243.765	211.06
243.998	193.06
244.232	199.06
244.465	207.06
244.699	208.06
244.932	187.06
245.166	191.06
245.399	208.06
245.633	205.06
245.866	197.06
246.099	205.06
246.333	187.06
246.566	199.06
246.8	199.06
247.033	216.06
247.266	205.06
247.5	202.06
247.733	212.06
247.966	214.06
248.2	209.06
248.433	223.06
248.666	216.06
248.899	211.06
249.133	222.06
249.366	229.06
249.599	209.06
249.832	218.06
250.066	226.06
250.299	234.06
250.532	218.06
250.765	222.06
250.998	226.06
251.231	241.06
251.465	235.06
251.698	247.06
251.931	232.06
252.164	240.06
252.397	249.06
252.63	239.06
252.863	237.06
253.096	249.06
253.329	234.06
253.562	244.06
253.795	258.06
254.028	253.06
254.261	266.06
254.494	246.06
254.727	253.06
254.96	265.06
255.193	246.06
255.426	247.06
255.659	247.06
255.892	261.06
256.124	273.06
256.357	261.06
256.59	278.06
256.823	271.06
257.056	257.06
257.289	269.06
257.521	263.06
257.754	282.06
257.987	280.06
258.22	282.06
258.452	281.06
258.685	280.06
258.918	288.06
259.151	269.06
259.383	302.06
259.616	310.06
259.849	264.06
260.081	298.06
260.314	284.06
260.547	297.06
260.779	294.06
261.012	291.06
261.244	302.06
261.477	297.06
261.71	298.06
261.942	288.06
262.175	311.06
262.407	301.06
262.64	292.06
262.872	290.06
263.105	308.06
263.337	298.06
263.57	330.06
263.802	335.06
264.035	296.06
264.267	310.06
264.499	322.06
264.732	332.06
264.964	312.06
265.197	333.06
265.429	308.06
265.661	319.06
265.894	338.06
266.126	314.06
266.358	320.06
266.591	336.06
266.823	327.06
267.055	321.06
267.287	325.06
267.52	347.06
267.752	342.06
267.984	333.06
268.216	328.06
268.448	351.06
268.681	346.06
268.913	350.06
269.145	348.06
269.377	346.06
269.609	356.06
269.841	334.06
270.073	339.06
270.306	350.06
270.538	349.06
270.77	345.06
271.002	367.06
271.234	352.06
271.466	362.06
271.698	364.06
271.93	364.06
272.162	365.06
272.394	358.06
272.626	349.06
272.858	354.06
273.09	375.06
273.322	384.06
273.553	367.06
273.785	382.06
274.017	380.06
274.249	377.06
274.481	395.06
274.713	361.06
274.945	382.06
275.176	376.06
275.408	379.06
275.64	364.06
275.872	380.06
276.104	390.06
276.335	380.06
276.567	363.06
276.799	397.06
277.031	386.06
277.262	398.06
277.494	401.06
277.726	395.06
277.957	394.06
278.189	377.06
278.421	379.06
278.652	420.06
278.884	412.06
279.115	402.06
279.347	417.06
279.579	396.06
279.81	422.06
280.042	433.06
280.273	415.06
280.505	421.06
280.736	410.06
280.968	420.06
281.199	420.06
281.431	420.06
281.662	407.06
281.894	420.06
282.125	407.06
282.356	442.06
282.588	426.06
282.819	434.06
283.051	426.06
283.282	434.06
283.513	424.06
283.745	428.06
283.976	433.06
284.207	458.06
284.439	442.06
284.67	427.06
284.901	436.06
285.132	433.06
285.364	447.06
285.595	457.06
285.826	442.06
286.057	444.06
286.288	443.06
286.52	434.06
286.751	456.06
286.982	434.06
287.213	465.06
287.444	455.06
287.675	436.06
287.906	471.06
288.138	458.06
288.369	464.06
288.6	453.06
288.831	446.06
289.062	458.06
289.293	441.06
289.524	485.06
289.755	484.06
289.986	466.06
290.217	458.06
290.448	457.06
290.679	462.06
290.91	455.06
291.141	460.06
291.371	466.06
291.602	470.06
291.833	473.06
292.064	448.06
292.295	448.06
292.526	470.06
292.757	462.06
292.987	460.06
293.218	457.06
293.449	474.06
293.68	488.06
293.91	485.06
294.141	493.06
294.372	458.06
294.603	470.06
294.833	466.06
295.064	463.06
295.295	490.06
295.525	492.06
295.756	478.06
295.987	491.06
296.217	489.06
296.448	469.06
296.679	465.06
296.909	492.06
297.14	500.06
297.37	531.06
297.601	490.06
297.831	500.06
298.062	492.06
298.292	508.06
298.523	518.06
298.753	509.06
298.984	528.06
299.214	497.06
299.445	513.06
299.675	512.06
299.905	527.06
300.136	516.06
300.366	535.06
300.597	539.06
300.827	543.06
301.057	522.06
301.288	539.06
301.518	528.06
301.748	544.06
301.979	543.06
302.209	546.06
302.439	518.06
302.669	535.06
302.9	537.06
303.13	538.06
303.36	518.06
303.59	536.06
303.82	511.06
304.051	539.06
304.281	537.06
304.511	536.06
304.741	542.06
304.971	537.06
305.201	557.06
305.431	545.06
305.661	537.06
305.891	518.06
306.121	516.06
306.352	542.06
306.582	530.06
306.812	543.06
307.042	552.06
307.272	553.06
307.502	524.06
307.731	533.06
307.961	542.06
308.191	560.06
308.421	550.06
308.651	538.06
308.881	530.06
309.111	525.06
309.341	525.06
309.571	568.06
309.8	556.06
310.03	547.06
310.26	562.06
310.49	574.06
310.72	547.06
310.949	540.06
311.179	546.06
311.409	549.06
311.639	550.06
311.868	539.06
312.098	558.06
312.328	574.06
312.557	551.06
312.787	589.06
313.017	559.06
313.246	561.06
313.476	572.06
313.706	592.06
313.935	578.06
314.165	577.06
314.394	578.06
314.624	584.06
314.853	570.06
315.083	589.06
315.312	600.06
315.542	586.06
315.771	596.06
316.001	587.06
316.23	598.06
316.46	576.06
316.689	585.06
316.919	577.06
317.148	598.06
317.377	597.06
317.607	591.06
317.836	585.06
318.065	600.06
318.295	562.06
318.524	591.06
318.753	600.06
318.983	613.06
319.212	587.06
319.441	587.06
319.67	600.06
319.9	591.06
320.129	604.06
320.358	597.06
320.587	583.06
320.816	609.06
321.046	610.06
321.275	616.06
321.504	616.06
321.733	597.06
321.962	588.06
322.191	608.06
322.42	617.06
322.649	592.06
322.878	611.06
323.108	609.06
323.337	607.06
323.566	638.06
323.795	635.06
324.024	633.06
324.253	633.06
324.482	635.06
324.71	612.06
324.939	626.06
325.168	654.06
325.397	623.06
325.626	649.06
325.855	658.06
326.084	644.06
326.313	646.06
326.542	649.06
326.77	651.06
326.999	636.06
327.228	628.06
327.457	632.06
327.686	652.06
327.914	657.06
328.143	667.06
328.372	656.06
328.6	662.06
328.829	640.06
329.058	669.06
329.287	663.06
329.515	685.06
329.744	653.06
329.972	678.06
330.201	676.06
330.43	670.06
330.658	663.06
330.887	668.06
331.115	693.06
331.344	683.06
331.572	687.06
331.801	712.06
332.03	711.06
332.258	685.06
332.486	734.06
332.715	721.06
332.943	748.06
333.172	740.06
333.4	760.06
333.629	762.06
333.857	773.06
334.085	780.06
334.314	802.06
334.542	789.06
334.771	803.06
334.999	818.06
335.227	787.06
335.455	773.06
335.684	782.06
335.912	791.06
336.14	778.06
336.369	773.06
336.597	759.06
336.825	758.06
337.053	776.06
337.281	783.06
337.51	764.06
337.738	779.06
337.966	742.06
338.194	764.06
338.422	743.06
338.65	732.06
338.878	717.06
339.106	720.06
339.334	715.06
339.562	718.06
339.79	703.06
340.018	712.06
340.246	717.06
340.474	717.06
340.702	711.06
340.93	724.06
341.158	724.06
341.386	701.06
341.614	735.06
341.842	744.06
342.07	696.06
342.298	705.06
342.526	720.06
342.754	706.06
342.981	716.06
343.209	746.06
343.437	728.06
343.665	752.06
343.893	789.06
344.12	785.06
344.348	777.06
344.576	778.06
344.804	757.06
345.031	731.06
345.259	719.06
345.487	746.06
345.714	743.06
345.942	710.06
346.17	753.06
346.397	714.06
346.625	711.06
346.853	689.06
347.08	678.06
347.308	690.06
347.535	685.06
347.763	672.06
347.99	678.06
348.218	688.06
348.445	670.06
348.673	676.06
348.9	675.06
349.128	695.06
349.355	700.06
349.583	685.06
349.81	702.06
350.037	678.06
350.265	664.06
350.492	668.06
350.72	683.06
350.947	693.06
351.174	662.06
351.402	671.06
351.629	715.06
351.856	672.06
352.083	678.06
352.311	694.06
352.538	689.06
352.765	695.06
352.992	664.06
353.22	648.06
353.447	623.06
353.674	637.06
353.901	667.06
354.128	648.06
354.355	653.06
354.583	651.06
354.81	645.06
355.037	653.06
355.264	659.06
355.491	655.06
355.718	661.06
355.945	660.06
356.172	656.06
356.399	652.06
356.626	673.06
356.853	687.06
357.08	676.06
357.307	705.06
357.534	670.06
357.761	659.06
357.988	642.06
358.215	640.06
358.441	658.06
358.668	650.06
358.895	670.06
359.122	658.06
359.349	654.06
359.576	668.06
359.802	661.06
360.029	662.06
360.256	658.06
360.483	681.06
360.709	662.06
360.936	695.06
361.163	648.06
361.39	674.06
361.616	645.06
361.843	665.06
362.07	684.06
362.296	688.06
362.523	678.06
362.749	669.06
362.976	692.06
363.203	672.06
363.429	676.06
363.656	653.06
363.882	664.06
364.109	662.06
364.335	652.06
364.562	662.06
364.788	664.06
365.015	686.06
365.241	678.06
365.468	671.06
365.694	652.06
365.92	680.06
366.147	682.06
366.373	675.06
366.599	658.06
366.826	676.06
367.052	677.06
367.278	668.06
367.505	662.06
367.731	698.06
367.957	649.06
368.184	705.06
368.41	687.06
368.636	687.06
368.862	683.06
369.089	678.06
369.315	682.06
369.541	660.06
369.767	680.06
369.993	669.06
370.219	695.06
370.445	694.06
370.672	715.06
370.898	706.06
371.124	690.06
371.35	728.06
371.576	713.06
371.802	739.06
372.028	728.06
372.254	736.06
372.48	713.06
372.706	736.06
372.932	723.06
373.158	687.06
373.384	697.06
373.61	712.06
373.835	704.06
374.061	738.06
374.287	721.06
374.513	736.06
374.739	752.06
374.965	761.06
375.191	764.06
375.416	736.06
375.642	735.06
375.868	740.06
376.094	741.06
376.319	728.06
376.545	762.06
376.771	724.06
376.997	725.06
377.222	723.06
377.448	718.06
377.674	689.06
377.899	713.06
378.125	719.06
378.35	697.06
378.576	688.06
378.802	700.06
379.027	718.06
379.253	715.06
379.478	704.06
379.704	707.06
379.929	702.06
380.155	708.06
380.38	707.06
380.606	715.06
380.831	706.06
381.057	710.06
381.282	724.06
381.507	702.06
381.733	720.06
381.958	709.06
382.184	723.06
382.409	718.06
382.634	729.06
382.86	743.06
383.085	733.06
383.31	736.06
383.535	732.06
383.761	736.06
383.986	749.06
384.211	758.06
384.436	743.06
384.662	756.06
384.887	796.06
385.112	787.06
385.337	789.06
385.562	796.06
385.787	802.06
386.013	847.06
386.238	826.06
386.463	807.06
386.688	806.06
386.913	796.06
387.138	801.06
387.363	825.06
387.588	815.06
387.813	832.06
388.038	813.06
388.263	850.06
388.488	826.06
388.713	805.06
388.938	818.06
389.163	801.06
389.387	816.06
389.612	802.06
389.837	803.06
390.062	817.06
390.287	812.06
390.512	809.06
390.736	836.06
390.961	840.06
391.186	854.06
391.411	867.06
391.636	873.06
391.86	882.06
392.085	864.06
392.31	862.06
392.534	881.06
392.759	884.06
392.984	841.06
393.208	858.06
393.433	868.06
393.658	879.06
393.882	846.06
394.107	850.06
394.331	860.06
394.556	876.06
394.78	883.06
395.005	891.06
395.229	865.06
395.454	901.06
395.678	926.06
395.903	890.06
396.127	885.06
396.352	896.06
396.576	871.06
396.801	897.06
397.025	904.06
397.249	898.06
397.474	935.06
397.698	924.06
397.922	935.06
398.147	938.06
398.371	941.06
398.595	958.06
398.82	991.06
399.044	1029.06
399.268	1076.06
399.492	1136.06
399.717	1201.06
399.941	1208.06
400.165	1190.06
400.389	1132.06
400.613	1062.06
400.837	1055.06
401.062	1029.06
401.286	1013.06
401.51	968.06
401.734	1000.06
401.958	994.06
402.182	1004.06
402.406	1015.06
402.63	1006.06
402.854	1014.06
403.078	990.06
403.302	1000.06
403.526	996.06
403.75	1004.06
403.974	1042.06
404.198	1031.06
404.422	1056.06
404.645	1032.06
404.869	1045.06
405.093	1036.06
405.317	1028.06
405.541	1034.06
405.765	1050.06
405.988	1046.06
406.212	1073.06
406.436	1046.06
406.66	1110.06
406.883	1087.06
407.107	1135.06
407.331	1165.06
407.555	1180.06
407.778	1171.06
408.002	1130.06
408.226	1121.06
408.449	1157.06
408.673	1068.06
408.896	1120.06
409.12	1063.06
409.344	1088.06
409.567	1054.06
409.791	1087.06
410.014	1087.06
410.238	1071.06
410.461	1065.06
410.685	1041.06
410.908	1054.06
411.132	1057.06
411.355	1042.06
411.578	1013.06
411.802	1048.06
412.025	1025.06
412.249	1037.06
412.472	1014.06
412.695	1000.06
412.919	1001.06
413.142	1001.06
413.365	1001.06
413.589	980.06
413.812	1012.06
414.035	1016.06
414.258	1000.06
414.482	1005.06
414.705	1039.06
414.928	1004.06
415.151	1000.06
415.374	982.06
415.597	980.06
415.821	942.06
416.044	953.06
416.267	985.06
416.49	974.06
416.713	951.06
416.936	962.06
417.159	954.06
417.382	963.06
417.605	909.06
417.828	951.06
418.051	936.06
418.274	951.06
418.497	960.06
418.72	985.06
418.943	963.06
419.166	1026.06
419.389	1043.06
419.611	1037.06
419.834	1017.06
420.057	985.06
420.28	956.06
420.503	961.06
420.726	956.06
420.948	958.06
421.171	959.06
421.394	991.06
421.617	960.06
421.839	959.06
422.062	992.06
422.285	945.06
422.507	973.06
422.73	969.06
422.953	937.06
423.175	964.06
423.398	942.06
423.621	967.06
423.843	976.06
424.066	987.06
424.288	967.06
424.511	982.06
424.733	960.06
424.956	950.06
425.178	941.06
425.401	953.06
425.623	932.06
425.846	936.06
426.068	962.06
426.291	932.06
426.513	928.06
426.735	942.06
426.958	930.06
427.18	898.06
427.402	920.06
427.625	927.06
427.847	913.06
428.069	900.06
428.292	911.06
428.514	856.06
428.736	906.06
428.958	934.06
429.181	903.06
429.403	904.06
429.625	903.06
429.847	907.06
430.069	886.06
430.292	867.06
430.514	885.06
430.736	904.06
430.958	896.06
431.18	893.06
431.402	914.06
431.624	895.06
431.846	898.06
432.068	897.06
432.29	930.06
432.512	892.06
432.734	897.06
432.956	895.06
433.178	918.06
433.4	924.06
433.622	907.06
433.844	946.06
434.066	920.06
434.287	925.06
434.509	932.06
434.731	942.06
434.953	961.06
435.175	960.06
435.397	975.06
435.618	944.06
435.84	934.06
436.062	915.06
436.284	922.06
436.505	909.06
436.727	916.06
436.949	905.06
437.17	892.06
437.392	900.06
437.614	907.06
437.835	875.06
438.057	903.06
438.278	879.06
438.5	889.06
438.721	849.06
438.943	893.06
439.165	858.06
439.386	865.06
439.608	868.06
439.829	897.06
440.05	888.06
440.272	917.06
440.493	902.06
440.715	912.06
440.936	921.06
441.158	964.06
441.379	964.06
441.6	976.06
441.822	971.06
442.043	939.06
442.264	961.06
442.486	946.06
442.707	933.06
442.928	930.06
443.149	984.06
443.371	945.06
443.592	993.06
443.813	930.06
444.034	985.06
444.255	1011.06
444.476	1028.06
444.698	1052.06
444.919	1035.06
445.14	1133.06
445.361	1055.06
445.582	1006.06
445.803	964.06
446.024	950.06
446.245	929.06
446.466	925.06
446.687	897.06
446.908	902.06
447.129	879.06
447.35	891.06
447.571	887.06
447.792	849.06
448.013	870.06
448.234	871.06
448.455	849.06
448.675	839.06
448.896	844.06
449.117	817.06
449.338	825.06
449.559	817.06
449.779	832.06
450	820.06
450.221	824.06
450.442	828.06
450.662	836.06
450.883	840.06
451.104	846.06
451.324	820.06
451.545	835.06
451.766	818.06
451.986	793.06
452.207	815.06
452.428	824.06
452.648	790.06
452.869	810.06
453.089	794.06
453.31	794.06
453.53	793.06
453.751	784.06
453.971	801.06
454.192	775.06
454.412	794.06
454.633	801.06
454.853	796.06
455.073	787.06
455.294	805.06
455.514	815.06
455.734	789.06
455.955	802.06
456.175	786.06
456.395	784.06
456.616	762.06
456.836	772.06
457.056	780.06
457.276	765.06
457.497	785.06
457.717	800.06
457.937	792.06
458.157	801.06
458.377	813.06
458.598	828.06
458.818	823.06
459.038	838.06
459.258	874.06
459.478	907.06
459.698	944.06
459.918	952.06
460.138	973.06
460.358	965.06
460.578	976.06
460.798	1012.06
461.018	1033.06
461.238	977.06
461.458	973.06
461.678	981.06
461.898	979.06
462.118	1012.06
462.338	1020.06
462.558	1064.06
462.777	1131.06
462.997	1143.06
463.217	1154.06
463.437	1162.06
463.657	1161.06
463.876	1092.06
464.096	1068.06
464.316	1070.06
464.536	1068.06
464.755	1058.06
464.975	1017.06
465.195	1000.06
465.414	965.06
465.634	956.06
465.854	925.06
466.073	902.06
466.293	885.06
466.512	880.06
466.732	884.06
466.951	865.06
467.171	864.06
467.391	914.06
467.61	873.06
467.829	850.06
468.049	832.06
468.268	843.06
468.488	836.06
468.707	851.06
468.927	840.06
469.146	822.06
469.365	851.06
469.585	860.06
469.804	843.06
470.023	884.06
470.243	878.06
470.462	850.06
470.681	855.06
470.901	885.06
471.12	892.06
471.339	858.06
471.558	862.06
471.777	855.06
471.997	843.06
472.216	844.06
472.435	861.06
472.654	851.06
472.873	848.06
473.092	832.06
473.311	863.06
473.53	828.06
473.749	834.06
473.968	864.06
474.187	860.06
474.406	844.06
474.625	841.06
474.844	863.06
475.063	838.06
475.282	846.06
475.501	861.06
475.72	849.06
475.939	851.06
476.158	873.06
476.377	860.06
476.596	865.06
476.814	904.06
477.033	904.06
477.252	896.06
477.471	920.06
477.69	911.06
477.908	963.06
478.127	934.06
478.346	967.06
478.564	988.06
478.783	971.06
479.002	994.06
479.22	1000.06
479.439	1066.06
479.658	992.06
479.876	979.06
480.095	1000.06
480.313	1034.06
480.532	1052.06
480.751	1027.06
480.969	988.06
481.188	1008.06
481.406	1009.06
481.624	997.06
481.843	943.06
482.061	986.06
482.28	998.06
482.498	962.06
482.717	948.06
482.935	965.06
483.153	1009.06
483.372	1010.06
483.59	1049.06
483.808	999.06
484.027	1002.06
484.245	996.06
484.463	978.06
484.681	1014.06
484.9	1020.06
485.118	1040.06
485.336	1009.06
485.554	1027.06
485.772	1044.06
485.99	1059.06
486.209	1019.06
486.427	1002.06
486.645	1011.06
486.863	1022.06
487.081	1033.06
487.299	1008.06
487.517	1016.06
487.735	1036.06
487.953	1064.06
488.171	1022.06
488.389	1041.06
488.607	1053.06
488.825	1057.06
489.043	1028.06
489.261	982.06
489.479	994.06
489.696	1018.06
489.914	1002.06
490.132	1005.06
490.35	1016.06
490.568	1045.06
490.786	1038.06
491.003	1037.06
491.221	1037.06
491.439	1038.06
491.657	1022.06
491.874	1070.06
492.092	1041.06
492.31	1045.06
492.527	1057.06
492.745	1057.06
492.963	1039.06
493.18	1019.06
493.398	1060.06
493.615	1048.06
493.833	1058.06
494.05	1055.06
494.268	1037.06
494.485	1055.06
494.703	1100.06
494.92	1084.06
495.138	1042.06
495.355	1090.06
495.573	1052.06
495.79	1060.06
496.008	1083.06
496.225	1080.06
496.442	1089.06
496.66	1102.06
496.877	1120.06
497.094	1148.06
497.312	1186.06
497.529	1178.06
497.746	1174.06
497.963	1213.06
498.181	1263.06
498.398	1292.06
498.615	1360.06
498.832	1402.06
499.049	1436.06
499.267	1528.06
