Data from Ni(NO3)2@0.25M.TitratingCurve.Agarose3%dH2O.NegLispCup.LampEnergy10.LIBS07252019_HRD10591_18-04-38-566.txt Node
Date: Thu Jul 25 18:04:38 EDT 2019
User: cochatt
Spectrometer: HR+D1059
Trigger mode: 1
Integration Time (sec): 1.000000E-1
Scans to average: 1
Electric dark correction enabled: true
Nonlinearity correction enabled: false
Boxcar width: 0
XAxis mode: Wavelengths
Number of Pixels in Spectrum: 2048
>>>>>Begin Spectral Data<<<<<
223.165	-23.12
223.4	-23.12
223.635	-23.12
223.869	-27.12
224.104	-3.12
224.338	-17.12
224.573	-20.12
224.808	-25.12
225.042	-4.12
225.277	-5.12
225.511	8.88
225.746	-9.12
225.98	7.88
226.215	10.88
226.449	29.88
226.683	12.88
226.918	38.88
227.152	24.88
227.387	32.88
227.621	36.88
227.856	43.88
228.09	55.88
228.324	50.88
228.559	55.88
228.793	80.88
229.027	86.88
229.262	100.88
229.496	109.88
229.73	115.88
229.964	99.88
230.199	120.88
230.433	117.88
230.667	114.88
230.901	120.88
231.136	139.88
231.37	125.88
231.604	109.88
231.838	137.88
232.072	124.88
232.306	131.88
232.541	129.88
232.775	129.88
233.009	137.88
233.243	119.88
233.477	128.88
233.711	137.88
233.945	134.88
234.179	131.88
234.413	139.88
234.647	132.88
234.881	133.88
235.115	151.88
235.349	139.88
235.583	119.88
235.817	132.88
236.051	131.88
236.285	140.88
236.519	141.88
236.753	140.88
236.987	150.88
237.221	135.88
237.455	137.88
237.689	141.88
237.922	135.88
238.156	149.88
238.39	147.88
238.624	156.88
238.858	124.88
239.091	151.88
239.325	171.88
239.559	145.88
239.793	154.88
240.027	151.88
240.26	163.88
240.494	133.88
240.728	163.88
240.961	147.88
241.195	143.88
241.429	167.88
241.662	151.88
241.896	156.88
242.13	161.88
242.363	154.88
242.597	167.88
242.83	162.88
243.064	169.88
243.298	173.88
243.531	183.88
243.765	159.88
243.998	159.88
244.232	179.88
244.465	175.88
244.699	171.88
244.932	177.88
245.166	187.88
245.399	176.88
245.633	163.88
245.866	197.88
246.099	192.88
246.333	175.88
246.566	191.88
246.8	197.88
247.033	201.88
247.266	200.88
247.5	202.88
247.733	205.88
247.966	199.88
248.2	207.88
248.433	180.88
248.666	206.88
248.899	219.88
249.133	232.88
249.366	216.88
249.599	220.88
249.832	214.88
250.066	221.88
250.299	218.88
250.532	212.88
250.765	213.88
250.998	230.88
251.231	211.88
251.465	230.88
251.698	219.88
251.931	228.88
252.164	232.88
252.397	251.88
252.63	240.88
252.863	238.88
253.096	235.88
253.329	238.88
253.562	216.88
253.795	271.88
254.028	251.88
254.261	228.88
254.494	272.88
254.727	243.88
254.96	260.88
255.193	257.88
255.426	247.88
255.659	251.88
255.892	251.88
256.124	270.88
256.357	263.88
256.59	267.88
256.823	251.88
257.056	280.88
257.289	254.88
257.521	273.88
257.754	241.88
257.987	263.88
258.22	277.88
258.452	259.88
258.685	268.88
258.918	270.88
259.151	278.88
259.383	271.88
259.616	278.88
259.849	273.88
260.081	304.88
260.314	282.88
260.547	302.88
260.779	289.88
261.012	299.88
261.244	303.88
261.477	296.88
261.71	292.88
261.942	300.88
262.175	313.88
262.407	300.88
262.64	305.88
262.872	283.88
263.105	287.88
263.337	307.88
263.57	296.88
263.802	303.88
264.035	296.88
264.267	313.88
264.499	304.88
264.732	300.88
264.964	302.88
265.197	311.88
265.429	333.88
265.661	328.88
265.894	326.88
266.126	317.88
266.358	324.88
266.591	329.88
266.823	340.88
267.055	322.88
267.287	325.88
267.52	312.88
267.752	312.88
267.984	318.88
268.216	317.88
268.448	332.88
268.681	336.88
268.913	343.88
269.145	315.88
269.377	320.88
269.609	331.88
269.841	337.88
270.073	324.88
270.306	361.88
270.538	321.88
270.77	326.88
271.002	348.88
271.234	348.88
271.466	348.88
271.698	341.88
271.93	343.88
272.162	353.88
272.394	348.88
272.626	359.88
272.858	344.88
273.09	351.88
273.322	360.88
273.553	348.88
273.785	349.88
274.017	356.88
274.249	362.88
274.481	368.88
274.713	367.88
274.945	381.88
275.176	375.88
275.408	351.88
275.64	362.88
275.872	349.88
276.104	385.88
276.335	375.88
276.567	375.88
276.799	379.88
277.031	367.88
277.262	386.88
277.494	372.88
277.726	359.88
277.957	389.88
278.189	385.88
278.421	367.88
278.652	391.88
278.884	396.88
279.115	388.88
279.347	376.88
279.579	401.88
279.81	374.88
280.042	383.88
280.273	382.88
280.505	405.88
280.736	385.88
280.968	385.88
281.199	388.88
281.431	390.88
281.662	400.88
281.894	393.88
282.125	410.88
282.356	421.88
282.588	407.88
282.819	406.88
283.051	409.88
283.282	404.88
283.513	414.88
283.745	406.88
283.976	405.88
284.207	428.88
284.439	422.88
284.67	417.88
284.901	413.88
285.132	400.88
285.364	411.88
285.595	419.88
285.826	437.88
286.057	441.88
286.288	413.88
286.52	439.88
286.751	428.88
286.982	417.88
287.213	417.88
287.444	440.88
287.675	436.88
287.906	425.88
288.138	431.88
288.369	453.88
288.6	425.88
288.831	447.88
289.062	451.88
289.293	431.88
289.524	455.88
289.755	455.88
289.986	458.88
290.217	453.88
290.448	448.88
290.679	451.88
290.91	446.88
291.141	447.88
291.371	450.88
291.602	425.88
291.833	446.88
292.064	435.88
292.295	460.88
292.526	452.88
292.757	446.88
292.987	431.88
293.218	430.88
293.449	443.88
293.68	433.88
293.91	451.88
294.141	465.88
294.372	451.88
294.603	467.88
294.833	445.88
295.064	460.88
295.295	463.88
295.525	464.88
295.756	457.88
295.987	429.88
296.217	466.88
296.448	464.88
296.679	463.88
296.909	476.88
297.14	462.88
297.37	481.88
297.601	472.88
297.831	469.88
298.062	481.88
298.292	477.88
298.523	495.88
298.753	475.88
298.984	507.88
299.214	487.88
299.445	493.88
299.675	471.88
299.905	506.88
300.136	485.88
300.366	495.88
300.597	516.88
300.827	499.88
301.057	483.88
301.288	517.88
301.518	503.88
301.748	496.88
301.979	517.88
302.209	515.88
302.439	505.88
302.669	502.88
302.9	504.88
303.13	499.88
303.36	500.88
303.59	471.88
303.82	504.88
304.051	511.88
304.281	503.88
304.511	496.88
304.741	524.88
304.971	520.88
305.201	514.88
305.431	526.88
305.661	503.88
305.891	506.88
306.121	515.88
306.352	499.88
306.582	496.88
306.812	500.88
307.042	523.88
307.272	502.88
307.502	495.88
307.731	508.88
307.961	498.88
308.191	483.88
308.421	496.88
308.651	511.88
308.881	484.88
309.111	521.88
309.341	507.88
309.571	500.88
309.8	516.88
310.03	521.88
310.26	511.88
310.49	511.88
310.72	540.88
310.949	507.88
311.179	519.88
311.409	529.88
311.639	510.88
311.868	535.88
312.098	539.88
312.328	542.88
312.557	540.88
312.787	500.88
313.017	547.88
313.246	554.88
313.476	554.88
313.706	545.88
313.935	555.88
314.165	553.88
314.394	539.88
314.624	568.88
314.853	544.88
315.083	555.88
315.312	558.88
315.542	563.88
315.771	565.88
316.001	581.88
316.23	559.88
316.46	544.88
316.689	551.88
316.919	547.88
317.148	573.88
317.377	563.88
317.607	554.88
317.836	572.88
318.065	568.88
318.295	569.88
318.524	555.88
318.753	552.88
318.983	568.88
319.212	558.88
319.441	557.88
319.67	558.88
319.9	556.88
320.129	575.88
320.358	583.88
320.587	561.88
320.816	585.88
321.046	565.88
321.275	544.88
321.504	584.88
321.733	566.88
321.962	587.88
322.191	597.88
322.42	588.88
322.649	601.88
322.878	603.88
323.108	615.88
323.337	597.88
323.566	593.88
323.795	593.88
324.024	586.88
324.253	601.88
324.482	620.88
324.71	618.88
324.939	587.88
325.168	619.88
325.397	639.88
325.626	642.88
325.855	615.88
326.084	648.88
326.313	636.88
326.542	644.88
326.77	671.88
326.999	650.88
327.228	657.88
327.457	637.88
327.686	635.88
327.914	647.88
328.143	667.88
328.372	660.88
328.6	672.88
328.829	683.88
329.058	678.88
329.287	656.88
329.515	695.88
329.744	673.88
329.972	655.88
330.201	672.88
330.43	687.88
330.658	663.88
330.887	693.88
331.115	730.88
331.344	714.88
331.572	698.88
331.801	709.88
332.03	730.88
332.258	731.88
332.486	751.88
332.715	800.88
332.943	815.88
333.172	798.88
333.4	855.88
333.629	864.88
333.857	869.88
334.085	869.88
334.314	890.88
334.542	874.88
334.771	870.88
334.999	857.88
335.227	860.88
335.455	865.88
335.684	869.88
335.912	881.88
336.14	848.88
336.369	832.88
336.597	846.88
336.825	844.88
337.053	815.88
337.281	821.88
337.51	813.88
337.738	806.88
337.966	790.88
338.194	804.88
338.422	756.88
338.65	751.88
338.878	747.88
339.106	770.88
339.334	748.88
339.562	725.88
339.79	723.88
340.018	728.88
340.246	725.88
340.474	721.88
340.702	713.88
340.93	743.88
341.158	729.88
341.386	744.88
341.614	767.88
341.842	735.88
342.07	709.88
342.298	704.88
342.526	742.88
342.754	711.88
342.981	736.88
343.209	753.88
343.437	764.88
343.665	846.88
343.893	863.88
344.12	882.88
344.348	866.88
344.576	837.88
344.804	784.88
345.031	804.88
345.259	751.88
345.487	745.88
345.714	733.88
345.942	759.88
346.17	750.88
346.397	737.88
346.625	719.88
346.853	724.88
347.08	685.88
347.308	707.88
347.535	707.88
347.763	724.88
347.99	714.88
348.218	713.88
348.445	714.88
348.673	708.88
348.9	715.88
349.128	702.88
349.355	693.88
349.583	716.88
349.81	692.88
350.037	685.88
350.265	698.88
350.492	689.88
350.72	675.88
350.947	695.88
351.174	698.88
351.402	709.88
351.629	724.88
351.856	715.88
352.083	685.88
352.311	683.88
352.538	687.88
352.765	705.88
352.992	671.88
353.22	685.88
353.447	667.88
353.674	661.88
353.901	656.88
354.128	659.88
354.355	663.88
354.583	683.88
354.81	687.88
355.037	687.88
355.264	653.88
355.491	684.88
355.718	681.88
355.945	674.88
356.172	667.88
356.399	707.88
356.626	695.88
356.853	700.88
357.08	696.88
357.307	676.88
357.534	684.88
357.761	676.88
357.988	664.88
358.215	668.88
358.441	697.88
358.668	669.88
358.895	707.88
359.122	665.88
359.349	685.88
359.576	674.88
359.802	686.88
360.029	684.88
360.256	671.88
360.483	671.88
360.709	662.88
360.936	679.88
361.163	670.88
361.39	662.88
361.616	671.88
361.843	676.88
362.07	687.88
362.296	700.88
362.523	674.88
362.749	685.88
362.976	663.88
363.203	668.88
363.429	639.88
363.656	682.88
363.882	665.88
364.109	677.88
364.335	670.88
364.562	686.88
364.788	663.88
365.015	655.88
365.241	680.88
365.468	671.88
365.694	664.88
365.92	677.88
366.147	654.88
366.373	689.88
366.599	662.88
366.826	691.88
367.052	680.88
367.278	684.88
367.505	683.88
367.731	665.88
367.957	684.88
368.184	657.88
368.41	683.88
368.636	680.88
368.862	660.88
369.089	697.88
369.315	677.88
369.541	697.88
369.767	712.88
369.993	691.88
370.219	702.88
370.445	707.88
370.672	690.88
370.898	719.88
371.124	730.88
371.35	734.88
371.576	717.88
371.802	714.88
372.028	703.88
372.254	711.88
372.48	715.88
372.706	727.88
372.932	732.88
373.158	708.88
373.384	728.88
373.61	742.88
373.835	712.88
374.061	720.88
374.287	730.88
374.513	718.88
374.739	769.88
374.965	773.88
375.191	772.88
375.416	783.88
375.642	759.88
375.868	762.88
376.094	756.88
376.319	732.88
376.545	727.88
376.771	699.88
376.997	722.88
377.222	730.88
377.448	712.88
377.674	689.88
377.899	702.88
378.125	713.88
378.35	707.88
378.576	700.88
378.802	700.88
379.027	701.88
379.253	707.88
379.478	688.88
379.704	685.88
379.929	679.88
380.155	696.88
380.38	669.88
380.606	723.88
380.831	723.88
381.057	720.88
381.282	701.88
381.507	705.88
381.733	701.88
381.958	712.88
382.184	728.88
382.409	734.88
382.634	729.88
382.86	717.88
383.085	726.88
383.31	759.88
383.535	778.88
383.761	754.88
383.986	763.88
384.211	784.88
384.436	791.88
384.662	799.88
384.887	830.88
385.112	836.88
385.337	825.88
385.562	837.88
385.787	825.88
386.013	826.88
386.238	814.88
386.463	848.88
386.688	835.88
386.913	830.88
387.138	806.88
387.363	829.88
387.588	845.88
387.813	869.88
388.038	847.88
388.263	853.88
388.488	856.88
388.713	829.88
388.938	820.88
389.163	808.88
389.387	824.88
389.612	840.88
389.837	833.88
390.062	802.88
390.287	863.88
390.512	821.88
390.736	832.88
390.961	849.88
391.186	841.88
391.411	886.88
391.636	893.88
391.86	910.88
392.085	939.88
392.31	914.88
392.534	917.88
392.759	907.88
392.984	900.88
393.208	876.88
393.433	883.88
393.658	899.88
393.882	878.88
394.107	887.88
394.331	887.88
394.556	903.88
394.78	878.88
395.005	896.88
395.229	891.88
395.454	914.88
395.678	955.88
395.903	920.88
396.127	951.88
396.352	906.88
396.576	906.88
396.801	921.88
397.025	916.88
397.249	946.88
397.474	953.88
397.698	960.88
397.922	951.88
398.147	941.88
398.371	959.88
398.595	1000.88
398.82	1068.88
399.044	1141.88
399.268	1219.88
399.492	1340.88
399.717	1453.88
399.941	1493.88
400.165	1375.88
400.389	1262.88
400.613	1172.88
400.837	1112.88
401.062	1087.88
401.286	1071.88
401.51	1059.88
401.734	1033.88
401.958	1070.88
402.182	1041.88
402.406	1076.88
402.63	1093.88
402.854	1085.88
403.078	1125.88
403.302	1119.88
403.526	1131.88
403.75	1134.88
403.974	1164.88
404.198	1163.88
404.422	1168.88
404.645	1169.88
404.869	1110.88
405.093	1150.88
405.317	1121.88
405.541	1143.88
405.765	1149.88
405.988	1139.88
406.212	1163.88
406.436	1163.88
406.66	1206.88
406.883	1181.88
407.107	1262.88
407.331	1295.88
407.555	1324.88
407.778	1335.88
408.002	1342.88
408.226	1265.88
408.449	1293.88
408.673	1225.88
408.896	1211.88
409.12	1199.88
409.344	1213.88
409.567	1174.88
409.791	1164.88
410.014	1195.88
410.238	1149.88
410.461	1184.88
410.685	1145.88
410.908	1133.88
411.132	1122.88
411.355	1105.88
411.578	1099.88
411.802	1117.88
412.025	1108.88
412.249	1112.88
412.472	1115.88
412.695	1092.88
412.919	1093.88
413.142	1079.88
413.365	1077.88
413.589	1090.88
413.812	1088.88
414.035	1061.88
414.258	1063.88
414.482	1076.88
414.705	1104.88
414.928	1051.88
415.151	1056.88
415.374	1105.88
415.597	1084.88
415.821	1015.88
416.044	1038.88
416.267	1011.88
416.49	1061.88
416.713	1051.88
416.936	1042.88
417.159	1045.88
417.382	1077.88
417.605	1027.88
417.828	1062.88
418.051	1080.88
418.274	1071.88
418.497	1075.88
418.72	1103.88
418.943	1049.88
419.166	1167.88
419.389	1216.88
419.611	1187.88
419.834	1111.88
420.057	1118.88
420.28	1074.88
420.503	1067.88
420.726	1056.88
420.948	1068.88
421.171	1062.88
421.394	1071.88
421.617	1073.88
421.839	1077.88
422.062	1087.88
422.285	1055.88
422.507	1045.88
422.73	1054.88
422.953	1098.88
423.175	1090.88
423.398	1107.88
423.621	1131.88
423.843	1111.88
424.066	1108.88
424.288	1089.88
424.511	1088.88
424.733	1089.88
424.956	1086.88
425.178	1102.88
425.401	1076.88
425.623	1070.88
425.846	1076.88
426.068	1085.88
426.291	1027.88
426.513	1035.88
426.735	1011.88
426.958	1017.88
427.18	1003.88
427.402	999.88
427.625	1000.88
427.847	971.88
428.069	1003.88
428.292	974.88
428.514	980.88
428.736	964.88
428.958	984.88
429.181	962.88
429.403	972.88
429.625	982.88
429.847	941.88
430.069	936.88
430.292	943.88
430.514	950.88
430.736	953.88
430.958	983.88
431.18	952.88
431.402	946.88
431.624	968.88
431.846	955.88
432.068	971.88
432.29	995.88
432.512	945.88
432.734	978.88
432.956	964.88
433.178	996.88
433.4	982.88
433.622	996.88
433.844	1033.88
434.066	1031.88
434.287	1009.88
434.509	1039.88
434.731	1079.88
434.953	1084.88
435.175	1112.88
435.397	1094.88
435.618	1008.88
435.84	999.88
436.062	1001.88
436.284	1033.88
436.505	981.88
436.727	1017.88
436.949	985.88
437.17	968.88
437.392	981.88
437.614	960.88
437.835	941.88
438.057	934.88
438.278	929.88
438.5	951.88
438.721	953.88
438.943	963.88
439.165	961.88
439.386	958.88
439.608	990.88
439.829	991.88
440.05	980.88
440.272	965.88
440.493	1002.88
440.715	1016.88
440.936	1030.88
441.158	1034.88
441.379	1046.88
441.6	1123.88
441.822	1099.88
442.043	1097.88
442.264	1121.88
442.486	1079.88
442.707	1092.88
442.928	1087.88
443.149	1063.88
443.371	1093.88
443.592	1086.88
443.813	1082.88
444.034	1119.88
444.255	1135.88
444.476	1161.88
444.698	1257.88
444.919	1269.88
445.14	1316.88
445.361	1231.88
445.582	1155.88
445.803	1065.88
446.024	1079.88
446.245	1062.88
446.466	1039.88
446.687	1021.88
446.908	1021.88
447.129	973.88
447.35	989.88
447.571	963.88
447.792	913.88
448.013	955.88
448.234	947.88
448.455	944.88
448.675	924.88
448.896	927.88
449.117	895.88
449.338	894.88
449.559	916.88
449.779	903.88
450	917.88
450.221	921.88
450.442	932.88
450.662	895.88
450.883	921.88
451.104	963.88
451.324	952.88
451.545	927.88
451.766	936.88
451.986	899.88
452.207	929.88
452.428	907.88
452.648	895.88
452.869	891.88
453.089	899.88
453.31	890.88
453.53	858.88
453.751	859.88
453.971	885.88
454.192	853.88
454.412	855.88
454.633	833.88
454.853	840.88
455.073	849.88
455.294	843.88
455.514	864.88
455.734	848.88
455.955	838.88
456.175	843.88
456.395	824.88
456.616	843.88
456.836	841.88
457.056	854.88
457.276	844.88
457.497	865.88
457.717	872.88
457.937	895.88
458.157	871.88
458.377	880.88
458.598	910.88
458.818	937.88
459.038	939.88
459.258	964.88
459.478	1000.88
459.698	1026.88
459.918	1043.88
460.138	1072.88
460.358	1117.88
460.578	1141.88
460.798	1125.88
461.018	1169.88
461.238	1126.88
461.458	1158.88
461.678	1127.88
461.898	1162.88
462.118	1175.88
462.338	1221.88
462.558	1289.88
462.777	1313.88
462.997	1389.88
463.217	1452.88
463.437	1485.88
463.657	1415.88
463.876	1337.88
464.096	1307.88
464.316	1305.88
464.536	1289.88
464.755	1292.88
464.975	1215.88
465.195	1195.88
465.414	1112.88
465.634	1067.88
465.854	1051.88
466.073	1030.88
466.293	998.88
466.512	1021.88
466.732	1011.88
466.951	960.88
467.171	951.88
467.391	973.88
467.61	925.88
467.829	947.88
468.049	950.88
468.268	930.88
468.488	924.88
468.707	935.88
468.927	927.88
469.146	933.88
469.365	937.88
469.585	958.88
469.804	964.88
470.023	963.88
470.243	963.88
470.462	971.88
470.681	996.88
470.901	962.88
471.12	981.88
471.339	972.88
471.558	954.88
471.777	953.88
471.997	931.88
472.216	921.88
472.435	920.88
472.654	904.88
472.873	901.88
473.092	916.88
473.311	889.88
473.53	908.88
473.749	894.88
473.968	901.88
474.187	913.88
474.406	880.88
474.625	899.88
474.844	889.88
475.063	892.88
475.282	885.88
475.501	928.88
475.72	918.88
475.939	919.88
476.158	938.88
476.377	925.88
476.596	952.88
476.814	969.88
477.033	986.88
477.252	974.88
477.471	1020.88
477.69	1019.88
477.908	1066.88
478.127	1061.88
478.346	1075.88
478.564	1100.88
478.783	1079.88
479.002	1123.88
479.22	1100.88
479.439	1120.88
479.658	1103.88
479.876	1108.88
480.095	1111.88
480.313	1125.88
480.532	1169.88
480.751	1146.88
480.969	1099.88
481.188	1105.88
481.406	1082.88
481.624	1046.88
481.843	1039.88
482.061	1029.88
482.28	1032.88
482.498	1035.88
482.717	1022.88
482.935	1016.88
483.153	1000.88
483.372	1049.88
483.59	1034.88
483.808	1042.88
484.027	1044.88
484.245	1047.88
484.463	1049.88
484.681	1048.88
484.9	1041.88
485.118	1069.88
485.336	1066.88
485.554	1079.88
485.772	1059.88
485.99	1056.88
486.209	1049.88
486.427	1060.88
486.645	1067.88
486.863	1099.88
487.081	1077.88
487.299	1078.88
487.517	1057.88
487.735	1079.88
487.953	1075.88
488.171	1100.88
488.389	1098.88
488.607	1101.88
488.825	1081.88
489.043	1035.88
489.261	1046.88
489.479	1041.88
489.696	1060.88
489.914	1072.88
490.132	1096.88
490.35	1103.88
490.568	1086.88
490.786	1095.88
491.003	1106.88
491.221	1089.88
491.439	1121.88
491.657	1099.88
491.874	1115.88
492.092	1132.88
492.31	1140.88
492.527	1129.88
492.745	1139.88
492.963	1125.88
493.18	1132.88
493.398	1140.88
493.615	1145.88
493.833	1149.88
494.05	1108.88
494.268	1167.88
494.485	1167.88
494.703	1156.88
494.92	1187.88
495.138	1151.88
495.355	1169.88
495.573	1206.88
495.79	1156.88
496.008	1201.88
496.225	1209.88
496.442	1195.88
496.66	1213.88
496.877	1231.88
497.094	1251.88
497.312	1287.88
497.529	1329.88
