Data from Ni(NO3)2@0.125M.TitratingCurve.Agarose3%dH2O.NegLispCup.LampEnergy10.LIBS07252019_HRD10591_18-09-28-567.txt Node
Date: Thu Jul 25 18:09:28 EDT 2019
User: cochatt
Spectrometer: HR+D1059
Trigger mode: 1
Integration Time (sec): 1.000000E-1
Scans to average: 1
Electric dark correction enabled: true
Nonlinearity correction enabled: false
Boxcar width: 0
XAxis mode: Wavelengths
Number of Pixels in Spectrum: 2048
>>>>>Begin Spectral Data<<<<<
223.165	-17.81
223.4	-17.81
223.635	-17.81
223.869	-32.81
224.104	-18.81
224.338	-5.81
224.573	-26.81
224.808	-12.81
225.042	0.19
225.277	-3.81
225.511	-2.81
225.746	6.19
225.98	-4.81
226.215	17.19
226.449	15.19
226.683	29.19
226.918	33.19
227.152	25.19
227.387	25.19
227.621	37.19
227.856	46.19
228.09	46.19
228.324	46.19
228.559	48.19
228.793	69.19
229.027	79.19
229.262	75.19
229.496	104.19
229.73	106.19
229.964	105.19
230.199	98.19
230.433	109.19
230.667	111.19
230.901	103.19
231.136	92.19
231.37	108.19
231.604	112.19
231.838	128.19
232.072	109.19
232.306	114.19
232.541	113.19
232.775	111.19
233.009	127.19
233.243	122.19
233.477	114.19
233.711	129.19
233.945	130.19
234.179	127.19
234.413	122.19
234.647	118.19
234.881	114.19
235.115	127.19
235.349	123.19
235.583	122.19
235.817	119.19
236.051	122.19
236.285	123.19
236.519	129.19
236.753	123.19
236.987	116.19
237.221	110.19
237.455	132.19
237.689	122.19
237.922	121.19
238.156	129.19
238.39	130.19
238.624	129.19
238.858	120.19
239.091	130.19
239.325	133.19
239.559	131.19
239.793	143.19
240.027	131.19
240.26	137.19
240.494	135.19
240.728	131.19
240.961	141.19
241.195	126.19
241.429	142.19
241.662	146.19
241.896	137.19
242.13	147.19
242.363	159.19
242.597	140.19
242.83	154.19
243.064	135.19
243.298	147.19
243.531	147.19
243.765	170.19
243.998	139.19
244.232	155.19
244.465	145.19
244.699	165.19
244.932	152.19
245.166	162.19
245.399	149.19
245.633	170.19
245.866	167.19
246.099	160.19
246.333	178.19
246.566	176.19
246.8	167.19
247.033	167.19
247.266	162.19
247.5	170.19
247.733	168.19
247.966	184.19
248.2	181.19
248.433	167.19
248.666	183.19
248.899	160.19
249.133	180.19
249.366	197.19
249.599	174.19
249.832	192.19
250.066	187.19
250.299	179.19
250.532	202.19
250.765	185.19
250.998	192.19
251.231	183.19
251.465	190.19
251.698	203.19
251.931	189.19
252.164	187.19
252.397	193.19
252.63	198.19
252.863	191.19
253.096	225.19
253.329	196.19
253.562	197.19
253.795	201.19
254.028	210.19
254.261	207.19
254.494	202.19
254.727	200.19
254.96	216.19
255.193	202.19
255.426	205.19
255.659	211.19
255.892	218.19
256.124	214.19
256.357	221.19
256.59	221.19
256.823	218.19
257.056	210.19
257.289	221.19
257.521	229.19
257.754	225.19
257.987	221.19
258.22	218.19
258.452	222.19
258.685	218.19
258.918	209.19
259.151	241.19
259.383	226.19
259.616	207.19
259.849	226.19
260.081	221.19
260.314	246.19
260.547	248.19
260.779	231.19
261.012	220.19
261.244	225.19
261.477	235.19
261.71	238.19
261.942	223.19
262.175	238.19
262.407	225.19
262.64	231.19
262.872	235.19
263.105	244.19
263.337	225.19
263.57	242.19
263.802	248.19
264.035	241.19
264.267	246.19
264.499	247.19
264.732	243.19
264.964	258.19
265.197	238.19
265.429	252.19
265.661	262.19
265.894	262.19
266.126	250.19
266.358	265.19
266.591	267.19
266.823	242.19
267.055	265.19
267.287	261.19
267.52	251.19
267.752	252.19
267.984	269.19
268.216	265.19
268.448	258.19
268.681	282.19
268.913	273.19
269.145	271.19
269.377	274.19
269.609	272.19
269.841	270.19
270.073	287.19
270.306	270.19
270.538	266.19
270.77	263.19
271.002	281.19
271.234	289.19
271.466	302.19
271.698	271.19
271.93	293.19
272.162	279.19
272.394	264.19
272.626	273.19
272.858	288.19
273.09	278.19
273.322	257.19
273.553	271.19
273.785	289.19
274.017	285.19
274.249	282.19
274.481	286.19
274.713	281.19
274.945	300.19
275.176	282.19
275.408	287.19
275.64	307.19
275.872	281.19
276.104	298.19
276.335	285.19
276.567	276.19
276.799	292.19
277.031	302.19
277.262	285.19
277.494	299.19
277.726	298.19
277.957	315.19
278.189	301.19
278.421	302.19
278.652	318.19
278.884	312.19
279.115	313.19
279.347	314.19
279.579	320.19
279.81	319.19
280.042	320.19
280.273	308.19
280.505	333.19
280.736	318.19
280.968	318.19
281.199	324.19
281.431	335.19
281.662	321.19
281.894	331.19
282.125	318.19
282.356	322.19
282.588	330.19
282.819	320.19
283.051	335.19
283.282	334.19
283.513	346.19
283.745	324.19
283.976	329.19
284.207	349.19
284.439	308.19
284.67	359.19
284.901	345.19
285.132	332.19
285.364	337.19
285.595	348.19
285.826	383.19
286.057	377.19
286.288	334.19
286.52	348.19
286.751	342.19
286.982	324.19
287.213	347.19
287.444	331.19
287.675	350.19
287.906	337.19
288.138	355.19
288.369	354.19
288.6	360.19
288.831	362.19
289.062	331.19
289.293	352.19
289.524	359.19
289.755	356.19
289.986	362.19
290.217	349.19
290.448	353.19
290.679	350.19
290.91	356.19
291.141	360.19
291.371	357.19
291.602	375.19
291.833	351.19
292.064	365.19
292.295	373.19
292.526	384.19
292.757	378.19
292.987	368.19
293.218	364.19
293.449	374.19
293.68	379.19
293.91	361.19
294.141	371.19
294.372	385.19
294.603	378.19
294.833	374.19
295.064	377.19
295.295	383.19
295.525	384.19
295.756	398.19
295.987	377.19
296.217	383.19
296.448	409.19
296.679	387.19
296.909	383.19
297.14	392.19
297.37	376.19
297.601	394.19
297.831	385.19
298.062	374.19
298.292	412.19
298.523	412.19
298.753	418.19
298.984	410.19
299.214	387.19
299.445	393.19
299.675	398.19
299.905	423.19
300.136	408.19
300.366	394.19
300.597	398.19
300.827	395.19
301.057	419.19
301.288	431.19
301.518	417.19
301.748	411.19
301.979	447.19
302.209	427.19
302.439	422.19
302.669	405.19
302.9	419.19
303.13	410.19
303.36	407.19
303.59	396.19
303.82	419.19
304.051	431.19
304.281	437.19
304.511	402.19
304.741	411.19
304.971	423.19
305.201	406.19
305.431	407.19
305.661	407.19
305.891	391.19
306.121	406.19
306.352	414.19
306.582	401.19
306.812	395.19
307.042	404.19
307.272	402.19
307.502	412.19
307.731	398.19
307.961	409.19
308.191	405.19
308.421	407.19
308.651	392.19
308.881	414.19
309.111	410.19
309.341	396.19
309.571	403.19
309.8	419.19
310.03	403.19
310.26	414.19
310.49	408.19
310.72	409.19
310.949	403.19
311.179	430.19
311.409	409.19
311.639	415.19
311.868	416.19
312.098	409.19
312.328	408.19
312.557	437.19
312.787	433.19
313.017	421.19
313.246	441.19
313.476	409.19
313.706	444.19
313.935	447.19
314.165	455.19
314.394	433.19
314.624	439.19
314.853	437.19
315.083	441.19
315.312	441.19
315.542	408.19
315.771	424.19
316.001	416.19
316.23	422.19
316.46	437.19
316.689	417.19
316.919	444.19
317.148	439.19
317.377	406.19
317.607	434.19
317.836	413.19
318.065	424.19
318.295	410.19
318.524	421.19
318.753	418.19
318.983	433.19
319.212	417.19
319.441	406.19
319.67	417.19
319.9	429.19
320.129	446.19
320.358	435.19
320.587	413.19
320.816	435.19
321.046	419.19
321.275	441.19
321.504	428.19
321.733	417.19
321.962	414.19
322.191	435.19
322.42	438.19
322.649	449.19
322.878	429.19
323.108	439.19
323.337	429.19
323.566	449.19
323.795	458.19
324.024	428.19
324.253	448.19
324.482	449.19
324.71	458.19
324.939	457.19
325.168	456.19
325.397	441.19
325.626	448.19
325.855	461.19
326.084	459.19
326.313	470.19
326.542	509.19
326.77	484.19
326.999	463.19
327.228	473.19
327.457	434.19
327.686	455.19
327.914	478.19
328.143	487.19
328.372	478.19
328.6	454.19
328.829	500.19
329.058	457.19
329.287	482.19
329.515	470.19
329.744	501.19
329.972	479.19
330.201	501.19
330.43	491.19
330.658	477.19
330.887	484.19
331.115	503.19
331.344	489.19
331.572	501.19
331.801	527.19
332.03	522.19
332.258	527.19
332.486	562.19
332.715	591.19
332.943	617.19
333.172	652.19
333.4	677.19
333.629	671.19
333.857	669.19
334.085	651.19
334.314	635.19
334.542	617.19
334.771	613.19
334.999	599.19
335.227	578.19
335.455	629.19
335.684	586.19
335.912	562.19
336.14	575.19
336.369	575.19
336.597	585.19
336.825	594.19
337.053	582.19
337.281	549.19
337.51	532.19
337.738	544.19
337.966	553.19
338.194	531.19
338.422	542.19
338.65	523.19
338.878	518.19
339.106	533.19
339.334	536.19
339.562	530.19
339.79	501.19
340.018	513.19
340.246	525.19
340.474	491.19
340.702	522.19
340.93	489.19
341.158	505.19
341.386	517.19
341.614	516.19
341.842	502.19
342.07	503.19
342.298	503.19
342.526	491.19
342.754	502.19
342.981	497.19
343.209	513.19
343.437	550.19
343.665	583.19
343.893	627.19
344.12	644.19
344.348	605.19
344.576	586.19
344.804	563.19
345.031	555.19
345.259	499.19
345.487	523.19
345.714	512.19
345.942	497.19
346.17	502.19
346.397	489.19
346.625	496.19
346.853	487.19
347.08	480.19
347.308	510.19
347.535	519.19
347.763	514.19
347.99	527.19
348.218	520.19
348.445	529.19
348.673	495.19
348.9	505.19
349.128	478.19
349.355	489.19
349.583	479.19
349.81	487.19
350.037	447.19
350.265	457.19
350.492	493.19
350.72	492.19
350.947	456.19
351.174	490.19
351.402	474.19
351.629	480.19
351.856	472.19
352.083	474.19
352.311	489.19
352.538	480.19
352.765	487.19
352.992	467.19
353.22	491.19
353.447	508.19
353.674	480.19
353.901	466.19
354.128	477.19
354.355	481.19
354.583	471.19
354.81	472.19
355.037	470.19
355.264	478.19
355.491	486.19
355.718	482.19
355.945	476.19
356.172	478.19
356.399	487.19
356.626	486.19
356.853	513.19
357.08	476.19
357.307	475.19
357.534	479.19
357.761	487.19
357.988	493.19
358.215	473.19
358.441	462.19
358.668	479.19
358.895	465.19
359.122	461.19
359.349	468.19
359.576	477.19
359.802	467.19
360.029	463.19
360.256	490.19
360.483	474.19
360.709	465.19
360.936	497.19
361.163	476.19
361.39	484.19
361.616	476.19
361.843	487.19
362.07	485.19
362.296	474.19
362.523	474.19
362.749	457.19
362.976	474.19
363.203	476.19
363.429	452.19
363.656	476.19
363.882	489.19
364.109	475.19
364.335	469.19
364.562	463.19
364.788	479.19
365.015	462.19
365.241	488.19
365.468	464.19
365.694	486.19
365.92	484.19
366.147	471.19
366.373	468.19
366.599	483.19
366.826	458.19
367.052	483.19
367.278	498.19
367.505	505.19
367.731	472.19
367.957	484.19
368.184	482.19
368.41	461.19
368.636	463.19
368.862	469.19
369.089	498.19
369.315	480.19
369.541	474.19
369.767	490.19
369.993	500.19
370.219	503.19
370.445	503.19
370.672	509.19
370.898	502.19
371.124	490.19
371.35	531.19
371.576	522.19
371.802	503.19
372.028	519.19
372.254	494.19
372.48	516.19
372.706	525.19
372.932	518.19
373.158	545.19
373.384	510.19
373.61	514.19
373.835	516.19
374.061	535.19
374.287	515.19
374.513	530.19
374.739	538.19
374.965	577.19
375.191	574.19
375.416	575.19
375.642	561.19
375.868	539.19
376.094	518.19
376.319	523.19
376.545	535.19
376.771	514.19
376.997	521.19
377.222	525.19
377.448	518.19
377.674	529.19
377.899	493.19
378.125	490.19
378.35	509.19
378.576	507.19
378.802	531.19
379.027	535.19
379.253	511.19
379.478	494.19
379.704	506.19
379.929	506.19
380.155	533.19
380.38	509.19
380.606	496.19
380.831	519.19
381.057	525.19
381.282	526.19
381.507	532.19
381.733	510.19
381.958	529.19
382.184	530.19
382.409	529.19
382.634	544.19
382.86	556.19
383.085	561.19
383.31	564.19
383.535	569.19
383.761	582.19
383.986	605.19
384.211	575.19
384.436	607.19
384.662	594.19
384.887	609.19
385.112	607.19
385.337	637.19
385.562	622.19
385.787	617.19
386.013	623.19
386.238	651.19
386.463	630.19
386.688	606.19
386.913	600.19
387.138	598.19
387.363	605.19
387.588	590.19
387.813	588.19
388.038	610.19
388.263	600.19
388.488	612.19
388.713	583.19
388.938	583.19
389.163	589.19
389.387	602.19
389.612	584.19
389.837	575.19
390.062	584.19
390.287	599.19
390.512	597.19
390.736	583.19
390.961	595.19
391.186	615.19
391.411	634.19
391.636	645.19
391.86	678.19
392.085	706.19
392.31	694.19
392.534	686.19
392.759	644.19
392.984	652.19
393.208	672.19
393.433	661.19
393.658	637.19
393.882	654.19
394.107	652.19
394.331	669.19
394.556	656.19
394.78	667.19
395.005	656.19
395.229	647.19
395.454	674.19
395.678	698.19
395.903	685.19
396.127	687.19
396.352	670.19
396.576	618.19
396.801	623.19
397.025	660.19
397.249	667.19
397.474	671.19
397.698	693.19
397.922	670.19
398.147	653.19
398.371	685.19
398.595	701.19
398.82	720.19
399.044	799.19
399.268	861.19
399.492	1025.19
399.717	1215.19
399.941	1181.19
400.165	1041.19
400.389	895.19
400.613	818.19
400.837	785.19
401.062	755.19
401.286	749.19
401.51	753.19
401.734	761.19
401.958	756.19
402.182	775.19
402.406	759.19
402.63	785.19
402.854	833.19
403.078	833.19
403.302	849.19
403.526	878.19
403.75	913.19
403.974	894.19
404.198	895.19
404.422	893.19
404.645	894.19
404.869	893.19
405.093	883.19
405.317	869.19
405.541	888.19
405.765	842.19
405.988	838.19
406.212	829.19
406.436	838.19
406.66	879.19
406.883	858.19
407.107	916.19
407.331	987.19
407.555	1030.19
407.778	991.19
408.002	982.19
408.226	937.19
408.449	893.19
408.673	886.19
408.896	871.19
409.12	866.19
409.344	879.19
409.567	917.19
409.791	902.19
410.014	911.19
410.238	910.19
410.461	897.19
410.685	861.19
410.908	842.19
411.132	831.19
411.355	809.19
411.578	819.19
411.802	805.19
412.025	819.19
412.249	804.19
412.472	829.19
412.695	793.19
412.919	794.19
413.142	787.19
413.365	767.19
413.589	781.19
413.812	754.19
414.035	760.19
414.258	769.19
414.482	772.19
414.705	795.19
414.928	817.19
415.151	776.19
415.374	789.19
415.597	786.19
415.821	749.19
416.044	762.19
416.267	768.19
416.49	743.19
416.713	769.19
416.936	770.19
417.159	759.19
417.382	767.19
417.605	786.19
417.828	777.19
418.051	761.19
418.274	814.19
418.497	782.19
418.72	818.19
418.943	797.19
419.166	843.19
419.389	894.19
419.611	879.19
419.834	839.19
420.057	809.19
420.28	791.19
420.503	744.19
420.726	769.19
420.948	760.19
421.171	776.19
421.394	790.19
421.617	781.19
421.839	774.19
422.062	779.19
422.285	783.19
422.507	808.19
422.73	811.19
422.953	821.19
423.175	806.19
423.398	835.19
423.621	818.19
423.843	849.19
424.066	850.19
424.288	839.19
424.511	858.19
424.733	827.19
424.956	820.19
425.178	792.19
425.401	787.19
425.623	792.19
425.846	793.19
426.068	746.19
426.291	737.19
426.513	755.19
426.735	739.19
426.958	721.19
427.18	692.19
427.402	727.19
427.625	706.19
427.847	687.19
428.069	711.19
428.292	707.19
428.514	708.19
428.736	695.19
428.958	697.19
429.181	682.19
429.403	672.19
429.625	671.19
429.847	672.19
430.069	685.19
430.292	681.19
430.514	677.19
430.736	685.19
430.958	687.19
431.18	679.19
431.402	683.19
431.624	681.19
431.846	706.19
432.068	692.19
432.29	735.19
432.512	708.19
432.734	705.19
432.956	699.19
433.178	716.19
433.4	725.19
433.622	714.19
433.844	729.19
434.066	722.19
434.287	708.19
434.509	725.19
434.731	757.19
434.953	804.19
435.175	808.19
435.397	786.19
435.618	726.19
435.84	708.19
436.062	714.19
436.284	695.19
436.505	705.19
436.727	709.19
436.949	727.19
437.17	730.19
437.392	703.19
437.614	681.19
437.835	675.19
438.057	671.19
438.278	680.19
438.5	661.19
438.721	674.19
438.943	681.19
439.165	684.19
439.386	695.19
439.608	704.19
439.829	691.19
440.05	715.19
440.272	720.19
440.493	713.19
440.715	736.19
440.936	750.19
441.158	745.19
441.379	773.19
441.6	817.19
441.822	815.19
442.043	817.19
442.264	796.19
442.486	777.19
442.707	794.19
442.928	773.19
443.149	800.19
443.371	782.19
443.592	805.19
443.813	838.19
444.034	836.19
444.255	889.19
444.476	869.19
444.698	938.19
444.919	995.19
445.14	1072.19
445.361	917.19
445.582	843.19
445.803	783.19
446.024	757.19
446.245	734.19
446.466	738.19
446.687	730.19
446.908	727.19
447.129	694.19
447.35	680.19
447.571	698.19
447.792	698.19
448.013	660.19
448.234	680.19
448.455	697.19
448.675	680.19
448.896	666.19
449.117	649.19
449.338	664.19
449.559	666.19
449.779	643.19
450	649.19
450.221	643.19
450.442	678.19
450.662	673.19
450.883	681.19
451.104	697.19
451.324	692.19
451.545	672.19
451.766	687.19
451.986	693.19
452.207	664.19
452.428	662.19
452.648	694.19
452.869	664.19
453.089	648.19
453.31	663.19
453.53	644.19
453.751	659.19
453.971	649.19
454.192	644.19
454.412	614.19
454.633	638.19
454.853	627.19
455.073	608.19
455.294	639.19
455.514	587.19
455.734	612.19
455.955	622.19
456.175	614.19
456.395	593.19
456.616	612.19
456.836	623.19
457.056	629.19
457.276	618.19
457.497	618.19
457.717	611.19
457.937	629.19
458.157	627.19
458.377	624.19
458.598	642.19
458.818	644.19
459.038	652.19
459.258	695.19
459.478	707.19
459.698	730.19
459.918	741.19
460.138	785.19
460.358	854.19
460.578	855.19
460.798	853.19
461.018	876.19
461.238	840.19
461.458	803.19
461.678	830.19
461.898	837.19
462.118	867.19
462.338	938.19
462.558	930.19
462.777	980.19
462.997	1052.19
463.217	1167.19
463.437	1185.19
463.657	1082.19
463.876	1034.19
464.096	1011.19
464.316	1009.19
464.536	1011.19
464.755	989.19
464.975	933.19
465.195	872.19
465.414	815.19
465.634	765.19
465.854	749.19
466.073	743.19
466.293	717.19
466.512	712.19
466.732	677.19
466.951	710.19
467.171	711.19
467.391	690.19
467.61	703.19
467.829	675.19
468.049	688.19
468.268	665.19
468.488	647.19
468.707	655.19
468.927	655.19
469.146	650.19
469.365	678.19
469.585	677.19
469.804	699.19
470.023	733.19
470.243	719.19
470.462	728.19
470.681	717.19
470.901	734.19
471.12	690.19
471.339	692.19
471.558	681.19
471.777	695.19
471.997	669.19
472.216	664.19
472.435	648.19
472.654	643.19
472.873	633.19
473.092	650.19
473.311	623.19
473.53	646.19
473.749	647.19
473.968	634.19
474.187	625.19
474.406	631.19
474.625	632.19
474.844	651.19
475.063	631.19
475.282	650.19
475.501	615.19
475.72	647.19
475.939	647.19
476.158	664.19
476.377	687.19
476.596	682.19
476.814	674.19
477.033	669.19
477.252	702.19
477.471	720.19
477.69	727.19
477.908	737.19
478.127	747.19
478.346	760.19
478.564	767.19
478.783	795.19
479.002	817.19
479.22	808.19
479.439	806.19
479.658	790.19
479.876	788.19
480.095	803.19
480.313	836.19
480.532	887.19
480.751	848.19
480.969	833.19
481.188	802.19
481.406	750.19
481.624	747.19
481.843	733.19
482.061	732.19
482.28	739.19
482.498	707.19
482.717	708.19
482.935	718.19
483.153	743.19
483.372	711.19
483.59	758.19
483.808	754.19
484.027	754.19
484.245	735.19
484.463	746.19
484.681	765.19
484.9	759.19
485.118	746.19
485.336	771.19
485.554	768.19
485.772	784.19
485.99	777.19
486.209	765.19
486.427	769.19
486.645	782.19
486.863	777.19
487.081	793.19
487.299	759.19
487.517	787.19
487.735	786.19
487.953	774.19
488.171	772.19
488.389	789.19
488.607	772.19
488.825	765.19
489.043	751.19
489.261	759.19
489.479	762.19
489.696	754.19
489.914	785.19
490.132	756.19
490.35	769.19
490.568	749.19
490.786	794.19
491.003	786.19
491.221	799.19
491.439	783.19
491.657	792.19
491.874	774.19
492.092	815.19
492.31	792.19
492.527	776.19
492.745	797.19
492.963	797.19
493.18	803.19
493.398	830.19
493.615	838.19
493.833	814.19
494.05	815.19
494.268	835.19
494.485	825.19
494.703	839.19
494.92	841.19
495.138	821.19
495.355	801.19
495.573	815.19
495.79	832.19
496.008	820.19
496.225	845.19
496.442	860.19
496.66	808.19
496.877	853.19
497.094	853.19
497.312	888.19
497.529	901.19
497.746	904.19
497.963	905.19
498.181	975.19
498.398	1001.19
498.615	1058.19
498.832	1157.19
499.049	1230.19
499.267	1356.19
499.484	1495.19
499.701	1650.19
499.918	1867.19
500.135	2169.19
500.352	2523.19
500.569	2653.19
500.786	2625.19
501.003	2375.19
501.22	2098.19
