Data from Ni(NO3)2@0.25M.TitratingCurve.Agarose3%dH2O.NegLispCup.LampEnergy10.LIBS07252019_HRD10591_18-03-30-565.txt Node
Date: Thu Jul 25 18:03:30 EDT 2019
User: cochatt
Spectrometer: HR+D1059
Trigger mode: 1
Integration Time (sec): 1.000000E-1
Scans to average: 1
Electric dark correction enabled: true
Nonlinearity correction enabled: false
Boxcar width: 0
XAxis mode: Wavelengths
Number of Pixels in Spectrum: 2048
>>>>>Begin Spectral Data<<<<<
223.165	-22.31
223.4	-22.31
223.635	-22.31
223.869	-12.31
224.104	-18.31
224.338	-10.31
224.573	-2.31
224.808	1.69
225.042	-20.31
225.277	-11.31
225.511	-5.31
225.746	0.69
225.98	0.69
226.215	9.69
226.449	15.69
226.683	18.69
226.918	26.69
227.152	28.69
227.387	34.69
227.621	36.69
227.856	47.69
228.09	43.69
228.324	40.69
228.559	68.69
228.793	79.69
229.027	77.69
229.262	96.69
229.496	95.69
229.73	84.69
229.964	108.69
230.199	107.69
230.433	115.69
230.667	122.69
230.901	120.69
231.136	101.69
231.37	119.69
231.604	130.69
231.838	124.69
232.072	141.69
232.306	122.69
232.541	134.69
232.775	134.69
233.009	116.69
233.243	133.69
233.477	109.69
233.711	124.69
233.945	115.69
234.179	115.69
234.413	110.69
234.647	119.69
234.881	135.69
235.115	145.69
235.349	124.69
235.583	126.69
235.817	120.69
236.051	133.69
236.285	112.69
236.519	126.69
236.753	101.69
236.987	126.69
237.221	131.69
237.455	112.69
237.689	124.69
237.922	106.69
238.156	113.69
238.39	117.69
238.624	111.69
238.858	117.69
239.091	146.69
239.325	130.69
239.559	129.69
239.793	148.69
240.027	132.69
240.26	123.69
240.494	134.69
240.728	128.69
240.961	123.69
241.195	143.69
241.429	125.69
241.662	132.69
241.896	141.69
242.13	145.69
242.363	130.69
242.597	140.69
242.83	139.69
243.064	123.69
243.298	131.69
243.531	143.69
243.765	143.69
243.998	145.69
244.232	151.69
244.465	145.69
244.699	139.69
244.932	156.69
245.166	149.69
245.399	153.69
245.633	154.69
245.866	156.69
246.099	152.69
246.333	159.69
246.566	154.69
246.8	154.69
247.033	149.69
247.266	172.69
247.5	165.69
247.733	151.69
247.966	170.69
248.2	172.69
248.433	172.69
248.666	173.69
248.899	177.69
249.133	205.69
249.366	209.69
249.599	186.69
249.832	182.69
250.066	200.69
250.299	201.69
250.532	219.69
250.765	210.69
250.998	224.69
251.231	219.69
251.465	243.69
251.698	221.69
251.931	216.69
252.164	196.69
252.397	228.69
252.63	237.69
252.863	239.69
253.096	246.69
253.329	272.69
253.562	247.69
253.795	250.69
254.028	276.69
254.261	278.69
254.494	270.69
254.727	271.69
254.96	278.69
255.193	292.69
255.426	281.69
255.659	280.69
255.892	296.69
256.124	311.69
256.357	301.69
256.59	308.69
256.823	298.69
257.056	304.69
257.289	319.69
257.521	326.69
257.754	327.69
257.987	325.69
258.22	320.69
258.452	316.69
258.685	312.69
258.918	330.69
259.151	320.69
259.383	348.69
259.616	334.69
259.849	343.69
260.081	341.69
260.314	350.69
260.547	343.69
260.779	341.69
261.012	366.69
261.244	355.69
261.477	375.69
261.71	353.69
261.942	363.69
262.175	365.69
262.407	351.69
262.64	352.69
262.872	348.69
263.105	360.69
263.337	379.69
263.57	360.69
263.802	370.69
264.035	392.69
264.267	388.69
264.499	352.69
264.732	377.69
264.964	392.69
265.197	377.69
265.429	397.69
265.661	386.69
265.894	382.69
266.126	399.69
266.358	397.69
266.591	396.69
266.823	397.69
267.055	396.69
267.287	406.69
267.52	395.69
267.752	410.69
267.984	398.69
268.216	418.69
268.448	411.69
268.681	407.69
268.913	421.69
269.145	426.69
269.377	405.69
269.609	418.69
269.841	424.69
270.073	402.69
270.306	416.69
270.538	402.69
270.77	406.69
271.002	412.69
271.234	390.69
271.466	421.69
271.698	421.69
271.93	399.69
272.162	420.69
272.394	435.69
272.626	428.69
272.858	429.69
273.09	419.69
273.322	425.69
273.553	428.69
273.785	429.69
274.017	442.69
274.249	426.69
274.481	439.69
274.713	414.69
274.945	439.69
275.176	420.69
275.408	440.69
275.64	442.69
275.872	431.69
276.104	447.69
276.335	431.69
276.567	438.69
276.799	434.69
277.031	426.69
277.262	437.69
277.494	435.69
277.726	425.69
277.957	447.69
278.189	450.69
278.421	444.69
278.652	461.69
278.884	446.69
279.115	432.69
279.347	437.69
279.579	438.69
279.81	419.69
280.042	443.69
280.273	428.69
280.505	447.69
280.736	446.69
280.968	426.69
281.199	427.69
281.431	429.69
281.662	466.69
281.894	452.69
282.125	444.69
282.356	458.69
282.588	446.69
282.819	429.69
283.051	456.69
283.282	436.69
283.513	460.69
283.745	442.69
283.976	452.69
284.207	439.69
284.439	454.69
284.67	439.69
284.901	439.69
285.132	443.69
285.364	445.69
285.595	461.69
285.826	461.69
286.057	461.69
286.288	443.69
286.52	422.69
286.751	459.69
286.982	467.69
287.213	456.69
287.444	433.69
287.675	440.69
287.906	438.69
288.138	459.69
288.369	438.69
288.6	440.69
288.831	464.69
289.062	440.69
289.293	424.69
289.524	444.69
289.755	452.69
289.986	430.69
290.217	440.69
290.448	467.69
290.679	453.69
290.91	438.69
291.141	448.69
291.371	466.69
291.602	448.69
291.833	442.69
292.064	437.69
292.295	458.69
292.526	444.69
292.757	443.69
292.987	440.69
293.218	438.69
293.449	448.69
293.68	443.69
293.91	428.69
294.141	457.69
294.372	438.69
294.603	442.69
294.833	450.69
295.064	446.69
295.295	436.69
295.525	439.69
295.756	440.69
295.987	437.69
296.217	455.69
296.448	431.69
296.679	442.69
296.909	431.69
297.14	462.69
297.37	473.69
297.601	463.69
297.831	479.69
298.062	447.69
298.292	460.69
298.523	486.69
298.753	456.69
298.984	451.69
299.214	441.69
299.445	464.69
299.675	453.69
299.905	461.69
300.136	472.69
300.366	496.69
300.597	490.69
300.827	486.69
301.057	483.69
301.288	491.69
301.518	506.69
301.748	504.69
301.979	498.69
302.209	492.69
302.439	488.69
302.669	483.69
302.9	486.69
303.13	502.69
303.36	490.69
303.59	468.69
303.82	495.69
304.051	493.69
304.281	489.69
304.511	512.69
304.741	517.69
304.971	488.69
305.201	509.69
305.431	526.69
305.661	498.69
305.891	522.69
306.121	520.69
306.352	500.69
306.582	489.69
306.812	487.69
307.042	501.69
307.272	504.69
307.502	518.69
307.731	544.69
307.961	537.69
308.191	525.69
308.421	502.69
308.651	510.69
308.881	543.69
309.111	520.69
309.341	520.69
309.571	548.69
309.8	523.69
310.03	563.69
310.26	562.69
310.49	558.69
310.72	575.69
310.949	575.69
311.179	567.69
311.409	552.69
311.639	578.69
311.868	567.69
312.098	570.69
312.328	593.69
312.557	588.69
312.787	555.69
313.017	579.69
313.246	610.69
313.476	606.69
313.706	626.69
313.935	621.69
314.165	623.69
314.394	622.69
314.624	620.69
314.853	619.69
315.083	628.69
315.312	636.69
315.542	637.69
315.771	640.69
316.001	650.69
316.23	643.69
316.46	661.69
316.689	647.69
316.919	676.69
317.148	662.69
317.377	683.69
317.607	671.69
317.836	680.69
318.065	669.69
318.295	720.69
318.524	716.69
318.753	704.69
318.983	721.69
319.212	714.69
319.441	730.69
319.67	726.69
319.9	728.69
320.129	728.69
320.358	764.69
320.587	750.69
320.816	739.69
321.046	751.69
321.275	793.69
321.504	776.69
321.733	779.69
321.962	806.69
322.191	784.69
322.42	797.69
322.649	829.69
322.878	815.69
323.108	785.69
323.337	846.69
323.566	843.69
323.795	849.69
324.024	862.69
324.253	835.69
324.482	849.69
324.71	848.69
324.939	894.69
325.168	904.69
325.397	895.69
325.626	880.69
325.855	898.69
326.084	918.69
326.313	921.69
326.542	915.69
326.77	910.69
326.999	970.69
327.228	923.69
327.457	940.69
327.686	972.69
327.914	981.69
328.143	973.69
328.372	940.69
328.6	968.69
328.829	992.69
329.058	989.69
329.287	972.69
329.515	1010.69
329.744	994.69
329.972	1005.69
330.201	1015.69
330.43	1033.69
330.658	1035.69
330.887	1051.69
331.115	1047.69
331.344	1064.69
331.572	1071.69
331.801	1079.69
332.03	1061.69
332.258	1104.69
332.486	1078.69
332.715	1081.69
332.943	1111.69
333.172	1114.69
333.4	1140.69
333.629	1170.69
333.857	1151.69
334.085	1158.69
334.314	1160.69
334.542	1196.69
334.771	1198.69
334.999	1195.69
335.227	1191.69
335.455	1194.69
335.684	1208.69
335.912	1215.69
336.14	1219.69
336.369	1238.69
336.597	1200.69
336.825	1190.69
337.053	1211.69
337.281	1199.69
337.51	1185.69
337.738	1170.69
337.966	1207.69
338.194	1196.69
338.422	1176.69
338.65	1154.69
338.878	1174.69
339.106	1187.69
339.334	1161.69
339.562	1177.69
339.79	1119.69
340.018	1156.69
340.246	1129.69
340.474	1150.69
340.702	1178.69
340.93	1164.69
341.158	1177.69
341.386	1148.69
341.614	1149.69
341.842	1138.69
342.07	1140.69
342.298	1136.69
342.526	1166.69
342.754	1141.69
342.981	1154.69
343.209	1156.69
343.437	1180.69
343.665	1207.69
343.893	1216.69
344.12	1252.69
344.348	1229.69
344.576	1199.69
344.804	1224.69
345.031	1198.69
345.259	1184.69
345.487	1171.69
345.714	1175.69
345.942	1190.69
346.17	1163.69
346.397	1146.69
346.625	1138.69
346.853	1109.69
347.08	1182.69
347.308	1122.69
347.535	1124.69
347.763	1140.69
347.99	1145.69
348.218	1152.69
348.445	1122.69
348.673	1104.69
348.9	1113.69
349.128	1140.69
349.355	1132.69
349.583	1123.69
349.81	1088.69
350.037	1102.69
350.265	1110.69
350.492	1098.69
350.72	1122.69
350.947	1090.69
351.174	1124.69
351.402	1102.69
351.629	1128.69
351.856	1113.69
352.083	1114.69
352.311	1099.69
352.538	1090.69
352.765	1096.69
352.992	1044.69
353.22	1065.69
353.447	1113.69
353.674	1096.69
353.901	1112.69
354.128	1098.69
354.355	1099.69
354.583	1089.69
354.81	1064.69
355.037	1087.69
355.264	1119.69
355.491	1095.69
355.718	1086.69
355.945	1076.69
356.172	1119.69
356.399	1120.69
356.626	1085.69
356.853	1108.69
357.08	1090.69
357.307	1114.69
357.534	1116.69
357.761	1123.69
357.988	1108.69
358.215	1108.69
358.441	1109.69
358.668	1049.69
358.895	1090.69
359.122	1070.69
359.349	1085.69
359.576	1083.69
359.802	1071.69
360.029	1071.69
360.256	1098.69
360.483	1099.69
360.709	1088.69
360.936	1087.69
361.163	1077.69
361.39	1103.69
361.616	1063.69
361.843	1103.69
362.07	1117.69
362.296	1106.69
362.523	1096.69
362.749	1066.69
362.976	1059.69
363.203	1106.69
363.429	1066.69
363.656	1083.69
363.882	1075.69
364.109	1079.69
364.335	1078.69
364.562	1072.69
364.788	1059.69
365.015	1068.69
365.241	1080.69
365.468	1108.69
365.694	1101.69
365.92	1103.69
366.147	1090.69
366.373	1086.69
366.599	1083.69
366.826	1080.69
367.052	1080.69
367.278	1078.69
367.505	1082.69
367.731	1100.69
367.957	1078.69
368.184	1069.69
368.41	1062.69
368.636	1080.69
368.862	1058.69
369.089	1064.69
369.315	1076.69
369.541	1075.69
369.767	1088.69
369.993	1119.69
370.219	1099.69
370.445	1069.69
370.672	1098.69
370.898	1086.69
371.124	1093.69
371.35	1090.69
371.576	1079.69
371.802	1058.69
372.028	1063.69
372.254	1084.69
372.48	1065.69
372.706	1089.69
372.932	1104.69
373.158	1086.69
373.384	1057.69
373.61	1055.69
373.835	1082.69
374.061	1066.69
374.287	1092.69
374.513	1044.69
374.739	1111.69
374.965	1100.69
375.191	1087.69
375.416	1072.69
375.642	1088.69
375.868	1074.69
376.094	1046.69
376.319	1049.69
376.545	1076.69
376.771	1046.69
376.997	1053.69
377.222	1045.69
377.448	1027.69
377.674	1042.69
377.899	1030.69
378.125	1036.69
378.35	1040.69
378.576	999.69
378.802	1007.69
379.027	1018.69
379.253	1028.69
379.478	981.69
379.704	991.69
379.929	993.69
380.155	1021.69
380.38	1018.69
380.606	1004.69
380.831	1015.69
381.057	1033.69
381.282	1016.69
381.507	989.69
381.733	1036.69
381.958	1013.69
382.184	1049.69
382.409	1022.69
382.634	996.69
382.86	1028.69
383.085	1045.69
383.31	1046.69
383.535	1061.69
383.761	1056.69
383.986	1024.69
384.211	1017.69
384.436	1019.69
384.662	1069.69
384.887	1080.69
385.112	1058.69
385.337	1083.69
385.562	1087.69
385.787	1090.69
386.013	1080.69
386.238	1101.69
386.463	1072.69
386.688	1124.69
386.913	1074.69
387.138	1091.69
387.363	1087.69
387.588	1058.69
387.813	1113.69
388.038	1086.69
388.263	1094.69
388.488	1080.69
388.713	1093.69
388.938	1074.69
389.163	1076.69
389.387	1102.69
389.612	1116.69
389.837	1086.69
390.062	1056.69
390.287	1113.69
390.512	1117.69
390.736	1106.69
390.961	1133.69
391.186	1118.69
391.411	1104.69
391.636	1120.69
391.86	1117.69
392.085	1114.69
392.31	1132.69
392.534	1131.69
392.759	1153.69
392.984	1143.69
393.208	1134.69
393.433	1134.69
393.658	1115.69
393.882	1115.69
394.107	1132.69
394.331	1141.69
394.556	1132.69
394.78	1147.69
395.005	1130.69
395.229	1133.69
395.454	1184.69
395.678	1142.69
395.903	1131.69
396.127	1191.69
396.352	1159.69
396.576	1148.69
396.801	1163.69
397.025	1158.69
397.249	1183.69
397.474	1212.69
397.698	1181.69
397.922	1227.69
398.147	1204.69
398.371	1234.69
398.595	1250.69
398.82	1257.69
399.044	1296.69
399.268	1340.69
399.492	1354.69
399.717	1399.69
399.941	1410.69
400.165	1417.69
400.389	1412.69
400.613	1378.69
400.837	1330.69
401.062	1325.69
401.286	1271.69
401.51	1326.69
401.734	1294.69
401.958	1298.69
402.182	1294.69
402.406	1306.69
402.63	1292.69
402.854	1276.69
403.078	1300.69
403.302	1295.69
403.526	1332.69
403.75	1307.69
403.974	1342.69
404.198	1335.69
404.422	1354.69
404.645	1324.69
404.869	1340.69
405.093	1351.69
405.317	1331.69
405.541	1311.69
405.765	1342.69
405.988	1355.69
406.212	1379.69
406.436	1386.69
406.66	1416.69
406.883	1400.69
407.107	1439.69
407.331	1497.69
407.555	1483.69
407.778	1468.69
408.002	1448.69
408.226	1487.69
408.449	1552.69
408.673	1453.69
408.896	1452.69
409.12	1434.69
409.344	1452.69
409.567	1446.69
409.791	1443.69
410.014	1435.69
410.238	1397.69
410.461	1418.69
410.685	1444.69
410.908	1408.69
411.132	1396.69
411.355	1383.69
411.578	1389.69
411.802	1419.69
412.025	1416.69
412.249	1404.69
412.472	1381.69
412.695	1393.69
412.919	1362.69
413.142	1391.69
413.365	1382.69
413.589	1400.69
413.812	1372.69
414.035	1324.69
414.258	1389.69
414.482	1380.69
414.705	1380.69
414.928	1376.69
415.151	1396.69
415.374	1380.69
415.597	1379.69
415.821	1374.69
416.044	1356.69
416.267	1374.69
416.49	1352.69
416.713	1374.69
416.936	1378.69
417.159	1345.69
417.382	1328.69
417.605	1342.69
417.828	1361.69
418.051	1364.69
418.274	1332.69
418.497	1363.69
418.72	1366.69
418.943	1321.69
419.166	1433.69
419.389	1499.69
419.611	1515.69
419.834	1466.69
420.057	1387.69
420.28	1397.69
420.503	1347.69
420.726	1354.69
420.948	1341.69
421.171	1348.69
421.394	1355.69
421.617	1351.69
421.839	1388.69
422.062	1384.69
422.285	1390.69
422.507	1399.69
422.73	1410.69
422.953	1413.69
423.175	1386.69
423.398	1392.69
423.621	1395.69
423.843	1384.69
424.066	1422.69
424.288	1390.69
424.511	1401.69
424.733	1390.69
424.956	1383.69
425.178	1437.69
425.401	1388.69
425.623	1448.69
425.846	1395.69
426.068	1417.69
426.291	1430.69
426.513	1417.69
426.735	1414.69
426.958	1450.69
427.18	1408.69
427.402	1415.69
427.625	1360.69
427.847	1385.69
428.069	1386.69
428.292	1428.69
428.514	1408.69
428.736	1407.69
428.958	1415.69
429.181	1400.69
429.403	1385.69
429.625	1420.69
429.847	1386.69
430.069	1394.69
430.292	1427.69
430.514	1414.69
430.736	1424.69
430.958	1376.69
431.18	1408.69
431.402	1375.69
431.624	1387.69
431.846	1379.69
432.068	1384.69
432.29	1384.69
432.512	1417.69
432.734	1446.69
432.956	1404.69
433.178	1445.69
433.4	1474.69
433.622	1486.69
433.844	1459.69
434.066	1428.69
434.287	1417.69
434.509	1445.69
434.731	1428.69
434.953	1416.69
435.175	1502.69
435.397	1474.69
435.618	1441.69
435.84	1423.69
436.062	1429.69
436.284	1409.69
436.505	1450.69
436.727	1424.69
436.949	1433.69
437.17	1418.69
437.392	1426.69
437.614	1418.69
437.835	1382.69
438.057	1374.69
438.278	1358.69
438.5	1397.69
438.721	1394.69
438.943	1420.69
439.165	1391.69
439.386	1414.69
439.608	1424.69
439.829	1451.69
440.05	1417.69
440.272	1438.69
440.493	1429.69
440.715	1427.69
440.936	1434.69
441.158	1462.69
441.379	1460.69
441.6	1494.69
441.822	1448.69
442.043	1467.69
442.264	1482.69
442.486	1421.69
442.707	1487.69
442.928	1492.69
443.149	1512.69
443.371	1479.69
443.592	1522.69
443.813	1496.69
444.034	1485.69
444.255	1474.69
444.476	1526.69
444.698	1546.69
444.919	1550.69
445.14	1616.69
445.361	1551.69
445.582	1509.69
445.803	1490.69
446.024	1464.69
446.245	1449.69
446.466	1452.69
446.687	1420.69
446.908	1437.69
447.129	1401.69
447.35	1396.69
447.571	1406.69
447.792	1381.69
448.013	1349.69
448.234	1366.69
448.455	1379.69
448.675	1346.69
448.896	1328.69
449.117	1335.69
449.338	1349.69
449.559	1351.69
449.779	1331.69
450	1353.69
450.221	1318.69
450.442	1348.69
450.662	1333.69
450.883	1300.69
451.104	1334.69
451.324	1325.69
451.545	1273.69
451.766	1324.69
451.986	1333.69
452.207	1314.69
452.428	1277.69
452.648	1293.69
452.869	1285.69
453.089	1315.69
453.31	1303.69
453.53	1282.69
453.751	1306.69
453.971	1304.69
454.192	1315.69
454.412	1307.69
454.633	1324.69
454.853	1267.69
455.073	1262.69
455.294	1261.69
455.514	1272.69
455.734	1282.69
455.955	1322.69
456.175	1290.69
456.395	1286.69
456.616	1267.69
456.836	1293.69
457.056	1273.69
457.276	1261.69
457.497	1331.69
457.717	1288.69
457.937	1310.69
458.157	1320.69
458.377	1308.69
458.598	1359.69
458.818	1338.69
459.038	1343.69
459.258	1342.69
459.478	1381.69
459.698	1465.69
459.918	1442.69
460.138	1451.69
460.358	1484.69
460.578	1503.69
460.798	1497.69
461.018	1495.69
461.238	1478.69
461.458	1517.69
461.678	1491.69
461.898	1550.69
462.118	1517.69
462.338	1561.69
462.558	1570.69
462.777	1610.69
462.997	1676.69
463.217	1667.69
463.437	1744.69
463.657	1654.69
463.876	1636.69
464.096	1658.69
464.316	1614.69
464.536	1652.69
464.755	1618.69
464.975	1589.69
465.195	1559.69
465.414	1542.69
465.634	1471.69
465.854	1450.69
466.073	1469.69
466.293	1478.69
466.512	1375.69
466.732	1406.69
466.951	1416.69
467.171	1420.69
467.391	1417.69
467.61	1407.69
467.829	1398.69
468.049	1413.69
468.268	1359.69
468.488	1373.69
468.707	1391.69
468.927	1367.69
469.146	1404.69
469.365	1424.69
469.585	1361.69
469.804	1375.69
470.023	1418.69
470.243	1412.69
470.462	1459.69
470.681	1432.69
470.901	1409.69
471.12	1416.69
471.339	1408.69
471.558	1412.69
471.777	1397.69
471.997	1416.69
472.216	1373.69
472.435	1398.69
472.654	1403.69
472.873	1408.69
473.092	1459.69
473.311	1364.69
473.53	1400.69
473.749	1413.69
473.968	1430.69
474.187	1413.69
474.406	1404.69
474.625	1425.69
474.844	1417.69
475.063	1438.69
475.282	1422.69
475.501	1469.69
475.72	1437.69
475.939	1489.69
476.158	1483.69
476.377	1510.69
476.596	1487.69
476.814	1518.69
477.033	1524.69
477.252	1515.69
477.471	1531.69
477.69	1536.69
477.908	1566.69
478.127	1605.69
478.346	1603.69
478.564	1613.69
478.783	1625.69
479.002	1659.69
479.22	1674.69
479.439	1654.69
479.658	1642.69
479.876	1695.69
480.095	1653.69
480.313	1676.69
480.532	1688.69
480.751	1689.69
480.969	1689.69
481.188	1666.69
481.406	1661.69
481.624	1665.69
481.843	1648.69
482.061	1648.69
482.28	1639.69
482.498	1689.69
482.717	1642.69
482.935	1675.69
483.153	1732.69
483.372	1698.69
483.59	1694.69
483.808	1673.69
484.027	1727.69
484.245	1683.69
484.463	1711.69
484.681	1719.69
484.9	1721.69
485.118	1683.69
485.336	1703.69
485.554	1720.69
485.772	1708.69
485.99	1729.69
486.209	1699.69
486.427	1695.69
486.645	1685.69
486.863	1749.69
487.081	1706.69
487.299	1726.69
487.517	1731.69
487.735	1768.69
487.953	1748.69
488.171	1764.69
488.389	1751.69
488.607	1773.69
488.825	1731.69
489.043	1712.69
489.261	1736.69
489.479	1775.69
489.696	1766.69
489.914	1722.69
490.132	1783.69
490.35	1736.69
490.568	1747.69
490.786	1767.69
491.003	1836.69
491.221	1817.69
491.439	1828.69
491.657	1816.69
