Data from Ni(NO3)2@0.5M.TitratingCurve.Agarose3%dH2O.NegLispCup.LampEnergy10.LIBS07252019_HRD10591_17-59-18-564.txt Node
Date: Thu Jul 25 17:59:18 EDT 2019
User: cochatt
Spectrometer: HR+D1059
Trigger mode: 1
Integration Time (sec): 1.000000E-1
Scans to average: 1
Electric dark correction enabled: true
Nonlinearity correction enabled: false
Boxcar width: 0
XAxis mode: Wavelengths
Number of Pixels in Spectrum: 2048
>>>>>Begin Spectral Data<<<<<
223.165	-12.31
223.4	-12.31
223.635	-12.31
223.869	-11.31
224.104	-14.31
224.338	-4.31
224.573	-11.31
224.808	-5.31
225.042	-26.31
225.277	-14.31
225.511	-2.31
225.746	10.69
225.98	8.69
226.215	9.69
226.449	16.69
226.683	16.69
226.918	13.69
227.152	25.69
227.387	43.69
227.621	35.69
227.856	49.69
228.09	53.69
228.324	52.69
228.559	67.69
228.793	57.69
229.027	104.69
229.262	102.69
229.496	91.69
229.73	100.69
229.964	123.69
230.199	137.69
230.433	133.69
230.667	123.69
230.901	125.69
231.136	119.69
231.37	114.69
231.604	124.69
231.838	133.69
232.072	140.69
232.306	146.69
232.541	123.69
232.775	120.69
233.009	117.69
233.243	128.69
233.477	121.69
233.711	113.69
233.945	130.69
234.179	129.69
234.413	130.69
234.647	137.69
234.881	130.69
235.115	135.69
235.349	129.69
235.583	128.69
235.817	125.69
236.051	118.69
236.285	121.69
236.519	130.69
236.753	131.69
236.987	123.69
237.221	122.69
237.455	127.69
237.689	119.69
237.922	124.69
238.156	136.69
238.39	124.69
238.624	121.69
238.858	108.69
239.091	127.69
239.325	129.69
239.559	136.69
239.793	130.69
240.027	141.69
240.26	137.69
240.494	115.69
240.728	127.69
240.961	135.69
241.195	137.69
241.429	149.69
241.662	152.69
241.896	165.69
242.13	156.69
242.363	149.69
242.597	140.69
242.83	140.69
243.064	145.69
243.298	151.69
243.531	123.69
243.765	147.69
243.998	149.69
244.232	165.69
244.465	152.69
244.699	144.69
244.932	151.69
245.166	130.69
245.399	156.69
245.633	146.69
245.866	154.69
246.099	161.69
246.333	156.69
246.566	163.69
246.8	159.69
247.033	180.69
247.266	149.69
247.5	174.69
247.733	135.69
247.966	161.69
248.2	150.69
248.433	179.69
248.666	172.69
248.899	159.69
249.133	163.69
249.366	166.69
249.599	171.69
249.832	160.69
250.066	167.69
250.299	167.69
250.532	188.69
250.765	162.69
250.998	163.69
251.231	190.69
251.465	198.69
251.698	204.69
251.931	170.69
252.164	190.69
252.397	179.69
252.63	187.69
252.863	197.69
253.096	195.69
253.329	175.69
253.562	185.69
253.795	171.69
254.028	186.69
254.261	187.69
254.494	168.69
254.727	193.69
254.96	183.69
255.193	212.69
255.426	202.69
255.659	182.69
255.892	191.69
256.124	198.69
256.357	203.69
256.59	198.69
256.823	193.69
257.056	222.69
257.289	187.69
257.521	185.69
257.754	180.69
257.987	207.69
258.22	176.69
258.452	197.69
258.685	217.69
258.918	217.69
259.151	196.69
259.383	221.69
259.616	209.69
259.849	203.69
260.081	204.69
260.314	210.69
260.547	212.69
260.779	212.69
261.012	232.69
261.244	234.69
261.477	209.69
261.71	216.69
261.942	216.69
262.175	205.69
262.407	212.69
262.64	200.69
262.872	215.69
263.105	231.69
263.337	226.69
263.57	231.69
263.802	218.69
264.035	225.69
264.267	213.69
264.499	227.69
264.732	226.69
264.964	223.69
265.197	216.69
265.429	241.69
265.661	227.69
265.894	229.69
266.126	235.69
266.358	242.69
266.591	228.69
266.823	222.69
267.055	246.69
267.287	251.69
267.52	231.69
267.752	253.69
267.984	239.69
268.216	242.69
268.448	228.69
268.681	242.69
268.913	257.69
269.145	259.69
269.377	258.69
269.609	246.69
269.841	259.69
270.073	259.69
270.306	247.69
270.538	251.69
270.77	242.69
271.002	243.69
271.234	248.69
271.466	279.69
271.698	256.69
271.93	257.69
272.162	249.69
272.394	250.69
272.626	267.69
272.858	259.69
273.09	264.69
273.322	264.69
273.553	266.69
273.785	255.69
274.017	272.69
274.249	255.69
274.481	268.69
274.713	256.69
274.945	261.69
275.176	264.69
275.408	278.69
275.64	270.69
275.872	259.69
276.104	271.69
276.335	273.69
276.567	279.69
276.799	278.69
277.031	291.69
277.262	275.69
277.494	277.69
277.726	290.69
277.957	279.69
278.189	274.69
278.421	292.69
278.652	292.69
278.884	292.69
279.115	281.69
279.347	285.69
279.579	288.69
279.81	278.69
280.042	287.69
280.273	279.69
280.505	303.69
280.736	281.69
280.968	303.69
281.199	290.69
281.431	284.69
281.662	300.69
281.894	305.69
282.125	302.69
282.356	289.69
282.588	294.69
282.819	287.69
283.051	303.69
283.282	307.69
283.513	309.69
283.745	320.69
283.976	314.69
284.207	320.69
284.439	311.69
284.67	302.69
284.901	300.69
285.132	287.69
285.364	323.69
285.595	308.69
285.826	310.69
286.057	309.69
286.288	305.69
286.52	317.69
286.751	317.69
286.982	323.69
287.213	316.69
287.444	310.69
287.675	313.69
287.906	300.69
288.138	307.69
288.369	303.69
288.6	309.69
288.831	311.69
289.062	319.69
289.293	320.69
289.524	323.69
289.755	324.69
289.986	329.69
290.217	326.69
290.448	338.69
290.679	319.69
290.91	326.69
291.141	332.69
291.371	330.69
291.602	319.69
291.833	325.69
292.064	344.69
292.295	344.69
292.526	331.69
292.757	334.69
292.987	324.69
293.218	326.69
293.449	332.69
293.68	336.69
293.91	336.69
294.141	342.69
294.372	319.69
294.603	340.69
294.833	336.69
295.064	332.69
295.295	317.69
295.525	344.69
295.756	328.69
295.987	335.69
296.217	342.69
296.448	332.69
296.679	347.69
296.909	344.69
297.14	341.69
297.37	352.69
297.601	344.69
297.831	364.69
298.062	339.69
298.292	339.69
298.523	347.69
298.753	363.69
298.984	339.69
299.214	374.69
299.445	355.69
299.675	367.69
299.905	351.69
300.136	372.69
300.366	393.69
300.597	379.69
300.827	380.69
301.057	380.69
301.288	369.69
301.518	388.69
301.748	356.69
301.979	376.69
302.209	389.69
302.439	364.69
302.669	373.69
302.9	370.69
303.13	377.69
303.36	375.69
303.59	381.69
303.82	376.69
304.051	357.69
304.281	389.69
304.511	377.69
304.741	383.69
304.971	386.69
305.201	379.69
305.431	395.69
305.661	412.69
305.891	399.69
306.121	383.69
306.352	375.69
306.582	379.69
306.812	359.69
307.042	383.69
307.272	376.69
307.502	362.69
307.731	369.69
307.961	381.69
308.191	371.69
308.421	417.69
308.651	367.69
308.881	372.69
309.111	354.69
309.341	379.69
309.571	391.69
309.8	388.69
310.03	381.69
310.26	400.69
310.49	416.69
310.72	392.69
310.949	368.69
311.179	376.69
311.409	400.69
311.639	371.69
311.868	379.69
312.098	398.69
312.328	395.69
312.557	403.69
312.787	397.69
313.017	384.69
313.246	412.69
313.476	408.69
313.706	407.69
313.935	406.69
314.165	388.69
314.394	408.69
314.624	406.69
314.853	401.69
315.083	372.69
315.312	423.69
315.542	407.69
315.771	425.69
316.001	420.69
316.23	405.69
316.46	402.69
316.689	423.69
316.919	428.69
317.148	419.69
317.377	413.69
317.607	407.69
317.836	396.69
318.065	411.69
318.295	440.69
318.524	414.69
318.753	406.69
318.983	419.69
319.212	421.69
319.441	396.69
319.67	410.69
319.9	419.69
320.129	425.69
320.358	418.69
320.587	427.69
320.816	443.69
321.046	415.69
321.275	431.69
321.504	410.69
321.733	442.69
321.962	426.69
322.191	437.69
322.42	437.69
322.649	411.69
322.878	447.69
323.108	429.69
323.337	454.69
323.566	441.69
323.795	424.69
324.024	467.69
324.253	444.69
324.482	453.69
324.71	426.69
324.939	442.69
325.168	437.69
325.397	455.69
325.626	445.69
325.855	436.69
326.084	437.69
326.313	467.69
326.542	445.69
326.77	465.69
326.999	468.69
327.228	437.69
327.457	456.69
327.686	440.69
327.914	456.69
328.143	472.69
328.372	465.69
328.6	469.69
328.829	447.69
329.058	452.69
329.287	476.69
329.515	453.69
329.744	465.69
329.972	473.69
330.201	468.69
330.43	483.69
330.658	489.69
330.887	466.69
331.115	469.69
331.344	469.69
331.572	466.69
331.801	475.69
332.03	481.69
332.258	505.69
332.486	521.69
332.715	512.69
332.943	501.69
333.172	520.69
333.4	509.69
333.629	524.69
333.857	544.69
334.085	542.69
334.314	544.69
334.542	540.69
334.771	537.69
334.999	525.69
335.227	525.69
335.455	552.69
335.684	545.69
335.912	526.69
336.14	555.69
336.369	533.69
336.597	572.69
336.825	535.69
337.053	529.69
337.281	523.69
337.51	530.69
337.738	520.69
337.966	541.69
338.194	540.69
338.422	524.69
338.65	495.69
338.878	508.69
339.106	503.69
339.334	536.69
339.562	533.69
339.79	493.69
340.018	504.69
340.246	495.69
340.474	490.69
340.702	490.69
340.93	520.69
341.158	503.69
341.386	521.69
341.614	525.69
341.842	540.69
342.07	491.69
342.298	499.69
342.526	496.69
342.754	511.69
342.981	484.69
343.209	490.69
343.437	525.69
343.665	548.69
343.893	535.69
344.12	557.69
344.348	538.69
344.576	543.69
344.804	548.69
345.031	531.69
345.259	523.69
345.487	515.69
345.714	515.69
345.942	533.69
346.17	516.69
346.397	529.69
346.625	503.69
346.853	501.69
347.08	488.69
347.308	494.69
347.535	509.69
347.763	470.69
347.99	467.69
348.218	492.69
348.445	495.69
348.673	477.69
348.9	487.69
349.128	471.69
349.355	508.69
349.583	504.69
349.81	476.69
350.037	472.69
350.265	464.69
350.492	477.69
350.72	485.69
350.947	499.69
351.174	519.69
351.402	522.69
351.629	509.69
351.856	506.69
352.083	497.69
352.311	482.69
352.538	503.69
352.765	517.69
352.992	471.69
353.22	471.69
353.447	472.69
353.674	477.69
353.901	457.69
354.128	458.69
354.355	459.69
354.583	444.69
354.81	459.69
355.037	464.69
355.264	466.69
355.491	465.69
355.718	480.69
355.945	484.69
356.172	475.69
356.399	471.69
356.626	495.69
356.853	505.69
357.08	484.69
357.307	495.69
357.534	494.69
357.761	485.69
357.988	483.69
358.215	476.69
358.441	481.69
358.668	460.69
358.895	474.69
359.122	462.69
359.349	495.69
359.576	463.69
359.802	482.69
360.029	455.69
360.256	468.69
360.483	468.69
360.709	462.69
360.936	469.69
361.163	485.69
361.39	493.69
361.616	486.69
361.843	496.69
362.07	517.69
362.296	497.69
362.523	454.69
362.749	489.69
362.976	460.69
363.203	487.69
363.429	450.69
363.656	461.69
363.882	453.69
364.109	477.69
364.335	456.69
364.562	472.69
364.788	489.69
365.015	495.69
365.241	463.69
365.468	474.69
365.694	480.69
365.92	468.69
366.147	484.69
366.373	466.69
366.599	458.69
366.826	472.69
367.052	501.69
367.278	491.69
367.505	487.69
367.731	476.69
367.957	471.69
368.184	486.69
368.41	475.69
368.636	480.69
368.862	466.69
369.089	460.69
369.315	475.69
369.541	485.69
369.767	479.69
369.993	466.69
370.219	503.69
370.445	486.69
370.672	478.69
370.898	470.69
371.124	519.69
371.35	517.69
371.576	508.69
371.802	504.69
372.028	512.69
372.254	515.69
372.48	496.69
372.706	535.69
372.932	512.69
373.158	528.69
373.384	534.69
373.61	525.69
373.835	507.69
374.061	503.69
374.287	504.69
374.513	531.69
374.739	549.69
374.965	534.69
375.191	531.69
375.416	523.69
375.642	528.69
375.868	513.69
376.094	511.69
376.319	498.69
376.545	516.69
376.771	528.69
376.997	505.69
377.222	503.69
377.448	504.69
377.674	481.69
377.899	523.69
378.125	503.69
378.35	515.69
378.576	501.69
378.802	520.69
379.027	514.69
379.253	491.69
379.478	497.69
379.704	500.69
379.929	500.69
380.155	497.69
380.38	521.69
380.606	504.69
380.831	521.69
381.057	530.69
381.282	508.69
381.507	513.69
381.733	517.69
381.958	522.69
382.184	534.69
382.409	518.69
382.634	498.69
382.86	535.69
383.085	530.69
383.31	525.69
383.535	522.69
383.761	534.69
383.986	522.69
384.211	536.69
384.436	546.69
384.662	541.69
384.887	589.69
385.112	551.69
385.337	545.69
385.562	571.69
385.787	559.69
386.013	572.69
386.238	576.69
386.463	604.69
386.688	581.69
386.913	569.69
387.138	572.69
387.363	565.69
387.588	592.69
387.813	575.69
388.038	588.69
388.263	555.69
388.488	575.69
388.713	571.69
388.938	585.69
389.163	583.69
389.387	588.69
389.612	577.69
389.837	576.69
390.062	572.69
390.287	603.69
390.512	580.69
390.736	565.69
390.961	595.69
391.186	605.69
391.411	584.69
391.636	585.69
391.86	624.69
392.085	601.69
392.31	630.69
392.534	603.69
392.759	623.69
392.984	596.69
393.208	623.69
393.433	607.69
393.658	620.69
393.882	592.69
394.107	612.69
394.331	597.69
394.556	568.69
394.78	596.69
395.005	612.69
395.229	617.69
395.454	601.69
395.678	605.69
395.903	625.69
396.127	623.69
396.352	613.69
396.576	613.69
396.801	589.69
397.025	623.69
397.249	647.69
397.474	623.69
397.698	659.69
397.922	654.69
398.147	647.69
398.371	667.69
398.595	676.69
398.82	669.69
399.044	704.69
399.268	774.69
399.492	761.69
399.717	793.69
399.941	808.69
400.165	781.69
400.389	741.69
400.613	749.69
400.837	729.69
401.062	673.69
401.286	728.69
401.51	669.69
401.734	694.69
401.958	694.69
402.182	699.69
402.406	690.69
402.63	672.69
402.854	695.69
403.078	690.69
403.302	689.69
403.526	678.69
403.75	685.69
403.974	724.69
404.198	705.69
404.422	703.69
404.645	684.69
404.869	694.69
405.093	704.69
405.317	702.69
405.541	709.69
405.765	706.69
405.988	704.69
406.212	709.69
406.436	730.69
406.66	756.69
406.883	752.69
407.107	775.69
407.331	787.69
407.555	795.69
407.778	783.69
408.002	803.69
408.226	776.69
408.449	780.69
408.673	760.69
408.896	763.69
409.12	734.69
409.344	756.69
409.567	728.69
409.791	751.69
410.014	717.69
410.238	726.69
410.461	750.69
410.685	736.69
410.908	717.69
411.132	730.69
411.355	691.69
411.578	715.69
411.802	695.69
412.025	699.69
412.249	721.69
412.472	704.69
412.695	719.69
412.919	690.69
413.142	705.69
413.365	703.69
413.589	722.69
413.812	694.69
414.035	668.69
414.258	702.69
414.482	695.69
414.705	690.69
414.928	669.69
415.151	699.69
415.374	706.69
415.597	690.69
415.821	689.69
416.044	687.69
416.267	677.69
416.49	671.69
416.713	676.69
416.936	699.69
417.159	655.69
417.382	648.69
417.605	652.69
417.828	676.69
418.051	667.69
418.274	680.69
418.497	644.69
418.72	659.69
418.943	663.69
419.166	676.69
419.389	723.69
419.611	691.69
419.834	713.69
420.057	682.69
420.28	669.69
420.503	663.69
420.726	656.69
420.948	669.69
421.171	641.69
421.394	652.69
421.617	640.69
421.839	710.69
422.062	663.69
422.285	665.69
422.507	642.69
422.73	647.69
422.953	653.69
423.175	650.69
423.398	684.69
423.621	632.69
423.843	653.69
424.066	673.69
424.288	678.69
424.511	685.69
424.733	666.69
424.956	657.69
425.178	641.69
425.401	652.69
425.623	641.69
425.846	634.69
426.068	666.69
426.291	666.69
426.513	653.69
426.735	633.69
426.958	653.69
427.18	633.69
427.402	629.69
427.625	671.69
427.847	631.69
428.069	642.69
428.292	639.69
428.514	624.69
428.736	627.69
428.958	639.69
429.181	603.69
429.403	621.69
429.625	627.69
429.847	599.69
430.069	614.69
430.292	659.69
430.514	633.69
430.736	636.69
430.958	636.69
431.18	617.69
431.402	641.69
431.624	627.69
431.846	632.69
432.068	624.69
432.29	643.69
432.512	634.69
432.734	636.69
432.956	661.69
433.178	641.69
433.4	650.69
433.622	678.69
433.844	660.69
434.066	666.69
434.287	664.69
434.509	675.69
434.731	657.69
434.953	661.69
435.175	682.69
435.397	707.69
435.618	656.69
435.84	637.69
436.062	653.69
436.284	660.69
436.505	631.69
436.727	632.69
436.949	645.69
437.17	639.69
437.392	631.69
437.614	645.69
437.835	637.69
438.057	623.69
438.278	623.69
438.5	625.69
438.721	640.69
438.943	616.69
439.165	623.69
439.386	625.69
439.608	643.69
439.829	654.69
440.05	616.69
440.272	658.69
440.493	659.69
440.715	644.69
440.936	652.69
441.158	649.69
441.379	662.69
441.6	712.69
441.822	644.69
442.043	682.69
442.264	664.69
442.486	687.69
442.707	681.69
442.928	680.69
443.149	689.69
443.371	691.69
443.592	712.69
443.813	699.69
444.034	664.69
444.255	704.69
444.476	728.69
444.698	713.69
444.919	722.69
445.14	812.69
445.361	771.69
445.582	705.69
445.803	680.69
446.024	645.69
446.245	656.69
446.466	642.69
446.687	634.69
446.908	651.69
447.129	614.69
447.35	632.69
447.571	611.69
447.792	591.69
448.013	623.69
448.234	605.69
448.455	594.69
448.675	610.69
448.896	595.69
449.117	602.69
449.338	611.69
449.559	588.69
449.779	587.69
450	584.69
450.221	586.69
450.442	592.69
450.662	605.69
450.883	580.69
451.104	583.69
451.324	578.69
451.545	610.69
451.766	601.69
451.986	587.69
452.207	583.69
452.428	569.69
452.648	589.69
452.869	563.69
453.089	556.69
453.31	553.69
453.53	541.69
453.751	575.69
453.971	561.69
454.192	592.69
454.412	579.69
454.633	563.69
454.853	573.69
455.073	555.69
455.294	569.69
455.514	563.69
455.734	561.69
455.955	590.69
456.175	567.69
456.395	554.69
456.616	573.69
456.836	565.69
457.056	566.69
457.276	574.69
457.497	570.69
457.717	593.69
457.937	581.69
458.157	580.69
458.377	571.69
458.598	576.69
458.818	587.69
459.038	586.69
459.258	617.69
459.478	635.69
459.698	682.69
459.918	678.69
460.138	687.69
460.358	703.69
460.578	683.69
460.798	714.69
461.018	725.69
461.238	688.69
461.458	691.69
461.678	685.69
461.898	706.69
462.118	700.69
462.338	712.69
462.558	761.69
462.777	769.69
462.997	782.69
463.217	800.69
463.437	842.69
463.657	814.69
463.876	777.69
464.096	736.69
464.316	748.69
464.536	758.69
464.755	751.69
464.975	725.69
465.195	696.69
465.414	677.69
465.634	661.69
465.854	660.69
466.073	629.69
466.293	630.69
466.512	605.69
466.732	611.69
466.951	636.69
467.171	632.69
467.391	634.69
467.61	624.69
467.829	618.69
468.049	605.69
468.268	613.69
468.488	616.69
468.707	618.69
468.927	613.69
469.146	605.69
469.365	617.69
469.585	619.69
469.804	614.69
470.023	628.69
470.243	599.69
470.462	618.69
470.681	609.69
470.901	619.69
471.12	600.69
471.339	625.69
471.558	637.69
471.777	639.69
471.997	611.69
472.216	608.69
472.435	589.69
472.654	579.69
472.873	609.69
473.092	609.69
473.311	601.69
473.53	595.69
473.749	620.69
473.968	623.69
474.187	605.69
474.406	586.69
474.625	613.69
474.844	610.69
475.063	605.69
475.282	601.69
475.501	628.69
475.72	627.69
475.939	611.69
476.158	620.69
476.377	631.69
476.596	636.69
476.814	633.69
477.033	651.69
477.252	651.69
477.471	668.69
477.69	680.69
477.908	681.69
478.127	696.69
478.346	676.69
478.564	687.69
478.783	700.69
479.002	729.69
479.22	765.69
479.439	723.69
479.658	721.69
479.876	712.69
480.095	695.69
480.313	727.69
480.532	728.69
480.751	703.69
480.969	705.69
481.188	714.69
481.406	715.69
481.624	719.69
481.843	712.69
482.061	695.69
482.28	706.69
482.498	699.69
482.717	689.69
482.935	692.69
483.153	705.69
483.372	736.69
483.59	717.69
483.808	725.69
484.027	731.69
484.245	725.69
484.463	711.69
484.681	744.69
484.9	720.69
485.118	728.69
485.336	709.69
485.554	698.69
485.772	733.69
485.99	707.69
486.209	717.69
486.427	707.69
486.645	718.69
486.863	723.69
487.081	742.69
487.299	726.69
487.517	731.69
487.735	755.69
487.953	752.69
488.171	732.69
488.389	725.69
488.607	733.69
488.825	721.69
489.043	725.69
489.261	714.69
489.479	722.69
489.696	729.69
489.914	742.69
490.132	718.69
490.35	724.69
490.568	737.69
490.786	744.69
491.003	744.69
491.221	746.69
491.439	748.69
491.657	731.69
491.874	762.69
492.092	755.69
492.31	753.69
492.527	753.69
492.745	763.69
492.963	755.69
493.18	753.69
493.398	747.69
493.615	761.69
493.833	756.69
494.05	775.69
494.268	776.69
494.485	760.69
494.703	761.69
494.92	779.69
495.138	756.69
495.355	776.69
495.573	769.69
495.79	767.69
496.008	794.69
496.225	755.69
496.442	789.69
496.66	816.69
496.877	787.69
497.094	815.69
497.312	840.69
497.529	834.69
497.746	815.69
497.963	858.69
498.181	891.69
498.398	891.69
498.615	943.69
498.832	957.69
499.049	994.69
499.267	1056.69
499.484	1051.69
499.701	1116.69
499.918	1188.69
500.135	1289.69
500.352	1339.69
500.569	1369.69
500.786	1329.69
501.003	1310.69
501.22	1249.69
501.437	1200.69
