Data from Ni(NO3)2@0.25M.TitratingCurve.Agarose3%dH2O.NegLispCup.LampEnergy10.LIBS07252019_HRD10591_18-04-45-566.txt Node
Date: Thu Jul 25 18:04:45 EDT 2019
User: cochatt
Spectrometer: HR+D1059
Trigger mode: 1
Integration Time (sec): 1.000000E-1
Scans to average: 1
Electric dark correction enabled: true
Nonlinearity correction enabled: false
Boxcar width: 0
XAxis mode: Wavelengths
Number of Pixels in Spectrum: 2048
>>>>>Begin Spectral Data<<<<<
223.165	-8.12
223.4	-8.12
223.635	-8.12
223.869	-21.12
224.104	-17.12
224.338	-20.12
224.573	-13.12
224.808	-22.12
225.042	-1.12
225.277	3.88
225.511	-4.12
225.746	9.88
225.98	0.88
226.215	17.88
226.449	12.88
226.683	11.88
226.918	22.88
227.152	26.88
227.387	51.88
227.621	27.88
227.856	39.88
228.09	44.88
228.324	47.88
228.559	46.88
228.793	60.88
229.027	85.88
229.262	85.88
229.496	91.88
229.73	99.88
229.964	105.88
230.199	103.88
230.433	119.88
230.667	124.88
230.901	104.88
231.136	104.88
231.37	104.88
231.604	100.88
231.838	124.88
232.072	99.88
232.306	114.88
232.541	109.88
232.775	116.88
233.009	108.88
233.243	115.88
233.477	119.88
233.711	120.88
233.945	112.88
234.179	116.88
234.413	96.88
234.647	117.88
234.881	119.88
235.115	119.88
235.349	122.88
235.583	116.88
235.817	113.88
236.051	105.88
236.285	125.88
236.519	119.88
236.753	123.88
236.987	109.88
237.221	123.88
237.455	105.88
237.689	120.88
237.922	117.88
238.156	116.88
238.39	125.88
238.624	121.88
238.858	117.88
239.091	116.88
239.325	101.88
239.559	111.88
239.793	130.88
240.027	127.88
240.26	129.88
240.494	134.88
240.728	130.88
240.961	126.88
241.195	128.88
241.429	131.88
241.662	125.88
241.896	123.88
242.13	132.88
242.363	141.88
242.597	129.88
242.83	138.88
243.064	140.88
243.298	140.88
243.531	123.88
243.765	133.88
243.998	143.88
244.232	129.88
244.465	136.88
244.699	137.88
244.932	135.88
245.166	130.88
245.399	132.88
245.633	152.88
245.866	145.88
246.099	159.88
246.333	152.88
246.566	141.88
246.8	138.88
247.033	151.88
247.266	135.88
247.5	155.88
247.733	156.88
247.966	148.88
248.2	156.88
248.433	155.88
248.666	155.88
248.899	149.88
249.133	169.88
249.366	159.88
249.599	155.88
249.832	166.88
250.066	162.88
250.299	165.88
250.532	156.88
250.765	186.88
250.998	163.88
251.231	167.88
251.465	169.88
251.698	160.88
251.931	179.88
252.164	162.88
252.397	169.88
252.63	204.88
252.863	176.88
253.096	154.88
253.329	187.88
253.562	167.88
253.795	172.88
254.028	195.88
254.261	199.88
254.494	180.88
254.727	185.88
254.96	199.88
255.193	195.88
255.426	196.88
255.659	183.88
255.892	207.88
256.124	195.88
256.357	191.88
256.59	198.88
256.823	189.88
257.056	181.88
257.289	193.88
257.521	205.88
257.754	197.88
257.987	203.88
258.22	198.88
258.452	208.88
258.685	218.88
258.918	211.88
259.151	211.88
259.383	217.88
259.616	209.88
259.849	208.88
260.081	220.88
260.314	221.88
260.547	209.88
260.779	236.88
261.012	223.88
261.244	230.88
261.477	238.88
261.71	232.88
261.942	217.88
262.175	237.88
262.407	216.88
262.64	230.88
262.872	224.88
263.105	232.88
263.337	229.88
263.57	235.88
263.802	236.88
264.035	235.88
264.267	245.88
264.499	235.88
264.732	237.88
264.964	217.88
265.197	246.88
265.429	257.88
265.661	230.88
265.894	261.88
266.126	241.88
266.358	233.88
266.591	252.88
266.823	248.88
267.055	262.88
267.287	230.88
267.52	248.88
267.752	249.88
267.984	251.88
268.216	248.88
268.448	252.88
268.681	261.88
268.913	253.88
269.145	250.88
269.377	251.88
269.609	260.88
269.841	252.88
270.073	268.88
270.306	269.88
270.538	262.88
270.77	247.88
271.002	268.88
271.234	261.88
271.466	268.88
271.698	263.88
271.93	235.88
272.162	273.88
272.394	272.88
272.626	257.88
272.858	272.88
273.09	281.88
273.322	257.88
273.553	267.88
273.785	260.88
274.017	267.88
274.249	271.88
274.481	271.88
274.713	273.88
274.945	264.88
275.176	271.88
275.408	269.88
275.64	284.88
275.872	260.88
276.104	261.88
276.335	270.88
276.567	268.88
276.799	278.88
277.031	268.88
277.262	261.88
277.494	262.88
277.726	295.88
277.957	283.88
278.189	275.88
278.421	281.88
278.652	284.88
278.884	268.88
279.115	269.88
279.347	303.88
279.579	276.88
279.81	293.88
280.042	289.88
280.273	281.88
280.505	298.88
280.736	279.88
280.968	290.88
281.199	271.88
281.431	296.88
281.662	292.88
281.894	282.88
282.125	304.88
282.356	265.88
282.588	299.88
282.819	295.88
283.051	314.88
283.282	295.88
283.513	285.88
283.745	308.88
283.976	298.88
284.207	297.88
284.439	295.88
284.67	326.88
284.901	321.88
285.132	302.88
285.364	301.88
285.595	313.88
285.826	300.88
286.057	317.88
286.288	300.88
286.52	304.88
286.751	316.88
286.982	288.88
287.213	318.88
287.444	313.88
287.675	326.88
287.906	301.88
288.138	326.88
288.369	302.88
288.6	315.88
288.831	310.88
289.062	305.88
289.293	303.88
289.524	304.88
289.755	300.88
289.986	321.88
290.217	326.88
290.448	329.88
290.679	325.88
290.91	313.88
291.141	314.88
291.371	321.88
291.602	307.88
291.833	321.88
292.064	303.88
292.295	329.88
292.526	317.88
292.757	313.88
292.987	320.88
293.218	303.88
293.449	307.88
293.68	301.88
293.91	319.88
294.141	323.88
294.372	326.88
294.603	310.88
294.833	322.88
295.064	298.88
295.295	311.88
295.525	335.88
295.756	327.88
295.987	322.88
296.217	336.88
296.448	335.88
296.679	332.88
296.909	335.88
297.14	341.88
297.37	345.88
297.601	334.88
297.831	311.88
298.062	333.88
298.292	347.88
298.523	357.88
298.753	350.88
298.984	338.88
299.214	344.88
299.445	345.88
299.675	334.88
299.905	336.88
300.136	340.88
300.366	354.88
300.597	368.88
300.827	349.88
301.057	362.88
301.288	377.88
301.518	360.88
301.748	343.88
301.979	355.88
302.209	356.88
302.439	366.88
302.669	347.88
302.9	362.88
303.13	351.88
303.36	347.88
303.59	333.88
303.82	355.88
304.051	355.88
304.281	355.88
304.511	390.88
304.741	356.88
304.971	366.88
305.201	371.88
305.431	377.88
305.661	371.88
305.891	364.88
306.121	355.88
306.352	359.88
306.582	341.88
306.812	346.88
307.042	361.88
307.272	343.88
307.502	351.88
307.731	346.88
307.961	361.88
308.191	373.88
308.421	362.88
308.651	359.88
308.881	362.88
309.111	358.88
309.341	336.88
309.571	354.88
309.8	363.88
310.03	381.88
310.26	369.88
310.49	365.88
310.72	379.88
310.949	373.88
311.179	363.88
311.409	375.88
311.639	375.88
311.868	409.88
312.098	362.88
312.328	367.88
312.557	377.88
312.787	367.88
313.017	375.88
313.246	383.88
313.476	383.88
313.706	394.88
313.935	391.88
314.165	414.88
314.394	393.88
314.624	397.88
314.853	392.88
315.083	417.88
315.312	415.88
315.542	395.88
315.771	384.88
316.001	395.88
316.23	400.88
316.46	419.88
316.689	401.88
316.919	385.88
317.148	394.88
317.377	408.88
317.607	395.88
317.836	413.88
318.065	407.88
318.295	414.88
318.524	422.88
318.753	410.88
318.983	392.88
319.212	410.88
319.441	421.88
319.67	412.88
319.9	430.88
320.129	413.88
320.358	439.88
320.587	413.88
320.816	415.88
321.046	443.88
321.275	428.88
321.504	433.88
321.733	425.88
321.962	441.88
322.191	439.88
322.42	417.88
322.649	432.88
322.878	450.88
323.108	475.88
323.337	432.88
323.566	448.88
323.795	456.88
324.024	448.88
324.253	461.88
324.482	466.88
324.71	463.88
324.939	448.88
325.168	456.88
325.397	451.88
325.626	466.88
325.855	487.88
326.084	474.88
326.313	484.88
326.542	495.88
326.77	499.88
326.999	494.88
327.228	505.88
327.457	498.88
327.686	464.88
327.914	488.88
328.143	484.88
328.372	489.88
328.6	480.88
328.829	508.88
329.058	497.88
329.287	490.88
329.515	491.88
329.744	497.88
329.972	522.88
330.201	512.88
330.43	527.88
330.658	534.88
330.887	534.88
331.115	528.88
331.344	511.88
331.572	538.88
331.801	559.88
332.03	547.88
332.258	536.88
332.486	577.88
332.715	577.88
332.943	575.88
333.172	580.88
333.4	605.88
333.629	638.88
333.857	673.88
334.085	606.88
334.314	629.88
334.542	614.88
334.771	639.88
334.999	623.88
335.227	619.88
335.455	637.88
335.684	641.88
335.912	607.88
336.14	621.88
336.369	631.88
336.597	649.88
336.825	630.88
337.053	632.88
337.281	615.88
337.51	599.88
337.738	618.88
337.966	585.88
338.194	588.88
338.422	573.88
338.65	573.88
338.878	580.88
339.106	594.88
339.334	574.88
339.562	576.88
339.79	574.88
340.018	567.88
340.246	565.88
340.474	561.88
340.702	564.88
340.93	569.88
341.158	582.88
341.386	583.88
341.614	578.88
341.842	577.88
342.07	567.88
342.298	560.88
342.526	552.88
342.754	545.88
342.981	565.88
343.209	590.88
343.437	558.88
343.665	605.88
343.893	637.88
344.12	656.88
344.348	633.88
344.576	628.88
344.804	597.88
345.031	603.88
345.259	592.88
345.487	591.88
345.714	565.88
345.942	572.88
346.17	578.88
346.397	574.88
346.625	547.88
346.853	563.88
347.08	570.88
347.308	553.88
347.535	553.88
347.763	553.88
347.99	555.88
348.218	563.88
348.445	542.88
348.673	548.88
348.9	544.88
349.128	531.88
349.355	536.88
349.583	526.88
349.81	553.88
350.037	534.88
350.265	533.88
350.492	526.88
350.72	537.88
350.947	537.88
351.174	536.88
351.402	523.88
351.629	547.88
351.856	551.88
352.083	512.88
352.311	526.88
352.538	542.88
352.765	541.88
352.992	524.88
353.22	516.88
353.447	519.88
353.674	541.88
353.901	537.88
354.128	543.88
354.355	520.88
354.583	509.88
354.81	535.88
355.037	541.88
355.264	521.88
355.491	512.88
355.718	518.88
355.945	512.88
356.172	536.88
356.399	552.88
356.626	537.88
356.853	530.88
357.08	527.88
357.307	514.88
357.534	521.88
357.761	539.88
357.988	525.88
358.215	520.88
358.441	501.88
358.668	493.88
358.895	528.88
359.122	517.88
359.349	511.88
359.576	519.88
359.802	535.88
360.029	511.88
360.256	531.88
360.483	510.88
360.709	520.88
360.936	519.88
361.163	519.88
361.39	522.88
361.616	530.88
361.843	540.88
362.07	551.88
362.296	533.88
362.523	539.88
362.749	517.88
362.976	542.88
363.203	517.88
363.429	519.88
363.656	522.88
363.882	520.88
364.109	537.88
364.335	522.88
364.562	518.88
364.788	523.88
365.015	525.88
365.241	504.88
365.468	494.88
365.694	501.88
365.92	534.88
366.147	515.88
366.373	511.88
366.599	519.88
366.826	510.88
367.052	528.88
367.278	537.88
367.505	537.88
367.731	532.88
367.957	533.88
368.184	528.88
368.41	527.88
368.636	533.88
368.862	523.88
369.089	535.88
369.315	552.88
369.541	521.88
369.767	539.88
369.993	526.88
370.219	535.88
370.445	558.88
370.672	545.88
370.898	523.88
371.124	533.88
371.35	571.88
371.576	543.88
371.802	552.88
372.028	541.88
372.254	556.88
372.48	553.88
372.706	554.88
372.932	552.88
373.158	572.88
373.384	574.88
373.61	570.88
373.835	583.88
374.061	544.88
374.287	552.88
374.513	563.88
374.739	553.88
374.965	567.88
375.191	589.88
375.416	601.88
375.642	569.88
375.868	563.88
376.094	580.88
376.319	577.88
376.545	537.88
376.771	547.88
376.997	536.88
377.222	531.88
377.448	533.88
377.674	557.88
377.899	539.88
378.125	552.88
378.35	537.88
378.576	532.88
378.802	517.88
379.027	526.88
379.253	533.88
379.478	503.88
379.704	515.88
379.929	500.88
380.155	551.88
380.38	518.88
380.606	522.88
380.831	523.88
381.057	539.88
381.282	529.88
381.507	528.88
381.733	526.88
381.958	536.88
382.184	550.88
382.409	553.88
382.634	548.88
382.86	534.88
383.085	573.88
383.31	563.88
383.535	549.88
383.761	579.88
383.986	570.88
384.211	604.88
384.436	595.88
384.662	599.88
384.887	607.88
385.112	607.88
385.337	605.88
385.562	585.88
385.787	599.88
386.013	612.88
386.238	620.88
386.463	619.88
386.688	606.88
386.913	592.88
387.138	601.88
387.363	591.88
387.588	583.88
387.813	604.88
388.038	611.88
388.263	579.88
388.488	625.88
388.713	603.88
388.938	616.88
389.163	623.88
389.387	615.88
389.612	611.88
389.837	596.88
390.062	599.88
390.287	594.88
390.512	614.88
390.736	604.88
390.961	606.88
391.186	607.88
391.411	635.88
391.636	649.88
391.86	651.88
392.085	643.88
392.31	644.88
392.534	633.88
392.759	638.88
392.984	636.88
393.208	656.88
393.433	650.88
393.658	657.88
393.882	639.88
394.107	655.88
394.331	647.88
394.556	655.88
394.78	664.88
395.005	645.88
395.229	647.88
395.454	653.88
395.678	665.88
395.903	670.88
396.127	670.88
396.352	658.88
396.576	647.88
396.801	652.88
397.025	665.88
397.249	683.88
397.474	675.88
397.698	672.88
397.922	660.88
398.147	688.88
398.371	687.88
398.595	725.88
398.82	769.88
399.044	785.88
399.268	831.88
399.492	913.88
399.717	965.88
399.941	963.88
400.165	893.88
400.389	863.88
400.613	801.88
400.837	767.88
401.062	778.88
401.286	766.88
401.51	737.88
401.734	740.88
401.958	742.88
402.182	776.88
402.406	771.88
402.63	758.88
402.854	793.88
403.078	777.88
403.302	779.88
403.526	772.88
403.75	808.88
403.974	825.88
404.198	797.88
404.422	815.88
404.645	823.88
404.869	807.88
405.093	825.88
405.317	787.88
405.541	791.88
405.765	781.88
405.988	809.88
406.212	815.88
406.436	819.88
406.66	849.88
406.883	845.88
407.107	875.88
407.331	884.88
407.555	928.88
407.778	919.88
408.002	905.88
408.226	913.88
408.449	873.88
408.673	879.88
408.896	855.88
409.12	849.88
409.344	855.88
409.567	831.88
409.791	847.88
410.014	840.88
410.238	832.88
410.461	829.88
410.685	837.88
410.908	806.88
411.132	809.88
411.355	798.88
411.578	779.88
411.802	795.88
412.025	813.88
412.249	823.88
412.472	800.88
412.695	793.88
412.919	803.88
413.142	783.88
413.365	759.88
413.589	798.88
413.812	765.88
414.035	769.88
414.258	784.88
414.482	771.88
414.705	784.88
414.928	812.88
415.151	753.88
415.374	790.88
415.597	775.88
415.821	762.88
416.044	732.88
416.267	773.88
416.49	759.88
416.713	746.88
416.936	746.88
417.159	749.88
417.382	744.88
417.605	773.88
417.828	775.88
418.051	776.88
418.274	767.88
418.497	784.88
418.72	794.88
418.943	778.88
419.166	829.88
419.389	893.88
419.611	846.88
419.834	825.88
420.057	813.88
420.28	779.88
420.503	765.88
420.726	777.88
420.948	785.88
421.171	778.88
421.394	791.88
421.617	775.88
421.839	751.88
422.062	789.88
422.285	761.88
422.507	788.88
422.73	797.88
422.953	790.88
423.175	793.88
423.398	775.88
423.621	803.88
423.843	792.88
424.066	809.88
424.288	796.88
424.511	791.88
424.733	794.88
424.956	775.88
425.178	797.88
425.401	764.88
425.623	792.88
425.846	776.88
426.068	764.88
426.291	784.88
426.513	773.88
426.735	764.88
426.958	745.88
427.18	745.88
427.402	750.88
427.625	761.88
427.847	741.88
428.069	735.88
428.292	768.88
428.514	743.88
428.736	742.88
428.958	740.88
429.181	730.88
429.403	713.88
429.625	721.88
429.847	729.88
430.069	715.88
430.292	719.88
430.514	718.88
430.736	749.88
430.958	732.88
431.18	716.88
431.402	745.88
431.624	749.88
431.846	749.88
432.068	754.88
432.29	747.88
432.512	739.88
432.734	751.88
432.956	725.88
433.178	760.88
433.4	779.88
433.622	743.88
433.844	756.88
434.066	746.88
434.287	736.88
434.509	766.88
434.731	782.88
434.953	804.88
435.175	851.88
435.397	813.88
435.618	802.88
435.84	779.88
436.062	746.88
436.284	760.88
436.505	760.88
436.727	762.88
436.949	747.88
437.17	726.88
437.392	740.88
437.614	757.88
437.835	718.88
438.057	729.88
438.278	725.88
438.5	714.88
438.721	724.88
438.943	756.88
439.165	729.88
439.386	733.88
439.608	747.88
439.829	752.88
440.05	749.88
440.272	756.88
440.493	756.88
440.715	770.88
440.936	800.88
441.158	803.88
441.379	781.88
441.6	825.88
441.822	809.88
442.043	829.88
442.264	838.88
442.486	807.88
442.707	799.88
442.928	830.88
443.149	816.88
443.371	797.88
443.592	809.88
443.813	846.88
444.034	819.88
444.255	835.88
444.476	855.88
444.698	899.88
444.919	926.88
445.14	960.88
445.361	884.88
445.582	856.88
445.803	821.88
446.024	783.88
446.245	793.88
446.466	782.88
446.687	759.88
446.908	781.88
447.129	770.88
447.35	748.88
447.571	752.88
447.792	718.88
448.013	727.88
448.234	718.88
448.455	723.88
448.675	704.88
448.896	730.88
449.117	729.88
449.338	717.88
449.559	693.88
449.779	701.88
450	703.88
450.221	699.88
450.442	719.88
450.662	711.88
450.883	736.88
451.104	712.88
451.324	727.88
451.545	717.88
451.766	708.88
451.986	699.88
452.207	709.88
452.428	735.88
452.648	688.88
452.869	679.88
453.089	679.88
453.31	685.88
453.53	681.88
453.751	678.88
453.971	683.88
454.192	675.88
454.412	669.88
454.633	665.88
454.853	675.88
455.073	642.88
455.294	676.88
455.514	659.88
455.734	666.88
455.955	652.88
456.175	659.88
456.395	667.88
456.616	641.88
456.836	655.88
457.056	683.88
457.276	630.88
457.497	655.88
457.717	678.88
457.937	649.88
458.157	656.88
458.377	664.88
458.598	705.88
458.818	701.88
459.038	742.88
459.258	741.88
459.478	736.88
459.698	757.88
459.918	785.88
460.138	805.88
460.358	823.88
460.578	837.88
460.798	872.88
461.018	853.88
461.238	843.88
461.458	841.88
461.678	833.88
461.898	870.88
462.118	841.88
462.338	915.88
462.558	931.88
462.777	945.88
462.997	1012.88
463.217	1029.88
463.437	1041.88
463.657	978.88
463.876	975.88
464.096	964.88
464.316	960.88
464.536	967.88
464.755	897.88
464.975	911.88
465.195	860.88
465.414	833.88
465.634	792.88
465.854	809.88
466.073	772.88
466.293	768.88
466.512	753.88
466.732	758.88
466.951	715.88
467.171	753.88
467.391	740.88
467.61	725.88
467.829	725.88
468.049	727.88
468.268	716.88
468.488	693.88
468.707	716.88
468.927	707.88
469.146	701.88
469.365	733.88
469.585	694.88
469.804	744.88
470.023	735.88
470.243	762.88
470.462	741.88
470.681	762.88
470.901	757.88
471.12	747.88
471.339	758.88
471.558	716.88
471.777	707.88
471.997	703.88
472.216	692.88
472.435	710.88
472.654	709.88
472.873	698.88
473.092	683.88
473.311	713.88
473.53	686.88
473.749	693.88
473.968	705.88
474.187	709.88
474.406	692.88
474.625	699.88
474.844	723.88
475.063	702.88
475.282	709.88
475.501	709.88
475.72	700.88
475.939	744.88
476.158	737.88
476.377	735.88
476.596	767.88
476.814	748.88
477.033	755.88
477.252	762.88
477.471	766.88
477.69	805.88
477.908	784.88
478.127	812.88
478.346	852.88
478.564	816.88
478.783	845.88
479.002	852.88
479.22	838.88
479.439	838.88
479.658	831.88
479.876	865.88
480.095	854.88
480.313	899.88
480.532	863.88
480.751	876.88
480.969	872.88
481.188	836.88
481.406	833.88
481.624	805.88
481.843	806.88
482.061	806.88
482.28	825.88
482.498	805.88
482.717	798.88
482.935	831.88
483.153	850.88
483.372	803.88
483.59	813.88
483.808	839.88
484.027	808.88
484.245	809.88
484.463	839.88
484.681	814.88
484.9	857.88
485.118	845.88
485.336	823.88
485.554	816.88
485.772	844.88
485.99	829.88
486.209	868.88
486.427	852.88
486.645	857.88
486.863	863.88
487.081	835.88
487.299	816.88
487.517	830.88
487.735	835.88
487.953	862.88
488.171	881.88
488.389	843.88
488.607	816.88
488.825	853.88
489.043	843.88
489.261	816.88
489.479	853.88
489.696	854.88
489.914	849.88
490.132	849.88
490.35	876.88
490.568	865.88
490.786	863.88
491.003	886.88
491.221	871.88
491.439	880.88
491.657	895.88
491.874	861.88
492.092	891.88
492.31	919.88
492.527	903.88
492.745	903.88
492.963	922.88
493.18	899.88
493.398	875.88
493.615	888.88
493.833	905.88
494.05	936.88
494.268	923.88
494.485	901.88
494.703	926.88
494.92	919.88
495.138	900.88
495.355	900.88
495.573	934.88
495.79	936.88
496.008	908.88
496.225	951.88
496.442	915.88
496.66	975.88
496.877	961.88
497.094	982.88
497.312	988.88
497.529	1006.88
497.746	1037.88
497.963	1065.88
498.181	1073.88
498.398	1105.88
498.615	1155.88
498.832	1243.88
499.049	1241.88
499.267	1364.88
499.484	1422.88
499.701	1563.88
499.918	1672.88
500.135	1851.88
500.352	1921.88
500.569	1965.88
500.786	1984.88
501.003	1899.88
501.22	1791.88
501.437	1601.88
