Data from Ni(NO3)2Standard.Agarose3%.GreenCap.LampEnergy5.5.E.O_HRD10591_14-41-47-187.txt Node
Date: Mon Jul 22 14:41:47 EDT 2019
User: cochatt
Spectrometer: HR+D1059
Trigger mode: 1
Integration Time (sec): 1.000000E-1
Scans to average: 1
Electric dark correction enabled: true
Nonlinearity correction enabled: false
Boxcar width: 0
XAxis mode: Wavelengths
Number of Pixels in Spectrum: 2048
>>>>>Begin Spectral Data<<<<<
223.165	-3.19
223.4	-3.19
223.635	-3.19
223.869	-13.19
224.104	-17.19
224.338	-13.19
224.573	-24.19
224.808	-11.19
225.042	-16.19
225.277	-13.19
225.511	2.81
225.746	5.81
225.98	9.81
226.215	12.81
226.449	12.81
226.683	13.81
226.918	18.81
227.152	34.81
227.387	42.81
227.621	34.81
227.856	47.81
228.09	38.81
228.324	46.81
228.559	46.81
228.793	56.81
229.027	60.81
229.262	72.81
229.496	65.81
229.73	70.81
229.964	64.81
230.199	59.81
230.433	72.81
230.667	85.81
230.901	89.81
231.136	76.81
231.37	74.81
231.604	82.81
231.838	81.81
232.072	70.81
232.306	77.81
232.541	76.81
232.775	80.81
233.009	82.81
233.243	76.81
233.477	82.81
233.711	71.81
233.945	82.81
234.179	81.81
234.413	81.81
234.647	64.81
234.881	80.81
235.115	89.81
235.349	75.81
235.583	82.81
235.817	82.81
236.051	68.81
236.285	92.81
236.519	69.81
236.753	66.81
236.987	82.81
237.221	91.81
237.455	91.81
237.689	72.81
237.922	81.81
238.156	78.81
238.39	74.81
238.624	79.81
238.858	77.81
239.091	82.81
239.325	86.81
239.559	86.81
239.793	74.81
240.027	76.81
240.26	69.81
240.494	83.81
240.728	86.81
240.961	73.81
241.195	80.81
241.429	79.81
241.662	93.81
241.896	79.81
242.13	89.81
242.363	83.81
242.597	80.81
242.83	81.81
243.064	78.81
243.298	76.81
243.531	80.81
243.765	86.81
243.998	81.81
244.232	79.81
244.465	80.81
244.699	88.81
244.932	84.81
245.166	80.81
245.399	87.81
245.633	86.81
245.866	82.81
246.099	79.81
246.333	84.81
246.566	80.81
246.8	87.81
247.033	78.81
247.266	75.81
247.5	80.81
247.733	74.81
247.966	79.81
248.2	84.81
248.433	71.81
248.666	76.81
248.899	84.81
249.133	70.81
249.366	75.81
249.599	79.81
249.832	86.81
250.066	96.81
250.299	85.81
250.532	75.81
250.765	79.81
250.998	69.81
251.231	79.81
251.465	76.81
251.698	100.81
251.931	72.81
252.164	71.81
252.397	71.81
252.63	83.81
252.863	74.81
253.096	86.81
253.329	90.81
253.562	72.81
253.795	82.81
254.028	86.81
254.261	76.81
254.494	85.81
254.727	91.81
254.96	77.81
255.193	81.81
255.426	78.81
255.659	64.81
255.892	77.81
256.124	58.81
256.357	69.81
256.59	96.81
256.823	78.81
257.056	68.81
257.289	91.81
257.521	101.81
257.754	76.81
257.987	76.81
258.22	81.81
258.452	87.81
258.685	81.81
258.918	80.81
259.151	77.81
259.383	80.81
259.616	86.81
259.849	59.81
260.081	86.81
260.314	82.81
260.547	90.81
260.779	76.81
261.012	81.81
261.244	72.81
261.477	80.81
261.71	85.81
261.942	86.81
262.175	89.81
262.407	83.81
262.64	96.81
262.872	91.81
263.105	74.81
263.337	78.81
263.57	83.81
263.802	80.81
264.035	79.81
264.267	73.81
264.499	74.81
264.732	91.81
264.964	86.81
265.197	84.81
265.429	75.81
265.661	76.81
265.894	84.81
266.126	83.81
266.358	96.81
266.591	79.81
266.823	104.81
267.055	74.81
267.287	100.81
267.52	72.81
267.752	86.81
267.984	85.81
268.216	76.81
268.448	88.81
268.681	92.81
268.913	92.81
269.145	93.81
269.377	93.81
269.609	78.81
269.841	84.81
270.073	88.81
270.306	83.81
270.538	81.81
270.77	65.81
271.002	93.81
271.234	82.81
271.466	93.81
271.698	87.81
271.93	93.81
272.162	85.81
272.394	90.81
272.626	69.81
272.858	78.81
273.09	92.81
273.322	96.81
273.553	83.81
273.785	80.81
274.017	96.81
274.249	96.81
274.481	84.81
274.713	77.81
274.945	77.81
275.176	91.81
275.408	84.81
275.64	90.81
275.872	79.81
276.104	91.81
276.335	88.81
276.567	76.81
276.799	81.81
277.031	82.81
277.262	80.81
277.494	87.81
277.726	90.81
277.957	83.81
278.189	89.81
278.421	73.81
278.652	82.81
278.884	76.81
279.115	86.81
279.347	84.81
279.579	81.81
279.81	85.81
280.042	88.81
280.273	85.81
280.505	107.81
280.736	86.81
280.968	77.81
281.199	84.81
281.431	88.81
281.662	93.81
281.894	83.81
282.125	94.81
282.356	77.81
282.588	80.81
282.819	73.81
283.051	77.81
283.282	71.81
283.513	84.81
283.745	93.81
283.976	93.81
284.207	100.81
284.439	91.81
284.67	83.81
284.901	91.81
285.132	94.81
285.364	85.81
285.595	76.81
285.826	83.81
286.057	84.81
286.288	84.81
286.52	93.81
286.751	82.81
286.982	76.81
287.213	76.81
287.444	72.81
287.675	80.81
287.906	86.81
288.138	92.81
288.369	80.81
288.6	85.81
288.831	85.81
289.062	88.81
289.293	75.81
289.524	80.81
289.755	86.81
289.986	83.81
290.217	89.81
290.448	81.81
290.679	82.81
290.91	82.81
291.141	67.81
291.371	88.81
291.602	77.81
291.833	94.81
292.064	85.81
292.295	91.81
292.526	98.81
292.757	82.81
292.987	95.81
293.218	83.81
293.449	93.81
293.68	73.81
293.91	95.81
294.141	94.81
294.372	86.81
294.603	76.81
294.833	76.81
295.064	84.81
295.295	101.81
295.525	90.81
295.756	88.81
295.987	93.81
296.217	92.81
296.448	93.81
296.679	92.81
296.909	86.81
297.14	90.81
297.37	95.81
297.601	85.81
297.831	93.81
298.062	86.81
298.292	69.81
298.523	86.81
298.753	83.81
298.984	93.81
299.214	83.81
299.445	90.81
299.675	92.81
299.905	72.81
300.136	88.81
300.366	90.81
300.597	94.81
300.827	78.81
301.057	89.81
301.288	79.81
301.518	87.81
301.748	100.81
301.979	73.81
302.209	84.81
302.439	75.81
302.669	83.81
302.9	85.81
303.13	91.81
303.36	86.81
303.59	82.81
303.82	83.81
304.051	88.81
304.281	86.81
304.511	89.81
304.741	96.81
304.971	90.81
305.201	86.81
305.431	94.81
305.661	90.81
305.891	75.81
306.121	96.81
306.352	85.81
306.582	92.81
306.812	86.81
307.042	101.81
307.272	83.81
307.502	90.81
307.731	92.81
307.961	95.81
308.191	90.81
308.421	89.81
308.651	96.81
308.881	89.81
309.111	89.81
309.341	87.81
309.571	91.81
309.8	84.81
310.03	97.81
310.26	87.81
310.49	102.81
310.72	84.81
310.949	86.81
311.179	82.81
311.409	77.81
311.639	94.81
311.868	101.81
312.098	84.81
312.328	105.81
312.557	92.81
312.787	103.81
313.017	84.81
313.246	97.81
313.476	85.81
313.706	80.81
313.935	80.81
314.165	77.81
314.394	86.81
314.624	99.81
314.853	82.81
315.083	79.81
315.312	83.81
315.542	79.81
315.771	91.81
316.001	83.81
316.23	83.81
316.46	89.81
316.689	89.81
316.919	84.81
317.148	96.81
317.377	82.81
317.607	74.81
317.836	73.81
318.065	81.81
318.295	80.81
318.524	86.81
318.753	84.81
318.983	86.81
319.212	80.81
319.441	82.81
319.67	90.81
319.9	94.81
320.129	100.81
320.358	101.81
320.587	98.81
320.816	102.81
321.046	104.81
321.275	96.81
321.504	82.81
321.733	98.81
321.962	103.81
322.191	97.81
322.42	85.81
322.649	81.81
322.878	92.81
323.108	89.81
323.337	97.81
323.566	90.81
323.795	115.81
324.024	92.81
324.253	82.81
324.482	77.81
324.71	88.81
324.939	92.81
325.168	99.81
325.397	80.81
325.626	80.81
325.855	95.81
326.084	100.81
326.313	92.81
326.542	79.81
326.77	110.81
326.999	78.81
327.228	88.81
327.457	74.81
327.686	78.81
327.914	91.81
328.143	96.81
328.372	91.81
328.6	73.81
328.829	94.81
329.058	78.81
329.287	91.81
329.515	75.81
329.744	80.81
329.972	96.81
330.201	90.81
330.43	96.81
330.658	83.81
330.887	77.81
331.115	98.81
331.344	93.81
331.572	104.81
331.801	88.81
332.03	87.81
332.258	88.81
332.486	91.81
332.715	102.81
332.943	98.81
333.172	104.81
333.4	85.81
333.629	76.81
333.857	70.81
334.085	93.81
334.314	105.81
334.542	91.81
334.771	100.81
334.999	76.81
335.227	93.81
335.455	89.81
335.684	89.81
335.912	84.81
336.14	86.81
336.369	94.81
336.597	94.81
336.825	84.81
337.053	93.81
337.281	78.81
337.51	91.81
337.738	89.81
337.966	89.81
338.194	96.81
338.422	88.81
338.65	80.81
338.878	105.81
339.106	84.81
339.334	98.81
339.562	76.81
339.79	100.81
340.018	84.81
340.246	85.81
340.474	94.81
340.702	90.81
340.93	98.81
341.158	77.81
341.386	82.81
341.614	103.81
341.842	93.81
342.07	94.81
342.298	92.81
342.526	88.81
342.754	82.81
342.981	77.81
343.209	77.81
343.437	73.81
343.665	77.81
343.893	94.81
344.12	86.81
344.348	81.81
344.576	82.81
344.804	76.81
345.031	94.81
345.259	80.81
345.487	85.81
345.714	93.81
345.942	96.81
346.17	89.81
346.397	77.81
346.625	85.81
346.853	81.81
347.08	100.81
347.308	90.81
347.535	82.81
347.763	85.81
347.99	85.81
348.218	82.81
348.445	84.81
348.673	90.81
348.9	98.81
349.128	91.81
349.355	102.81
349.583	86.81
349.81	97.81
350.037	82.81
350.265	88.81
350.492	88.81
350.72	89.81
350.947	90.81
351.174	80.81
351.402	80.81
351.629	79.81
351.856	71.81
352.083	97.81
352.311	82.81
352.538	74.81
352.765	93.81
352.992	73.81
353.22	85.81
353.447	103.81
353.674	87.81
353.901	88.81
354.128	89.81
354.355	91.81
354.583	91.81
354.81	89.81
355.037	98.81
355.264	104.81
355.491	94.81
355.718	101.81
355.945	78.81
356.172	86.81
356.399	76.81
356.626	84.81
356.853	82.81
357.08	84.81
357.307	82.81
357.534	94.81
357.761	93.81
357.988	93.81
358.215	79.81
358.441	72.81
358.668	100.81
358.895	90.81
359.122	95.81
359.349	72.81
359.576	92.81
359.802	86.81
360.029	74.81
360.256	70.81
360.483	73.81
360.709	89.81
360.936	95.81
361.163	99.81
361.39	74.81
361.616	77.81
361.843	75.81
362.07	101.81
362.296	99.81
362.523	91.81
362.749	91.81
362.976	97.81
363.203	87.81
363.429	82.81
363.656	91.81
363.882	92.81
364.109	101.81
364.335	94.81
364.562	84.81
364.788	87.81
365.015	82.81
365.241	70.81
365.468	92.81
365.694	58.81
365.92	92.81
366.147	83.81
366.373	94.81
366.599	81.81
366.826	86.81
367.052	88.81
367.278	92.81
367.505	82.81
367.731	83.81
367.957	77.81
368.184	76.81
368.41	77.81
368.636	100.81
368.862	88.81
369.089	92.81
369.315	82.81
369.541	78.81
369.767	79.81
369.993	78.81
370.219	85.81
370.445	74.81
370.672	84.81
370.898	81.81
371.124	101.81
371.35	86.81
371.576	82.81
371.802	88.81
372.028	91.81
372.254	87.81
372.48	81.81
372.706	87.81
372.932	99.81
373.158	93.81
373.384	87.81
373.61	94.81
373.835	90.81
374.061	81.81
374.287	93.81
374.513	77.81
374.739	95.81
374.965	82.81
375.191	97.81
375.416	79.81
375.642	83.81
375.868	94.81
376.094	84.81
376.319	77.81
376.545	78.81
376.771	74.81
376.997	79.81
377.222	82.81
377.448	84.81
377.674	96.81
377.899	83.81
378.125	87.81
378.35	80.81
378.576	84.81
378.802	94.81
379.027	86.81
379.253	83.81
379.478	81.81
379.704	97.81
379.929	73.81
380.155	86.81
380.38	76.81
380.606	93.81
380.831	94.81
381.057	89.81
381.282	105.81
381.507	83.81
381.733	93.81
381.958	79.81
382.184	84.81
382.409	83.81
382.634	77.81
382.86	82.81
383.085	86.81
383.31	92.81
383.535	90.81
383.761	94.81
383.986	89.81
384.211	94.81
384.436	89.81
384.662	101.81
384.887	80.81
385.112	97.81
385.337	88.81
385.562	89.81
385.787	94.81
386.013	93.81
386.238	86.81
386.463	82.81
386.688	100.81
386.913	77.81
387.138	74.81
387.363	85.81
387.588	88.81
387.813	71.81
388.038	81.81
388.263	90.81
388.488	84.81
388.713	93.81
388.938	86.81
389.163	88.81
389.387	85.81
389.612	83.81
389.837	86.81
390.062	79.81
390.287	90.81
390.512	91.81
390.736	76.81
390.961	77.81
391.186	93.81
391.411	86.81
391.636	77.81
391.86	85.81
392.085	89.81
392.31	86.81
392.534	83.81
392.759	89.81
392.984	90.81
393.208	97.81
393.433	95.81
393.658	91.81
393.882	75.81
394.107	103.81
394.331	71.81
394.556	91.81
394.78	88.81
395.005	85.81
395.229	82.81
395.454	91.81
395.678	89.81
395.903	87.81
396.127	82.81
396.352	98.81
396.576	86.81
396.801	92.81
397.025	93.81
397.249	83.81
397.474	90.81
397.698	96.81
397.922	82.81
398.147	98.81
398.371	90.81
398.595	92.81
398.82	85.81
399.044	78.81
399.268	84.81
399.492	88.81
399.717	96.81
399.941	84.81
400.165	85.81
400.389	92.81
400.613	87.81
400.837	98.81
401.062	84.81
401.286	93.81
401.51	88.81
401.734	74.81
401.958	77.81
402.182	83.81
402.406	86.81
402.63	77.81
402.854	88.81
403.078	96.81
403.302	80.81
403.526	97.81
403.75	90.81
403.974	75.81
404.198	83.81
404.422	75.81
404.645	84.81
404.869	95.81
405.093	92.81
405.317	86.81
405.541	80.81
405.765	87.81
405.988	71.81
406.212	83.81
406.436	84.81
406.66	81.81
406.883	95.81
407.107	86.81
407.331	95.81
407.555	90.81
407.778	85.81
408.002	80.81
408.226	95.81
408.449	83.81
408.673	91.81
408.896	78.81
409.12	93.81
409.344	100.81
409.567	88.81
409.791	86.81
410.014	89.81
410.238	92.81
410.461	83.81
410.685	77.81
410.908	91.81
411.132	85.81
411.355	92.81
411.578	91.81
411.802	74.81
412.025	108.81
412.249	86.81
412.472	79.81
412.695	82.81
412.919	74.81
413.142	81.81
413.365	80.81
413.589	85.81
413.812	97.81
414.035	82.81
414.258	76.81
414.482	76.81
414.705	90.81
414.928	94.81
415.151	100.81
415.374	94.81
415.597	78.81
415.821	92.81
416.044	101.81
416.267	92.81
416.49	80.81
416.713	84.81
416.936	85.81
417.159	84.81
417.382	78.81
417.605	94.81
417.828	87.81
418.051	95.81
418.274	86.81
418.497	86.81
418.72	85.81
418.943	97.81
419.166	89.81
419.389	85.81
419.611	90.81
419.834	80.81
420.057	78.81
420.28	76.81
420.503	100.81
420.726	89.81
420.948	85.81
421.171	96.81
421.394	86.81
421.617	83.81
421.839	76.81
422.062	92.81
422.285	71.81
422.507	80.81
422.73	89.81
422.953	75.81
423.175	80.81
423.398	88.81
423.621	84.81
423.843	70.81
424.066	83.81
424.288	80.81
424.511	84.81
424.733	73.81
424.956	74.81
425.178	92.81
425.401	89.81
425.623	85.81
425.846	77.81
426.068	87.81
426.291	82.81
426.513	91.81
426.735	92.81
426.958	96.81
427.18	97.81
427.402	86.81
427.625	66.81
427.847	87.81
428.069	74.81
428.292	87.81
428.514	89.81
428.736	86.81
428.958	97.81
429.181	90.81
429.403	101.81
429.625	85.81
429.847	90.81
430.069	96.81
430.292	93.81
430.514	83.81
430.736	74.81
430.958	85.81
431.18	75.81
431.402	77.81
431.624	74.81
431.846	95.81
432.068	78.81
432.29	88.81
432.512	85.81
432.734	86.81
432.956	88.81
433.178	97.81
433.4	84.81
433.622	77.81
433.844	89.81
434.066	88.81
434.287	97.81
434.509	74.81
434.731	100.81
434.953	80.81
435.175	77.81
435.397	92.81
435.618	76.81
435.84	81.81
436.062	73.81
436.284	84.81
436.505	91.81
436.727	88.81
436.949	105.81
437.17	92.81
437.392	73.81
437.614	81.81
437.835	79.81
438.057	94.81
438.278	72.81
438.5	77.81
438.721	94.81
438.943	74.81
439.165	82.81
439.386	103.81
439.608	88.81
439.829	86.81
440.05	81.81
440.272	86.81
440.493	79.81
440.715	90.81
440.936	92.81
441.158	92.81
441.379	94.81
441.6	90.81
441.822	102.81
442.043	78.81
442.264	83.81
442.486	93.81
442.707	74.81
442.928	70.81
443.149	87.81
443.371	82.81
443.592	83.81
443.813	78.81
444.034	99.81
444.255	90.81
444.476	76.81
444.698	87.81
444.919	83.81
445.14	168.81
445.361	149.81
445.582	77.81
445.803	82.81
446.024	78.81
446.245	89.81
446.466	70.81
446.687	92.81
446.908	82.81
447.129	78.81
447.35	84.81
447.571	102.81
447.792	98.81
448.013	97.81
448.234	80.81
448.455	109.81
448.675	88.81
448.896	93.81
449.117	82.81
449.338	83.81
449.559	84.81
449.779	80.81
450	92.81
450.221	81.81
450.442	98.81
450.662	83.81
450.883	98.81
451.104	72.81
451.324	101.81
451.545	84.81
451.766	93.81
451.986	92.81
452.207	72.81
452.428	83.81
452.648	68.81
452.869	65.81
453.089	73.81
453.31	98.81
453.53	79.81
453.751	82.81
453.971	83.81
454.192	92.81
454.412	91.81
454.633	79.81
454.853	92.81
455.073	93.81
455.294	83.81
455.514	83.81
455.734	88.81
455.955	79.81
456.175	82.81
456.395	81.81
456.616	82.81
456.836	65.81
457.056	93.81
457.276	84.81
457.497	79.81
457.717	88.81
457.937	85.81
458.157	86.81
458.377	87.81
458.598	92.81
458.818	76.81
459.038	88.81
459.258	82.81
459.478	91.81
459.698	87.81
459.918	92.81
460.138	77.81
460.358	82.81
460.578	92.81
460.798	102.81
461.018	85.81
461.238	92.81
461.458	86.81
461.678	94.81
461.898	93.81
462.118	88.81
462.338	78.81
462.558	77.81
462.777	84.81
462.997	90.81
463.217	77.81
463.437	93.81
463.657	89.81
463.876	82.81
464.096	89.81
464.316	89.81
464.536	103.81
464.755	94.81
464.975	76.81
465.195	93.81
465.414	92.81
465.634	73.81
465.854	93.81
466.073	88.81
466.293	101.81
466.512	83.81
466.732	92.81
466.951	94.81
467.171	89.81
467.391	93.81
467.61	77.81
467.829	79.81
468.049	76.81
468.268	81.81
468.488	86.81
468.707	96.81
468.927	81.81
469.146	84.81
469.365	99.81
469.585	92.81
469.804	89.81
470.023	90.81
470.243	92.81
470.462	77.81
470.681	85.81
470.901	99.81
471.12	95.81
471.339	97.81
471.558	98.81
471.777	85.81
471.997	100.81
472.216	94.81
472.435	102.81
472.654	92.81
472.873	86.81
473.092	88.81
473.311	90.81
473.53	91.81
473.749	89.81
473.968	82.81
474.187	80.81
474.406	75.81
474.625	98.81
474.844	91.81
475.063	90.81
475.282	90.81
475.501	81.81
475.72	93.81
475.939	91.81
476.158	97.81
476.377	89.81
476.596	74.81
476.814	91.81
477.033	84.81
477.252	100.81
477.471	77.81
477.69	98.81
477.908	93.81
478.127	91.81
478.346	85.81
478.564	92.81
478.783	86.81
479.002	102.81
479.22	94.81
479.439	97.81
479.658	80.81
479.876	83.81
480.095	92.81
480.313	105.81
480.532	79.81
480.751	99.81
480.969	91.81
481.188	83.81
481.406	83.81
481.624	97.81
481.843	88.81
482.061	82.81
482.28	103.81
482.498	85.81
482.717	93.81
482.935	92.81
483.153	100.81
483.372	81.81
483.59	97.81
483.808	94.81
484.027	91.81
484.245	81.81
484.463	92.81
484.681	103.81
484.9	91.81
485.118	96.81
485.336	99.81
485.554	105.81
485.772	96.81
485.99	96.81
486.209	85.81
486.427	89.81
486.645	95.81
486.863	105.81
487.081	99.81
487.299	101.81
487.517	85.81
487.735	95.81
487.953	97.81
488.171	96.81
488.389	93.81
488.607	93.81
488.825	92.81
489.043	87.81
489.261	98.81
489.479	102.81
489.696	94.81
489.914	88.81
490.132	89.81
490.35	97.81
490.568	83.81
490.786	96.81
491.003	100.81
491.221	104.81
491.439	92.81
491.657	94.81
491.874	98.81
492.092	115.81
492.31	96.81
492.527	90.81
492.745	89.81
492.963	102.81
493.18	106.81
493.398	101.81
493.615	101.81
493.833	102.81
494.05	89.81
494.268	100.81
494.485	92.81
494.703	102.81
494.92	95.81
495.138	86.81
495.355	85.81
495.573	95.81
495.79	97.81
496.008	90.81
496.225	96.81
496.442	89.81
496.66	89.81
496.877	105.81
497.094	108.81
497.312	96.81
497.529	101.81
497.746	97.81
497.963	85.81
498.181	89.81
498.398	89.81
498.615	106.81
498.832	105.81
499.049	110.81
499.267	110.81
499.484	95.81
499.701	95.81
499.918	106.81
500.135	123.81
500.352	116.81
500.569	121.81
500.786	94.81
501.003	99.81
501.22	113.81
501.437	104.81
501.654	106.81
501.871	83.81
502.088	92.81
502.305	100.81
502.522	91.81
502.739	90.81
502.956	88.81
503.172	96.81
503.389	102.81
503.606	102.81
503.823	106.81
504.04	109.81
504.256	78.81
504.473	91.81
504.69	93.81
504.907	107.81
505.123	99.81
505.34	84.81
505.557	87.81
505.773	89.81
505.99	104.81
506.207	85.81
506.423	97.81
506.64	95.81
506.856	97.81
507.073	88.81
507.289	95.81
507.506	83.81
507.722	92.81
507.939	100.81
508.155	109.81
508.372	99.81
508.588	85.81
508.805	97.81
509.021	93.81
509.238	96.81
509.454	112.81
509.67	86.81
509.887	97.81
510.103	82.81
510.319	89.81
510.536	92.81
510.752	92.81
510.968	89.81
511.184	84.81
511.401	101.81
511.617	79.81
511.833	91.81
512.049	91.81
512.265	89.81
512.481	89.81
512.698	95.81
512.914	85.81
513.13	88.81
513.346	85.81
513.562	101.81
513.778	86.81
513.994	82.81
514.21	99.81
514.426	112.81
514.642	91.81
514.858	87.81
515.074	84.81
515.29	93.81
515.506	80.81
515.721	94.81
515.937	100.81
516.153	97.81
516.369	78.81
516.585	104.81
516.801	95.81
517.016	97.81
517.232	91.81
517.448	95.81
517.664	98.81
517.879	93.81
