Data from Ni(NO3)2@0.0625M.TitratingCurve.Agarose3%dH2O.NegLispCup.LampEnergy10.LIBS07252019_HRD10591_18-15-13-569.txt Node
Date: Thu Jul 25 18:15:13 EDT 2019
User: cochatt
Spectrometer: HR+D1059
Trigger mode: 1
Integration Time (sec): 1.000000E-1
Scans to average: 1
Electric dark correction enabled: true
Nonlinearity correction enabled: false
Boxcar width: 0
XAxis mode: Wavelengths
Number of Pixels in Spectrum: 2048
>>>>>Begin Spectral Data<<<<<
223.165	-20.12
223.4	-20.12
223.635	-20.12
223.869	-25.12
224.104	-17.12
224.338	-21.12
224.573	-19.12
224.808	-14.12
225.042	-11.12
225.277	2.88
225.511	-4.12
225.746	0.88
225.98	2.88
226.215	21.88
226.449	15.88
226.683	21.88
226.918	30.88
227.152	34.88
227.387	28.88
227.621	37.88
227.856	46.88
228.09	39.88
228.324	56.88
228.559	59.88
228.793	66.88
229.027	97.88
229.262	86.88
229.496	113.88
229.73	112.88
229.964	105.88
230.199	124.88
230.433	108.88
230.667	117.88
230.901	102.88
231.136	114.88
231.37	123.88
231.604	110.88
231.838	104.88
232.072	122.88
232.306	133.88
232.541	107.88
232.775	132.88
233.009	132.88
233.243	143.88
233.477	124.88
233.711	119.88
233.945	140.88
234.179	128.88
234.413	130.88
234.647	130.88
234.881	124.88
235.115	128.88
235.349	132.88
235.583	123.88
235.817	119.88
236.051	123.88
236.285	126.88
236.519	136.88
236.753	140.88
236.987	151.88
237.221	134.88
237.455	129.88
237.689	126.88
237.922	132.88
238.156	131.88
238.39	138.88
238.624	135.88
238.858	124.88
239.091	145.88
239.325	152.88
239.559	132.88
239.793	150.88
240.027	158.88
240.26	136.88
240.494	163.88
240.728	152.88
240.961	154.88
241.195	143.88
241.429	166.88
241.662	162.88
241.896	157.88
242.13	148.88
242.363	133.88
242.597	150.88
242.83	168.88
243.064	174.88
243.298	147.88
243.531	156.88
243.765	166.88
243.998	161.88
244.232	156.88
244.465	154.88
244.699	154.88
244.932	180.88
245.166	175.88
245.399	174.88
245.633	171.88
245.866	180.88
246.099	171.88
246.333	169.88
246.566	159.88
246.8	168.88
247.033	176.88
247.266	187.88
247.5	194.88
247.733	196.88
247.966	165.88
248.2	185.88
248.433	195.88
248.666	176.88
248.899	176.88
249.133	194.88
249.366	195.88
249.599	192.88
249.832	200.88
250.066	205.88
250.299	196.88
250.532	206.88
250.765	187.88
250.998	215.88
251.231	180.88
251.465	214.88
251.698	202.88
251.931	207.88
252.164	210.88
252.397	204.88
252.63	212.88
252.863	215.88
253.096	209.88
253.329	208.88
253.562	204.88
253.795	204.88
254.028	210.88
254.261	216.88
254.494	201.88
254.727	212.88
254.96	194.88
255.193	219.88
255.426	234.88
255.659	213.88
255.892	227.88
256.124	204.88
256.357	211.88
256.59	227.88
256.823	219.88
257.056	232.88
257.289	235.88
257.521	219.88
257.754	221.88
257.987	224.88
258.22	223.88
258.452	240.88
258.685	216.88
258.918	213.88
259.151	246.88
259.383	243.88
259.616	233.88
259.849	233.88
260.081	257.88
260.314	248.88
260.547	251.88
260.779	231.88
261.012	244.88
261.244	249.88
261.477	241.88
261.71	245.88
261.942	237.88
262.175	243.88
262.407	258.88
262.64	252.88
262.872	227.88
263.105	245.88
263.337	250.88
263.57	254.88
263.802	259.88
264.035	272.88
264.267	256.88
264.499	256.88
264.732	245.88
264.964	262.88
265.197	260.88
265.429	275.88
265.661	255.88
265.894	276.88
266.126	272.88
266.358	275.88
266.591	274.88
266.823	284.88
267.055	272.88
267.287	276.88
267.52	281.88
267.752	274.88
267.984	270.88
268.216	269.88
268.448	282.88
268.681	280.88
268.913	267.88
269.145	273.88
269.377	294.88
269.609	276.88
269.841	288.88
270.073	275.88
270.306	280.88
270.538	267.88
270.77	276.88
271.002	288.88
271.234	267.88
271.466	290.88
271.698	288.88
271.93	279.88
272.162	296.88
272.394	275.88
272.626	284.88
272.858	291.88
273.09	282.88
273.322	277.88
273.553	303.88
273.785	317.88
274.017	290.88
274.249	297.88
274.481	288.88
274.713	308.88
274.945	300.88
275.176	306.88
275.408	295.88
275.64	304.88
275.872	285.88
276.104	296.88
276.335	320.88
276.567	294.88
276.799	314.88
277.031	340.88
277.262	324.88
277.494	309.88
277.726	323.88
277.957	312.88
278.189	311.88
278.421	315.88
278.652	338.88
278.884	332.88
279.115	329.88
279.347	340.88
279.579	324.88
279.81	338.88
280.042	327.88
280.273	333.88
280.505	341.88
280.736	354.88
280.968	337.88
281.199	337.88
281.431	350.88
281.662	332.88
281.894	332.88
282.125	344.88
282.356	353.88
282.588	329.88
282.819	350.88
283.051	352.88
283.282	319.88
283.513	345.88
283.745	352.88
283.976	342.88
284.207	353.88
284.439	357.88
284.67	356.88
284.901	368.88
285.132	349.88
285.364	354.88
285.595	368.88
285.826	356.88
286.057	366.88
286.288	362.88
286.52	373.88
286.751	352.88
286.982	386.88
287.213	369.88
287.444	361.88
287.675	392.88
287.906	384.88
288.138	374.88
288.369	394.88
288.6	372.88
288.831	376.88
289.062	368.88
289.293	362.88
289.524	368.88
289.755	355.88
289.986	386.88
290.217	392.88
290.448	387.88
290.679	383.88
290.91	389.88
291.141	399.88
291.371	374.88
291.602	382.88
291.833	394.88
292.064	388.88
292.295	385.88
292.526	395.88
292.757	406.88
292.987	394.88
293.218	384.88
293.449	386.88
293.68	405.88
293.91	381.88
294.141	378.88
294.372	385.88
294.603	426.88
294.833	404.88
295.064	413.88
295.295	393.88
295.525	390.88
295.756	399.88
295.987	409.88
296.217	380.88
296.448	397.88
296.679	390.88
296.909	395.88
297.14	426.88
297.37	425.88
297.601	419.88
297.831	421.88
298.062	430.88
298.292	432.88
298.523	436.88
298.753	446.88
298.984	450.88
299.214	441.88
299.445	428.88
299.675	449.88
299.905	432.88
300.136	432.88
300.366	442.88
300.597	458.88
300.827	446.88
301.057	475.88
301.288	461.88
301.518	473.88
301.748	445.88
301.979	444.88
302.209	466.88
302.439	455.88
302.669	448.88
302.9	448.88
303.13	433.88
303.36	470.88
303.59	432.88
303.82	438.88
304.051	430.88
304.281	450.88
304.511	444.88
304.741	442.88
304.971	445.88
305.201	451.88
305.431	448.88
305.661	423.88
305.891	431.88
306.121	444.88
306.352	440.88
306.582	430.88
306.812	432.88
307.042	435.88
307.272	427.88
307.502	408.88
307.731	435.88
307.961	429.88
308.191	432.88
308.421	422.88
308.651	440.88
308.881	423.88
309.111	440.88
309.341	433.88
309.571	456.88
309.8	444.88
310.03	417.88
310.26	449.88
310.49	467.88
310.72	450.88
310.949	430.88
311.179	444.88
311.409	430.88
311.639	434.88
311.868	441.88
312.098	442.88
312.328	445.88
312.557	453.88
312.787	420.88
313.017	444.88
313.246	458.88
313.476	475.88
313.706	474.88
313.935	460.88
314.165	464.88
314.394	452.88
314.624	476.88
314.853	468.88
315.083	462.88
315.312	471.88
315.542	470.88
315.771	445.88
316.001	461.88
316.23	453.88
316.46	444.88
316.689	470.88
316.919	464.88
317.148	451.88
317.377	457.88
317.607	465.88
317.836	455.88
318.065	443.88
318.295	450.88
318.524	436.88
318.753	440.88
318.983	441.88
319.212	445.88
319.441	439.88
319.67	457.88
319.9	477.88
320.129	465.88
320.358	448.88
320.587	432.88
320.816	451.88
321.046	453.88
321.275	461.88
321.504	447.88
321.733	459.88
321.962	464.88
322.191	466.88
322.42	460.88
322.649	471.88
322.878	493.88
323.108	461.88
323.337	467.88
323.566	456.88
323.795	465.88
324.024	450.88
324.253	461.88
324.482	473.88
324.71	457.88
324.939	456.88
325.168	487.88
325.397	483.88
325.626	504.88
325.855	476.88
326.084	481.88
326.313	512.88
326.542	494.88
326.77	514.88
326.999	483.88
327.228	468.88
327.457	499.88
327.686	484.88
327.914	481.88
328.143	494.88
328.372	479.88
328.6	494.88
328.829	494.88
329.058	489.88
329.287	498.88
329.515	508.88
329.744	519.88
329.972	503.88
330.201	525.88
330.43	508.88
330.658	492.88
330.887	497.88
331.115	511.88
331.344	515.88
331.572	523.88
331.801	534.88
332.03	546.88
332.258	573.88
332.486	556.88
332.715	586.88
332.943	612.88
333.172	615.88
333.4	670.88
333.629	696.88
333.857	658.88
334.085	674.88
334.314	646.88
334.542	632.88
334.771	621.88
334.999	639.88
335.227	600.88
335.455	605.88
335.684	619.88
335.912	621.88
336.14	624.88
336.369	598.88
336.597	602.88
336.825	622.88
337.053	596.88
337.281	586.88
337.51	577.88
337.738	557.88
337.966	585.88
338.194	562.88
338.422	552.88
338.65	547.88
338.878	555.88
339.106	552.88
339.334	553.88
339.562	543.88
339.79	515.88
340.018	535.88
340.246	539.88
340.474	502.88
340.702	513.88
340.93	537.88
341.158	496.88
341.386	550.88
341.614	528.88
341.842	548.88
342.07	509.88
342.298	512.88
342.526	516.88
342.754	530.88
342.981	516.88
343.209	509.88
343.437	548.88
343.665	610.88
343.893	631.88
344.12	664.88
344.348	597.88
344.576	572.88
344.804	576.88
345.031	563.88
345.259	554.88
345.487	539.88
345.714	562.88
345.942	533.88
346.17	544.88
346.397	525.88
346.625	524.88
346.853	490.88
347.08	494.88
347.308	521.88
347.535	533.88
347.763	556.88
347.99	535.88
348.218	524.88
348.445	544.88
348.673	515.88
348.9	533.88
349.128	511.88
349.355	500.88
349.583	525.88
349.81	515.88
350.037	498.88
350.265	501.88
350.492	512.88
350.72	489.88
350.947	485.88
351.174	486.88
351.402	522.88
351.629	519.88
351.856	502.88
352.083	494.88
352.311	493.88
352.538	515.88
352.765	516.88
352.992	479.88
353.22	466.88
353.447	500.88
353.674	489.88
353.901	478.88
354.128	481.88
354.355	493.88
354.583	492.88
354.81	473.88
355.037	488.88
355.264	491.88
355.491	487.88
355.718	487.88
355.945	502.88
356.172	492.88
356.399	487.88
356.626	501.88
356.853	536.88
357.08	486.88
357.307	489.88
357.534	496.88
357.761	497.88
357.988	498.88
358.215	487.88
358.441	506.88
358.668	498.88
358.895	514.88
359.122	486.88
359.349	486.88
359.576	497.88
359.802	508.88
360.029	489.88
360.256	498.88
360.483	498.88
360.709	499.88
360.936	467.88
361.163	483.88
361.39	509.88
361.616	498.88
361.843	487.88
362.07	501.88
362.296	512.88
362.523	509.88
362.749	489.88
362.976	470.88
363.203	484.88
363.429	489.88
363.656	490.88
363.882	511.88
364.109	480.88
364.335	472.88
364.562	474.88
364.788	489.88
365.015	472.88
365.241	480.88
365.468	485.88
365.694	497.88
365.92	471.88
366.147	505.88
366.373	504.88
366.599	500.88
366.826	501.88
367.052	500.88
367.278	491.88
367.505	493.88
367.731	487.88
367.957	516.88
368.184	500.88
368.41	507.88
368.636	501.88
368.862	509.88
369.089	492.88
369.315	494.88
369.541	509.88
369.767	524.88
369.993	510.88
370.219	521.88
370.445	522.88
370.672	523.88
370.898	518.88
371.124	532.88
371.35	538.88
371.576	556.88
371.802	532.88
372.028	539.88
372.254	537.88
372.48	546.88
372.706	574.88
372.932	556.88
373.158	541.88
373.384	543.88
373.61	528.88
373.835	548.88
374.061	539.88
374.287	516.88
374.513	549.88
374.739	584.88
374.965	581.88
375.191	605.88
375.416	582.88
375.642	564.88
375.868	586.88
376.094	558.88
376.319	545.88
376.545	539.88
376.771	536.88
376.997	549.88
377.222	555.88
377.448	542.88
377.674	514.88
377.899	562.88
378.125	556.88
378.35	539.88
378.576	536.88
378.802	525.88
379.027	522.88
379.253	527.88
379.478	532.88
379.704	547.88
379.929	535.88
380.155	510.88
380.38	522.88
380.606	532.88
380.831	535.88
381.057	544.88
381.282	547.88
381.507	517.88
381.733	556.88
381.958	522.88
382.184	540.88
382.409	569.88
382.634	574.88
382.86	567.88
383.085	584.88
383.31	585.88
383.535	556.88
383.761	581.88
383.986	582.88
384.211	613.88
384.436	632.88
384.662	626.88
384.887	641.88
385.112	633.88
385.337	633.88
385.562	627.88
385.787	646.88
386.013	644.88
386.238	651.88
386.463	628.88
386.688	659.88
386.913	613.88
387.138	629.88
387.363	631.88
387.588	638.88
387.813	641.88
388.038	642.88
388.263	639.88
388.488	647.88
388.713	634.88
388.938	617.88
389.163	619.88
389.387	598.88
389.612	592.88
389.837	644.88
390.062	626.88
390.287	596.88
390.512	622.88
390.736	638.88
390.961	621.88
391.186	662.88
391.411	679.88
391.636	680.88
391.86	718.88
392.085	725.88
392.31	729.88
392.534	712.88
392.759	671.88
392.984	660.88
393.208	681.88
393.433	664.88
393.658	663.88
393.882	677.88
394.107	668.88
394.331	684.88
394.556	668.88
394.78	693.88
395.005	712.88
395.229	680.88
395.454	669.88
395.678	708.88
395.903	747.88
396.127	713.88
396.352	676.88
396.576	682.88
396.801	668.88
397.025	660.88
397.249	667.88
397.474	702.88
397.698	704.88
397.922	709.88
398.147	693.88
398.371	753.88
398.595	736.88
398.82	772.88
399.044	836.88
399.268	892.88
399.492	1037.88
399.717	1154.88
399.941	1173.88
400.165	1032.88
400.389	908.88
400.613	877.88
400.837	808.88
401.062	756.88
401.286	780.88
401.51	787.88
401.734	788.88
401.958	806.88
402.182	832.88
402.406	805.88
402.63	804.88
402.854	848.88
403.078	857.88
403.302	862.88
403.526	865.88
403.75	888.88
403.974	918.88
404.198	896.88
404.422	916.88
404.645	925.88
404.869	902.88
405.093	916.88
405.317	866.88
405.541	874.88
405.765	877.88
405.988	839.88
406.212	881.88
406.436	856.88
406.66	884.88
406.883	888.88
407.107	953.88
407.331	1012.88
407.555	1028.88
407.778	1001.88
408.002	1000.88
408.226	964.88
408.449	947.88
408.673	914.88
408.896	892.88
409.12	914.88
409.344	888.88
409.567	898.88
409.791	931.88
410.014	965.88
410.238	912.88
410.461	926.88
410.685	883.88
410.908	901.88
411.132	858.88
411.355	822.88
411.578	848.88
411.802	819.88
412.025	841.88
412.249	850.88
412.472	837.88
412.695	825.88
412.919	775.88
413.142	774.88
413.365	802.88
413.589	816.88
413.812	763.88
414.035	769.88
414.258	760.88
414.482	793.88
414.705	794.88
414.928	790.88
415.151	778.88
415.374	794.88
415.597	807.88
415.821	812.88
416.044	771.88
416.267	761.88
416.49	747.88
416.713	779.88
416.936	772.88
417.159	800.88
417.382	787.88
417.605	755.88
417.828	817.88
418.051	778.88
418.274	784.88
418.497	766.88
418.72	807.88
418.943	803.88
419.166	854.88
419.389	900.88
419.611	886.88
419.834	834.88
420.057	830.88
420.28	779.88
420.503	780.88
420.726	764.88
420.948	754.88
421.171	808.88
421.394	793.88
421.617	787.88
421.839	777.88
422.062	774.88
422.285	790.88
422.507	774.88
422.73	810.88
422.953	792.88
423.175	795.88
423.398	836.88
423.621	837.88
423.843	847.88
424.066	822.88
424.288	803.88
424.511	823.88
424.733	797.88
424.956	787.88
425.178	788.88
425.401	801.88
425.623	760.88
425.846	767.88
426.068	775.88
426.291	730.88
426.513	736.88
426.735	766.88
426.958	743.88
427.18	721.88
427.402	723.88
427.625	728.88
427.847	704.88
428.069	717.88
428.292	731.88
428.514	711.88
428.736	705.88
428.958	711.88
429.181	710.88
429.403	685.88
429.625	685.88
429.847	670.88
430.069	693.88
430.292	680.88
430.514	700.88
430.736	676.88
430.958	696.88
431.18	688.88
431.402	694.88
431.624	676.88
431.846	700.88
432.068	690.88
432.29	739.88
432.512	726.88
432.734	731.88
432.956	707.88
433.178	721.88
433.4	693.88
433.622	705.88
433.844	700.88
434.066	732.88
434.287	728.88
434.509	760.88
434.731	768.88
434.953	805.88
435.175	816.88
435.397	791.88
435.618	760.88
435.84	718.88
436.062	720.88
436.284	699.88
436.505	711.88
436.727	706.88
436.949	716.88
437.17	718.88
437.392	721.88
437.614	714.88
437.835	674.88
438.057	696.88
438.278	685.88
438.5	690.88
438.721	675.88
438.943	696.88
439.165	652.88
439.386	692.88
439.608	703.88
439.829	714.88
440.05	739.88
440.272	733.88
440.493	702.88
440.715	728.88
440.936	768.88
441.158	749.88
441.379	776.88
441.6	791.88
441.822	801.88
442.043	805.88
442.264	804.88
442.486	775.88
442.707	780.88
442.928	777.88
443.149	790.88
443.371	786.88
443.592	805.88
443.813	770.88
444.034	791.88
444.255	826.88
444.476	858.88
444.698	886.88
444.919	944.88
445.14	1005.88
445.361	921.88
445.582	804.88
445.803	756.88
446.024	757.88
446.245	772.88
446.466	734.88
446.687	730.88
446.908	741.88
447.129	728.88
447.35	699.88
447.571	717.88
447.792	697.88
448.013	672.88
448.234	667.88
448.455	674.88
448.675	665.88
448.896	661.88
449.117	652.88
449.338	640.88
449.559	650.88
449.779	628.88
450	652.88
450.221	673.88
450.442	644.88
450.662	655.88
450.883	668.88
451.104	662.88
451.324	690.88
451.545	661.88
451.766	676.88
451.986	670.88
452.207	652.88
452.428	660.88
452.648	654.88
452.869	670.88
453.089	658.88
453.31	652.88
453.53	667.88
453.751	646.88
453.971	664.88
454.192	620.88
454.412	650.88
454.633	641.88
454.853	635.88
455.073	626.88
455.294	613.88
455.514	631.88
455.734	633.88
455.955	609.88
456.175	621.88
456.395	609.88
456.616	609.88
456.836	607.88
457.056	618.88
457.276	594.88
457.497	612.88
457.717	624.88
457.937	630.88
458.157	625.88
458.377	634.88
458.598	628.88
458.818	661.88
459.038	676.88
459.258	699.88
459.478	747.88
459.698	752.88
459.918	749.88
460.138	754.88
460.358	832.88
460.578	856.88
460.798	837.88
461.018	842.88
461.238	832.88
461.458	813.88
461.678	845.88
461.898	837.88
462.118	843.88
462.338	884.88
462.558	921.88
462.777	933.88
462.997	1027.88
463.217	1140.88
463.437	1127.88
463.657	1047.88
463.876	991.88
464.096	1005.88
464.316	1000.88
464.536	973.88
464.755	919.88
464.975	916.88
465.195	866.88
465.414	818.88
465.634	766.88
465.854	768.88
466.073	753.88
466.293	722.88
466.512	684.88
466.732	702.88
466.951	696.88
467.171	688.88
467.391	710.88
467.61	687.88
467.829	705.88
468.049	700.88
468.268	668.88
468.488	628.88
468.707	642.88
468.927	668.88
469.146	674.88
469.365	664.88
469.585	658.88
469.804	678.88
470.023	724.88
470.243	715.88
470.462	706.88
470.681	705.88
470.901	708.88
471.12	698.88
471.339	711.88
471.558	690.88
471.777	681.88
471.997	674.88
472.216	643.88
472.435	635.88
472.654	658.88
472.873	617.88
473.092	652.88
473.311	650.88
473.53	632.88
473.749	648.88
473.968	649.88
474.187	642.88
474.406	654.88
474.625	638.88
474.844	638.88
475.063	654.88
475.282	659.88
475.501	661.88
475.72	665.88
475.939	660.88
476.158	674.88
476.377	671.88
476.596	667.88
476.814	668.88
477.033	696.88
477.252	675.88
477.471	710.88
477.69	720.88
477.908	733.88
478.127	755.88
478.346	749.88
478.564	805.88
478.783	779.88
479.002	813.88
479.22	824.88
479.439	797.88
479.658	781.88
479.876	794.88
480.095	781.88
480.313	838.88
480.532	874.88
480.751	861.88
480.969	817.88
481.188	784.88
481.406	763.88
481.624	769.88
481.843	728.88
482.061	732.88
482.28	755.88
482.498	738.88
482.717	757.88
482.935	754.88
483.153	744.88
483.372	740.88
483.59	744.88
483.808	749.88
484.027	738.88
484.245	730.88
484.463	769.88
484.681	764.88
484.9	773.88
485.118	813.88
485.336	805.88
485.554	793.88
485.772	793.88
485.99	792.88
486.209	809.88
486.427	809.88
486.645	806.88
486.863	804.88
487.081	805.88
487.299	810.88
487.517	816.88
487.735	816.88
487.953	761.88
488.171	820.88
488.389	784.88
488.607	783.88
488.825	801.88
489.043	795.88
489.261	797.88
489.479	791.88
489.696	777.88
489.914	762.88
490.132	762.88
490.35	782.88
490.568	803.88
490.786	800.88
491.003	795.88
491.221	806.88
491.439	792.88
491.657	774.88
491.874	797.88
492.092	788.88
492.31	796.88
492.527	782.88
492.745	814.88
492.963	798.88
493.18	817.88
493.398	796.88
493.615	788.88
493.833	786.88
494.05	810.88
494.268	813.88
494.485	844.88
494.703	797.88
494.92	847.88
495.138	812.88
495.355	825.88
495.573	825.88
495.79	837.88
496.008	852.88
496.225	852.88
496.442	826.88
496.66	850.88
496.877	833.88
497.094	842.88
497.312	897.88
497.529	898.88
497.746	905.88
497.963	938.88
498.181	946.88
498.398	1014.88
498.615	1040.88
498.832	1120.88
499.049	1202.88
499.267	1325.88
499.484	1434.88
499.701	1584.88
499.918	1747.88
500.135	1986.88
500.352	2316.88
500.569	2429.88
500.786	2358.88
501.003	2198.88
501.22	1941.88
