Data from Ni(NO3)2Standard.Agarose3%.GreenCap.LampEnergy5.5.E.O_HRD10591_14-40-40-190.txt Node
Date: Mon Jul 22 14:40:40 EDT 2019
User: cochatt
Spectrometer: HR+D1059
Trigger mode: 1
Integration Time (sec): 1.000000E-1
Scans to average: 1
Electric dark correction enabled: true
Nonlinearity correction enabled: false
Boxcar width: 0
XAxis mode: Wavelengths
Number of Pixels in Spectrum: 2048
>>>>>Begin Spectral Data<<<<<
223.165	-8.94
223.4	-8.94
223.635	-8.94
223.869	-23.94
224.104	-12.94
224.338	2.06
224.573	-7.94
224.808	-13.94
225.042	-17.94
225.277	-12.94
225.511	0.06
225.746	3.06
225.98	3.06
226.215	-6.94
226.449	23.06
226.683	24.06
226.918	18.06
227.152	32.06
227.387	21.06
227.621	33.06
227.856	38.06
228.09	53.06
228.324	40.06
228.559	55.06
228.793	48.06
229.027	75.06
229.262	59.06
229.496	58.06
229.73	74.06
229.964	67.06
230.199	78.06
230.433	78.06
230.667	68.06
230.901	84.06
231.136	107.06
231.37	80.06
231.604	88.06
231.838	94.06
232.072	85.06
232.306	94.06
232.541	79.06
232.775	88.06
233.009	95.06
233.243	69.06
233.477	87.06
233.711	89.06
233.945	75.06
234.179	80.06
234.413	87.06
234.647	71.06
234.881	81.06
235.115	97.06
235.349	83.06
235.583	76.06
235.817	81.06
236.051	76.06
236.285	85.06
236.519	81.06
236.753	77.06
236.987	69.06
237.221	67.06
237.455	87.06
237.689	76.06
237.922	73.06
238.156	74.06
238.39	85.06
238.624	71.06
238.858	75.06
239.091	86.06
239.325	79.06
239.559	67.06
239.793	71.06
240.027	73.06
240.26	73.06
240.494	83.06
240.728	74.06
240.961	72.06
241.195	72.06
241.429	79.06
241.662	76.06
241.896	80.06
242.13	89.06
242.363	65.06
242.597	54.06
242.83	66.06
243.064	77.06
243.298	75.06
243.531	76.06
243.765	85.06
243.998	81.06
244.232	78.06
244.465	77.06
244.699	73.06
244.932	86.06
245.166	76.06
245.399	69.06
245.633	76.06
245.866	73.06
246.099	78.06
246.333	84.06
246.566	82.06
246.8	73.06
247.033	81.06
247.266	63.06
247.5	77.06
247.733	72.06
247.966	66.06
248.2	78.06
248.433	87.06
248.666	78.06
248.899	81.06
249.133	71.06
249.366	83.06
249.599	83.06
249.832	67.06
250.066	79.06
250.299	88.06
250.532	69.06
250.765	84.06
250.998	92.06
251.231	86.06
251.465	78.06
251.698	82.06
251.931	79.06
252.164	67.06
252.397	80.06
252.63	84.06
252.863	76.06
253.096	89.06
253.329	72.06
253.562	85.06
253.795	75.06
254.028	82.06
254.261	96.06
254.494	86.06
254.727	85.06
254.96	83.06
255.193	72.06
255.426	83.06
255.659	77.06
255.892	72.06
256.124	84.06
256.357	77.06
256.59	76.06
256.823	86.06
257.056	82.06
257.289	79.06
257.521	92.06
257.754	86.06
257.987	79.06
258.22	82.06
258.452	79.06
258.685	75.06
258.918	68.06
259.151	82.06
259.383	84.06
259.616	96.06
259.849	76.06
260.081	98.06
260.314	88.06
260.547	99.06
260.779	88.06
261.012	90.06
261.244	77.06
261.477	86.06
261.71	76.06
261.942	92.06
262.175	73.06
262.407	79.06
262.64	84.06
262.872	84.06
263.105	85.06
263.337	80.06
263.57	70.06
263.802	96.06
264.035	85.06
264.267	86.06
264.499	79.06
264.732	81.06
264.964	84.06
265.197	76.06
265.429	80.06
265.661	77.06
265.894	78.06
266.126	81.06
266.358	93.06
266.591	70.06
266.823	81.06
267.055	71.06
267.287	83.06
267.52	83.06
267.752	67.06
267.984	86.06
268.216	78.06
268.448	76.06
268.681	71.06
268.913	83.06
269.145	80.06
269.377	78.06
269.609	75.06
269.841	76.06
270.073	71.06
270.306	68.06
270.538	78.06
270.77	82.06
271.002	83.06
271.234	84.06
271.466	91.06
271.698	85.06
271.93	97.06
272.162	85.06
272.394	80.06
272.626	97.06
272.858	83.06
273.09	84.06
273.322	73.06
273.553	88.06
273.785	74.06
274.017	93.06
274.249	86.06
274.481	86.06
274.713	76.06
274.945	78.06
275.176	76.06
275.408	84.06
275.64	84.06
275.872	88.06
276.104	81.06
276.335	76.06
276.567	86.06
276.799	81.06
277.031	75.06
277.262	80.06
277.494	77.06
277.726	88.06
277.957	98.06
278.189	91.06
278.421	86.06
278.652	68.06
278.884	73.06
279.115	85.06
279.347	92.06
279.579	74.06
279.81	78.06
280.042	84.06
280.273	87.06
280.505	86.06
280.736	80.06
280.968	93.06
281.199	82.06
281.431	89.06
281.662	74.06
281.894	89.06
282.125	87.06
282.356	86.06
282.588	90.06
282.819	89.06
283.051	88.06
283.282	80.06
283.513	85.06
283.745	89.06
283.976	90.06
284.207	90.06
284.439	65.06
284.67	82.06
284.901	94.06
285.132	91.06
285.364	88.06
285.595	85.06
285.826	93.06
286.057	76.06
286.288	93.06
286.52	91.06
286.751	89.06
286.982	75.06
287.213	84.06
287.444	90.06
287.675	97.06
287.906	82.06
288.138	78.06
288.369	84.06
288.6	85.06
288.831	82.06
289.062	94.06
289.293	94.06
289.524	73.06
289.755	86.06
289.986	82.06
290.217	98.06
290.448	80.06
290.679	79.06
290.91	87.06
291.141	80.06
291.371	93.06
291.602	76.06
291.833	94.06
292.064	90.06
292.295	91.06
292.526	88.06
292.757	77.06
292.987	85.06
293.218	88.06
293.449	81.06
293.68	100.06
293.91	94.06
294.141	95.06
294.372	77.06
294.603	86.06
294.833	77.06
295.064	85.06
295.295	90.06
295.525	84.06
295.756	100.06
295.987	85.06
296.217	69.06
296.448	81.06
296.679	101.06
296.909	87.06
297.14	93.06
297.37	93.06
297.601	85.06
297.831	91.06
298.062	85.06
298.292	92.06
298.523	91.06
298.753	92.06
298.984	76.06
299.214	89.06
299.445	100.06
299.675	85.06
299.905	96.06
300.136	82.06
300.366	87.06
300.597	92.06
300.827	100.06
301.057	85.06
301.288	94.06
301.518	99.06
301.748	100.06
301.979	86.06
302.209	76.06
302.439	88.06
302.669	84.06
302.9	85.06
303.13	88.06
303.36	83.06
303.59	87.06
303.82	96.06
304.051	102.06
304.281	80.06
304.511	91.06
304.741	87.06
304.971	76.06
305.201	81.06
305.431	80.06
305.661	78.06
305.891	88.06
306.121	82.06
306.352	70.06
306.582	93.06
306.812	76.06
307.042	85.06
307.272	88.06
307.502	96.06
307.731	89.06
307.961	82.06
308.191	70.06
308.421	77.06
308.651	78.06
308.881	78.06
309.111	85.06
309.341	91.06
309.571	82.06
309.8	75.06
310.03	93.06
310.26	71.06
310.49	82.06
310.72	93.06
310.949	84.06
311.179	88.06
311.409	74.06
311.639	97.06
311.868	94.06
312.098	100.06
312.328	80.06
312.557	106.06
312.787	88.06
313.017	86.06
313.246	82.06
313.476	74.06
313.706	85.06
313.935	89.06
314.165	79.06
314.394	93.06
314.624	98.06
314.853	85.06
315.083	98.06
315.312	74.06
315.542	85.06
315.771	82.06
316.001	89.06
316.23	90.06
316.46	98.06
316.689	104.06
316.919	93.06
317.148	75.06
317.377	102.06
317.607	92.06
317.836	79.06
318.065	89.06
318.295	90.06
318.524	97.06
318.753	81.06
318.983	79.06
319.212	90.06
319.441	82.06
319.67	96.06
319.9	81.06
320.129	94.06
320.358	99.06
320.587	99.06
320.816	89.06
321.046	88.06
321.275	91.06
321.504	68.06
321.733	83.06
321.962	94.06
322.191	66.06
322.42	76.06
322.649	87.06
322.878	94.06
323.108	96.06
323.337	98.06
323.566	81.06
323.795	90.06
324.024	100.06
324.253	93.06
324.482	94.06
324.71	93.06
324.939	83.06
325.168	91.06
325.397	76.06
325.626	92.06
325.855	73.06
326.084	100.06
326.313	84.06
326.542	89.06
326.77	83.06
326.999	77.06
327.228	86.06
327.457	87.06
327.686	84.06
327.914	91.06
328.143	91.06
328.372	84.06
328.6	75.06
328.829	86.06
329.058	74.06
329.287	83.06
329.515	84.06
329.744	81.06
329.972	80.06
330.201	88.06
330.43	91.06
330.658	95.06
330.887	80.06
331.115	84.06
331.344	78.06
331.572	87.06
331.801	87.06
332.03	82.06
332.258	90.06
332.486	88.06
332.715	91.06
332.943	80.06
333.172	102.06
333.4	87.06
333.629	85.06
333.857	77.06
334.085	103.06
334.314	92.06
334.542	87.06
334.771	95.06
334.999	88.06
335.227	88.06
335.455	91.06
335.684	88.06
335.912	90.06
336.14	82.06
336.369	80.06
336.597	78.06
336.825	86.06
337.053	89.06
337.281	87.06
337.51	88.06
337.738	94.06
337.966	83.06
338.194	105.06
338.422	86.06
338.65	79.06
338.878	84.06
339.106	73.06
339.334	84.06
339.562	94.06
339.79	96.06
340.018	97.06
340.246	89.06
340.474	94.06
340.702	73.06
340.93	87.06
341.158	89.06
341.386	96.06
341.614	91.06
341.842	85.06
342.07	79.06
342.298	99.06
342.526	89.06
342.754	96.06
342.981	92.06
343.209	107.06
343.437	92.06
343.665	93.06
343.893	111.06
344.12	97.06
344.348	74.06
344.576	92.06
344.804	85.06
345.031	91.06
345.259	95.06
345.487	85.06
345.714	89.06
345.942	73.06
346.17	86.06
346.397	73.06
346.625	90.06
346.853	84.06
347.08	79.06
347.308	89.06
347.535	89.06
347.763	84.06
347.99	73.06
348.218	89.06
348.445	95.06
348.673	88.06
348.9	86.06
349.128	94.06
349.355	81.06
349.583	84.06
349.81	80.06
350.037	78.06
350.265	91.06
350.492	80.06
350.72	83.06
350.947	85.06
351.174	92.06
351.402	91.06
351.629	83.06
351.856	89.06
352.083	87.06
352.311	91.06
352.538	92.06
352.765	87.06
352.992	98.06
353.22	93.06
353.447	85.06
353.674	87.06
353.901	74.06
354.128	73.06
354.355	85.06
354.583	83.06
354.81	94.06
355.037	88.06
355.264	88.06
355.491	73.06
355.718	76.06
355.945	95.06
356.172	81.06
356.399	78.06
356.626	79.06
356.853	83.06
357.08	96.06
357.307	86.06
357.534	97.06
357.761	90.06
357.988	101.06
358.215	91.06
358.441	101.06
358.668	93.06
358.895	102.06
359.122	83.06
359.349	84.06
359.576	85.06
359.802	77.06
360.029	88.06
360.256	84.06
360.483	85.06
360.709	80.06
360.936	92.06
361.163	75.06
361.39	87.06
361.616	85.06
361.843	84.06
362.07	74.06
362.296	90.06
362.523	90.06
362.749	87.06
362.976	92.06
363.203	93.06
363.429	101.06
363.656	95.06
363.882	73.06
364.109	78.06
364.335	85.06
364.562	70.06
364.788	75.06
365.015	100.06
365.241	96.06
365.468	93.06
365.694	77.06
365.92	101.06
366.147	74.06
366.373	91.06
366.599	98.06
366.826	88.06
367.052	77.06
367.278	76.06
367.505	70.06
367.731	73.06
367.957	76.06
368.184	89.06
368.41	87.06
368.636	70.06
368.862	88.06
369.089	103.06
369.315	94.06
369.541	97.06
369.767	94.06
369.993	83.06
370.219	77.06
370.445	97.06
370.672	91.06
370.898	90.06
371.124	92.06
371.35	106.06
371.576	73.06
371.802	78.06
372.028	94.06
372.254	81.06
372.48	79.06
372.706	109.06
372.932	82.06
373.158	94.06
373.384	95.06
373.61	91.06
373.835	84.06
374.061	77.06
374.287	77.06
374.513	90.06
374.739	81.06
374.965	86.06
375.191	79.06
375.416	81.06
375.642	85.06
375.868	89.06
376.094	82.06
376.319	94.06
376.545	83.06
376.771	92.06
376.997	83.06
377.222	78.06
377.448	94.06
377.674	89.06
377.899	91.06
378.125	83.06
378.35	98.06
378.576	99.06
378.802	104.06
379.027	91.06
379.253	79.06
379.478	94.06
379.704	108.06
379.929	91.06
380.155	90.06
380.38	97.06
380.606	82.06
380.831	77.06
381.057	89.06
381.282	77.06
381.507	74.06
381.733	77.06
381.958	86.06
382.184	94.06
382.409	98.06
382.634	83.06
382.86	83.06
383.085	87.06
383.31	73.06
383.535	83.06
383.761	76.06
383.986	79.06
384.211	84.06
384.436	76.06
384.662	102.06
384.887	95.06
385.112	75.06
385.337	81.06
385.562	85.06
385.787	68.06
386.013	80.06
386.238	76.06
386.463	78.06
386.688	88.06
386.913	78.06
387.138	101.06
387.363	80.06
387.588	91.06
387.813	78.06
388.038	77.06
388.263	75.06
388.488	91.06
388.713	78.06
388.938	86.06
389.163	85.06
389.387	77.06
389.612	89.06
389.837	92.06
390.062	78.06
390.287	72.06
390.512	89.06
390.736	83.06
390.961	98.06
391.186	92.06
391.411	95.06
391.636	87.06
391.86	86.06
392.085	81.06
392.31	83.06
392.534	89.06
392.759	102.06
392.984	98.06
393.208	91.06
393.433	68.06
393.658	84.06
393.882	96.06
394.107	91.06
394.331	91.06
394.556	83.06
394.78	85.06
395.005	97.06
395.229	80.06
395.454	84.06
395.678	79.06
395.903	90.06
396.127	89.06
396.352	85.06
396.576	89.06
396.801	84.06
397.025	82.06
397.249	95.06
397.474	84.06
397.698	94.06
397.922	75.06
398.147	94.06
398.371	97.06
398.595	96.06
398.82	76.06
399.044	88.06
399.268	84.06
399.492	97.06
399.717	85.06
399.941	90.06
400.165	84.06
400.389	106.06
400.613	96.06
400.837	96.06
401.062	71.06
401.286	90.06
401.51	83.06
401.734	81.06
401.958	91.06
402.182	83.06
402.406	66.06
402.63	81.06
402.854	71.06
403.078	86.06
403.302	79.06
403.526	85.06
403.75	83.06
403.974	87.06
404.198	93.06
404.422	86.06
404.645	97.06
404.869	79.06
405.093	83.06
405.317	90.06
405.541	71.06
405.765	87.06
405.988	90.06
406.212	96.06
406.436	91.06
406.66	102.06
406.883	86.06
407.107	91.06
407.331	75.06
407.555	99.06
407.778	86.06
408.002	95.06
408.226	97.06
408.449	103.06
408.673	87.06
408.896	83.06
409.12	80.06
409.344	87.06
409.567	82.06
409.791	87.06
410.014	85.06
410.238	86.06
410.461	99.06
410.685	83.06
410.908	92.06
411.132	80.06
411.355	82.06
411.578	92.06
411.802	92.06
412.025	88.06
412.249	93.06
412.472	79.06
412.695	81.06
412.919	93.06
413.142	82.06
413.365	94.06
413.589	79.06
413.812	92.06
414.035	102.06
414.258	90.06
414.482	95.06
414.705	95.06
414.928	98.06
415.151	88.06
415.374	70.06
415.597	84.06
415.821	90.06
416.044	88.06
416.267	80.06
416.49	88.06
416.713	95.06
416.936	93.06
417.159	90.06
417.382	86.06
417.605	85.06
417.828	78.06
418.051	95.06
418.274	88.06
418.497	76.06
418.72	91.06
418.943	97.06
419.166	78.06
419.389	77.06
419.611	86.06
419.834	90.06
420.057	97.06
420.28	89.06
420.503	96.06
420.726	81.06
420.948	82.06
421.171	89.06
421.394	91.06
421.617	84.06
421.839	80.06
422.062	74.06
422.285	83.06
422.507	94.06
422.73	98.06
422.953	82.06
423.175	84.06
423.398	86.06
423.621	103.06
423.843	94.06
424.066	78.06
424.288	77.06
424.511	88.06
424.733	92.06
424.956	95.06
425.178	90.06
425.401	84.06
425.623	74.06
425.846	88.06
426.068	86.06
426.291	93.06
426.513	92.06
426.735	97.06
426.958	89.06
427.18	72.06
427.402	83.06
427.625	85.06
427.847	92.06
428.069	78.06
428.292	88.06
428.514	81.06
428.736	73.06
428.958	82.06
429.181	90.06
429.403	96.06
429.625	98.06
429.847	85.06
430.069	93.06
430.292	89.06
430.514	85.06
430.736	96.06
430.958	87.06
431.18	84.06
431.402	87.06
431.624	97.06
431.846	85.06
432.068	91.06
432.29	100.06
432.512	91.06
432.734	94.06
432.956	89.06
433.178	77.06
433.4	81.06
433.622	94.06
433.844	80.06
434.066	78.06
434.287	95.06
434.509	72.06
434.731	87.06
434.953	80.06
435.175	73.06
435.397	79.06
435.618	87.06
435.84	99.06
436.062	84.06
436.284	96.06
436.505	87.06
436.727	97.06
436.949	105.06
437.17	79.06
437.392	93.06
437.614	85.06
437.835	84.06
438.057	91.06
438.278	84.06
438.5	77.06
438.721	76.06
438.943	77.06
439.165	77.06
439.386	84.06
439.608	83.06
439.829	91.06
440.05	86.06
440.272	76.06
440.493	80.06
440.715	82.06
440.936	97.06
441.158	96.06
441.379	90.06
441.6	93.06
441.822	89.06
442.043	90.06
442.264	91.06
442.486	96.06
442.707	90.06
442.928	101.06
443.149	66.06
443.371	77.06
443.592	76.06
443.813	86.06
444.034	92.06
444.255	88.06
444.476	72.06
444.698	88.06
444.919	84.06
445.14	204.06
445.361	141.06
445.582	96.06
445.803	88.06
446.024	91.06
446.245	99.06
446.466	84.06
446.687	102.06
446.908	81.06
447.129	86.06
447.35	95.06
447.571	80.06
447.792	85.06
448.013	81.06
448.234	94.06
448.455	74.06
448.675	77.06
448.896	76.06
449.117	83.06
449.338	88.06
449.559	83.06
449.779	67.06
450	79.06
450.221	77.06
450.442	78.06
450.662	84.06
450.883	86.06
451.104	70.06
451.324	85.06
451.545	85.06
451.766	82.06
451.986	70.06
452.207	84.06
452.428	88.06
452.648	86.06
452.869	77.06
453.089	89.06
453.31	89.06
453.53	78.06
453.751	78.06
453.971	83.06
454.192	83.06
454.412	74.06
454.633	94.06
454.853	72.06
455.073	94.06
455.294	90.06
455.514	92.06
455.734	79.06
455.955	93.06
456.175	97.06
456.395	88.06
456.616	79.06
456.836	92.06
457.056	98.06
457.276	95.06
457.497	88.06
457.717	79.06
457.937	93.06
458.157	91.06
458.377	89.06
458.598	87.06
458.818	86.06
459.038	80.06
459.258	84.06
459.478	89.06
459.698	72.06
459.918	89.06
460.138	84.06
460.358	80.06
460.578	93.06
460.798	100.06
461.018	97.06
461.238	83.06
461.458	84.06
461.678	85.06
461.898	88.06
462.118	99.06
462.338	90.06
462.558	82.06
462.777	84.06
462.997	88.06
463.217	94.06
463.437	94.06
463.657	84.06
463.876	105.06
464.096	90.06
464.316	76.06
464.536	91.06
464.755	89.06
464.975	91.06
465.195	83.06
465.414	97.06
465.634	101.06
465.854	78.06
466.073	78.06
466.293	89.06
466.512	86.06
466.732	79.06
466.951	87.06
467.171	100.06
467.391	90.06
467.61	88.06
467.829	78.06
468.049	82.06
468.268	92.06
468.488	89.06
468.707	85.06
468.927	86.06
469.146	86.06
469.365	83.06
469.585	88.06
469.804	88.06
470.023	86.06
470.243	79.06
470.462	83.06
470.681	85.06
470.901	72.06
471.12	84.06
471.339	102.06
471.558	85.06
471.777	96.06
471.997	97.06
472.216	83.06
472.435	72.06
472.654	80.06
472.873	73.06
473.092	86.06
473.311	76.06
473.53	88.06
473.749	90.06
473.968	81.06
474.187	96.06
474.406	83.06
474.625	82.06
474.844	93.06
475.063	94.06
475.282	102.06
475.501	88.06
475.72	80.06
475.939	88.06
476.158	85.06
476.377	78.06
476.596	93.06
476.814	89.06
477.033	92.06
477.252	89.06
477.471	93.06
477.69	82.06
477.908	97.06
478.127	91.06
478.346	93.06
478.564	94.06
478.783	98.06
479.002	88.06
479.22	77.06
479.439	88.06
479.658	90.06
479.876	96.06
480.095	83.06
480.313	89.06
480.532	91.06
480.751	88.06
480.969	86.06
481.188	86.06
481.406	100.06
481.624	94.06
481.843	80.06
482.061	92.06
482.28	87.06
482.498	89.06
482.717	88.06
482.935	79.06
483.153	77.06
483.372	97.06
483.59	94.06
483.808	92.06
484.027	96.06
484.245	89.06
484.463	94.06
484.681	90.06
484.9	97.06
485.118	90.06
485.336	81.06
485.554	99.06
485.772	88.06
485.99	80.06
486.209	84.06
486.427	93.06
486.645	92.06
486.863	86.06
487.081	90.06
487.299	94.06
487.517	99.06
487.735	106.06
487.953	96.06
488.171	87.06
488.389	90.06
488.607	95.06
488.825	93.06
489.043	94.06
489.261	98.06
489.479	101.06
489.696	92.06
489.914	96.06
490.132	86.06
490.35	102.06
490.568	101.06
490.786	92.06
491.003	99.06
491.221	101.06
491.439	105.06
491.657	92.06
491.874	108.06
492.092	89.06
492.31	94.06
492.527	88.06
492.745	97.06
492.963	95.06
493.18	85.06
493.398	98.06
493.615	85.06
493.833	94.06
494.05	88.06
494.268	91.06
494.485	99.06
494.703	90.06
494.92	79.06
495.138	98.06
495.355	93.06
495.573	96.06
495.79	90.06
496.008	106.06
496.225	103.06
496.442	99.06
496.66	111.06
496.877	98.06
497.094	94.06
497.312	92.06
497.529	87.06
497.746	93.06
497.963	103.06
498.181	96.06
498.398	97.06
498.615	89.06
498.832	94.06
499.049	89.06
499.267	102.06
499.484	104.06
499.701	106.06
499.918	114.06
500.135	94.06
500.352	102.06
500.569	115.06
500.786	109.06
501.003	112.06
501.22	114.06
501.437	102.06
501.654	97.06
501.871	99.06
502.088	94.06
502.305	101.06
502.522	107.06
502.739	110.06
502.956	107.06
503.172	92.06
503.389	94.06
503.606	98.06
503.823	98.06
504.04	106.06
504.256	105.06
504.473	94.06
504.69	110.06
504.907	104.06
505.123	92.06
505.34	82.06
505.557	93.06
505.773	105.06
505.99	96.06
506.207	90.06
506.423	83.06
506.64	95.06
506.856	106.06
507.073	86.06
507.289	107.06
507.506	104.06
507.722	90.06
507.939	92.06
508.155	97.06
508.372	88.06
508.588	89.06
508.805	93.06
509.021	78.06
509.238	97.06
509.454	88.06
509.67	79.06
509.887	90.06
510.103	77.06
510.319	99.06
510.536	87.06
510.752	91.06
510.968	86.06
511.184	76.06
511.401	89.06
511.617	90.06
511.833	98.06
512.049	100.06
512.265	102.06
512.481	82.06
512.698	97.06
512.914	97.06
513.13	73.06
513.346	94.06
513.562	89.06
513.778	85.06
513.994	83.06
514.21	90.06
514.426	100.06
514.642	92.06
514.858	87.06
515.074	96.06
515.29	94.06
515.506	97.06
515.721	94.06
515.937	88.06
516.153	90.06
516.369	92.06
516.585	87.06
516.801	90.06
517.016	93.06
517.232	88.06
517.448	83.06
517.664	84.06
517.879	93.06
518.095	98.06
518.311	88.06
