Data from Ni(NO3)2@0.5M.TitratingCurve.Agarose3%dH2O.NegLispCup.LampEnergy10.LIBS07252019_HRD10591_17-59-55-564.txt Node
Date: Thu Jul 25 17:59:55 EDT 2019
User: cochatt
Spectrometer: HR+D1059
Trigger mode: 1
Integration Time (sec): 1.000000E-1
Scans to average: 1
Electric dark correction enabled: true
Nonlinearity correction enabled: false
Boxcar width: 0
XAxis mode: Wavelengths
Number of Pixels in Spectrum: 2048
>>>>>Begin Spectral Data<<<<<
223.165	-18.88
223.4	-18.88
223.635	-18.88
223.869	-16.88
224.104	-10.88
224.338	-10.88
224.573	-16.88
224.808	-20.88
225.042	-5.88
225.277	-7.88
225.511	1.12
225.746	-26.88
225.98	21.12
226.215	18.12
226.449	32.12
226.683	21.12
226.918	17.12
227.152	25.12
227.387	34.12
227.621	37.12
227.856	53.12
228.09	47.12
228.324	45.12
228.559	61.12
228.793	69.12
229.027	96.12
229.262	108.12
229.496	108.12
229.73	99.12
229.964	129.12
230.199	128.12
230.433	110.12
230.667	117.12
230.901	113.12
231.136	116.12
231.37	133.12
231.604	147.12
231.838	126.12
232.072	137.12
232.306	132.12
232.541	119.12
232.775	136.12
233.009	125.12
233.243	131.12
233.477	128.12
233.711	112.12
233.945	112.12
234.179	125.12
234.413	116.12
234.647	129.12
234.881	123.12
235.115	135.12
235.349	127.12
235.583	122.12
235.817	117.12
236.051	128.12
236.285	129.12
236.519	124.12
236.753	132.12
236.987	129.12
237.221	131.12
237.455	128.12
237.689	127.12
237.922	126.12
238.156	124.12
238.39	124.12
238.624	106.12
238.858	132.12
239.091	134.12
239.325	145.12
239.559	131.12
239.793	136.12
240.027	142.12
240.26	152.12
240.494	140.12
240.728	136.12
240.961	148.12
241.195	139.12
241.429	136.12
241.662	140.12
241.896	155.12
242.13	156.12
242.363	151.12
242.597	145.12
242.83	142.12
243.064	143.12
243.298	143.12
243.531	145.12
243.765	153.12
243.998	154.12
244.232	151.12
244.465	153.12
244.699	153.12
244.932	151.12
245.166	156.12
245.399	152.12
245.633	147.12
245.866	153.12
246.099	150.12
246.333	160.12
246.566	159.12
246.8	143.12
247.033	168.12
247.266	150.12
247.5	158.12
247.733	176.12
247.966	170.12
248.2	157.12
248.433	156.12
248.666	182.12
248.899	167.12
249.133	166.12
249.366	171.12
249.599	165.12
249.832	166.12
250.066	175.12
250.299	166.12
250.532	166.12
250.765	161.12
250.998	171.12
251.231	196.12
251.465	189.12
251.698	195.12
251.931	199.12
252.164	182.12
252.397	183.12
252.63	185.12
252.863	177.12
253.096	182.12
253.329	197.12
253.562	195.12
253.795	200.12
254.028	187.12
254.261	189.12
254.494	189.12
254.727	192.12
254.96	185.12
255.193	182.12
255.426	181.12
255.659	210.12
255.892	200.12
256.124	188.12
256.357	191.12
256.59	206.12
256.823	182.12
257.056	210.12
257.289	202.12
257.521	213.12
257.754	203.12
257.987	198.12
258.22	200.12
258.452	215.12
258.685	196.12
258.918	228.12
259.151	209.12
259.383	210.12
259.616	189.12
259.849	199.12
260.081	219.12
260.314	215.12
260.547	221.12
260.779	227.12
261.012	224.12
261.244	220.12
261.477	228.12
261.71	207.12
261.942	221.12
262.175	221.12
262.407	239.12
262.64	225.12
262.872	222.12
263.105	232.12
263.337	237.12
263.57	230.12
263.802	231.12
264.035	249.12
264.267	231.12
264.499	250.12
264.732	222.12
264.964	230.12
265.197	227.12
265.429	231.12
265.661	234.12
265.894	213.12
266.126	244.12
266.358	224.12
266.591	245.12
266.823	253.12
267.055	249.12
267.287	228.12
267.52	247.12
267.752	249.12
267.984	232.12
268.216	239.12
268.448	257.12
268.681	258.12
268.913	246.12
269.145	269.12
269.377	255.12
269.609	234.12
269.841	230.12
270.073	248.12
270.306	251.12
270.538	259.12
270.77	232.12
271.002	258.12
271.234	246.12
271.466	248.12
271.698	262.12
271.93	256.12
272.162	248.12
272.394	272.12
272.626	272.12
272.858	262.12
273.09	258.12
273.322	264.12
273.553	267.12
273.785	263.12
274.017	262.12
274.249	279.12
274.481	258.12
274.713	279.12
274.945	277.12
275.176	293.12
275.408	288.12
275.64	288.12
275.872	277.12
276.104	282.12
276.335	277.12
276.567	269.12
276.799	288.12
277.031	295.12
277.262	283.12
277.494	283.12
277.726	295.12
277.957	266.12
278.189	293.12
278.421	287.12
278.652	286.12
278.884	280.12
279.115	287.12
279.347	298.12
279.579	290.12
279.81	297.12
280.042	289.12
280.273	305.12
280.505	300.12
280.736	288.12
280.968	301.12
281.199	303.12
281.431	315.12
281.662	310.12
281.894	285.12
282.125	313.12
282.356	309.12
282.588	302.12
282.819	295.12
283.051	304.12
283.282	313.12
283.513	317.12
283.745	320.12
283.976	297.12
284.207	304.12
284.439	310.12
284.67	298.12
284.901	315.12
285.132	308.12
285.364	323.12
285.595	317.12
285.826	320.12
286.057	311.12
286.288	333.12
286.52	319.12
286.751	329.12
286.982	340.12
287.213	324.12
287.444	316.12
287.675	323.12
287.906	334.12
288.138	314.12
288.369	327.12
288.6	322.12
288.831	331.12
289.062	316.12
289.293	324.12
289.524	319.12
289.755	316.12
289.986	318.12
290.217	345.12
290.448	332.12
290.679	347.12
290.91	336.12
291.141	342.12
291.371	341.12
291.602	343.12
291.833	339.12
292.064	340.12
292.295	345.12
292.526	332.12
292.757	331.12
292.987	340.12
293.218	325.12
293.449	332.12
293.68	343.12
293.91	333.12
294.141	351.12
294.372	329.12
294.603	331.12
294.833	327.12
295.064	339.12
295.295	343.12
295.525	341.12
295.756	340.12
295.987	326.12
296.217	350.12
296.448	355.12
296.679	327.12
296.909	350.12
297.14	356.12
297.37	365.12
297.601	365.12
297.831	351.12
298.062	344.12
298.292	338.12
298.523	361.12
298.753	361.12
298.984	349.12
299.214	368.12
299.445	371.12
299.675	361.12
299.905	364.12
300.136	355.12
300.366	375.12
300.597	362.12
300.827	365.12
301.057	368.12
301.288	392.12
301.518	397.12
301.748	366.12
301.979	363.12
302.209	380.12
302.439	380.12
302.669	395.12
302.9	379.12
303.13	363.12
303.36	391.12
303.59	389.12
303.82	379.12
304.051	372.12
304.281	368.12
304.511	358.12
304.741	385.12
304.971	374.12
305.201	391.12
305.431	375.12
305.661	383.12
305.891	404.12
306.121	389.12
306.352	398.12
306.582	378.12
306.812	369.12
307.042	373.12
307.272	372.12
307.502	379.12
307.731	387.12
307.961	367.12
308.191	385.12
308.421	364.12
308.651	362.12
308.881	372.12
309.111	365.12
309.341	379.12
309.571	374.12
309.8	372.12
310.03	400.12
310.26	390.12
310.49	383.12
310.72	384.12
310.949	388.12
311.179	388.12
311.409	370.12
311.639	376.12
311.868	391.12
312.098	372.12
312.328	394.12
312.557	397.12
312.787	384.12
313.017	401.12
313.246	422.12
313.476	405.12
313.706	411.12
313.935	428.12
314.165	428.12
314.394	407.12
314.624	419.12
314.853	423.12
315.083	420.12
315.312	416.12
315.542	415.12
315.771	400.12
316.001	398.12
316.23	403.12
316.46	391.12
316.689	440.12
316.919	412.12
317.148	411.12
317.377	416.12
317.607	416.12
317.836	398.12
318.065	411.12
318.295	398.12
318.524	401.12
318.753	404.12
318.983	403.12
319.212	420.12
319.441	425.12
319.67	417.12
319.9	435.12
320.129	432.12
320.358	432.12
320.587	422.12
320.816	415.12
321.046	420.12
321.275	407.12
321.504	400.12
321.733	423.12
321.962	422.12
322.191	437.12
322.42	431.12
322.649	430.12
322.878	425.12
323.108	423.12
323.337	423.12
323.566	428.12
323.795	431.12
324.024	426.12
324.253	429.12
324.482	424.12
324.71	433.12
324.939	443.12
325.168	452.12
325.397	434.12
325.626	440.12
325.855	453.12
326.084	439.12
326.313	453.12
326.542	454.12
326.77	447.12
326.999	447.12
327.228	438.12
327.457	463.12
327.686	453.12
327.914	435.12
328.143	449.12
328.372	446.12
328.6	449.12
328.829	459.12
329.058	448.12
329.287	457.12
329.515	461.12
329.744	473.12
329.972	464.12
330.201	449.12
330.43	462.12
330.658	480.12
330.887	470.12
331.115	476.12
331.344	487.12
331.572	480.12
331.801	486.12
332.03	501.12
332.258	509.12
332.486	478.12
332.715	488.12
332.943	521.12
333.172	515.12
333.4	533.12
333.629	532.12
333.857	564.12
334.085	555.12
334.314	561.12
334.542	529.12
334.771	528.12
334.999	530.12
335.227	547.12
335.455	549.12
335.684	543.12
335.912	525.12
336.14	551.12
336.369	552.12
336.597	551.12
336.825	525.12
337.053	527.12
337.281	535.12
337.51	545.12
337.738	540.12
337.966	528.12
338.194	534.12
338.422	534.12
338.65	496.12
338.878	520.12
339.106	507.12
339.334	507.12
339.562	492.12
339.79	505.12
340.018	489.12
340.246	492.12
340.474	494.12
340.702	492.12
340.93	463.12
341.158	505.12
341.386	493.12
341.614	504.12
341.842	519.12
342.07	494.12
342.298	491.12
342.526	493.12
342.754	487.12
342.981	479.12
343.209	482.12
343.437	495.12
343.665	524.12
343.893	529.12
344.12	548.12
344.348	543.12
344.576	518.12
344.804	519.12
345.031	503.12
345.259	500.12
345.487	477.12
345.714	515.12
345.942	501.12
346.17	491.12
346.397	504.12
346.625	489.12
346.853	475.12
347.08	486.12
347.308	491.12
347.535	471.12
347.763	462.12
347.99	458.12
348.218	480.12
348.445	458.12
348.673	476.12
348.9	479.12
349.128	494.12
349.355	478.12
349.583	484.12
349.81	475.12
350.037	446.12
350.265	464.12
350.492	464.12
350.72	459.12
350.947	462.12
351.174	466.12
351.402	479.12
351.629	476.12
351.856	461.12
352.083	462.12
352.311	477.12
352.538	473.12
352.765	468.12
352.992	452.12
353.22	445.12
353.447	464.12
353.674	464.12
353.901	462.12
354.128	462.12
354.355	447.12
354.583	459.12
354.81	460.12
355.037	451.12
355.264	462.12
355.491	455.12
355.718	446.12
355.945	447.12
356.172	448.12
356.399	461.12
356.626	477.12
356.853	465.12
357.08	473.12
357.307	471.12
357.534	464.12
357.761	475.12
357.988	443.12
358.215	451.12
358.441	453.12
358.668	470.12
358.895	460.12
359.122	465.12
359.349	436.12
359.576	447.12
359.802	451.12
360.029	451.12
360.256	471.12
360.483	439.12
360.709	462.12
360.936	451.12
361.163	442.12
361.39	464.12
361.616	437.12
361.843	463.12
362.07	504.12
362.296	471.12
362.523	439.12
362.749	456.12
362.976	460.12
363.203	456.12
363.429	463.12
363.656	455.12
363.882	467.12
364.109	468.12
364.335	452.12
364.562	475.12
364.788	467.12
365.015	459.12
365.241	453.12
365.468	461.12
365.694	462.12
365.92	459.12
366.147	470.12
366.373	448.12
366.599	456.12
366.826	452.12
367.052	469.12
367.278	493.12
367.505	478.12
367.731	452.12
367.957	489.12
368.184	476.12
368.41	486.12
368.636	479.12
368.862	469.12
369.089	461.12
369.315	467.12
369.541	480.12
369.767	479.12
369.993	470.12
370.219	487.12
370.445	482.12
370.672	481.12
370.898	501.12
371.124	513.12
371.35	501.12
371.576	489.12
371.802	504.12
372.028	489.12
372.254	503.12
372.48	539.12
372.706	534.12
372.932	517.12
373.158	512.12
373.384	501.12
373.61	513.12
373.835	505.12
374.061	503.12
374.287	489.12
374.513	486.12
374.739	529.12
374.965	549.12
375.191	522.12
375.416	539.12
375.642	518.12
375.868	496.12
376.094	499.12
376.319	512.12
376.545	513.12
376.771	499.12
376.997	489.12
377.222	501.12
377.448	480.12
377.674	504.12
377.899	518.12
378.125	491.12
378.35	486.12
378.576	500.12
378.802	489.12
379.027	486.12
379.253	487.12
379.478	497.12
379.704	470.12
379.929	497.12
380.155	468.12
380.38	492.12
380.606	483.12
380.831	521.12
381.057	503.12
381.282	484.12
381.507	505.12
381.733	512.12
381.958	495.12
382.184	503.12
382.409	505.12
382.634	492.12
382.86	520.12
383.085	496.12
383.31	506.12
383.535	533.12
383.761	536.12
383.986	533.12
384.211	535.12
384.436	535.12
384.662	525.12
384.887	552.12
385.112	545.12
385.337	563.12
385.562	565.12
385.787	573.12
386.013	575.12
386.238	555.12
386.463	565.12
386.688	558.12
386.913	597.12
387.138	581.12
387.363	576.12
387.588	590.12
387.813	576.12
388.038	558.12
388.263	575.12
388.488	549.12
388.713	565.12
388.938	560.12
389.163	580.12
389.387	569.12
389.612	560.12
389.837	577.12
390.062	566.12
390.287	556.12
390.512	566.12
390.736	553.12
390.961	587.12
391.186	565.12
391.411	589.12
391.636	616.12
391.86	603.12
392.085	611.12
392.31	609.12
392.534	584.12
392.759	597.12
392.984	623.12
393.208	611.12
393.433	603.12
393.658	611.12
393.882	580.12
394.107	598.12
394.331	600.12
394.556	575.12
394.78	591.12
395.005	626.12
395.229	596.12
395.454	620.12
395.678	630.12
395.903	609.12
396.127	629.12
396.352	621.12
396.576	608.12
396.801	609.12
397.025	629.12
397.249	609.12
397.474	637.12
397.698	625.12
397.922	651.12
398.147	631.12
398.371	662.12
398.595	668.12
398.82	682.12
399.044	711.12
399.268	746.12
399.492	796.12
399.717	827.12
399.941	832.12
400.165	793.12
400.389	759.12
400.613	739.12
400.837	736.12
401.062	739.12
401.286	684.12
401.51	691.12
401.734	707.12
401.958	681.12
402.182	686.12
402.406	702.12
402.63	672.12
402.854	707.12
403.078	704.12
403.302	677.12
403.526	728.12
403.75	704.12
403.974	734.12
404.198	706.12
404.422	719.12
404.645	716.12
404.869	717.12
405.093	739.12
405.317	729.12
405.541	725.12
405.765	724.12
405.988	708.12
406.212	727.12
406.436	749.12
406.66	773.12
406.883	745.12
407.107	763.12
407.331	799.12
407.555	817.12
407.778	845.12
408.002	810.12
408.226	794.12
408.449	794.12
408.673	785.12
408.896	771.12
409.12	762.12
409.344	764.12
409.567	751.12
409.791	752.12
410.014	735.12
410.238	722.12
410.461	742.12
410.685	742.12
410.908	718.12
411.132	732.12
411.355	711.12
411.578	715.12
411.802	703.12
412.025	712.12
412.249	725.12
412.472	721.12
412.695	693.12
412.919	694.12
413.142	699.12
413.365	720.12
413.589	701.12
413.812	691.12
414.035	685.12
414.258	700.12
414.482	681.12
414.705	669.12
414.928	692.12
415.151	686.12
415.374	691.12
415.597	684.12
415.821	676.12
416.044	680.12
416.267	685.12
416.49	685.12
416.713	652.12
416.936	677.12
417.159	671.12
417.382	667.12
417.605	679.12
417.828	684.12
418.051	683.12
418.274	691.12
418.497	640.12
418.72	664.12
418.943	679.12
419.166	715.12
419.389	733.12
419.611	734.12
419.834	721.12
420.057	713.12
420.28	687.12
420.503	672.12
420.726	671.12
420.948	662.12
421.171	660.12
421.394	673.12
421.617	661.12
421.839	671.12
422.062	685.12
422.285	673.12
422.507	675.12
422.73	662.12
422.953	689.12
423.175	683.12
423.398	702.12
423.621	667.12
423.843	695.12
424.066	699.12
424.288	671.12
424.511	669.12
424.733	704.12
424.956	679.12
425.178	665.12
425.401	682.12
425.623	671.12
425.846	653.12
426.068	659.12
426.291	644.12
426.513	638.12
426.735	653.12
426.958	649.12
427.18	630.12
427.402	644.12
427.625	669.12
427.847	630.12
428.069	615.12
428.292	639.12
428.514	596.12
428.736	639.12
428.958	616.12
429.181	621.12
429.403	621.12
429.625	625.12
429.847	631.12
430.069	633.12
430.292	625.12
430.514	616.12
430.736	644.12
430.958	619.12
431.18	624.12
431.402	637.12
431.624	627.12
431.846	613.12
432.068	625.12
432.29	645.12
432.512	619.12
432.734	609.12
432.956	641.12
433.178	651.12
433.4	643.12
433.622	660.12
433.844	668.12
434.066	639.12
434.287	639.12
434.509	652.12
434.731	663.12
434.953	661.12
435.175	659.12
435.397	724.12
435.618	664.12
435.84	613.12
436.062	615.12
436.284	627.12
436.505	621.12
436.727	653.12
436.949	629.12
437.17	646.12
437.392	647.12
437.614	636.12
437.835	596.12
438.057	621.12
438.278	597.12
438.5	591.12
438.721	633.12
438.943	629.12
439.165	600.12
439.386	604.12
439.608	641.12
439.829	616.12
440.05	629.12
440.272	635.12
440.493	628.12
440.715	639.12
440.936	645.12
441.158	668.12
441.379	632.12
441.6	669.12
441.822	681.12
442.043	685.12
442.264	675.12
442.486	665.12
442.707	660.12
442.928	656.12
443.149	692.12
443.371	651.12
443.592	686.12
443.813	694.12
444.034	688.12
444.255	723.12
444.476	693.12
444.698	757.12
444.919	749.12
445.14	828.12
445.361	755.12
445.582	699.12
445.803	669.12
446.024	682.12
446.245	663.12
446.466	655.12
446.687	635.12
446.908	639.12
447.129	612.12
447.35	629.12
447.571	621.12
447.792	614.12
448.013	591.12
448.234	593.12
448.455	612.12
448.675	590.12
448.896	602.12
449.117	573.12
449.338	601.12
449.559	595.12
449.779	588.12
450	546.12
450.221	575.12
450.442	590.12
450.662	603.12
450.883	581.12
451.104	605.12
451.324	613.12
451.545	571.12
451.766	593.12
451.986	565.12
452.207	575.12
452.428	584.12
452.648	591.12
452.869	551.12
453.089	566.12
453.31	564.12
453.53	572.12
453.751	531.12
453.971	553.12
454.192	571.12
454.412	560.12
454.633	548.12
454.853	524.12
455.073	567.12
455.294	557.12
455.514	573.12
455.734	564.12
455.955	558.12
456.175	535.12
456.395	550.12
456.616	568.12
456.836	570.12
457.056	533.12
457.276	582.12
457.497	560.12
457.717	571.12
457.937	569.12
458.157	574.12
458.377	560.12
458.598	590.12
458.818	566.12
459.038	585.12
459.258	602.12
459.478	613.12
459.698	659.12
459.918	648.12
460.138	657.12
460.358	649.12
460.578	693.12
460.798	674.12
461.018	703.12
461.238	673.12
461.458	685.12
461.678	715.12
461.898	711.12
462.118	714.12
462.338	726.12
462.558	743.12
462.777	739.12
462.997	808.12
463.217	797.12
463.437	803.12
463.657	797.12
463.876	759.12
464.096	764.12
464.316	771.12
464.536	758.12
464.755	755.12
464.975	740.12
465.195	693.12
465.414	671.12
465.634	647.12
465.854	641.12
466.073	619.12
466.293	619.12
466.512	613.12
466.732	619.12
466.951	619.12
467.171	640.12
467.391	625.12
467.61	596.12
467.829	598.12
468.049	607.12
468.268	590.12
468.488	602.12
468.707	588.12
468.927	623.12
469.146	591.12
469.365	618.12
469.585	613.12
469.804	624.12
470.023	622.12
470.243	608.12
470.462	604.12
470.681	603.12
470.901	613.12
471.12	596.12
471.339	618.12
471.558	629.12
471.777	615.12
471.997	591.12
472.216	619.12
472.435	600.12
472.654	591.12
472.873	575.12
473.092	583.12
473.311	567.12
473.53	579.12
473.749	569.12
473.968	593.12
474.187	595.12
474.406	585.12
474.625	615.12
474.844	590.12
475.063	607.12
475.282	593.12
475.501	580.12
475.72	598.12
475.939	613.12
476.158	612.12
476.377	632.12
476.596	611.12
476.814	617.12
477.033	608.12
477.252	641.12
477.471	624.12
477.69	639.12
477.908	656.12
478.127	667.12
478.346	679.12
478.564	677.12
478.783	696.12
479.002	699.12
479.22	709.12
479.439	720.12
479.658	705.12
479.876	732.12
480.095	706.12
480.313	718.12
480.532	718.12
480.751	724.12
480.969	687.12
481.188	712.12
481.406	694.12
481.624	665.12
481.843	683.12
482.061	672.12
482.28	664.12
482.498	682.12
482.717	667.12
482.935	676.12
483.153	672.12
483.372	701.12
483.59	693.12
483.808	697.12
484.027	695.12
484.245	689.12
484.463	684.12
484.681	706.12
484.9	720.12
485.118	676.12
485.336	704.12
485.554	695.12
485.772	699.12
485.99	713.12
486.209	685.12
486.427	700.12
486.645	689.12
486.863	708.12
487.081	696.12
487.299	687.12
487.517	693.12
487.735	705.12
487.953	692.12
488.171	713.12
488.389	733.12
488.607	709.12
488.825	688.12
489.043	699.12
489.261	693.12
489.479	700.12
489.696	709.12
489.914	703.12
490.132	720.12
490.35	701.12
490.568	696.12
490.786	704.12
491.003	740.12
491.221	705.12
491.439	718.12
491.657	720.12
491.874	727.12
492.092	739.12
492.31	727.12
492.527	724.12
492.745	738.12
492.963	734.12
493.18	742.12
493.398	702.12
493.615	740.12
493.833	763.12
494.05	695.12
494.268	743.12
494.485	739.12
494.703	732.12
494.92	734.12
495.138	752.12
495.355	724.12
495.573	728.12
495.79	724.12
496.008	783.12
496.225	777.12
496.442	747.12
496.66	761.12
496.877	747.12
497.094	785.12
497.312	787.12
497.529	825.12
497.746	803.12
497.963	837.12
498.181	877.12
498.398	892.12
498.615	943.12
498.832	986.12
499.049	999.12
499.267	1030.12
499.484	1104.12
499.701	1201.12
499.918	1270.12
500.135	1337.12
500.352	1445.12
500.569	1435.12
500.786	1460.12
501.003	1369.12
501.22	1299.12
501.437	1251.12
