Data from Ni(NO3)2@0.5M.TitratingCurve.Agarose3%dH2O.NegLispCup.LampEnergy10.LIBS07252019_HRD10591_17-59-09-564.txt Node
Date: Thu Jul 25 17:59:09 EDT 2019
User: cochatt
Spectrometer: HR+D1059
Trigger mode: 1
Integration Time (sec): 1.000000E-1
Scans to average: 1
Electric dark correction enabled: true
Nonlinearity correction enabled: false
Boxcar width: 0
XAxis mode: Wavelengths
Number of Pixels in Spectrum: 2048
>>>>>Begin Spectral Data<<<<<
223.165	-6.06
223.4	-6.06
223.635	-6.06
223.869	-13.06
224.104	-19.06
224.338	-13.06
224.573	-18.06
224.808	-18.06
225.042	-21.06
225.277	-6.06
225.511	-11.06
225.746	4.94
225.98	14.94
226.215	8.94
226.449	15.94
226.683	24.94
226.918	37.94
227.152	17.94
227.387	31.94
227.621	50.94
227.856	34.94
228.09	48.94
228.324	38.94
228.559	60.94
228.793	102.94
229.027	125.94
229.262	130.94
229.496	144.94
229.73	149.94
229.964	164.94
230.199	220.94
230.433	202.94
230.667	214.94
230.901	182.94
231.136	171.94
231.37	182.94
231.604	201.94
231.838	193.94
232.072	221.94
232.306	203.94
232.541	185.94
232.775	179.94
233.009	182.94
233.243	155.94
233.477	162.94
233.711	181.94
233.945	186.94
234.179	170.94
234.413	181.94
234.647	173.94
234.881	176.94
235.115	188.94
235.349	167.94
235.583	156.94
235.817	146.94
236.051	179.94
236.285	166.94
236.519	167.94
236.753	171.94
236.987	164.94
237.221	182.94
237.455	176.94
237.689	166.94
237.922	190.94
238.156	180.94
238.39	178.94
238.624	177.94
238.858	206.94
239.091	188.94
239.325	198.94
239.559	209.94
239.793	224.94
240.027	243.94
240.26	227.94
240.494	196.94
240.728	189.94
240.961	182.94
241.195	200.94
241.429	204.94
241.662	225.94
241.896	238.94
242.13	257.94
242.363	235.94
242.597	209.94
242.83	208.94
243.064	214.94
243.298	223.94
243.531	222.94
243.765	228.94
243.998	230.94
244.232	246.94
244.465	220.94
244.699	210.94
244.932	209.94
245.166	227.94
245.399	226.94
245.633	236.94
245.866	233.94
246.099	218.94
246.333	236.94
246.566	253.94
246.8	224.94
247.033	246.94
247.266	241.94
247.5	256.94
247.733	228.94
247.966	249.94
248.2	241.94
248.433	279.94
248.666	265.94
248.899	239.94
249.133	256.94
249.366	286.94
249.599	269.94
249.832	254.94
250.066	267.94
250.299	257.94
250.532	274.94
250.765	283.94
250.998	307.94
251.231	299.94
251.465	337.94
251.698	303.94
251.931	287.94
252.164	301.94
252.397	297.94
252.63	305.94
252.863	296.94
253.096	316.94
253.329	291.94
253.562	266.94
253.795	292.94
254.028	313.94
254.261	309.94
254.494	320.94
254.727	308.94
254.96	324.94
255.193	324.94
255.426	318.94
255.659	311.94
255.892	327.94
256.124	310.94
256.357	328.94
256.59	318.94
256.823	328.94
257.056	338.94
257.289	318.94
257.521	335.94
257.754	330.94
257.987	349.94
258.22	324.94
258.452	324.94
258.685	348.94
258.918	330.94
259.151	338.94
259.383	351.94
259.616	345.94
259.849	356.94
260.081	355.94
260.314	346.94
260.547	360.94
260.779	366.94
261.012	354.94
261.244	378.94
261.477	389.94
261.71	380.94
261.942	369.94
262.175	355.94
262.407	372.94
262.64	370.94
262.872	358.94
263.105	384.94
263.337	400.94
263.57	390.94
263.802	380.94
264.035	383.94
264.267	373.94
264.499	380.94
264.732	403.94
264.964	390.94
265.197	411.94
265.429	396.94
265.661	386.94
265.894	397.94
266.126	393.94
266.358	387.94
266.591	393.94
266.823	392.94
267.055	412.94
267.287	393.94
267.52	386.94
267.752	399.94
267.984	418.94
268.216	408.94
268.448	418.94
268.681	425.94
268.913	428.94
269.145	425.94
269.377	431.94
269.609	417.94
269.841	440.94
270.073	437.94
270.306	421.94
270.538	412.94
270.77	436.94
271.002	423.94
271.234	429.94
271.466	432.94
271.698	433.94
271.93	442.94
272.162	428.94
272.394	436.94
272.626	435.94
272.858	457.94
273.09	452.94
273.322	440.94
273.553	463.94
273.785	466.94
274.017	450.94
274.249	453.94
274.481	420.94
274.713	450.94
274.945	475.94
275.176	469.94
275.408	466.94
275.64	497.94
275.872	453.94
276.104	508.94
276.335	488.94
276.567	472.94
276.799	489.94
277.031	486.94
277.262	463.94
277.494	461.94
277.726	478.94
277.957	481.94
278.189	483.94
278.421	501.94
278.652	498.94
278.884	514.94
279.115	490.94
279.347	484.94
279.579	504.94
279.81	506.94
280.042	517.94
280.273	508.94
280.505	512.94
280.736	512.94
280.968	508.94
281.199	527.94
281.431	505.94
281.662	499.94
281.894	509.94
282.125	517.94
282.356	523.94
282.588	534.94
282.819	490.94
283.051	524.94
283.282	523.94
283.513	531.94
283.745	534.94
283.976	532.94
284.207	537.94
284.439	525.94
284.67	538.94
284.901	557.94
285.132	549.94
285.364	546.94
285.595	554.94
285.826	542.94
286.057	523.94
286.288	544.94
286.52	558.94
286.751	537.94
286.982	561.94
287.213	552.94
287.444	548.94
287.675	548.94
287.906	566.94
288.138	570.94
288.369	569.94
288.6	572.94
288.831	556.94
289.062	573.94
289.293	571.94
289.524	565.94
289.755	553.94
289.986	570.94
290.217	549.94
290.448	584.94
290.679	574.94
290.91	576.94
291.141	589.94
291.371	589.94
291.602	591.94
291.833	576.94
292.064	569.94
292.295	594.94
292.526	577.94
292.757	558.94
292.987	575.94
293.218	570.94
293.449	580.94
293.68	590.94
293.91	576.94
294.141	582.94
294.372	569.94
294.603	578.94
294.833	596.94
295.064	598.94
295.295	601.94
295.525	596.94
295.756	598.94
295.987	595.94
296.217	590.94
296.448	596.94
296.679	587.94
296.909	579.94
297.14	581.94
297.37	615.94
297.601	614.94
297.831	597.94
298.062	598.94
298.292	605.94
298.523	629.94
298.753	627.94
298.984	624.94
299.214	632.94
299.445	624.94
299.675	628.94
299.905	640.94
300.136	639.94
300.366	670.94
300.597	655.94
300.827	661.94
301.057	660.94
301.288	644.94
301.518	639.94
301.748	641.94
301.979	662.94
302.209	657.94
302.439	647.94
302.669	654.94
302.9	640.94
303.13	644.94
303.36	666.94
303.59	680.94
303.82	660.94
304.051	690.94
304.281	653.94
304.511	665.94
304.741	683.94
304.971	691.94
305.201	716.94
305.431	725.94
305.661	699.94
305.891	675.94
306.121	666.94
306.352	690.94
306.582	650.94
306.812	651.94
307.042	653.94
307.272	675.94
307.502	650.94
307.731	678.94
307.961	678.94
308.191	638.94
308.421	678.94
308.651	681.94
308.881	657.94
309.111	676.94
309.341	702.94
309.571	705.94
309.8	682.94
310.03	704.94
310.26	722.94
310.49	745.94
310.72	699.94
310.949	694.94
311.179	688.94
311.409	687.94
311.639	686.94
311.868	702.94
312.098	681.94
312.328	692.94
312.557	710.94
312.787	709.94
313.017	726.94
313.246	759.94
313.476	722.94
313.706	768.94
313.935	757.94
314.165	742.94
314.394	742.94
314.624	737.94
314.853	747.94
315.083	725.94
315.312	763.94
315.542	723.94
315.771	738.94
316.001	737.94
316.23	726.94
316.46	725.94
316.689	763.94
316.919	743.94
317.148	745.94
317.377	733.94
317.607	746.94
317.836	750.94
318.065	728.94
318.295	723.94
318.524	758.94
318.753	743.94
318.983	737.94
319.212	763.94
319.441	765.94
319.67	749.94
319.9	747.94
320.129	743.94
320.358	755.94
320.587	770.94
320.816	744.94
321.046	786.94
321.275	779.94
321.504	774.94
321.733	758.94
321.962	785.94
322.191	754.94
322.42	765.94
322.649	778.94
322.878	773.94
323.108	776.94
323.337	800.94
323.566	782.94
323.795	818.94
324.024	810.94
324.253	783.94
324.482	797.94
324.71	788.94
324.939	795.94
325.168	798.94
325.397	799.94
325.626	810.94
325.855	787.94
326.084	818.94
326.313	813.94
326.542	790.94
326.77	818.94
326.999	814.94
327.228	826.94
327.457	837.94
327.686	817.94
327.914	839.94
328.143	844.94
328.372	831.94
328.6	825.94
328.829	840.94
329.058	817.94
329.287	833.94
329.515	839.94
329.744	835.94
329.972	832.94
330.201	857.94
330.43	836.94
330.658	845.94
330.887	868.94
331.115	843.94
331.344	873.94
331.572	897.94
331.801	894.94
332.03	858.94
332.258	902.94
332.486	898.94
332.715	920.94
332.943	916.94
333.172	908.94
333.4	916.94
333.629	923.94
333.857	975.94
334.085	942.94
334.314	967.94
334.542	972.94
334.771	1002.94
334.999	962.94
335.227	944.94
335.455	975.94
335.684	956.94
335.912	980.94
336.14	980.94
336.369	973.94
336.597	987.94
336.825	973.94
337.053	1006.94
337.281	974.94
337.51	977.94
337.738	963.94
337.966	977.94
338.194	971.94
338.422	974.94
338.65	937.94
338.878	927.94
339.106	939.94
339.334	958.94
339.562	948.94
339.79	921.94
340.018	904.94
340.246	888.94
340.474	905.94
340.702	892.94
340.93	921.94
341.158	900.94
341.386	960.94
341.614	980.94
341.842	968.94
342.07	918.94
342.298	908.94
342.526	939.94
342.754	910.94
342.981	910.94
343.209	935.94
343.437	951.94
343.665	956.94
343.893	939.94
344.12	982.94
344.348	1002.94
344.576	974.94
344.804	978.94
345.031	964.94
345.259	905.94
345.487	928.94
345.714	939.94
345.942	940.94
346.17	970.94
346.397	954.94
346.625	901.94
346.853	898.94
347.08	897.94
347.308	907.94
347.535	904.94
347.763	881.94
347.99	901.94
348.218	909.94
348.445	876.94
348.673	874.94
348.9	864.94
349.128	896.94
349.355	912.94
349.583	895.94
349.81	872.94
350.037	848.94
350.265	861.94
350.492	857.94
350.72	875.94
350.947	870.94
351.174	903.94
351.402	906.94
351.629	922.94
351.856	904.94
352.083	891.94
352.311	917.94
352.538	945.94
352.765	938.94
352.992	860.94
353.22	857.94
353.447	817.94
353.674	840.94
353.901	858.94
354.128	847.94
354.355	829.94
354.583	838.94
354.81	874.94
355.037	860.94
355.264	872.94
355.491	862.94
355.718	840.94
355.945	867.94
356.172	843.94
356.399	855.94
356.626	885.94
356.853	896.94
357.08	875.94
357.307	892.94
357.534	855.94
357.761	867.94
357.988	877.94
358.215	817.94
358.441	845.94
358.668	853.94
358.895	862.94
359.122	823.94
359.349	858.94
359.576	834.94
359.802	867.94
360.029	861.94
360.256	864.94
360.483	840.94
360.709	844.94
360.936	884.94
361.163	877.94
361.39	868.94
361.616	887.94
361.843	908.94
362.07	940.94
362.296	931.94
362.523	852.94
362.749	850.94
362.976	859.94
363.203	865.94
363.429	844.94
363.656	835.94
363.882	863.94
364.109	870.94
364.335	844.94
364.562	857.94
364.788	852.94
365.015	874.94
365.241	858.94
365.468	874.94
365.694	871.94
365.92	862.94
366.147	862.94
366.373	854.94
366.599	877.94
366.826	860.94
367.052	864.94
367.278	864.94
367.505	893.94
367.731	872.94
367.957	884.94
368.184	878.94
368.41	882.94
368.636	872.94
368.862	884.94
369.089	893.94
369.315	890.94
369.541	886.94
369.767	886.94
369.993	887.94
370.219	895.94
370.445	900.94
370.672	892.94
370.898	899.94
371.124	900.94
371.35	936.94
371.576	941.94
371.802	928.94
372.028	940.94
372.254	915.94
372.48	895.94
372.706	920.94
372.932	938.94
373.158	914.94
373.384	927.94
373.61	903.94
373.835	932.94
374.061	925.94
374.287	904.94
374.513	931.94
374.739	955.94
374.965	971.94
375.191	955.94
375.416	965.94
375.642	917.94
375.868	956.94
376.094	939.94
376.319	933.94
376.545	922.94
376.771	914.94
376.997	931.94
377.222	896.94
377.448	900.94
377.674	925.94
377.899	933.94
378.125	899.94
378.35	934.94
378.576	900.94
378.802	887.94
379.027	930.94
379.253	927.94
379.478	912.94
379.704	896.94
379.929	915.94
380.155	900.94
380.38	911.94
380.606	926.94
380.831	893.94
381.057	936.94
381.282	904.94
381.507	923.94
381.733	916.94
381.958	926.94
382.184	945.94
382.409	937.94
382.634	940.94
382.86	925.94
383.085	932.94
383.31	944.94
383.535	944.94
383.761	941.94
383.986	953.94
384.211	962.94
384.436	950.94
384.662	974.94
384.887	965.94
385.112	998.94
385.337	997.94
385.562	1008.94
385.787	1028.94
386.013	1049.94
386.238	1048.94
386.463	1014.94
386.688	1048.94
386.913	1015.94
387.138	1009.94
387.363	1023.94
387.588	1012.94
387.813	1050.94
388.038	1012.94
388.263	1025.94
388.488	1037.94
388.713	1046.94
388.938	1048.94
389.163	1028.94
389.387	1044.94
389.612	1030.94
389.837	1050.94
390.062	1055.94
390.287	1011.94
390.512	1036.94
390.736	1022.94
390.961	1046.94
391.186	1025.94
391.411	1080.94
391.636	1067.94
391.86	1082.94
392.085	1060.94
392.31	1095.94
392.534	1064.94
392.759	1073.94
392.984	1066.94
393.208	1097.94
393.433	1090.94
393.658	1042.94
393.882	1031.94
394.107	1072.94
394.331	1070.94
394.556	1086.94
394.78	1074.94
395.005	1086.94
395.229	1051.94
395.454	1089.94
395.678	1104.94
395.903	1114.94
396.127	1110.94
396.352	1080.94
396.576	1097.94
396.801	1101.94
397.025	1108.94
397.249	1125.94
397.474	1116.94
397.698	1116.94
397.922	1174.94
398.147	1154.94
398.371	1152.94
398.595	1155.94
398.82	1205.94
399.044	1240.94
399.268	1281.94
399.492	1325.94
399.717	1366.94
399.941	1377.94
400.165	1360.94
400.389	1299.94
400.613	1292.94
400.837	1267.94
401.062	1254.94
401.286	1246.94
401.51	1217.94
401.734	1213.94
401.958	1237.94
402.182	1225.94
402.406	1200.94
402.63	1224.94
402.854	1222.94
403.078	1224.94
403.302	1235.94
403.526	1222.94
403.75	1195.94
403.974	1250.94
404.198	1231.94
404.422	1216.94
404.645	1253.94
404.869	1247.94
405.093	1228.94
405.317	1261.94
405.541	1267.94
405.765	1288.94
405.988	1256.94
406.212	1301.94
406.436	1299.94
406.66	1285.94
406.883	1305.94
407.107	1353.94
407.331	1363.94
407.555	1396.94
407.778	1402.94
408.002	1392.94
408.226	1400.94
408.449	1418.94
408.673	1356.94
408.896	1337.94
409.12	1324.94
409.344	1343.94
409.567	1312.94
409.791	1292.94
410.014	1265.94
410.238	1285.94
410.461	1303.94
410.685	1315.94
410.908	1310.94
411.132	1271.94
411.355	1236.94
411.578	1271.94
411.802	1276.94
412.025	1256.94
412.249	1229.94
412.472	1244.94
412.695	1244.94
412.919	1248.94
413.142	1248.94
413.365	1211.94
413.589	1237.94
413.812	1228.94
414.035	1249.94
414.258	1185.94
414.482	1202.94
414.705	1188.94
414.928	1203.94
415.151	1242.94
415.374	1211.94
415.597	1200.94
415.821	1202.94
416.044	1190.94
416.267	1205.94
416.49	1178.94
416.713	1169.94
416.936	1172.94
417.159	1177.94
417.382	1141.94
417.605	1154.94
417.828	1154.94
418.051	1184.94
418.274	1174.94
418.497	1176.94
418.72	1173.94
418.943	1180.94
419.166	1244.94
419.389	1301.94
419.611	1290.94
419.834	1273.94
420.057	1218.94
420.28	1212.94
420.503	1181.94
420.726	1152.94
420.948	1184.94
421.171	1141.94
421.394	1152.94
421.617	1147.94
421.839	1159.94
422.062	1149.94
422.285	1115.94
422.507	1190.94
422.73	1173.94
422.953	1162.94
423.175	1160.94
423.398	1170.94
423.621	1156.94
423.843	1156.94
424.066	1156.94
424.288	1145.94
424.511	1176.94
424.733	1128.94
424.956	1138.94
425.178	1170.94
425.401	1168.94
425.623	1161.94
425.846	1161.94
426.068	1160.94
426.291	1173.94
426.513	1149.94
426.735	1149.94
426.958	1169.94
427.18	1142.94
427.402	1164.94
427.625	1141.94
427.847	1124.94
428.069	1116.94
428.292	1137.94
428.514	1113.94
428.736	1143.94
428.958	1121.94
429.181	1114.94
429.403	1127.94
429.625	1108.94
429.847	1131.94
430.069	1090.94
430.292	1096.94
430.514	1105.94
430.736	1105.94
430.958	1113.94
431.18	1110.94
431.402	1129.94
431.624	1109.94
431.846	1109.94
432.068	1157.94
432.29	1142.94
432.512	1123.94
432.734	1100.94
432.956	1122.94
433.178	1162.94
433.4	1179.94
433.622	1144.94
433.844	1178.94
434.066	1166.94
434.287	1153.94
434.509	1156.94
434.731	1186.94
434.953	1183.94
435.175	1247.94
435.397	1217.94
435.618	1143.94
435.84	1156.94
436.062	1150.94
436.284	1172.94
436.505	1150.94
436.727	1142.94
436.949	1096.94
437.17	1117.94
437.392	1138.94
437.614	1091.94
437.835	1084.94
438.057	1113.94
438.278	1048.94
438.5	1076.94
438.721	1095.94
438.943	1124.94
439.165	1108.94
439.386	1109.94
439.608	1143.94
439.829	1117.94
440.05	1099.94
440.272	1113.94
440.493	1152.94
440.715	1128.94
440.936	1123.94
441.158	1155.94
441.379	1137.94
441.6	1165.94
441.822	1192.94
442.043	1179.94
442.264	1161.94
442.486	1167.94
442.707	1204.94
442.928	1164.94
443.149	1197.94
443.371	1221.94
443.592	1267.94
443.813	1251.94
444.034	1222.94
444.255	1202.94
444.476	1241.94
444.698	1231.94
444.919	1301.94
445.14	1388.94
445.361	1313.94
445.582	1241.94
445.803	1200.94
446.024	1147.94
446.245	1170.94
446.466	1123.94
446.687	1109.94
446.908	1106.94
447.129	1097.94
447.35	1115.94
447.571	1044.94
447.792	1067.94
448.013	1059.94
448.234	1057.94
448.455	1043.94
448.675	1059.94
448.896	1016.94
449.117	1021.94
449.338	1058.94
449.559	1028.94
449.779	1018.94
450	1025.94
450.221	1016.94
450.442	1010.94
450.662	1051.94
450.883	1042.94
451.104	1084.94
451.324	1025.94
451.545	1038.94
451.766	1036.94
451.986	1017.94
452.207	1016.94
452.428	1020.94
452.648	1008.94
452.869	997.94
453.089	1028.94
453.31	1043.94
453.53	1001.94
453.751	980.94
453.971	991.94
454.192	1028.94
454.412	1042.94
454.633	1011.94
454.853	1000.94
455.073	992.94
455.294	990.94
455.514	1020.94
455.734	1039.94
455.955	1046.94
456.175	1035.94
456.395	990.94
456.616	985.94
456.836	985.94
457.056	1015.94
457.276	995.94
457.497	1029.94
457.717	1026.94
457.937	1011.94
458.157	1003.94
458.377	1038.94
458.598	1042.94
458.818	1040.94
459.038	1060.94
459.258	1099.94
459.478	1205.94
459.698	1261.94
459.918	1258.94
460.138	1244.94
460.358	1251.94
460.578	1205.94
460.798	1293.94
461.018	1293.94
461.238	1215.94
461.458	1194.94
461.678	1188.94
461.898	1185.94
462.118	1243.94
462.338	1267.94
462.558	1290.94
462.777	1342.94
462.997	1352.94
463.217	1393.94
463.437	1453.94
463.657	1395.94
463.876	1385.94
464.096	1328.94
464.316	1320.94
464.536	1295.94
464.755	1284.94
464.975	1251.94
465.195	1239.94
465.414	1204.94
465.634	1160.94
465.854	1156.94
466.073	1148.94
466.293	1125.94
466.512	1116.94
466.732	1089.94
466.951	1114.94
467.171	1093.94
467.391	1116.94
467.61	1099.94
467.829	1080.94
468.049	1081.94
468.268	1053.94
468.488	1041.94
468.707	1053.94
468.927	1054.94
469.146	1100.94
469.365	1125.94
469.585	1095.94
469.804	1064.94
470.023	1091.94
470.243	1120.94
470.462	1111.94
470.681	1094.94
470.901	1092.94
471.12	1099.94
471.339	1107.94
471.558	1100.94
471.777	1114.94
471.997	1088.94
472.216	1077.94
472.435	1059.94
472.654	1074.94
472.873	1045.94
473.092	1073.94
473.311	1068.94
473.53	1070.94
473.749	1077.94
473.968	1080.94
474.187	1060.94
474.406	1068.94
474.625	1100.94
474.844	1099.94
475.063	1085.94
475.282	1081.94
475.501	1101.94
475.72	1114.94
475.939	1106.94
476.158	1090.94
476.377	1123.94
476.596	1112.94
476.814	1156.94
477.033	1138.94
477.252	1173.94
477.471	1159.94
477.69	1168.94
477.908	1202.94
478.127	1229.94
478.346	1208.94
478.564	1229.94
478.783	1240.94
479.002	1287.94
479.22	1361.94
479.439	1315.94
479.658	1307.94
479.876	1281.94
480.095	1266.94
480.313	1300.94
480.532	1309.94
480.751	1302.94
480.969	1293.94
481.188	1264.94
481.406	1264.94
481.624	1261.94
481.843	1252.94
482.061	1246.94
482.28	1252.94
482.498	1241.94
482.717	1249.94
482.935	1286.94
483.153	1278.94
483.372	1339.94
483.59	1341.94
483.808	1314.94
484.027	1270.94
484.245	1297.94
484.463	1306.94
484.681	1321.94
484.9	1295.94
485.118	1318.94
485.336	1257.94
485.554	1307.94
485.772	1291.94
485.99	1298.94
486.209	1304.94
486.427	1334.94
486.645	1322.94
486.863	1308.94
487.081	1285.94
487.299	1319.94
487.517	1285.94
487.735	1346.94
487.953	1353.94
488.171	1333.94
488.389	1338.94
488.607	1308.94
488.825	1289.94
489.043	1320.94
489.261	1307.94
489.479	1284.94
489.696	1301.94
489.914	1286.94
490.132	1301.94
490.35	1331.94
490.568	1316.94
490.786	1300.94
491.003	1310.94
491.221	1332.94
491.439	1336.94
491.657	1314.94
491.874	1354.94
492.092	1353.94
492.31	1356.94
492.527	1341.94
492.745	1337.94
492.963	1322.94
493.18	1336.94
493.398	1352.94
493.615	1352.94
493.833	1347.94
494.05	1377.94
494.268	1366.94
494.485	1367.94
494.703	1364.94
494.92	1401.94
