Data from Ni(NO3)2@0.25M.TitratingCurve.Agarose3%dH2O.NegLispCup.LampEnergy10.LIBS07252019_HRD10591_18-05-16-566.txt Node
Date: Thu Jul 25 18:05:16 EDT 2019
User: cochatt
Spectrometer: HR+D1059
Trigger mode: 1
Integration Time (sec): 1.000000E-1
Scans to average: 1
Electric dark correction enabled: true
Nonlinearity correction enabled: false
Boxcar width: 0
XAxis mode: Wavelengths
Number of Pixels in Spectrum: 2048
>>>>>Begin Spectral Data<<<<<
223.165	-7.69
223.4	-7.69
223.635	-7.69
223.869	-12.69
224.104	-20.69
224.338	-9.69
224.573	-24.69
224.808	-17.69
225.042	-1.69
225.277	-9.69
225.511	9.31
225.746	14.31
225.98	9.31
226.215	7.31
226.449	14.31
226.683	6.31
226.918	14.31
227.152	29.31
227.387	23.31
227.621	21.31
227.856	32.31
228.09	37.31
228.324	37.31
228.559	45.31
228.793	59.31
229.027	67.31
229.262	65.31
229.496	74.31
229.73	97.31
229.964	87.31
230.199	99.31
230.433	86.31
230.667	106.31
230.901	86.31
231.136	108.31
231.37	97.31
231.604	100.31
231.838	111.31
232.072	112.31
232.306	99.31
232.541	104.31
232.775	108.31
233.009	108.31
233.243	106.31
233.477	106.31
233.711	114.31
233.945	115.31
234.179	104.31
234.413	118.31
234.647	116.31
234.881	110.31
235.115	109.31
235.349	116.31
235.583	116.31
235.817	108.31
236.051	110.31
236.285	111.31
236.519	102.31
236.753	108.31
236.987	104.31
237.221	102.31
237.455	112.31
237.689	110.31
237.922	113.31
238.156	117.31
238.39	119.31
238.624	99.31
238.858	126.31
239.091	116.31
239.325	105.31
239.559	125.31
239.793	125.31
240.027	123.31
240.26	128.31
240.494	116.31
240.728	117.31
240.961	116.31
241.195	115.31
241.429	127.31
241.662	134.31
241.896	140.31
242.13	118.31
242.363	132.31
242.597	139.31
242.83	134.31
243.064	122.31
243.298	142.31
243.531	129.31
243.765	142.31
243.998	140.31
244.232	139.31
244.465	135.31
244.699	141.31
244.932	142.31
245.166	131.31
245.399	134.31
245.633	129.31
245.866	141.31
246.099	130.31
246.333	150.31
246.566	141.31
246.8	153.31
247.033	149.31
247.266	148.31
247.5	163.31
247.733	139.31
247.966	142.31
248.2	149.31
248.433	150.31
248.666	156.31
248.899	169.31
249.133	159.31
249.366	170.31
249.599	163.31
249.832	154.31
250.066	161.31
250.299	156.31
250.532	160.31
250.765	184.31
250.998	171.31
251.231	170.31
251.465	165.31
251.698	172.31
251.931	170.31
252.164	170.31
252.397	189.31
252.63	182.31
252.863	174.31
253.096	184.31
253.329	189.31
253.562	188.31
253.795	194.31
254.028	190.31
254.261	193.31
254.494	179.31
254.727	205.31
254.96	183.31
255.193	194.31
255.426	206.31
255.659	206.31
255.892	215.31
256.124	204.31
256.357	184.31
256.59	217.31
256.823	192.31
257.056	190.31
257.289	209.31
257.521	198.31
257.754	190.31
257.987	218.31
258.22	225.31
258.452	215.31
258.685	203.31
258.918	211.31
259.151	219.31
259.383	228.31
259.616	222.31
259.849	229.31
260.081	220.31
260.314	227.31
260.547	244.31
260.779	219.31
261.012	238.31
261.244	223.31
261.477	234.31
261.71	245.31
261.942	242.31
262.175	224.31
262.407	241.31
262.64	255.31
262.872	243.31
263.105	221.31
263.337	246.31
263.57	230.31
263.802	238.31
264.035	254.31
264.267	242.31
264.499	240.31
264.732	264.31
264.964	259.31
265.197	252.31
265.429	238.31
265.661	235.31
265.894	250.31
266.126	274.31
266.358	244.31
266.591	246.31
266.823	242.31
267.055	262.31
267.287	250.31
267.52	253.31
267.752	258.31
267.984	261.31
268.216	234.31
268.448	267.31
268.681	256.31
268.913	270.31
269.145	251.31
269.377	258.31
269.609	258.31
269.841	280.31
270.073	256.31
270.306	269.31
270.538	264.31
270.77	272.31
271.002	278.31
271.234	261.31
271.466	262.31
271.698	271.31
271.93	257.31
272.162	278.31
272.394	278.31
272.626	273.31
272.858	270.31
273.09	281.31
273.322	263.31
273.553	264.31
273.785	276.31
274.017	296.31
274.249	282.31
274.481	292.31
274.713	278.31
274.945	277.31
275.176	268.31
275.408	268.31
275.64	286.31
275.872	270.31
276.104	274.31
276.335	280.31
276.567	268.31
276.799	290.31
277.031	275.31
277.262	300.31
277.494	292.31
277.726	291.31
277.957	312.31
278.189	293.31
278.421	298.31
278.652	284.31
278.884	290.31
279.115	294.31
279.347	310.31
279.579	296.31
279.81	304.31
280.042	304.31
280.273	308.31
280.505	294.31
280.736	314.31
280.968	306.31
281.199	304.31
281.431	306.31
281.662	288.31
281.894	309.31
282.125	318.31
282.356	308.31
282.588	312.31
282.819	326.31
283.051	326.31
283.282	317.31
283.513	331.31
283.745	326.31
283.976	314.31
284.207	317.31
284.439	292.31
284.67	329.31
284.901	325.31
285.132	322.31
285.364	301.31
285.595	316.31
285.826	309.31
286.057	333.31
286.288	317.31
286.52	332.31
286.751	323.31
286.982	339.31
287.213	343.31
287.444	335.31
287.675	314.31
287.906	335.31
288.138	335.31
288.369	326.31
288.6	339.31
288.831	361.31
289.062	335.31
289.293	336.31
289.524	338.31
289.755	341.31
289.986	330.31
290.217	334.31
290.448	332.31
290.679	332.31
290.91	333.31
291.141	336.31
291.371	352.31
291.602	352.31
291.833	351.31
292.064	335.31
292.295	336.31
292.526	336.31
292.757	333.31
292.987	338.31
293.218	339.31
293.449	340.31
293.68	335.31
293.91	311.31
294.141	347.31
294.372	326.31
294.603	341.31
294.833	339.31
295.064	333.31
295.295	343.31
295.525	336.31
295.756	348.31
295.987	325.31
296.217	361.31
296.448	359.31
296.679	362.31
296.909	364.31
297.14	371.31
297.37	356.31
297.601	348.31
297.831	343.31
298.062	359.31
298.292	376.31
298.523	384.31
298.753	357.31
298.984	367.31
299.214	354.31
299.445	348.31
299.675	371.31
299.905	352.31
300.136	362.31
300.366	359.31
300.597	381.31
300.827	376.31
301.057	394.31
301.288	378.31
301.518	375.31
301.748	369.31
301.979	392.31
302.209	403.31
302.439	372.31
302.669	381.31
302.9	372.31
303.13	373.31
303.36	374.31
303.59	366.31
303.82	381.31
304.051	396.31
304.281	402.31
304.511	368.31
304.741	378.31
304.971	400.31
305.201	385.31
305.431	389.31
305.661	372.31
305.891	368.31
306.121	384.31
306.352	372.31
306.582	372.31
306.812	368.31
307.042	367.31
307.272	379.31
307.502	363.31
307.731	384.31
307.961	382.31
308.191	385.31
308.421	381.31
308.651	384.31
308.881	376.31
309.111	394.31
309.341	389.31
309.571	386.31
309.8	398.31
310.03	390.31
310.26	407.31
310.49	406.31
310.72	415.31
310.949	374.31
311.179	400.31
311.409	406.31
311.639	392.31
311.868	406.31
312.098	402.31
312.328	396.31
312.557	408.31
312.787	411.31
313.017	410.31
313.246	434.31
313.476	430.31
313.706	410.31
313.935	424.31
314.165	427.31
314.394	420.31
314.624	442.31
314.853	418.31
315.083	404.31
315.312	415.31
315.542	422.31
315.771	412.31
316.001	413.31
316.23	413.31
316.46	443.31
316.689	430.31
316.919	429.31
317.148	403.31
317.377	408.31
317.607	392.31
317.836	435.31
318.065	428.31
318.295	416.31
318.524	421.31
318.753	438.31
318.983	438.31
319.212	439.31
319.441	426.31
319.67	429.31
319.9	439.31
320.129	430.31
320.358	452.31
320.587	450.31
320.816	447.31
321.046	455.31
321.275	446.31
321.504	418.31
321.733	448.31
321.962	462.31
322.191	456.31
322.42	458.31
322.649	467.31
322.878	429.31
323.108	460.31
323.337	468.31
323.566	452.31
323.795	485.31
324.024	467.31
324.253	464.31
324.482	493.31
324.71	479.31
324.939	477.31
325.168	491.31
325.397	489.31
325.626	482.31
325.855	488.31
326.084	496.31
326.313	494.31
326.542	524.31
326.77	493.31
326.999	500.31
327.228	531.31
327.457	519.31
327.686	493.31
327.914	511.31
328.143	510.31
328.372	528.31
328.6	535.31
328.829	510.31
329.058	514.31
329.287	508.31
329.515	505.31
329.744	509.31
329.972	530.31
330.201	526.31
330.43	537.31
330.658	553.31
330.887	554.31
331.115	557.31
331.344	560.31
331.572	568.31
331.801	563.31
332.03	570.31
332.258	584.31
332.486	586.31
332.715	636.31
332.943	654.31
333.172	688.31
333.4	673.31
333.629	686.31
333.857	692.31
334.085	676.31
334.314	692.31
334.542	680.31
334.771	715.31
334.999	691.31
335.227	693.31
335.455	659.31
335.684	652.31
335.912	652.31
336.14	663.31
336.369	653.31
336.597	665.31
336.825	648.31
337.053	662.31
337.281	626.31
337.51	621.31
337.738	631.31
337.966	630.31
338.194	594.31
338.422	597.31
338.65	603.31
338.878	591.31
339.106	619.31
339.334	596.31
339.562	615.31
339.79	584.31
340.018	562.31
340.246	562.31
340.474	577.31
340.702	568.31
340.93	568.31
341.158	566.31
341.386	587.31
341.614	591.31
341.842	609.31
342.07	558.31
342.298	570.31
342.526	557.31
342.754	565.31
342.981	564.31
343.209	580.31
343.437	621.31
343.665	636.31
343.893	674.31
344.12	688.31
344.348	647.31
344.576	636.31
344.804	624.31
345.031	615.31
345.259	600.31
345.487	595.31
345.714	591.31
345.942	605.31
346.17	599.31
346.397	584.31
346.625	561.31
346.853	570.31
347.08	539.31
347.308	573.31
347.535	554.31
347.763	562.31
347.99	544.31
348.218	555.31
348.445	558.31
348.673	558.31
348.9	559.31
349.128	557.31
349.355	540.31
349.583	558.31
349.81	536.31
350.037	556.31
350.265	559.31
350.492	525.31
350.72	554.31
350.947	532.31
351.174	535.31
351.402	538.31
351.629	542.31
351.856	544.31
352.083	524.31
352.311	532.31
352.538	543.31
352.765	568.31
352.992	530.31
353.22	536.31
353.447	539.31
353.674	521.31
353.901	531.31
354.128	534.31
354.355	540.31
354.583	534.31
354.81	532.31
355.037	544.31
355.264	531.31
355.491	530.31
355.718	536.31
355.945	528.31
356.172	544.31
356.399	540.31
356.626	550.31
356.853	545.31
357.08	541.31
357.307	537.31
357.534	545.31
357.761	543.31
357.988	528.31
358.215	524.31
358.441	540.31
358.668	526.31
358.895	525.31
359.122	511.31
359.349	562.31
359.576	537.31
359.802	538.31
360.029	529.31
360.256	528.31
360.483	519.31
360.709	518.31
360.936	561.31
361.163	538.31
361.39	528.31
361.616	529.31
361.843	529.31
362.07	566.31
362.296	541.31
362.523	559.31
362.749	565.31
362.976	526.31
363.203	523.31
363.429	531.31
363.656	532.31
363.882	531.31
364.109	541.31
364.335	527.31
364.562	506.31
364.788	531.31
365.015	521.31
365.241	504.31
365.468	541.31
365.694	526.31
365.92	524.31
366.147	530.31
366.373	508.31
366.599	526.31
366.826	530.31
367.052	521.31
367.278	558.31
367.505	526.31
367.731	519.31
367.957	536.31
368.184	542.31
368.41	547.31
368.636	522.31
368.862	524.31
369.089	560.31
369.315	524.31
369.541	540.31
369.767	554.31
369.993	536.31
370.219	549.31
370.445	570.31
370.672	557.31
370.898	550.31
371.124	558.31
371.35	527.31
371.576	579.31
371.802	575.31
372.028	568.31
372.254	563.31
372.48	562.31
372.706	586.31
372.932	588.31
373.158	594.31
373.384	596.31
373.61	575.31
373.835	565.31
374.061	572.31
374.287	596.31
374.513	586.31
374.739	601.31
374.965	630.31
375.191	602.31
375.416	596.31
375.642	595.31
375.868	603.31
376.094	596.31
376.319	578.31
376.545	544.31
376.771	542.31
376.997	546.31
377.222	555.31
377.448	565.31
377.674	528.31
377.899	579.31
378.125	569.31
378.35	555.31
378.576	541.31
378.802	549.31
379.027	535.31
379.253	527.31
379.478	556.31
379.704	555.31
379.929	519.31
380.155	547.31
380.38	543.31
380.606	566.31
380.831	548.31
381.057	562.31
381.282	556.31
381.507	534.31
381.733	564.31
381.958	571.31
382.184	570.31
382.409	550.31
382.634	558.31
382.86	548.31
383.085	590.31
383.31	595.31
383.535	598.31
383.761	597.31
383.986	622.31
384.211	622.31
384.436	648.31
384.662	628.31
384.887	634.31
385.112	636.31
385.337	660.31
385.562	638.31
385.787	638.31
386.013	641.31
386.238	644.31
386.463	642.31
386.688	666.31
386.913	631.31
387.138	642.31
387.363	634.31
387.588	616.31
387.813	662.31
388.038	658.31
388.263	655.31
388.488	660.31
388.713	656.31
388.938	638.31
389.163	632.31
389.387	624.31
389.612	634.31
389.837	644.31
390.062	635.31
390.287	642.31
390.512	640.31
390.736	641.31
390.961	655.31
391.186	675.31
391.411	694.31
391.636	708.31
391.86	706.31
392.085	735.31
392.31	739.31
392.534	733.31
392.759	711.31
392.984	699.31
393.208	691.31
393.433	683.31
393.658	701.31
393.882	677.31
394.107	695.31
394.331	700.31
394.556	709.31
394.78	704.31
395.005	718.31
395.229	689.31
395.454	714.31
395.678	713.31
395.903	738.31
396.127	722.31
396.352	694.31
396.576	679.31
396.801	707.31
397.025	702.31
397.249	720.31
397.474	732.31
397.698	723.31
397.922	749.31
398.147	749.31
398.371	771.31
398.595	776.31
398.82	830.31
399.044	894.31
399.268	932.31
399.492	1062.31
399.717	1142.31
399.941	1162.31
400.165	1045.31
400.389	984.31
400.613	930.31
400.837	910.31
401.062	865.31
401.286	851.31
401.51	827.31
401.734	793.31
401.958	819.31
402.182	829.31
402.406	852.31
402.63	834.31
402.854	880.31
403.078	881.31
403.302	874.31
403.526	887.31
403.75	882.31
403.974	925.31
404.198	904.31
404.422	920.31
404.645	923.31
404.869	916.31
405.093	922.31
405.317	890.31
405.541	914.31
405.765	911.31
405.988	896.31
406.212	912.31
406.436	893.31
406.66	924.31
406.883	924.31
407.107	996.31
407.331	1045.31
407.555	1064.31
407.778	1061.31
408.002	1037.31
408.226	1000.31
408.449	983.31
408.673	968.31
408.896	954.31
409.12	920.31
409.344	907.31
409.567	955.31
409.791	946.31
410.014	936.31
410.238	898.31
410.461	889.31
410.685	883.31
410.908	904.31
411.132	871.31
411.355	850.31
411.578	880.31
411.802	858.31
412.025	858.31
412.249	871.31
412.472	897.31
412.695	868.31
412.919	826.31
413.142	851.31
413.365	822.31
413.589	846.31
413.812	842.31
414.035	834.31
414.258	836.31
414.482	835.31
414.705	829.31
414.928	845.31
415.151	862.31
415.374	847.31
415.597	835.31
415.821	822.31
416.044	799.31
416.267	832.31
416.49	834.31
416.713	840.31
416.936	817.31
417.159	826.31
417.382	820.31
417.605	844.31
417.828	806.31
418.051	837.31
418.274	837.31
418.497	859.31
418.72	850.31
418.943	874.31
419.166	894.31
419.389	959.31
419.611	943.31
419.834	910.31
420.057	880.31
420.28	864.31
420.503	815.31
420.726	841.31
420.948	804.31
421.171	825.31
421.394	842.31
421.617	884.31
421.839	849.31
422.062	846.31
422.285	823.31
422.507	871.31
422.73	862.31
422.953	845.31
423.175	850.31
423.398	869.31
423.621	862.31
423.843	887.31
424.066	883.31
424.288	899.31
424.511	876.31
424.733	842.31
424.956	871.31
425.178	879.31
425.401	860.31
425.623	859.31
425.846	859.31
426.068	814.31
426.291	836.31
426.513	816.31
426.735	810.31
426.958	810.31
427.18	771.31
427.402	784.31
427.625	803.31
427.847	801.31
428.069	782.31
428.292	789.31
428.514	765.31
428.736	802.31
428.958	782.31
429.181	749.31
429.403	764.31
429.625	780.31
429.847	750.31
430.069	767.31
430.292	770.31
430.514	760.31
430.736	781.31
430.958	757.31
431.18	769.31
431.402	762.31
431.624	768.31
431.846	767.31
432.068	774.31
432.29	769.31
432.512	758.31
432.734	774.31
432.956	784.31
433.178	776.31
433.4	795.31
433.622	794.31
433.844	805.31
434.066	790.31
434.287	796.31
434.509	818.31
434.731	838.31
434.953	853.31
435.175	876.31
435.397	860.31
435.618	847.31
435.84	804.31
436.062	790.31
436.284	784.31
436.505	794.31
436.727	784.31
436.949	791.31
437.17	774.31
437.392	777.31
437.614	778.31
437.835	741.31
438.057	752.31
438.278	750.31
438.5	802.31
438.721	796.31
438.943	738.31
439.165	754.31
439.386	773.31
439.608	808.31
439.829	783.31
440.05	768.31
440.272	819.31
440.493	797.31
440.715	801.31
440.936	828.31
441.158	826.31
441.379	862.31
441.6	878.31
441.822	903.31
442.043	873.31
442.264	878.31
442.486	849.31
442.707	852.31
442.928	866.31
443.149	851.31
443.371	862.31
443.592	853.31
443.813	879.31
444.034	898.31
444.255	926.31
444.476	931.31
444.698	997.31
444.919	993.31
445.14	1108.31
445.361	1012.31
445.582	919.31
445.803	865.31
446.024	835.31
446.245	834.31
446.466	832.31
446.687	815.31
446.908	802.31
447.129	800.31
447.35	783.31
447.571	772.31
447.792	722.31
448.013	739.31
448.234	743.31
448.455	753.31
448.675	751.31
448.896	738.31
449.117	700.31
449.338	727.31
449.559	709.31
449.779	735.31
450	748.31
450.221	743.31
450.442	711.31
450.662	727.31
450.883	777.31
451.104	752.31
451.324	712.31
451.545	736.31
451.766	717.31
451.986	716.31
452.207	719.31
452.428	724.31
452.648	720.31
452.869	708.31
453.089	682.31
453.31	712.31
453.53	700.31
453.751	687.31
453.971	705.31
454.192	682.31
454.412	664.31
454.633	697.31
454.853	683.31
455.073	706.31
455.294	674.31
455.514	682.31
455.734	685.31
455.955	675.31
456.175	676.31
456.395	683.31
456.616	682.31
456.836	680.31
457.056	700.31
457.276	676.31
457.497	673.31
457.717	680.31
457.937	685.31
458.157	675.31
458.377	705.31
458.598	724.31
458.818	733.31
459.038	750.31
459.258	756.31
459.478	794.31
459.698	846.31
459.918	856.31
460.138	848.31
460.358	880.31
460.578	882.31
460.798	931.31
461.018	887.31
461.238	891.31
461.458	924.31
461.678	914.31
461.898	956.31
462.118	936.31
462.338	978.31
462.558	999.31
462.777	1057.31
462.997	1110.31
463.217	1188.31
463.437	1187.31
463.657	1097.31
463.876	1066.31
464.096	1100.31
464.316	1037.31
464.536	1078.31
464.755	1043.31
464.975	1000.31
465.195	926.31
465.414	886.31
465.634	852.31
465.854	820.31
466.073	817.31
466.293	782.31
466.512	779.31
466.732	770.31
466.951	786.31
467.171	756.31
467.391	767.31
467.61	775.31
467.829	778.31
468.049	739.31
468.268	741.31
468.488	730.31
468.707	716.31
468.927	724.31
469.146	733.31
469.365	735.31
469.585	753.31
469.804	775.31
470.023	758.31
470.243	776.31
470.462	781.31
470.681	786.31
470.901	792.31
471.12	780.31
471.339	767.31
471.558	739.31
471.777	750.31
471.997	758.31
472.216	739.31
472.435	704.31
472.654	712.31
472.873	718.31
473.092	718.31
473.311	699.31
473.53	719.31
473.749	718.31
473.968	719.31
474.187	717.31
474.406	726.31
474.625	732.31
474.844	703.31
475.063	748.31
475.282	714.31
475.501	739.31
475.72	720.31
475.939	725.31
476.158	744.31
476.377	749.31
476.596	746.31
476.814	775.31
477.033	746.31
477.252	770.31
477.471	785.31
477.69	802.31
477.908	822.31
478.127	877.31
478.346	837.31
478.564	861.31
478.783	869.31
479.002	876.31
479.22	908.31
479.439	882.31
479.658	862.31
479.876	904.31
480.095	902.31
480.313	939.31
480.532	945.31
480.751	950.31
480.969	870.31
481.188	865.31
481.406	863.31
481.624	826.31
481.843	828.31
482.061	820.31
482.28	831.31
482.498	824.31
482.717	798.31
482.935	804.31
483.153	820.31
483.372	797.31
483.59	824.31
483.808	816.31
484.027	816.31
484.245	831.31
484.463	818.31
484.681	819.31
484.9	827.31
485.118	848.31
485.336	847.31
485.554	833.31
485.772	845.31
485.99	832.31
486.209	839.31
486.427	834.31
486.645	832.31
486.863	839.31
487.081	875.31
487.299	846.31
487.517	842.31
487.735	869.31
487.953	871.31
488.171	878.31
488.389	861.31
488.607	835.31
488.825	830.31
489.043	823.31
489.261	847.31
489.479	838.31
489.696	848.31
489.914	843.31
490.132	866.31
490.35	871.31
490.568	859.31
490.786	897.31
491.003	885.31
491.221	853.31
491.439	886.31
491.657	887.31
491.874	888.31
492.092	885.31
492.31	894.31
492.527	882.31
492.745	895.31
492.963	905.31
493.18	878.31
493.398	910.31
493.615	908.31
493.833	934.31
494.05	924.31
494.268	912.31
494.485	911.31
494.703	933.31
494.92	914.31
495.138	938.31
495.355	916.31
495.573	925.31
495.79	934.31
496.008	959.31
496.225	944.31
496.442	956.31
496.66	987.31
496.877	1009.31
497.094	1014.31
497.312	1029.31
497.529	1055.31
497.746	1072.31
497.963	1098.31
498.181	1134.31
498.398	1195.31
498.615	1258.31
498.832	1338.31
499.049	1427.31
499.267	1522.31
499.484	1639.31
499.701	1812.31
499.918	1911.31
500.135	2194.31
500.352	2412.31
500.569	2522.31
500.786	2444.31
501.003	2302.31
501.22	2126.31
