Data from Ni(NO3)2@0.25M.TitratingCurve.Agarose3%dH2O.NegLispCup.LampEnergy10.LIBS07252019_HRD10591_18-03-53-566.txt Node
Date: Thu Jul 25 18:03:53 EDT 2019
User: cochatt
Spectrometer: HR+D1059
Trigger mode: 1
Integration Time (sec): 1.000000E-1
Scans to average: 1
Electric dark correction enabled: true
Nonlinearity correction enabled: false
Boxcar width: 0
XAxis mode: Wavelengths
Number of Pixels in Spectrum: 2048
>>>>>Begin Spectral Data<<<<<
223.165	-35.81
223.4	-35.81
223.635	-35.81
223.869	-21.81
224.104	-23.81
224.338	-11.81
224.573	-19.81
224.808	-17.81
225.042	6.19
225.277	10.19
225.511	-3.81
225.746	12.19
225.98	12.19
226.215	1.19
226.449	6.19
226.683	31.19
226.918	21.19
227.152	34.19
227.387	39.19
227.621	62.19
227.856	55.19
228.09	40.19
228.324	37.19
228.559	60.19
228.793	54.19
229.027	75.19
229.262	81.19
229.496	92.19
229.73	87.19
229.964	79.19
230.199	98.19
230.433	90.19
230.667	109.19
230.901	99.19
231.136	102.19
231.37	92.19
231.604	105.19
231.838	101.19
232.072	95.19
232.306	99.19
232.541	95.19
232.775	105.19
233.009	92.19
233.243	125.19
233.477	105.19
233.711	115.19
233.945	113.19
234.179	104.19
234.413	111.19
234.647	111.19
234.881	103.19
235.115	111.19
235.349	117.19
235.583	103.19
235.817	125.19
236.051	106.19
236.285	111.19
236.519	103.19
236.753	116.19
236.987	107.19
237.221	92.19
237.455	123.19
237.689	92.19
237.922	114.19
238.156	111.19
238.39	103.19
238.624	114.19
238.858	103.19
239.091	127.19
239.325	87.19
239.559	122.19
239.793	132.19
240.027	121.19
240.26	114.19
240.494	123.19
240.728	118.19
240.961	116.19
241.195	118.19
241.429	127.19
241.662	115.19
241.896	112.19
242.13	122.19
242.363	115.19
242.597	103.19
242.83	114.19
243.064	126.19
243.298	135.19
243.531	116.19
243.765	125.19
243.998	114.19
244.232	122.19
244.465	137.19
244.699	132.19
244.932	132.19
245.166	120.19
245.399	129.19
245.633	129.19
245.866	136.19
246.099	138.19
246.333	136.19
246.566	135.19
246.8	140.19
247.033	123.19
247.266	140.19
247.5	138.19
247.733	136.19
247.966	145.19
248.2	151.19
248.433	150.19
248.666	136.19
248.899	150.19
249.133	155.19
249.366	159.19
249.599	139.19
249.832	152.19
250.066	160.19
250.299	159.19
250.532	156.19
250.765	155.19
250.998	126.19
251.231	164.19
251.465	164.19
251.698	171.19
251.931	175.19
252.164	180.19
252.397	156.19
252.63	178.19
252.863	169.19
253.096	177.19
253.329	177.19
253.562	180.19
253.795	187.19
254.028	165.19
254.261	183.19
254.494	180.19
254.727	191.19
254.96	193.19
255.193	163.19
255.426	187.19
255.659	195.19
255.892	179.19
256.124	192.19
256.357	184.19
256.59	204.19
256.823	186.19
257.056	188.19
257.289	189.19
257.521	195.19
257.754	216.19
257.987	198.19
258.22	198.19
258.452	208.19
258.685	193.19
258.918	185.19
259.151	215.19
259.383	213.19
259.616	203.19
259.849	220.19
260.081	212.19
260.314	228.19
260.547	212.19
260.779	218.19
261.012	214.19
261.244	231.19
261.477	221.19
261.71	204.19
261.942	226.19
262.175	215.19
262.407	223.19
262.64	231.19
262.872	223.19
263.105	227.19
263.337	241.19
263.57	234.19
263.802	227.19
264.035	231.19
264.267	237.19
264.499	229.19
264.732	226.19
264.964	225.19
265.197	233.19
265.429	236.19
265.661	218.19
265.894	242.19
266.126	244.19
266.358	218.19
266.591	230.19
266.823	249.19
267.055	239.19
267.287	244.19
267.52	239.19
267.752	241.19
267.984	265.19
268.216	236.19
268.448	250.19
268.681	264.19
268.913	248.19
269.145	248.19
269.377	239.19
269.609	259.19
269.841	249.19
270.073	257.19
270.306	263.19
270.538	250.19
270.77	241.19
271.002	253.19
271.234	255.19
271.466	265.19
271.698	249.19
271.93	263.19
272.162	246.19
272.394	276.19
272.626	269.19
272.858	282.19
273.09	263.19
273.322	239.19
273.553	255.19
273.785	257.19
274.017	255.19
274.249	270.19
274.481	263.19
274.713	244.19
274.945	260.19
275.176	274.19
275.408	270.19
275.64	261.19
275.872	282.19
276.104	261.19
276.335	262.19
276.567	257.19
276.799	267.19
277.031	277.19
277.262	271.19
277.494	272.19
277.726	253.19
277.957	268.19
278.189	261.19
278.421	297.19
278.652	268.19
278.884	272.19
279.115	274.19
279.347	296.19
279.579	277.19
279.81	266.19
280.042	282.19
280.273	265.19
280.505	276.19
280.736	279.19
280.968	277.19
281.199	303.19
281.431	298.19
281.662	285.19
281.894	292.19
282.125	290.19
282.356	278.19
282.588	280.19
282.819	276.19
283.051	282.19
283.282	275.19
283.513	295.19
283.745	298.19
283.976	308.19
284.207	307.19
284.439	295.19
284.67	285.19
284.901	300.19
285.132	280.19
285.364	294.19
285.595	279.19
285.826	298.19
286.057	290.19
286.288	289.19
286.52	291.19
286.751	306.19
286.982	288.19
287.213	300.19
287.444	284.19
287.675	298.19
287.906	293.19
288.138	303.19
288.369	277.19
288.6	300.19
288.831	297.19
289.062	314.19
289.293	296.19
289.524	300.19
289.755	286.19
289.986	314.19
290.217	290.19
290.448	305.19
290.679	287.19
290.91	299.19
291.141	300.19
291.371	307.19
291.602	283.19
291.833	331.19
292.064	310.19
292.295	289.19
292.526	289.19
292.757	300.19
292.987	298.19
293.218	303.19
293.449	297.19
293.68	315.19
293.91	291.19
294.141	308.19
294.372	290.19
294.603	312.19
294.833	304.19
295.064	290.19
295.295	300.19
295.525	284.19
295.756	314.19
295.987	295.19
296.217	323.19
296.448	294.19
296.679	297.19
296.909	302.19
297.14	314.19
297.37	317.19
297.601	300.19
297.831	305.19
298.062	315.19
298.292	324.19
298.523	349.19
298.753	324.19
298.984	316.19
299.214	322.19
299.445	336.19
299.675	329.19
299.905	330.19
300.136	313.19
300.366	326.19
300.597	315.19
300.827	328.19
301.057	332.19
301.288	306.19
301.518	314.19
301.748	331.19
301.979	350.19
302.209	351.19
302.439	335.19
302.669	317.19
302.9	334.19
303.13	333.19
303.36	358.19
303.59	334.19
303.82	344.19
304.051	340.19
304.281	331.19
304.511	337.19
304.741	347.19
304.971	329.19
305.201	352.19
305.431	355.19
305.661	348.19
305.891	327.19
306.121	348.19
306.352	349.19
306.582	344.19
306.812	332.19
307.042	333.19
307.272	340.19
307.502	345.19
307.731	332.19
307.961	354.19
308.191	352.19
308.421	365.19
308.651	351.19
308.881	336.19
309.111	340.19
309.341	343.19
309.571	352.19
309.8	343.19
310.03	361.19
310.26	363.19
310.49	342.19
310.72	361.19
310.949	340.19
311.179	347.19
311.409	344.19
311.639	377.19
311.868	355.19
312.098	369.19
312.328	353.19
312.557	370.19
312.787	359.19
313.017	367.19
313.246	407.19
313.476	388.19
313.706	380.19
313.935	371.19
314.165	402.19
314.394	378.19
314.624	402.19
314.853	369.19
315.083	390.19
315.312	394.19
315.542	385.19
315.771	391.19
316.001	384.19
316.23	384.19
316.46	406.19
316.689	397.19
316.919	397.19
317.148	376.19
317.377	394.19
317.607	383.19
317.836	392.19
318.065	401.19
318.295	387.19
318.524	389.19
318.753	409.19
318.983	410.19
319.212	395.19
319.441	416.19
319.67	411.19
319.9	404.19
320.129	424.19
320.358	401.19
320.587	412.19
320.816	410.19
321.046	423.19
321.275	425.19
321.504	410.19
321.733	434.19
321.962	429.19
322.191	441.19
322.42	429.19
322.649	431.19
322.878	425.19
323.108	428.19
323.337	460.19
323.566	451.19
323.795	476.19
324.024	453.19
324.253	453.19
324.482	466.19
324.71	484.19
324.939	472.19
325.168	457.19
325.397	462.19
325.626	465.19
325.855	461.19
326.084	479.19
326.313	479.19
326.542	473.19
326.77	501.19
326.999	499.19
327.228	482.19
327.457	489.19
327.686	486.19
327.914	491.19
328.143	503.19
328.372	520.19
328.6	490.19
328.829	512.19
329.058	519.19
329.287	503.19
329.515	503.19
329.744	511.19
329.972	496.19
330.201	521.19
330.43	542.19
330.658	524.19
330.887	546.19
331.115	529.19
331.344	523.19
331.572	551.19
331.801	550.19
332.03	567.19
332.258	559.19
332.486	563.19
332.715	581.19
332.943	597.19
333.172	617.19
333.4	613.19
333.629	609.19
333.857	623.19
334.085	624.19
334.314	649.19
334.542	620.19
334.771	649.19
334.999	639.19
335.227	635.19
335.455	665.19
335.684	635.19
335.912	630.19
336.14	644.19
336.369	634.19
336.597	635.19
336.825	628.19
337.053	641.19
337.281	609.19
337.51	611.19
337.738	621.19
337.966	608.19
338.194	602.19
338.422	616.19
338.65	599.19
338.878	598.19
339.106	604.19
339.334	593.19
339.562	587.19
339.79	565.19
340.018	566.19
340.246	552.19
340.474	556.19
340.702	581.19
340.93	564.19
341.158	599.19
341.386	608.19
341.614	594.19
341.842	596.19
342.07	561.19
342.298	572.19
342.526	601.19
342.754	584.19
342.981	570.19
343.209	585.19
343.437	594.19
343.665	614.19
343.893	652.19
344.12	627.19
344.348	617.19
344.576	648.19
344.804	627.19
345.031	595.19
345.259	608.19
345.487	595.19
345.714	588.19
345.942	589.19
346.17	603.19
346.397	568.19
346.625	554.19
346.853	573.19
347.08	578.19
347.308	568.19
347.535	582.19
347.763	565.19
347.99	573.19
348.218	547.19
348.445	565.19
348.673	561.19
348.9	559.19
349.128	556.19
349.355	557.19
349.583	569.19
349.81	545.19
350.037	536.19
350.265	555.19
350.492	525.19
350.72	545.19
350.947	519.19
351.174	553.19
351.402	580.19
351.629	551.19
351.856	541.19
352.083	530.19
352.311	552.19
352.538	573.19
352.765	555.19
352.992	537.19
353.22	519.19
353.447	530.19
353.674	526.19
353.901	547.19
354.128	501.19
354.355	525.19
354.583	524.19
354.81	545.19
355.037	533.19
355.264	539.19
355.491	523.19
355.718	537.19
355.945	529.19
356.172	527.19
356.399	507.19
356.626	531.19
356.853	538.19
357.08	549.19
357.307	526.19
357.534	560.19
357.761	532.19
357.988	549.19
358.215	545.19
358.441	533.19
358.668	516.19
358.895	563.19
359.122	519.19
359.349	513.19
359.576	529.19
359.802	537.19
360.029	539.19
360.256	531.19
360.483	544.19
360.709	528.19
360.936	539.19
361.163	532.19
361.39	529.19
361.616	526.19
361.843	564.19
362.07	568.19
362.296	538.19
362.523	500.19
362.749	541.19
362.976	518.19
363.203	527.19
363.429	521.19
363.656	517.19
363.882	525.19
364.109	504.19
364.335	524.19
364.562	539.19
364.788	521.19
365.015	525.19
365.241	532.19
365.468	533.19
365.694	526.19
365.92	534.19
366.147	502.19
366.373	524.19
366.599	524.19
366.826	526.19
367.052	515.19
367.278	530.19
367.505	531.19
367.731	539.19
367.957	513.19
368.184	530.19
368.41	522.19
368.636	524.19
368.862	512.19
369.089	532.19
369.315	520.19
369.541	540.19
369.767	522.19
369.993	531.19
370.219	553.19
370.445	545.19
370.672	560.19
370.898	549.19
371.124	544.19
371.35	565.19
371.576	535.19
371.802	556.19
372.028	547.19
372.254	544.19
372.48	558.19
372.706	557.19
372.932	533.19
373.158	560.19
373.384	574.19
373.61	534.19
373.835	568.19
374.061	539.19
374.287	566.19
374.513	546.19
374.739	586.19
374.965	561.19
375.191	583.19
375.416	577.19
375.642	556.19
375.868	555.19
376.094	571.19
376.319	529.19
376.545	544.19
376.771	535.19
376.997	542.19
377.222	535.19
377.448	537.19
377.674	538.19
377.899	539.19
378.125	515.19
378.35	544.19
378.576	519.19
378.802	515.19
379.027	531.19
379.253	516.19
379.478	542.19
379.704	541.19
379.929	538.19
380.155	524.19
380.38	530.19
380.606	517.19
380.831	556.19
381.057	519.19
381.282	515.19
381.507	544.19
381.733	527.19
381.958	543.19
382.184	536.19
382.409	543.19
382.634	562.19
382.86	557.19
383.085	554.19
383.31	551.19
383.535	565.19
383.761	580.19
383.986	556.19
384.211	594.19
384.436	595.19
384.662	570.19
384.887	583.19
385.112	583.19
385.337	584.19
385.562	591.19
385.787	588.19
386.013	641.19
386.238	627.19
386.463	602.19
386.688	619.19
386.913	610.19
387.138	612.19
387.363	589.19
387.588	616.19
387.813	611.19
388.038	619.19
388.263	602.19
388.488	595.19
388.713	598.19
388.938	625.19
389.163	604.19
389.387	605.19
389.612	600.19
389.837	603.19
390.062	615.19
390.287	621.19
390.512	605.19
390.736	621.19
390.961	608.19
391.186	650.19
391.411	636.19
391.636	657.19
391.86	667.19
392.085	657.19
392.31	655.19
392.534	659.19
392.759	661.19
392.984	653.19
393.208	667.19
393.433	637.19
393.658	650.19
393.882	645.19
394.107	666.19
394.331	632.19
394.556	633.19
394.78	639.19
395.005	661.19
395.229	635.19
395.454	671.19
395.678	669.19
395.903	687.19
396.127	680.19
396.352	643.19
396.576	626.19
396.801	661.19
397.025	685.19
397.249	651.19
397.474	678.19
397.698	708.19
397.922	704.19
398.147	688.19
398.371	713.19
398.595	735.19
398.82	733.19
399.044	771.19
399.268	839.19
399.492	902.19
399.717	943.19
399.941	940.19
400.165	893.19
400.389	863.19
400.613	823.19
400.837	804.19
401.062	773.19
401.286	768.19
401.51	780.19
401.734	741.19
401.958	776.19
402.182	783.19
402.406	764.19
402.63	758.19
402.854	788.19
403.078	791.19
403.302	771.19
403.526	769.19
403.75	792.19
403.974	818.19
404.198	799.19
404.422	794.19
404.645	802.19
404.869	800.19
405.093	818.19
405.317	807.19
405.541	796.19
405.765	796.19
405.988	811.19
406.212	810.19
406.436	835.19
406.66	832.19
406.883	859.19
407.107	883.19
407.331	906.19
407.555	940.19
407.778	935.19
408.002	950.19
408.226	923.19
408.449	884.19
408.673	882.19
408.896	844.19
409.12	838.19
409.344	856.19
409.567	868.19
409.791	852.19
410.014	855.19
410.238	830.19
410.461	827.19
410.685	828.19
410.908	792.19
411.132	808.19
411.355	804.19
411.578	820.19
411.802	809.19
412.025	789.19
412.249	821.19
412.472	826.19
412.695	803.19
412.919	815.19
413.142	807.19
413.365	812.19
413.589	799.19
413.812	770.19
414.035	793.19
414.258	803.19
414.482	815.19
414.705	810.19
414.928	786.19
415.151	796.19
415.374	798.19
415.597	766.19
415.821	799.19
416.044	765.19
416.267	777.19
416.49	775.19
416.713	760.19
416.936	769.19
417.159	795.19
417.382	754.19
417.605	770.19
417.828	778.19
418.051	778.19
418.274	773.19
418.497	794.19
418.72	785.19
418.943	786.19
419.166	821.19
419.389	899.19
419.611	867.19
419.834	838.19
420.057	811.19
420.28	789.19
420.503	816.19
420.726	791.19
420.948	808.19
421.171	788.19
421.394	817.19
421.617	775.19
421.839	789.19
422.062	815.19
422.285	803.19
422.507	811.19
422.73	807.19
422.953	798.19
423.175	794.19
423.398	803.19
423.621	801.19
423.843	810.19
424.066	836.19
424.288	827.19
424.511	815.19
424.733	824.19
424.956	821.19
425.178	802.19
425.401	787.19
425.623	789.19
425.846	785.19
426.068	811.19
426.291	797.19
426.513	788.19
426.735	799.19
426.958	771.19
427.18	743.19
427.402	759.19
427.625	775.19
427.847	762.19
428.069	746.19
428.292	778.19
428.514	752.19
428.736	760.19
428.958	769.19
429.181	758.19
429.403	738.19
429.625	740.19
429.847	756.19
430.069	733.19
430.292	773.19
430.514	728.19
430.736	740.19
430.958	741.19
431.18	745.19
431.402	742.19
431.624	748.19
431.846	737.19
432.068	745.19
432.29	761.19
432.512	759.19
432.734	752.19
432.956	760.19
433.178	795.19
433.4	789.19
433.622	790.19
433.844	786.19
434.066	765.19
434.287	770.19
434.509	778.19
434.731	801.19
434.953	826.19
435.175	812.19
435.397	831.19
435.618	799.19
435.84	786.19
436.062	756.19
436.284	756.19
436.505	777.19
436.727	781.19
436.949	781.19
437.17	772.19
437.392	762.19
437.614	740.19
437.835	745.19
438.057	760.19
438.278	729.19
438.5	762.19
438.721	747.19
438.943	771.19
439.165	746.19
439.386	763.19
439.608	795.19
439.829	773.19
440.05	796.19
440.272	792.19
440.493	778.19
440.715	788.19
440.936	799.19
441.158	797.19
441.379	828.19
441.6	850.19
441.822	849.19
442.043	851.19
442.264	819.19
442.486	793.19
442.707	839.19
442.928	823.19
443.149	844.19
443.371	848.19
443.592	850.19
443.813	844.19
444.034	876.19
444.255	875.19
444.476	896.19
444.698	897.19
444.919	936.19
445.14	977.19
445.361	894.19
445.582	873.19
445.803	864.19
446.024	849.19
446.245	844.19
446.466	843.19
446.687	787.19
446.908	791.19
447.129	760.19
447.35	782.19
447.571	787.19
447.792	757.19
448.013	738.19
448.234	727.19
448.455	699.19
448.675	719.19
448.896	711.19
449.117	735.19
449.338	766.19
449.559	733.19
449.779	715.19
450	709.19
450.221	732.19
450.442	736.19
450.662	715.19
450.883	732.19
451.104	742.19
451.324	712.19
451.545	709.19
451.766	731.19
451.986	713.19
452.207	740.19
452.428	712.19
452.648	717.19
452.869	709.19
453.089	701.19
453.31	714.19
453.53	695.19
453.751	689.19
453.971	691.19
454.192	696.19
454.412	703.19
454.633	690.19
454.853	674.19
455.073	704.19
455.294	673.19
455.514	671.19
455.734	684.19
455.955	659.19
456.175	702.19
456.395	645.19
456.616	672.19
456.836	671.19
457.056	675.19
457.276	662.19
457.497	671.19
457.717	664.19
457.937	672.19
458.157	706.19
458.377	711.19
458.598	714.19
458.818	727.19
459.038	708.19
459.258	765.19
459.478	753.19
459.698	796.19
459.918	802.19
460.138	813.19
460.358	839.19
460.578	845.19
460.798	878.19
461.018	861.19
461.238	866.19
461.458	842.19
461.678	874.19
461.898	871.19
462.118	912.19
462.338	933.19
462.558	950.19
462.777	967.19
462.997	1037.19
463.217	1048.19
463.437	1038.19
463.657	1019.19
463.876	1009.19
464.096	972.19
464.316	983.19
464.536	988.19
464.755	946.19
464.975	915.19
465.195	890.19
465.414	855.19
465.634	844.19
465.854	803.19
466.073	770.19
466.293	761.19
466.512	777.19
466.732	759.19
466.951	757.19
467.171	768.19
467.391	763.19
467.61	742.19
467.829	755.19
468.049	728.19
468.268	738.19
468.488	715.19
468.707	754.19
468.927	741.19
469.146	747.19
469.365	728.19
469.585	716.19
469.804	749.19
470.023	758.19
470.243	759.19
470.462	762.19
470.681	767.19
470.901	787.19
471.12	731.19
471.339	769.19
471.558	733.19
471.777	761.19
471.997	746.19
472.216	744.19
472.435	728.19
472.654	733.19
472.873	684.19
473.092	724.19
473.311	716.19
473.53	718.19
473.749	708.19
473.968	729.19
474.187	709.19
474.406	699.19
474.625	733.19
474.844	741.19
475.063	724.19
475.282	711.19
475.501	727.19
475.72	733.19
475.939	730.19
476.158	756.19
476.377	733.19
476.596	770.19
476.814	761.19
477.033	759.19
477.252	757.19
477.471	801.19
477.69	792.19
477.908	805.19
478.127	840.19
478.346	843.19
478.564	851.19
478.783	866.19
479.002	877.19
479.22	823.19
479.439	844.19
479.658	872.19
479.876	844.19
480.095	878.19
480.313	888.19
480.532	917.19
480.751	885.19
480.969	871.19
481.188	839.19
481.406	834.19
481.624	821.19
481.843	831.19
482.061	809.19
482.28	816.19
482.498	824.19
482.717	802.19
482.935	835.19
483.153	843.19
483.372	850.19
483.59	877.19
483.808	856.19
484.027	841.19
484.245	855.19
484.463	828.19
484.681	843.19
484.9	840.19
485.118	855.19
485.336	840.19
485.554	827.19
485.772	827.19
485.99	832.19
486.209	844.19
486.427	848.19
486.645	874.19
486.863	838.19
487.081	875.19
487.299	850.19
487.517	876.19
487.735	852.19
487.953	863.19
488.171	855.19
488.389	844.19
488.607	872.19
488.825	837.19
489.043	842.19
489.261	865.19
489.479	827.19
489.696	845.19
489.914	868.19
490.132	850.19
490.35	881.19
490.568	889.19
490.786	876.19
491.003	872.19
491.221	884.19
491.439	902.19
491.657	898.19
491.874	917.19
492.092	885.19
492.31	935.19
492.527	944.19
492.745	916.19
492.963	910.19
493.18	907.19
493.398	945.19
493.615	921.19
493.833	925.19
494.05	926.19
494.268	922.19
494.485	937.19
494.703	933.19
494.92	964.19
495.138	940.19
495.355	972.19
495.573	944.19
495.79	958.19
496.008	983.19
496.225	970.19
496.442	1012.19
496.66	997.19
496.877	1028.19
497.094	1037.19
497.312	1021.19
497.529	1040.19
497.746	1073.19
497.963	1126.19
498.181	1139.19
498.398	1160.19
498.615	1227.19
498.832	1268.19
499.049	1343.19
499.267	1421.19
499.484	1499.19
499.701	1627.19
499.918	1699.19
500.135	1866.19
500.352	1930.19
500.569	1983.19
500.786	1993.19
501.003	1878.19
501.22	1825.19
501.437	1663.19
