Data from Ni(NO3)2@0.125M.TitratingCurve.Agarose3%dH2O.NegLispCup.LampEnergy10.LIBS07252019_HRD10591_18-09-22-568.txt Node
Date: Thu Jul 25 18:09:22 EDT 2019
User: cochatt
Spectrometer: HR+D1059
Trigger mode: 1
Integration Time (sec): 1.000000E-1
Scans to average: 1
Electric dark correction enabled: true
Nonlinearity correction enabled: false
Boxcar width: 0
XAxis mode: Wavelengths
Number of Pixels in Spectrum: 2048
>>>>>Begin Spectral Data<<<<<
223.165	-19.69
223.4	-19.69
223.635	-19.69
223.869	-15.69
224.104	-25.69
224.338	-20.69
224.573	-22.69
224.808	-5.69
225.042	-8.69
225.277	10.31
225.511	3.31
225.746	3.31
225.98	11.31
226.215	13.31
226.449	24.31
226.683	9.31
226.918	16.31
227.152	27.31
227.387	35.31
227.621	47.31
227.856	30.31
228.09	45.31
228.324	44.31
228.559	51.31
228.793	66.31
229.027	92.31
229.262	102.31
229.496	85.31
229.73	127.31
229.964	97.31
230.199	116.31
230.433	94.31
230.667	119.31
230.901	114.31
231.136	125.31
231.37	111.31
231.604	122.31
231.838	119.31
232.072	131.31
232.306	129.31
232.541	129.31
232.775	122.31
233.009	124.31
233.243	122.31
233.477	135.31
233.711	138.31
233.945	126.31
234.179	128.31
234.413	125.31
234.647	121.31
234.881	121.31
235.115	118.31
235.349	143.31
235.583	131.31
235.817	140.31
236.051	138.31
236.285	129.31
236.519	129.31
236.753	130.31
236.987	132.31
237.221	137.31
237.455	141.31
237.689	142.31
237.922	145.31
238.156	141.31
238.39	122.31
238.624	133.31
238.858	137.31
239.091	136.31
239.325	155.31
239.559	151.31
239.793	153.31
240.027	143.31
240.26	141.31
240.494	155.31
240.728	168.31
240.961	155.31
241.195	151.31
241.429	149.31
241.662	156.31
241.896	169.31
242.13	136.31
242.363	160.31
242.597	156.31
242.83	162.31
243.064	139.31
243.298	154.31
243.531	162.31
243.765	169.31
243.998	175.31
244.232	165.31
244.465	160.31
244.699	163.31
244.932	175.31
245.166	175.31
245.399	185.31
245.633	172.31
245.866	189.31
246.099	181.31
246.333	173.31
246.566	190.31
246.8	175.31
247.033	177.31
247.266	176.31
247.5	177.31
247.733	189.31
247.966	184.31
248.2	181.31
248.433	201.31
248.666	182.31
248.899	188.31
249.133	189.31
249.366	205.31
249.599	210.31
249.832	203.31
250.066	202.31
250.299	198.31
250.532	195.31
250.765	187.31
250.998	193.31
251.231	198.31
251.465	198.31
251.698	216.31
251.931	224.31
252.164	216.31
252.397	220.31
252.63	217.31
252.863	194.31
253.096	219.31
253.329	205.31
253.562	202.31
253.795	234.31
254.028	228.31
254.261	233.31
254.494	226.31
254.727	214.31
254.96	231.31
255.193	227.31
255.426	222.31
255.659	221.31
255.892	237.31
256.124	213.31
256.357	228.31
256.59	222.31
256.823	247.31
257.056	227.31
257.289	246.31
257.521	241.31
257.754	236.31
257.987	243.31
258.22	235.31
258.452	234.31
258.685	235.31
258.918	259.31
259.151	248.31
259.383	237.31
259.616	238.31
259.849	245.31
260.081	237.31
260.314	264.31
260.547	248.31
260.779	226.31
261.012	254.31
261.244	267.31
261.477	268.31
261.71	257.31
261.942	252.31
262.175	250.31
262.407	270.31
262.64	258.31
262.872	259.31
263.105	272.31
263.337	289.31
263.57	279.31
263.802	273.31
264.035	265.31
264.267	275.31
264.499	269.31
264.732	286.31
264.964	279.31
265.197	282.31
265.429	283.31
265.661	268.31
265.894	287.31
266.126	280.31
266.358	293.31
266.591	286.31
266.823	294.31
267.055	264.31
267.287	305.31
267.52	291.31
267.752	288.31
267.984	289.31
268.216	287.31
268.448	284.31
268.681	313.31
268.913	292.31
269.145	296.31
269.377	289.31
269.609	309.31
269.841	296.31
270.073	300.31
270.306	293.31
270.538	306.31
270.77	269.31
271.002	306.31
271.234	308.31
271.466	300.31
271.698	315.31
271.93	289.31
272.162	302.31
272.394	303.31
272.626	322.31
272.858	304.31
273.09	313.31
273.322	303.31
273.553	294.31
273.785	303.31
274.017	312.31
274.249	311.31
274.481	321.31
274.713	311.31
274.945	308.31
275.176	314.31
275.408	333.31
275.64	324.31
275.872	335.31
276.104	330.31
276.335	321.31
276.567	349.31
276.799	322.31
277.031	333.31
277.262	330.31
277.494	339.31
277.726	326.31
277.957	314.31
278.189	336.31
278.421	336.31
278.652	355.31
278.884	340.31
279.115	331.31
279.347	343.31
279.579	348.31
279.81	345.31
280.042	338.31
280.273	353.31
280.505	375.31
280.736	360.31
280.968	360.31
281.199	346.31
281.431	353.31
281.662	337.31
281.894	334.31
282.125	337.31
282.356	385.31
282.588	363.31
282.819	359.31
283.051	372.31
283.282	372.31
283.513	360.31
283.745	373.31
283.976	387.31
284.207	360.31
284.439	398.31
284.67	363.31
284.901	393.31
285.132	376.31
285.364	371.31
285.595	363.31
285.826	375.31
286.057	379.31
286.288	377.31
286.52	398.31
286.751	391.31
286.982	393.31
287.213	392.31
287.444	403.31
287.675	375.31
287.906	377.31
288.138	399.31
288.369	394.31
288.6	407.31
288.831	400.31
289.062	411.31
289.293	389.31
289.524	401.31
289.755	400.31
289.986	412.31
290.217	406.31
290.448	403.31
290.679	405.31
290.91	409.31
291.141	406.31
291.371	408.31
291.602	409.31
291.833	393.31
292.064	408.31
292.295	406.31
292.526	401.31
292.757	401.31
292.987	406.31
293.218	395.31
293.449	405.31
293.68	418.31
293.91	401.31
294.141	397.31
294.372	396.31
294.603	401.31
294.833	415.31
295.064	417.31
295.295	407.31
295.525	396.31
295.756	405.31
295.987	418.31
296.217	418.31
296.448	425.31
296.679	425.31
296.909	419.31
297.14	422.31
297.37	425.31
297.601	436.31
297.831	444.31
298.062	442.31
298.292	460.31
298.523	442.31
298.753	469.31
298.984	449.31
299.214	444.31
299.445	465.31
299.675	434.31
299.905	447.31
300.136	434.31
300.366	446.31
300.597	464.31
300.827	451.31
301.057	475.31
301.288	492.31
301.518	464.31
301.748	459.31
301.979	480.31
302.209	475.31
302.439	459.31
302.669	455.31
302.9	463.31
303.13	453.31
303.36	446.31
303.59	454.31
303.82	449.31
304.051	456.31
304.281	443.31
304.511	431.31
304.741	468.31
304.971	460.31
305.201	453.31
305.431	444.31
305.661	455.31
305.891	465.31
306.121	453.31
306.352	459.31
306.582	440.31
306.812	436.31
307.042	441.31
307.272	488.31
307.502	444.31
307.731	437.31
307.961	445.31
308.191	427.31
308.421	428.31
308.651	445.31
308.881	447.31
309.111	443.31
309.341	445.31
309.571	459.31
309.8	439.31
310.03	448.31
310.26	453.31
310.49	436.31
310.72	471.31
310.949	436.31
311.179	449.31
311.409	434.31
311.639	453.31
311.868	452.31
312.098	456.31
312.328	456.31
312.557	496.31
312.787	450.31
313.017	459.31
313.246	485.31
313.476	482.31
313.706	470.31
313.935	487.31
314.165	484.31
314.394	492.31
314.624	474.31
314.853	455.31
315.083	472.31
315.312	465.31
315.542	476.31
315.771	464.31
316.001	479.31
316.23	488.31
316.46	443.31
316.689	471.31
316.919	469.31
317.148	479.31
317.377	475.31
317.607	471.31
317.836	460.31
318.065	458.31
318.295	459.31
318.524	461.31
318.753	455.31
318.983	472.31
319.212	458.31
319.441	452.31
319.67	473.31
319.9	479.31
320.129	469.31
320.358	482.31
320.587	454.31
320.816	472.31
321.046	471.31
321.275	511.31
321.504	469.31
321.733	480.31
321.962	462.31
322.191	484.31
322.42	470.31
322.649	482.31
322.878	517.31
323.108	477.31
323.337	500.31
323.566	491.31
323.795	516.31
324.024	483.31
324.253	485.31
324.482	493.31
324.71	493.31
324.939	483.31
325.168	505.31
325.397	510.31
325.626	502.31
325.855	521.31
326.084	534.31
326.313	523.31
326.542	540.31
326.77	542.31
326.999	524.31
327.228	519.31
327.457	519.31
327.686	548.31
327.914	509.31
328.143	522.31
328.372	520.31
328.6	529.31
328.829	529.31
329.058	514.31
329.287	555.31
329.515	521.31
329.744	547.31
329.972	536.31
330.201	543.31
330.43	545.31
330.658	549.31
330.887	552.31
331.115	521.31
331.344	548.31
331.572	568.31
331.801	579.31
332.03	576.31
332.258	619.31
332.486	619.31
332.715	643.31
332.943	680.31
333.172	720.31
333.4	731.31
333.629	749.31
333.857	791.31
334.085	755.31
334.314	718.31
334.542	702.31
334.771	687.31
334.999	654.31
335.227	673.31
335.455	689.31
335.684	656.31
335.912	671.31
336.14	659.31
336.369	647.31
336.597	632.31
336.825	655.31
337.053	650.31
337.281	632.31
337.51	631.31
337.738	614.31
337.966	605.31
338.194	600.31
338.422	584.31
338.65	613.31
338.878	589.31
339.106	596.31
339.334	597.31
339.562	570.31
339.79	575.31
340.018	564.31
340.246	568.31
340.474	575.31
340.702	561.31
340.93	576.31
341.158	571.31
341.386	562.31
341.614	566.31
341.842	548.31
342.07	543.31
342.298	563.31
342.526	568.31
342.754	553.31
342.981	579.31
343.209	577.31
343.437	596.31
343.665	641.31
343.893	667.31
344.12	727.31
344.348	703.31
344.576	643.31
344.804	607.31
345.031	607.31
345.259	570.31
345.487	559.31
345.714	572.31
345.942	579.31
346.17	565.31
346.397	565.31
346.625	556.31
346.853	537.31
347.08	527.31
347.308	555.31
347.535	573.31
347.763	577.31
347.99	579.31
348.218	563.31
348.445	541.31
348.673	536.31
348.9	541.31
349.128	545.31
349.355	547.31
349.583	546.31
349.81	522.31
350.037	544.31
350.265	554.31
350.492	524.31
350.72	563.31
350.947	539.31
351.174	529.31
351.402	525.31
351.629	534.31
351.856	529.31
352.083	521.31
352.311	517.31
352.538	529.31
352.765	521.31
352.992	513.31
353.22	534.31
353.447	507.31
353.674	521.31
353.901	553.31
354.128	522.31
354.355	551.31
354.583	518.31
354.81	497.31
355.037	556.31
355.264	536.31
355.491	529.31
355.718	528.31
355.945	545.31
356.172	534.31
356.399	538.31
356.626	527.31
356.853	550.31
357.08	538.31
357.307	513.31
357.534	549.31
357.761	532.31
357.988	549.31
358.215	529.31
358.441	521.31
358.668	523.31
358.895	537.31
359.122	504.31
359.349	534.31
359.576	506.31
359.802	535.31
360.029	523.31
360.256	535.31
360.483	545.31
360.709	538.31
360.936	539.31
361.163	536.31
361.39	554.31
361.616	513.31
361.843	515.31
362.07	503.31
362.296	543.31
362.523	504.31
362.749	544.31
362.976	505.31
363.203	533.31
363.429	539.31
363.656	510.31
363.882	500.31
364.109	513.31
364.335	536.31
364.562	498.31
364.788	500.31
365.015	516.31
365.241	526.31
365.468	532.31
365.694	526.31
365.92	529.31
366.147	511.31
366.373	531.31
366.599	524.31
366.826	513.31
367.052	510.31
367.278	545.31
367.505	524.31
367.731	523.31
367.957	505.31
368.184	519.31
368.41	527.31
368.636	534.31
368.862	541.31
369.089	518.31
369.315	528.31
369.541	535.31
369.767	559.31
369.993	520.31
370.219	565.31
370.445	559.31
370.672	548.31
370.898	560.31
371.124	586.31
371.35	581.31
371.576	567.31
371.802	580.31
372.028	572.31
372.254	579.31
372.48	576.31
372.706	596.31
372.932	588.31
373.158	589.31
373.384	586.31
373.61	575.31
373.835	573.31
374.061	576.31
374.287	577.31
374.513	574.31
374.739	596.31
374.965	621.31
375.191	626.31
375.416	634.31
375.642	612.31
375.868	620.31
376.094	600.31
376.319	595.31
376.545	568.31
376.771	575.31
376.997	567.31
377.222	570.31
377.448	565.31
377.674	583.31
377.899	545.31
378.125	585.31
378.35	556.31
378.576	567.31
378.802	555.31
379.027	569.31
379.253	560.31
379.478	561.31
379.704	552.31
379.929	566.31
380.155	567.31
380.38	560.31
380.606	578.31
380.831	583.31
381.057	556.31
381.282	550.31
381.507	561.31
381.733	581.31
381.958	591.31
382.184	606.31
382.409	605.31
382.634	592.31
382.86	607.31
383.085	594.31
383.31	621.31
383.535	633.31
383.761	621.31
383.986	629.31
384.211	664.31
384.436	667.31
384.662	677.31
384.887	659.31
385.112	698.31
385.337	688.31
385.562	705.31
385.787	714.31
386.013	712.31
386.238	698.31
386.463	697.31
386.688	675.31
386.913	675.31
387.138	657.31
387.363	659.31
387.588	648.31
387.813	652.31
388.038	657.31
388.263	657.31
388.488	650.31
388.713	673.31
388.938	659.31
389.163	631.31
389.387	665.31
389.612	661.31
389.837	658.31
390.062	678.31
390.287	678.31
390.512	668.31
390.736	663.31
390.961	660.31
391.186	689.31
391.411	700.31
391.636	745.31
391.86	773.31
392.085	792.31
392.31	768.31
392.534	749.31
392.759	697.31
392.984	725.31
393.208	715.31
393.433	706.31
393.658	731.31
393.882	719.31
394.107	707.31
394.331	752.31
394.556	736.31
394.78	734.31
395.005	739.31
395.229	737.31
395.454	743.31
395.678	792.31
395.903	736.31
396.127	753.31
396.352	710.31
396.576	708.31
396.801	705.31
397.025	745.31
397.249	712.31
397.474	748.31
397.698	778.31
397.922	767.31
398.147	754.31
398.371	767.31
398.595	787.31
398.82	836.31
399.044	887.31
399.268	1007.31
399.492	1191.31
399.717	1368.31
399.941	1380.31
400.165	1185.31
400.389	1049.31
400.613	931.31
400.837	889.31
401.062	866.31
401.286	854.31
401.51	858.31
401.734	858.31
401.958	895.31
402.182	871.31
402.406	894.31
402.63	913.31
402.854	940.31
403.078	943.31
403.302	959.31
403.526	980.31
403.75	1014.31
403.974	1025.31
404.198	1004.31
404.422	1043.31
404.645	1025.31
404.869	1010.31
405.093	991.31
405.317	977.31
405.541	963.31
405.765	947.31
405.988	948.31
406.212	964.31
406.436	917.31
406.66	975.31
406.883	973.31
407.107	1030.31
407.331	1126.31
407.555	1142.31
407.778	1163.31
408.002	1091.31
408.226	1061.31
408.449	1052.31
408.673	1015.31
408.896	1030.31
409.12	986.31
409.344	1005.31
409.567	989.31
409.791	1009.31
410.014	1015.31
410.238	1008.31
410.461	989.31
410.685	961.31
410.908	956.31
411.132	880.31
411.355	883.31
411.578	871.31
411.802	887.31
412.025	917.31
412.249	915.31
412.472	917.31
412.695	889.31
412.919	840.31
413.142	851.31
413.365	869.31
413.589	874.31
413.812	833.31
414.035	873.31
414.258	841.31
414.482	860.31
414.705	905.31
414.928	888.31
415.151	858.31
415.374	853.31
415.597	870.31
415.821	867.31
416.044	868.31
416.267	866.31
416.49	862.31
416.713	851.31
416.936	853.31
417.159	876.31
417.382	869.31
417.605	881.31
417.828	857.31
418.051	882.31
418.274	892.31
418.497	872.31
418.72	892.31
418.943	895.31
419.166	945.31
419.389	1014.31
419.611	977.31
419.834	955.31
420.057	910.31
420.28	906.31
420.503	863.31
420.726	877.31
420.948	864.31
421.171	881.31
421.394	845.31
421.617	853.31
421.839	899.31
422.062	876.31
422.285	867.31
422.507	898.31
422.73	901.31
422.953	914.31
423.175	946.31
423.398	951.31
423.621	900.31
423.843	936.31
424.066	959.31
424.288	973.31
424.511	923.31
424.733	911.31
424.956	899.31
425.178	881.31
425.401	883.31
425.623	852.31
425.846	845.31
426.068	842.31
426.291	875.31
426.513	848.31
426.735	811.31
426.958	791.31
427.18	804.31
427.402	807.31
427.625	789.31
427.847	800.31
428.069	790.31
428.292	780.31
428.514	805.31
428.736	784.31
428.958	758.31
429.181	749.31
429.403	742.31
429.625	760.31
429.847	772.31
430.069	766.31
430.292	755.31
430.514	765.31
430.736	751.31
430.958	761.31
431.18	747.31
431.402	787.31
431.624	749.31
431.846	771.31
432.068	781.31
432.29	811.31
432.512	749.31
432.734	788.31
432.956	798.31
433.178	793.31
433.4	799.31
433.622	787.31
433.844	791.31
434.066	826.31
434.287	825.31
434.509	831.31
434.731	851.31
434.953	873.31
435.175	906.31
435.397	856.31
435.618	824.31
435.84	816.31
436.062	803.31
436.284	791.31
436.505	817.31
436.727	797.31
436.949	775.31
437.17	780.31
437.392	771.31
437.614	752.31
437.835	740.31
438.057	735.31
438.278	746.31
438.5	792.31
438.721	762.31
438.943	787.31
439.165	770.31
439.386	776.31
439.608	761.31
439.829	779.31
440.05	780.31
440.272	774.31
440.493	793.31
440.715	827.31
440.936	817.31
441.158	834.31
441.379	883.31
441.6	914.31
441.822	930.31
442.043	900.31
442.264	896.31
442.486	862.31
442.707	887.31
442.928	882.31
443.149	884.31
443.371	900.31
443.592	902.31
443.813	896.31
444.034	924.31
444.255	946.31
444.476	969.31
444.698	1040.31
444.919	1125.31
445.14	1191.31
445.361	1051.31
445.582	945.31
445.803	893.31
446.024	865.31
446.245	857.31
446.466	841.31
446.687	808.31
446.908	836.31
447.129	791.31
447.35	767.31
447.571	767.31
447.792	752.31
448.013	771.31
448.234	747.31
448.455	746.31
448.675	721.31
448.896	764.31
449.117	714.31
449.338	722.31
449.559	755.31
449.779	753.31
450	721.31
450.221	714.31
450.442	744.31
450.662	718.31
450.883	744.31
451.104	772.31
451.324	761.31
451.545	756.31
451.766	757.31
451.986	733.31
452.207	762.31
452.428	735.31
452.648	742.31
452.869	701.31
453.089	736.31
453.31	742.31
453.53	724.31
453.751	714.31
453.971	700.31
454.192	703.31
454.412	703.31
454.633	720.31
454.853	714.31
455.073	708.31
455.294	700.31
455.514	668.31
455.734	675.31
455.955	671.31
456.175	671.31
456.395	691.31
456.616	656.31
456.836	669.31
457.056	674.31
457.276	673.31
457.497	682.31
457.717	680.31
457.937	664.31
458.157	683.31
458.377	697.31
458.598	708.31
458.818	738.31
459.038	760.31
459.258	759.31
459.478	804.31
459.698	839.31
459.918	847.31
460.138	893.31
460.358	908.31
460.578	909.31
460.798	986.31
461.018	971.31
461.238	969.31
461.458	944.31
461.678	959.31
461.898	904.31
462.118	943.31
462.338	1029.31
462.558	1023.31
462.777	1108.31
462.997	1171.31
463.217	1299.31
463.437	1326.31
463.657	1205.31
463.876	1148.31
464.096	1138.31
464.316	1109.31
464.536	1135.31
464.755	1092.31
464.975	1031.31
465.195	985.31
465.414	909.31
465.634	865.31
465.854	833.31
466.073	830.31
466.293	825.31
466.512	792.31
466.732	779.31
466.951	804.31
467.171	753.31
467.391	770.31
467.61	778.31
467.829	760.31
468.049	777.31
468.268	744.31
468.488	739.31
468.707	741.31
468.927	707.31
469.146	714.31
469.365	742.31
469.585	747.31
469.804	745.31
470.023	779.31
470.243	784.31
470.462	832.31
470.681	825.31
470.901	792.31
471.12	782.31
471.339	774.31
471.558	769.31
471.777	754.31
471.997	727.31
472.216	731.31
472.435	703.31
472.654	708.31
472.873	698.31
473.092	749.31
473.311	713.31
473.53	710.31
473.749	705.31
473.968	700.31
474.187	698.31
474.406	685.31
474.625	710.31
474.844	725.31
475.063	720.31
475.282	684.31
475.501	703.31
475.72	712.31
475.939	716.31
476.158	744.31
476.377	724.31
476.596	727.31
476.814	758.31
477.033	760.31
477.252	764.31
477.471	796.31
477.69	833.31
477.908	827.31
478.127	856.31
478.346	843.31
478.564	883.31
478.783	864.31
479.002	945.31
479.22	911.31
479.439	903.31
479.658	885.31
479.876	872.31
480.095	889.31
480.313	927.31
480.532	969.31
480.751	951.31
480.969	909.31
481.188	876.31
481.406	857.31
481.624	840.31
481.843	820.31
482.061	800.31
482.28	797.31
482.498	809.31
482.717	808.31
482.935	800.31
483.153	815.31
483.372	799.31
483.59	826.31
483.808	816.31
484.027	795.31
484.245	826.31
484.463	823.31
484.681	856.31
484.9	837.31
485.118	835.31
485.336	853.31
485.554	848.31
485.772	854.31
485.99	882.31
486.209	890.31
486.427	896.31
486.645	907.31
486.863	857.31
487.081	884.31
487.299	858.31
487.517	889.31
487.735	855.31
487.953	849.31
488.171	879.31
488.389	859.31
488.607	831.31
488.825	824.31
489.043	861.31
489.261	840.31
489.479	842.31
489.696	849.31
489.914	856.31
490.132	875.31
490.35	868.31
490.568	845.31
490.786	857.31
491.003	854.31
491.221	853.31
491.439	880.31
491.657	874.31
491.874	892.31
492.092	893.31
492.31	889.31
492.527	886.31
492.745	918.31
492.963	910.31
493.18	890.31
493.398	895.31
493.615	914.31
493.833	896.31
494.05	895.31
494.268	926.31
494.485	932.31
494.703	904.31
494.92	908.31
495.138	874.31
495.355	916.31
495.573	914.31
495.79	933.31
496.008	950.31
496.225	928.31
496.442	950.31
496.66	960.31
496.877	961.31
497.094	982.31
497.312	991.31
497.529	988.31
497.746	1011.31
497.963	1002.31
498.181	1093.31
498.398	1105.31
498.615	1193.31
498.832	1268.31
499.049	1361.31
499.267	1509.31
499.484	1684.31
499.701	1860.31
499.918	2081.31
500.135	2439.31
500.352	2865.31
500.569	3034.31
500.786	2957.31
