Data from Ni(NO3)2Standard.Agarose3%.GreenCap.LampEnergy5.5.E.O_HRD10591_14-41-21-188.txt Node
Date: Mon Jul 22 14:41:21 EDT 2019
User: cochatt
Spectrometer: HR+D1059
Trigger mode: 1
Integration Time (sec): 1.000000E-1
Scans to average: 1
Electric dark correction enabled: true
Nonlinearity correction enabled: false
Boxcar width: 0
XAxis mode: Wavelengths
Number of Pixels in Spectrum: 2048
>>>>>Begin Spectral Data<<<<<
223.165	-17.25
223.4	-17.25
223.635	-17.25
223.869	-20.25
224.104	-21.25
224.338	-4.25
224.573	-19.25
224.808	-23.25
225.042	-8.25
225.277	-8.25
225.511	-2.25
225.746	13.75
225.98	5.75
226.215	7.75
226.449	24.75
226.683	16.75
226.918	23.75
227.152	31.75
227.387	40.75
227.621	36.75
227.856	50.75
228.09	49.75
228.324	52.75
228.559	53.75
228.793	50.75
229.027	66.75
229.262	65.75
229.496	77.75
229.73	60.75
229.964	65.75
230.199	71.75
230.433	80.75
230.667	75.75
230.901	76.75
231.136	76.75
231.37	86.75
231.604	65.75
231.838	66.75
232.072	99.75
232.306	79.75
232.541	83.75
232.775	76.75
233.009	74.75
233.243	89.75
233.477	76.75
233.711	80.75
233.945	78.75
234.179	78.75
234.413	80.75
234.647	81.75
234.881	82.75
235.115	79.75
235.349	73.75
235.583	74.75
235.817	72.75
236.051	94.75
236.285	90.75
236.519	77.75
236.753	85.75
236.987	82.75
237.221	71.75
237.455	84.75
237.689	72.75
237.922	69.75
238.156	77.75
238.39	84.75
238.624	73.75
238.858	88.75
239.091	77.75
239.325	88.75
239.559	63.75
239.793	76.75
240.027	87.75
240.26	90.75
240.494	88.75
240.728	81.75
240.961	74.75
241.195	73.75
241.429	70.75
241.662	69.75
241.896	81.75
242.13	72.75
242.363	72.75
242.597	84.75
242.83	84.75
243.064	72.75
243.298	89.75
243.531	74.75
243.765	72.75
243.998	79.75
244.232	69.75
244.465	67.75
244.699	85.75
244.932	80.75
245.166	75.75
245.399	79.75
245.633	78.75
245.866	72.75
246.099	65.75
246.333	92.75
246.566	86.75
246.8	74.75
247.033	73.75
247.266	84.75
247.5	83.75
247.733	62.75
247.966	79.75
248.2	83.75
248.433	66.75
248.666	71.75
248.899	92.75
249.133	67.75
249.366	76.75
249.599	71.75
249.832	69.75
250.066	77.75
250.299	77.75
250.532	88.75
250.765	71.75
250.998	76.75
251.231	73.75
251.465	83.75
251.698	83.75
251.931	79.75
252.164	87.75
252.397	61.75
252.63	81.75
252.863	86.75
253.096	81.75
253.329	76.75
253.562	78.75
253.795	80.75
254.028	76.75
254.261	82.75
254.494	84.75
254.727	74.75
254.96	87.75
255.193	75.75
255.426	87.75
255.659	73.75
255.892	102.75
256.124	89.75
256.357	69.75
256.59	79.75
256.823	88.75
257.056	64.75
257.289	80.75
257.521	81.75
257.754	81.75
257.987	79.75
258.22	84.75
258.452	64.75
258.685	72.75
258.918	77.75
259.151	75.75
259.383	82.75
259.616	88.75
259.849	74.75
260.081	87.75
260.314	67.75
260.547	81.75
260.779	91.75
261.012	86.75
261.244	80.75
261.477	86.75
261.71	78.75
261.942	79.75
262.175	72.75
262.407	79.75
262.64	97.75
262.872	98.75
263.105	80.75
263.337	90.75
263.57	81.75
263.802	93.75
264.035	75.75
264.267	94.75
264.499	83.75
264.732	89.75
264.964	82.75
265.197	81.75
265.429	74.75
265.661	88.75
265.894	85.75
266.126	78.75
266.358	76.75
266.591	70.75
266.823	69.75
267.055	75.75
267.287	75.75
267.52	77.75
267.752	81.75
267.984	84.75
268.216	82.75
268.448	88.75
268.681	85.75
268.913	82.75
269.145	92.75
269.377	86.75
269.609	69.75
269.841	73.75
270.073	86.75
270.306	84.75
270.538	85.75
270.77	84.75
271.002	78.75
271.234	67.75
271.466	77.75
271.698	77.75
271.93	76.75
272.162	83.75
272.394	88.75
272.626	90.75
272.858	84.75
273.09	81.75
273.322	76.75
273.553	89.75
273.785	75.75
274.017	82.75
274.249	77.75
274.481	76.75
274.713	76.75
274.945	80.75
275.176	89.75
275.408	81.75
275.64	85.75
275.872	70.75
276.104	89.75
276.335	94.75
276.567	91.75
276.799	80.75
277.031	77.75
277.262	81.75
277.494	88.75
277.726	87.75
277.957	75.75
278.189	67.75
278.421	72.75
278.652	68.75
278.884	72.75
279.115	93.75
279.347	88.75
279.579	73.75
279.81	75.75
280.042	80.75
280.273	86.75
280.505	91.75
280.736	81.75
280.968	83.75
281.199	90.75
281.431	83.75
281.662	89.75
281.894	90.75
282.125	82.75
282.356	74.75
282.588	87.75
282.819	86.75
283.051	84.75
283.282	89.75
283.513	94.75
283.745	79.75
283.976	90.75
284.207	90.75
284.439	81.75
284.67	85.75
284.901	87.75
285.132	84.75
285.364	78.75
285.595	65.75
285.826	85.75
286.057	72.75
286.288	91.75
286.52	71.75
286.751	88.75
286.982	75.75
287.213	77.75
287.444	88.75
287.675	94.75
287.906	76.75
288.138	68.75
288.369	84.75
288.6	77.75
288.831	70.75
289.062	85.75
289.293	88.75
289.524	93.75
289.755	75.75
289.986	89.75
290.217	95.75
290.448	92.75
290.679	66.75
290.91	76.75
291.141	87.75
291.371	91.75
291.602	88.75
291.833	92.75
292.064	92.75
292.295	80.75
292.526	83.75
292.757	98.75
292.987	85.75
293.218	81.75
293.449	96.75
293.68	81.75
293.91	83.75
294.141	73.75
294.372	79.75
294.603	86.75
294.833	72.75
295.064	82.75
295.295	83.75
295.525	101.75
295.756	91.75
295.987	85.75
296.217	95.75
296.448	75.75
296.679	70.75
296.909	80.75
297.14	88.75
297.37	93.75
297.601	79.75
297.831	78.75
298.062	84.75
298.292	78.75
298.523	91.75
298.753	77.75
298.984	77.75
299.214	101.75
299.445	76.75
299.675	85.75
299.905	92.75
300.136	72.75
300.366	73.75
300.597	74.75
300.827	82.75
301.057	87.75
301.288	74.75
301.518	87.75
301.748	86.75
301.979	77.75
302.209	80.75
302.439	90.75
302.669	76.75
302.9	89.75
303.13	79.75
303.36	71.75
303.59	70.75
303.82	89.75
304.051	87.75
304.281	79.75
304.511	85.75
304.741	85.75
304.971	102.75
305.201	94.75
305.431	85.75
305.661	84.75
305.891	83.75
306.121	81.75
306.352	77.75
306.582	88.75
306.812	74.75
307.042	87.75
307.272	92.75
307.502	84.75
307.731	94.75
307.961	91.75
308.191	69.75
308.421	94.75
308.651	79.75
308.881	75.75
309.111	81.75
309.341	91.75
309.571	92.75
309.8	93.75
310.03	89.75
310.26	81.75
310.49	78.75
310.72	83.75
310.949	86.75
311.179	76.75
311.409	89.75
311.639	59.75
311.868	70.75
312.098	88.75
312.328	79.75
312.557	85.75
312.787	86.75
313.017	100.75
313.246	80.75
313.476	89.75
313.706	80.75
313.935	74.75
314.165	77.75
314.394	81.75
314.624	93.75
314.853	97.75
315.083	80.75
315.312	76.75
315.542	73.75
315.771	77.75
316.001	101.75
316.23	87.75
316.46	84.75
316.689	103.75
316.919	79.75
317.148	75.75
317.377	83.75
317.607	81.75
317.836	87.75
318.065	78.75
318.295	83.75
318.524	79.75
318.753	88.75
318.983	90.75
319.212	93.75
319.441	80.75
319.67	84.75
319.9	85.75
320.129	85.75
320.358	82.75
320.587	80.75
320.816	76.75
321.046	92.75
321.275	81.75
321.504	84.75
321.733	83.75
321.962	89.75
322.191	83.75
322.42	94.75
322.649	90.75
322.878	107.75
323.108	84.75
323.337	98.75
323.566	72.75
323.795	90.75
324.024	101.75
324.253	99.75
324.482	83.75
324.71	98.75
324.939	86.75
325.168	90.75
325.397	65.75
325.626	78.75
325.855	75.75
326.084	88.75
326.313	100.75
326.542	85.75
326.77	72.75
326.999	90.75
327.228	91.75
327.457	87.75
327.686	79.75
327.914	90.75
328.143	97.75
328.372	80.75
328.6	98.75
328.829	97.75
329.058	91.75
329.287	74.75
329.515	82.75
329.744	92.75
329.972	75.75
330.201	90.75
330.43	89.75
330.658	95.75
330.887	80.75
331.115	84.75
331.344	96.75
331.572	86.75
331.801	83.75
332.03	95.75
332.258	90.75
332.486	97.75
332.715	73.75
332.943	91.75
333.172	91.75
333.4	73.75
333.629	87.75
333.857	81.75
334.085	88.75
334.314	72.75
334.542	81.75
334.771	88.75
334.999	84.75
335.227	82.75
335.455	90.75
335.684	77.75
335.912	96.75
336.14	77.75
336.369	91.75
336.597	81.75
336.825	81.75
337.053	91.75
337.281	92.75
337.51	95.75
337.738	93.75
337.966	81.75
338.194	94.75
338.422	72.75
338.65	90.75
338.878	103.75
339.106	82.75
339.334	85.75
339.562	84.75
339.79	73.75
340.018	81.75
340.246	103.75
340.474	97.75
340.702	73.75
340.93	92.75
341.158	103.75
341.386	85.75
341.614	95.75
341.842	86.75
342.07	81.75
342.298	85.75
342.526	70.75
342.754	87.75
342.981	104.75
343.209	78.75
343.437	85.75
343.665	76.75
343.893	75.75
344.12	99.75
344.348	96.75
344.576	86.75
344.804	85.75
345.031	82.75
345.259	80.75
345.487	84.75
345.714	92.75
345.942	70.75
346.17	85.75
346.397	90.75
346.625	88.75
346.853	78.75
347.08	79.75
347.308	96.75
347.535	90.75
347.763	103.75
347.99	84.75
348.218	95.75
348.445	76.75
348.673	81.75
348.9	75.75
349.128	89.75
349.355	78.75
349.583	67.75
349.81	93.75
350.037	82.75
350.265	73.75
350.492	87.75
350.72	88.75
350.947	91.75
351.174	85.75
351.402	82.75
351.629	71.75
351.856	87.75
352.083	76.75
352.311	73.75
352.538	82.75
352.765	84.75
352.992	78.75
353.22	90.75
353.447	76.75
353.674	81.75
353.901	79.75
354.128	76.75
354.355	78.75
354.583	97.75
354.81	85.75
355.037	98.75
355.264	72.75
355.491	89.75
355.718	81.75
355.945	96.75
356.172	73.75
356.399	84.75
356.626	100.75
356.853	84.75
357.08	86.75
357.307	86.75
357.534	85.75
357.761	81.75
357.988	96.75
358.215	81.75
358.441	78.75
358.668	90.75
358.895	88.75
359.122	96.75
359.349	90.75
359.576	81.75
359.802	63.75
360.029	84.75
360.256	95.75
360.483	85.75
360.709	75.75
360.936	89.75
361.163	84.75
361.39	87.75
361.616	89.75
361.843	86.75
362.07	78.75
362.296	93.75
362.523	73.75
362.749	69.75
362.976	91.75
363.203	88.75
363.429	82.75
363.656	85.75
363.882	86.75
364.109	83.75
364.335	78.75
364.562	97.75
364.788	88.75
365.015	95.75
365.241	96.75
365.468	89.75
365.694	80.75
365.92	86.75
366.147	88.75
366.373	75.75
366.599	99.75
366.826	74.75
367.052	80.75
367.278	79.75
367.505	85.75
367.731	93.75
367.957	80.75
368.184	65.75
368.41	96.75
368.636	87.75
368.862	102.75
369.089	88.75
369.315	83.75
369.541	88.75
369.767	82.75
369.993	92.75
370.219	76.75
370.445	100.75
370.672	87.75
370.898	83.75
371.124	83.75
371.35	93.75
371.576	84.75
371.802	85.75
372.028	91.75
372.254	93.75
372.48	82.75
372.706	79.75
372.932	94.75
373.158	87.75
373.384	87.75
373.61	87.75
373.835	94.75
374.061	83.75
374.287	77.75
374.513	85.75
374.739	82.75
374.965	76.75
375.191	78.75
375.416	101.75
375.642	88.75
375.868	76.75
376.094	77.75
376.319	72.75
376.545	83.75
376.771	79.75
376.997	87.75
377.222	88.75
377.448	76.75
377.674	81.75
377.899	102.75
378.125	84.75
378.35	82.75
378.576	89.75
378.802	79.75
379.027	82.75
379.253	96.75
379.478	86.75
379.704	93.75
379.929	80.75
380.155	83.75
380.38	90.75
380.606	83.75
380.831	85.75
381.057	76.75
381.282	90.75
381.507	74.75
381.733	89.75
381.958	80.75
382.184	84.75
382.409	88.75
382.634	95.75
382.86	86.75
383.085	90.75
383.31	84.75
383.535	90.75
383.761	77.75
383.986	93.75
384.211	98.75
384.436	82.75
384.662	91.75
384.887	88.75
385.112	96.75
385.337	87.75
385.562	85.75
385.787	74.75
386.013	85.75
386.238	67.75
386.463	73.75
386.688	84.75
386.913	86.75
387.138	79.75
387.363	96.75
387.588	92.75
387.813	80.75
388.038	90.75
388.263	79.75
388.488	91.75
388.713	86.75
388.938	93.75
389.163	104.75
389.387	83.75
389.612	80.75
389.837	80.75
390.062	90.75
390.287	89.75
390.512	83.75
390.736	99.75
390.961	84.75
391.186	81.75
391.411	80.75
391.636	96.75
391.86	78.75
392.085	83.75
392.31	85.75
392.534	81.75
392.759	88.75
392.984	89.75
393.208	107.75
393.433	94.75
393.658	78.75
393.882	82.75
394.107	75.75
394.331	69.75
394.556	81.75
394.78	72.75
395.005	81.75
395.229	86.75
395.454	96.75
395.678	90.75
395.903	70.75
396.127	86.75
396.352	91.75
396.576	88.75
396.801	83.75
397.025	101.75
397.249	80.75
397.474	82.75
397.698	77.75
397.922	77.75
398.147	83.75
398.371	87.75
398.595	83.75
398.82	83.75
399.044	80.75
399.268	86.75
399.492	84.75
399.717	98.75
399.941	88.75
400.165	82.75
400.389	84.75
400.613	84.75
400.837	95.75
401.062	92.75
401.286	97.75
401.51	106.75
401.734	84.75
401.958	71.75
402.182	84.75
402.406	84.75
402.63	86.75
402.854	87.75
403.078	78.75
403.302	80.75
403.526	82.75
403.75	84.75
403.974	79.75
404.198	100.75
404.422	81.75
404.645	86.75
404.869	85.75
405.093	95.75
405.317	92.75
405.541	81.75
405.765	81.75
405.988	81.75
406.212	90.75
406.436	84.75
406.66	81.75
406.883	90.75
407.107	83.75
407.331	84.75
407.555	69.75
407.778	84.75
408.002	76.75
408.226	84.75
408.449	92.75
408.673	80.75
408.896	96.75
409.12	88.75
409.344	78.75
409.567	86.75
409.791	82.75
410.014	92.75
410.238	78.75
410.461	87.75
410.685	83.75
410.908	78.75
411.132	105.75
411.355	87.75
411.578	88.75
411.802	81.75
412.025	83.75
412.249	84.75
412.472	87.75
412.695	81.75
412.919	99.75
413.142	90.75
413.365	99.75
413.589	84.75
413.812	93.75
414.035	77.75
414.258	77.75
414.482	84.75
414.705	99.75
414.928	77.75
415.151	77.75
415.374	85.75
415.597	75.75
415.821	80.75
416.044	83.75
416.267	95.75
416.49	92.75
416.713	87.75
416.936	74.75
417.159	88.75
417.382	79.75
417.605	79.75
417.828	105.75
418.051	83.75
418.274	82.75
418.497	73.75
418.72	82.75
418.943	88.75
419.166	83.75
419.389	76.75
419.611	80.75
419.834	91.75
420.057	83.75
420.28	89.75
420.503	90.75
420.726	93.75
420.948	80.75
421.171	89.75
421.394	89.75
421.617	79.75
421.839	85.75
422.062	90.75
422.285	95.75
422.507	78.75
422.73	89.75
422.953	79.75
423.175	78.75
423.398	79.75
423.621	75.75
423.843	91.75
424.066	89.75
424.288	91.75
424.511	98.75
424.733	84.75
424.956	75.75
425.178	88.75
425.401	93.75
425.623	99.75
425.846	81.75
426.068	87.75
426.291	82.75
426.513	92.75
426.735	91.75
426.958	90.75
427.18	80.75
427.402	85.75
427.625	82.75
427.847	74.75
428.069	84.75
428.292	95.75
428.514	94.75
428.736	93.75
428.958	76.75
429.181	88.75
429.403	81.75
429.625	77.75
429.847	82.75
430.069	88.75
430.292	83.75
430.514	84.75
430.736	84.75
430.958	103.75
431.18	90.75
431.402	97.75
431.624	78.75
431.846	83.75
432.068	77.75
432.29	95.75
432.512	89.75
432.734	90.75
432.956	86.75
433.178	89.75
433.4	91.75
433.622	88.75
433.844	85.75
434.066	80.75
434.287	80.75
434.509	88.75
434.731	93.75
434.953	92.75
435.175	96.75
435.397	86.75
435.618	75.75
435.84	78.75
436.062	79.75
436.284	68.75
436.505	79.75
436.727	79.75
436.949	88.75
437.17	86.75
437.392	83.75
437.614	74.75
437.835	80.75
438.057	83.75
438.278	71.75
438.5	77.75
438.721	79.75
438.943	99.75
439.165	86.75
439.386	92.75
439.608	81.75
439.829	80.75
440.05	79.75
440.272	95.75
440.493	98.75
440.715	87.75
440.936	91.75
441.158	85.75
441.379	97.75
441.6	82.75
441.822	81.75
442.043	68.75
442.264	88.75
442.486	80.75
442.707	78.75
442.928	85.75
443.149	81.75
443.371	102.75
443.592	85.75
443.813	81.75
444.034	84.75
444.255	88.75
444.476	76.75
444.698	92.75
444.919	84.75
445.14	197.75
445.361	147.75
445.582	95.75
445.803	83.75
446.024	96.75
446.245	85.75
446.466	97.75
446.687	70.75
446.908	84.75
447.129	95.75
447.35	92.75
447.571	72.75
447.792	96.75
448.013	83.75
448.234	90.75
448.455	91.75
448.675	100.75
448.896	89.75
449.117	92.75
449.338	92.75
449.559	92.75
449.779	88.75
450	93.75
450.221	83.75
450.442	96.75
450.662	88.75
450.883	81.75
451.104	95.75
451.324	70.75
451.545	79.75
451.766	80.75
451.986	89.75
452.207	87.75
452.428	96.75
452.648	97.75
452.869	80.75
453.089	86.75
453.31	83.75
453.53	87.75
453.751	91.75
453.971	71.75
454.192	86.75
454.412	71.75
454.633	88.75
454.853	90.75
455.073	82.75
455.294	79.75
455.514	80.75
455.734	91.75
455.955	79.75
456.175	77.75
456.395	79.75
456.616	75.75
456.836	92.75
457.056	92.75
457.276	90.75
457.497	75.75
457.717	83.75
457.937	76.75
458.157	93.75
458.377	90.75
458.598	78.75
458.818	76.75
459.038	87.75
459.258	81.75
459.478	82.75
459.698	75.75
459.918	84.75
460.138	81.75
460.358	81.75
460.578	88.75
460.798	86.75
461.018	90.75
461.238	87.75
461.458	75.75
461.678	79.75
461.898	96.75
462.118	78.75
462.338	74.75
462.558	91.75
462.777	75.75
462.997	85.75
463.217	84.75
463.437	94.75
463.657	91.75
463.876	85.75
464.096	87.75
464.316	87.75
464.536	85.75
464.755	98.75
464.975	98.75
465.195	87.75
465.414	71.75
465.634	97.75
465.854	71.75
466.073	84.75
466.293	75.75
466.512	91.75
466.732	97.75
466.951	93.75
467.171	86.75
467.391	92.75
467.61	89.75
467.829	95.75
468.049	90.75
468.268	91.75
468.488	82.75
468.707	97.75
468.927	80.75
469.146	84.75
469.365	76.75
469.585	77.75
469.804	91.75
470.023	90.75
470.243	89.75
470.462	77.75
470.681	89.75
470.901	83.75
471.12	80.75
471.339	88.75
471.558	94.75
471.777	85.75
471.997	94.75
472.216	98.75
472.435	72.75
472.654	88.75
472.873	83.75
473.092	78.75
473.311	79.75
473.53	103.75
473.749	92.75
473.968	91.75
474.187	96.75
474.406	97.75
474.625	104.75
474.844	95.75
475.063	85.75
475.282	88.75
475.501	79.75
475.72	85.75
475.939	99.75
476.158	84.75
476.377	87.75
476.596	85.75
476.814	75.75
477.033	98.75
477.252	89.75
477.471	90.75
477.69	93.75
477.908	86.75
478.127	79.75
478.346	94.75
478.564	87.75
478.783	87.75
479.002	86.75
479.22	88.75
479.439	74.75
479.658	91.75
479.876	103.75
480.095	97.75
480.313	78.75
480.532	92.75
480.751	92.75
480.969	83.75
481.188	90.75
481.406	85.75
481.624	100.75
481.843	85.75
482.061	97.75
482.28	94.75
482.498	82.75
482.717	84.75
482.935	93.75
483.153	92.75
483.372	92.75
483.59	95.75
483.808	97.75
484.027	105.75
484.245	92.75
484.463	85.75
484.681	96.75
484.9	89.75
485.118	84.75
485.336	86.75
485.554	75.75
485.772	78.75
485.99	95.75
486.209	92.75
486.427	84.75
486.645	92.75
486.863	89.75
487.081	90.75
487.299	86.75
487.517	90.75
487.735	96.75
487.953	93.75
488.171	96.75
488.389	91.75
488.607	82.75
488.825	84.75
489.043	88.75
489.261	84.75
489.479	87.75
489.696	87.75
489.914	81.75
490.132	86.75
490.35	85.75
490.568	80.75
490.786	85.75
491.003	98.75
491.221	89.75
491.439	86.75
491.657	101.75
491.874	81.75
492.092	83.75
492.31	102.75
492.527	94.75
492.745	92.75
492.963	100.75
493.18	99.75
493.398	93.75
493.615	97.75
493.833	86.75
494.05	89.75
494.268	91.75
494.485	90.75
494.703	102.75
494.92	99.75
495.138	92.75
495.355	96.75
495.573	102.75
495.79	99.75
496.008	86.75
496.225	93.75
496.442	83.75
496.66	101.75
496.877	104.75
497.094	106.75
497.312	85.75
497.529	82.75
497.746	103.75
497.963	89.75
498.181	102.75
498.398	80.75
498.615	94.75
498.832	81.75
499.049	88.75
499.267	81.75
499.484	96.75
499.701	108.75
499.918	118.75
500.135	105.75
500.352	103.75
500.569	97.75
500.786	108.75
501.003	114.75
501.22	104.75
501.437	104.75
501.654	105.75
501.871	95.75
502.088	96.75
502.305	86.75
502.522	95.75
502.739	91.75
502.956	84.75
503.172	88.75
503.389	93.75
503.606	85.75
503.823	90.75
504.04	100.75
504.256	102.75
504.473	96.75
504.69	92.75
504.907	106.75
505.123	91.75
505.34	100.75
505.557	80.75
505.773	85.75
505.99	87.75
506.207	88.75
506.423	91.75
506.64	97.75
506.856	94.75
507.073	81.75
507.289	97.75
507.506	93.75
507.722	96.75
507.939	89.75
508.155	102.75
508.372	97.75
508.588	83.75
508.805	86.75
509.021	98.75
509.238	83.75
509.454	81.75
509.67	88.75
509.887	93.75
510.103	84.75
510.319	86.75
510.536	90.75
510.752	92.75
510.968	78.75
511.184	91.75
511.401	98.75
511.617	76.75
511.833	82.75
512.049	82.75
512.265	85.75
512.481	78.75
512.698	96.75
512.914	92.75
513.13	85.75
513.346	94.75
513.562	89.75
513.778	86.75
513.994	92.75
514.21	81.75
514.426	94.75
514.642	73.75
514.858	85.75
515.074	101.75
515.29	99.75
515.506	104.75
515.721	92.75
515.937	87.75
516.153	94.75
516.369	96.75
516.585	85.75
516.801	95.75
517.016	91.75
517.232	99.75
517.448	104.75
517.664	101.75
517.879	107.75
518.095	82.75
518.311	92.75
518.527	101.75
