Data from Ni(NO3)2@0.125M.TitratingCurve.Agarose3%dH2O.NegLispCup.LampEnergy10.LIBS07252019_HRD10591_18-08-56-567.txt Node
Date: Thu Jul 25 18:08:56 EDT 2019
User: cochatt
Spectrometer: HR+D1059
Trigger mode: 1
Integration Time (sec): 1.000000E-1
Scans to average: 1
Electric dark correction enabled: true
Nonlinearity correction enabled: false
Boxcar width: 0
XAxis mode: Wavelengths
Number of Pixels in Spectrum: 2048
>>>>>Begin Spectral Data<<<<<
223.165	-18.81
223.4	-18.81
223.635	-18.81
223.869	-27.81
224.104	-24.81
224.338	-14.81
224.573	-21.81
224.808	-11.81
225.042	6.19
225.277	-7.81
225.511	-3.81
225.746	-0.81
225.98	18.19
226.215	10.19
226.449	24.19
226.683	24.19
226.918	25.19
227.152	24.19
227.387	30.19
227.621	36.19
227.856	32.19
228.09	48.19
228.324	49.19
228.559	41.19
228.793	60.19
229.027	91.19
229.262	97.19
229.496	117.19
229.73	108.19
229.964	116.19
230.199	119.19
230.433	129.19
230.667	128.19
230.901	129.19
231.136	122.19
231.37	122.19
231.604	126.19
231.838	123.19
232.072	132.19
232.306	140.19
232.541	133.19
232.775	132.19
233.009	132.19
233.243	105.19
233.477	140.19
233.711	136.19
233.945	125.19
234.179	130.19
234.413	136.19
234.647	155.19
234.881	135.19
235.115	119.19
235.349	142.19
235.583	142.19
235.817	139.19
236.051	128.19
236.285	122.19
236.519	130.19
236.753	140.19
236.987	152.19
237.221	147.19
237.455	140.19
237.689	140.19
237.922	137.19
238.156	139.19
238.39	139.19
238.624	142.19
238.858	159.19
239.091	139.19
239.325	151.19
239.559	163.19
239.793	155.19
240.027	154.19
240.26	149.19
240.494	144.19
240.728	151.19
240.961	152.19
241.195	158.19
241.429	171.19
241.662	165.19
241.896	181.19
242.13	183.19
242.363	172.19
242.597	182.19
242.83	197.19
243.064	175.19
243.298	171.19
243.531	188.19
243.765	192.19
243.998	178.19
244.232	177.19
244.465	177.19
244.699	189.19
244.932	185.19
245.166	196.19
245.399	188.19
245.633	178.19
245.866	225.19
246.099	186.19
246.333	193.19
246.566	184.19
246.8	195.19
247.033	208.19
247.266	199.19
247.5	203.19
247.733	215.19
247.966	209.19
248.2	205.19
248.433	231.19
248.666	216.19
248.899	210.19
249.133	202.19
249.366	215.19
249.599	212.19
249.832	222.19
250.066	225.19
250.299	227.19
250.532	219.19
250.765	219.19
250.998	235.19
251.231	218.19
251.465	235.19
251.698	235.19
251.931	226.19
252.164	259.19
252.397	233.19
252.63	234.19
252.863	238.19
253.096	245.19
253.329	245.19
253.562	250.19
253.795	246.19
254.028	243.19
254.261	257.19
254.494	243.19
254.727	258.19
254.96	249.19
255.193	238.19
255.426	246.19
255.659	256.19
255.892	260.19
256.124	244.19
256.357	260.19
256.59	251.19
256.823	257.19
257.056	272.19
257.289	253.19
257.521	276.19
257.754	265.19
257.987	263.19
258.22	264.19
258.452	267.19
258.685	281.19
258.918	282.19
259.151	264.19
259.383	281.19
259.616	292.19
259.849	274.19
260.081	277.19
260.314	270.19
260.547	303.19
260.779	288.19
261.012	289.19
261.244	273.19
261.477	282.19
261.71	308.19
261.942	291.19
262.175	295.19
262.407	290.19
262.64	311.19
262.872	300.19
263.105	308.19
263.337	300.19
263.57	317.19
263.802	308.19
264.035	317.19
264.267	304.19
264.499	313.19
264.732	295.19
264.964	300.19
265.197	298.19
265.429	315.19
265.661	294.19
265.894	312.19
266.126	304.19
266.358	313.19
266.591	309.19
266.823	337.19
267.055	325.19
267.287	330.19
267.52	328.19
267.752	311.19
267.984	318.19
268.216	321.19
268.448	337.19
268.681	338.19
268.913	323.19
269.145	318.19
269.377	315.19
269.609	336.19
269.841	336.19
270.073	334.19
270.306	344.19
270.538	322.19
270.77	330.19
271.002	342.19
271.234	332.19
271.466	331.19
271.698	346.19
271.93	322.19
272.162	334.19
272.394	352.19
272.626	358.19
272.858	333.19
273.09	361.19
273.322	346.19
273.553	362.19
273.785	356.19
274.017	366.19
274.249	389.19
274.481	373.19
274.713	353.19
274.945	364.19
275.176	364.19
275.408	361.19
275.64	356.19
275.872	372.19
276.104	365.19
276.335	376.19
276.567	366.19
276.799	359.19
277.031	364.19
277.262	352.19
277.494	365.19
277.726	369.19
277.957	368.19
278.189	388.19
278.421	371.19
278.652	393.19
278.884	397.19
279.115	371.19
279.347	380.19
279.579	386.19
279.81	375.19
280.042	388.19
280.273	382.19
280.505	393.19
280.736	390.19
280.968	395.19
281.199	391.19
281.431	398.19
281.662	409.19
281.894	410.19
282.125	394.19
282.356	408.19
282.588	402.19
282.819	397.19
283.051	398.19
283.282	385.19
283.513	412.19
283.745	404.19
283.976	391.19
284.207	423.19
284.439	421.19
284.67	419.19
284.901	420.19
285.132	416.19
285.364	415.19
285.595	419.19
285.826	412.19
286.057	417.19
286.288	406.19
286.52	430.19
286.751	434.19
286.982	433.19
287.213	429.19
287.444	416.19
287.675	436.19
287.906	436.19
288.138	444.19
288.369	434.19
288.6	429.19
288.831	440.19
289.062	444.19
289.293	452.19
289.524	449.19
289.755	439.19
289.986	450.19
290.217	462.19
290.448	441.19
290.679	458.19
290.91	453.19
291.141	462.19
291.371	458.19
291.602	442.19
291.833	435.19
292.064	455.19
292.295	461.19
292.526	453.19
292.757	451.19
292.987	465.19
293.218	450.19
293.449	456.19
293.68	462.19
293.91	443.19
294.141	440.19
294.372	438.19
294.603	456.19
294.833	458.19
295.064	453.19
295.295	477.19
295.525	452.19
295.756	474.19
295.987	444.19
296.217	457.19
296.448	465.19
296.679	485.19
296.909	468.19
297.14	483.19
297.37	485.19
297.601	506.19
297.831	488.19
298.062	478.19
298.292	496.19
298.523	511.19
298.753	500.19
298.984	494.19
299.214	496.19
299.445	485.19
299.675	504.19
299.905	499.19
300.136	468.19
300.366	492.19
300.597	491.19
300.827	508.19
301.057	534.19
301.288	510.19
301.518	516.19
301.748	513.19
301.979	525.19
302.209	518.19
302.439	514.19
302.669	498.19
302.9	512.19
303.13	484.19
303.36	502.19
303.59	489.19
303.82	504.19
304.051	504.19
304.281	493.19
304.511	498.19
304.741	514.19
304.971	525.19
305.201	516.19
305.431	501.19
305.661	501.19
305.891	501.19
306.121	491.19
306.352	482.19
306.582	493.19
306.812	471.19
307.042	509.19
307.272	504.19
307.502	508.19
307.731	502.19
307.961	512.19
308.191	511.19
308.421	498.19
308.651	485.19
308.881	484.19
309.111	482.19
309.341	502.19
309.571	505.19
309.8	498.19
310.03	511.19
310.26	508.19
310.49	503.19
310.72	492.19
310.949	485.19
311.179	498.19
311.409	518.19
311.639	510.19
311.868	512.19
312.098	532.19
312.328	511.19
312.557	528.19
312.787	521.19
313.017	538.19
313.246	523.19
313.476	547.19
313.706	540.19
313.935	537.19
314.165	544.19
314.394	544.19
314.624	549.19
314.853	501.19
315.083	533.19
315.312	537.19
315.542	554.19
315.771	514.19
316.001	531.19
316.23	522.19
316.46	528.19
316.689	527.19
316.919	491.19
317.148	542.19
317.377	501.19
317.607	508.19
317.836	521.19
318.065	501.19
318.295	531.19
318.524	525.19
318.753	498.19
318.983	525.19
319.212	520.19
319.441	536.19
319.67	538.19
319.9	530.19
320.129	515.19
320.358	525.19
320.587	518.19
320.816	520.19
321.046	502.19
321.275	542.19
321.504	536.19
321.733	536.19
321.962	526.19
322.191	531.19
322.42	518.19
322.649	530.19
322.878	554.19
323.108	556.19
323.337	540.19
323.566	512.19
323.795	546.19
324.024	549.19
324.253	549.19
324.482	542.19
324.71	542.19
324.939	571.19
325.168	544.19
325.397	570.19
325.626	585.19
325.855	576.19
326.084	599.19
326.313	601.19
326.542	605.19
326.77	609.19
326.999	594.19
327.228	553.19
327.457	585.19
327.686	590.19
327.914	608.19
328.143	603.19
328.372	584.19
328.6	587.19
328.829	584.19
329.058	596.19
329.287	588.19
329.515	597.19
329.744	614.19
329.972	601.19
330.201	614.19
330.43	601.19
330.658	624.19
330.887	619.19
331.115	609.19
331.344	634.19
331.572	648.19
331.801	648.19
332.03	643.19
332.258	678.19
332.486	673.19
332.715	731.19
332.943	724.19
333.172	789.19
333.4	800.19
333.629	845.19
333.857	830.19
334.085	808.19
334.314	774.19
334.542	758.19
334.771	777.19
334.999	745.19
335.227	751.19
335.455	766.19
335.684	737.19
335.912	733.19
336.14	724.19
336.369	734.19
336.597	735.19
336.825	747.19
337.053	724.19
337.281	705.19
337.51	712.19
337.738	703.19
337.966	666.19
338.194	685.19
338.422	658.19
338.65	634.19
338.878	668.19
339.106	654.19
339.334	660.19
339.562	644.19
339.79	634.19
340.018	624.19
340.246	632.19
340.474	651.19
340.702	636.19
340.93	633.19
341.158	636.19
341.386	643.19
341.614	658.19
341.842	664.19
342.07	637.19
342.298	627.19
342.526	630.19
342.754	622.19
342.981	602.19
343.209	644.19
343.437	660.19
343.665	698.19
343.893	785.19
344.12	797.19
344.348	753.19
344.576	709.19
344.804	679.19
345.031	654.19
345.259	661.19
345.487	658.19
345.714	627.19
345.942	616.19
346.17	626.19
346.397	636.19
346.625	642.19
346.853	632.19
347.08	632.19
347.308	597.19
347.535	655.19
347.763	628.19
347.99	638.19
348.218	650.19
348.445	641.19
348.673	637.19
348.9	618.19
349.128	600.19
349.355	612.19
349.583	631.19
349.81	600.19
350.037	605.19
350.265	596.19
350.492	592.19
350.72	590.19
350.947	582.19
351.174	595.19
351.402	599.19
351.629	611.19
351.856	610.19
352.083	589.19
352.311	582.19
352.538	596.19
352.765	612.19
352.992	591.19
353.22	587.19
353.447	592.19
353.674	585.19
353.901	583.19
354.128	596.19
354.355	580.19
354.583	584.19
354.81	591.19
355.037	596.19
355.264	582.19
355.491	593.19
355.718	590.19
355.945	610.19
356.172	593.19
356.399	597.19
356.626	612.19
356.853	615.19
357.08	584.19
357.307	625.19
357.534	610.19
357.761	617.19
357.988	582.19
358.215	573.19
358.441	569.19
358.668	589.19
358.895	584.19
359.122	595.19
359.349	584.19
359.576	606.19
359.802	594.19
360.029	571.19
360.256	625.19
360.483	603.19
360.709	573.19
360.936	574.19
361.163	584.19
361.39	597.19
361.616	602.19
361.843	591.19
362.07	602.19
362.296	601.19
362.523	595.19
362.749	591.19
362.976	576.19
363.203	601.19
363.429	553.19
363.656	577.19
363.882	584.19
364.109	593.19
364.335	618.19
364.562	586.19
364.788	564.19
365.015	591.19
365.241	574.19
365.468	581.19
365.694	572.19
365.92	581.19
366.147	573.19
366.373	554.19
366.599	578.19
366.826	570.19
367.052	586.19
367.278	576.19
367.505	591.19
367.731	597.19
367.957	586.19
368.184	584.19
368.41	602.19
368.636	622.19
368.862	595.19
369.089	590.19
369.315	631.19
369.541	640.19
369.767	616.19
369.993	618.19
370.219	594.19
370.445	628.19
370.672	624.19
370.898	613.19
371.124	619.19
371.35	657.19
371.576	646.19
371.802	639.19
372.028	641.19
372.254	641.19
372.48	649.19
372.706	644.19
372.932	668.19
373.158	649.19
373.384	644.19
373.61	639.19
373.835	623.19
374.061	639.19
374.287	646.19
374.513	668.19
374.739	672.19
374.965	696.19
375.191	700.19
375.416	725.19
375.642	682.19
375.868	662.19
376.094	653.19
376.319	638.19
376.545	659.19
376.771	640.19
376.997	636.19
377.222	631.19
377.448	619.19
377.674	650.19
377.899	653.19
378.125	640.19
378.35	633.19
378.576	644.19
378.802	621.19
379.027	610.19
379.253	630.19
379.478	620.19
379.704	642.19
379.929	629.19
380.155	630.19
380.38	631.19
380.606	617.19
380.831	633.19
381.057	628.19
381.282	630.19
381.507	627.19
381.733	636.19
381.958	633.19
382.184	655.19
382.409	652.19
382.634	653.19
382.86	695.19
383.085	674.19
383.31	652.19
383.535	702.19
383.761	671.19
383.986	690.19
384.211	729.19
384.436	728.19
384.662	740.19
384.887	776.19
385.112	739.19
385.337	756.19
385.562	742.19
385.787	784.19
386.013	731.19
386.238	751.19
386.463	765.19
386.688	776.19
386.913	761.19
387.138	735.19
387.363	738.19
387.588	730.19
387.813	747.19
388.038	750.19
388.263	736.19
388.488	773.19
388.713	722.19
388.938	738.19
389.163	707.19
389.387	720.19
389.612	724.19
389.837	733.19
390.062	731.19
390.287	728.19
390.512	701.19
390.736	736.19
390.961	746.19
391.186	748.19
391.411	787.19
391.636	805.19
391.86	799.19
392.085	841.19
392.31	834.19
392.534	811.19
392.759	790.19
392.984	793.19
393.208	788.19
393.433	782.19
393.658	796.19
393.882	812.19
394.107	828.19
394.331	822.19
394.556	788.19
394.78	804.19
395.005	770.19
395.229	803.19
395.454	823.19
395.678	826.19
395.903	838.19
396.127	802.19
396.352	803.19
396.576	790.19
396.801	789.19
397.025	770.19
397.249	810.19
397.474	838.19
397.698	856.19
397.922	835.19
398.147	823.19
398.371	845.19
398.595	844.19
398.82	907.19
399.044	915.19
399.268	1043.19
399.492	1260.19
399.717	1407.19
399.941	1440.19
400.165	1266.19
400.389	1104.19
400.613	1028.19
400.837	957.19
401.062	928.19
401.286	942.19
401.51	920.19
401.734	905.19
401.958	941.19
402.182	945.19
402.406	950.19
402.63	981.19
402.854	961.19
403.078	999.19
403.302	1047.19
403.526	1043.19
403.75	1093.19
403.974	1111.19
404.198	1124.19
404.422	1131.19
404.645	1074.19
404.869	1052.19
405.093	1093.19
405.317	1036.19
405.541	1064.19
405.765	1026.19
405.988	986.19
406.212	1023.19
406.436	1016.19
406.66	1068.19
406.883	1039.19
407.107	1099.19
407.331	1166.19
407.555	1213.19
407.778	1245.19
408.002	1192.19
408.226	1138.19
408.449	1117.19
408.673	1107.19
408.896	1092.19
409.12	1086.19
409.344	1098.19
409.567	1061.19
409.791	1115.19
410.014	1100.19
410.238	1077.19
410.461	1084.19
410.685	1090.19
410.908	1030.19
411.132	1015.19
411.355	978.19
411.578	984.19
411.802	989.19
412.025	978.19
412.249	1015.19
412.472	991.19
412.695	942.19
412.919	931.19
413.142	969.19
413.365	950.19
413.589	953.19
413.812	938.19
414.035	932.19
414.258	912.19
414.482	925.19
414.705	976.19
414.928	978.19
415.151	952.19
415.374	956.19
415.597	951.19
415.821	921.19
416.044	953.19
416.267	927.19
416.49	933.19
416.713	924.19
416.936	930.19
417.159	909.19
417.382	925.19
417.605	955.19
417.828	938.19
418.051	933.19
418.274	970.19
418.497	940.19
418.72	973.19
418.943	977.19
419.166	1021.19
419.389	1072.19
419.611	1078.19
419.834	1060.19
420.057	989.19
420.28	947.19
420.503	915.19
420.726	932.19
420.948	932.19
421.171	945.19
421.394	936.19
421.617	963.19
421.839	956.19
422.062	932.19
422.285	941.19
422.507	1008.19
422.73	957.19
422.953	1005.19
423.175	989.19
423.398	1009.19
423.621	1000.19
423.843	1052.19
424.066	1029.19
424.288	1017.19
424.511	1016.19
424.733	999.19
424.956	967.19
425.178	962.19
425.401	974.19
425.623	960.19
425.846	921.19
426.068	923.19
426.291	929.19
426.513	892.19
426.735	918.19
426.958	902.19
427.18	878.19
427.402	910.19
427.625	852.19
427.847	854.19
428.069	878.19
428.292	838.19
428.514	851.19
428.736	864.19
428.958	846.19
429.181	841.19
429.403	834.19
429.625	845.19
429.847	838.19
430.069	805.19
430.292	818.19
430.514	843.19
430.736	847.19
430.958	839.19
431.18	839.19
431.402	830.19
431.624	855.19
431.846	857.19
432.068	880.19
432.29	877.19
432.512	846.19
432.734	851.19
432.956	836.19
433.178	880.19
433.4	883.19
433.622	889.19
433.844	868.19
434.066	885.19
434.287	889.19
434.509	909.19
434.731	942.19
434.953	970.19
435.175	958.19
435.397	974.19
435.618	937.19
435.84	896.19
436.062	883.19
436.284	870.19
436.505	862.19
436.727	866.19
436.949	858.19
437.17	859.19
437.392	844.19
437.614	855.19
437.835	822.19
438.057	812.19
438.278	819.19
438.5	816.19
438.721	845.19
438.943	827.19
439.165	856.19
439.386	852.19
439.608	867.19
439.829	851.19
440.05	868.19
440.272	878.19
440.493	893.19
440.715	914.19
440.936	904.19
441.158	905.19
441.379	968.19
441.6	987.19
441.822	1026.19
442.043	995.19
442.264	974.19
442.486	945.19
442.707	941.19
442.928	944.19
443.149	949.19
443.371	941.19
443.592	988.19
443.813	952.19
444.034	981.19
444.255	996.19
444.476	1064.19
444.698	1140.19
444.919	1184.19
445.14	1276.19
445.361	1093.19
445.582	1025.19
445.803	945.19
446.024	951.19
446.245	888.19
446.466	888.19
446.687	889.19
446.908	892.19
447.129	921.19
447.35	843.19
447.571	824.19
447.792	848.19
448.013	846.19
448.234	828.19
448.455	820.19
448.675	786.19
448.896	806.19
449.117	795.19
449.338	790.19
449.559	805.19
449.779	802.19
450	789.19
450.221	803.19
450.442	802.19
450.662	812.19
450.883	849.19
451.104	856.19
451.324	848.19
451.545	861.19
451.766	855.19
451.986	829.19
452.207	823.19
452.428	796.19
452.648	800.19
452.869	797.19
453.089	816.19
453.31	812.19
453.53	788.19
453.751	794.19
453.971	773.19
454.192	775.19
454.412	764.19
454.633	769.19
454.853	781.19
455.073	741.19
455.294	759.19
455.514	770.19
455.734	758.19
455.955	759.19
456.175	749.19
456.395	740.19
456.616	738.19
456.836	753.19
457.056	759.19
457.276	725.19
457.497	759.19
457.717	723.19
457.937	736.19
458.157	742.19
458.377	759.19
458.598	769.19
458.818	811.19
459.038	816.19
459.258	848.19
459.478	859.19
459.698	906.19
459.918	948.19
460.138	962.19
460.358	995.19
460.578	1044.19
460.798	1050.19
461.018	1062.19
461.238	1038.19
461.458	1041.19
461.678	1009.19
461.898	1053.19
462.118	1044.19
462.338	1108.19
462.558	1125.19
462.777	1126.19
462.997	1305.19
463.217	1409.19
463.437	1406.19
463.657	1286.19
463.876	1208.19
464.096	1173.19
464.316	1185.19
464.536	1208.19
464.755	1168.19
464.975	1114.19
465.195	1083.19
465.414	984.19
465.634	944.19
465.854	909.19
466.073	924.19
466.293	868.19
466.512	866.19
466.732	837.19
466.951	841.19
467.171	824.19
467.391	839.19
467.61	842.19
467.829	833.19
468.049	826.19
468.268	833.19
468.488	809.19
468.707	789.19
468.927	810.19
469.146	812.19
469.365	837.19
469.585	822.19
469.804	818.19
470.023	856.19
470.243	867.19
470.462	880.19
470.681	876.19
470.901	900.19
471.12	850.19
471.339	816.19
471.558	840.19
471.777	823.19
471.997	832.19
472.216	781.19
472.435	775.19
472.654	783.19
472.873	754.19
473.092	768.19
473.311	748.19
473.53	773.19
473.749	764.19
473.968	795.19
474.187	786.19
474.406	788.19
474.625	774.19
474.844	772.19
475.063	797.19
475.282	786.19
475.501	804.19
475.72	781.19
475.939	790.19
476.158	829.19
476.377	844.19
476.596	791.19
476.814	806.19
477.033	826.19
477.252	832.19
477.471	856.19
477.69	871.19
477.908	908.19
478.127	946.19
478.346	947.19
478.564	962.19
478.783	934.19
479.002	1000.19
479.22	946.19
479.439	987.19
479.658	966.19
479.876	972.19
480.095	988.19
480.313	1035.19
480.532	1066.19
480.751	1050.19
480.969	978.19
481.188	993.19
481.406	996.19
481.624	908.19
481.843	888.19
482.061	911.19
482.28	896.19
482.498	892.19
482.717	882.19
482.935	898.19
483.153	891.19
483.372	902.19
483.59	918.19
483.808	899.19
484.027	912.19
484.245	930.19
484.463	902.19
484.681	915.19
484.9	907.19
485.118	947.19
485.336	933.19
485.554	917.19
485.772	972.19
485.99	932.19
486.209	967.19
486.427	969.19
486.645	963.19
486.863	989.19
487.081	957.19
487.299	952.19
487.517	961.19
487.735	928.19
487.953	951.19
488.171	959.19
488.389	966.19
488.607	923.19
488.825	905.19
489.043	929.19
489.261	908.19
489.479	899.19
489.696	921.19
489.914	933.19
490.132	978.19
490.35	956.19
490.568	937.19
490.786	954.19
491.003	952.19
491.221	964.19
491.439	974.19
491.657	980.19
491.874	965.19
492.092	960.19
492.31	960.19
492.527	975.19
492.745	982.19
492.963	980.19
493.18	973.19
493.398	957.19
493.615	981.19
493.833	985.19
494.05	997.19
494.268	993.19
494.485	1024.19
494.703	1024.19
494.92	1040.19
495.138	1027.19
495.355	996.19
495.573	1010.19
495.79	998.19
496.008	1028.19
496.225	1008.19
496.442	1005.19
496.66	1046.19
496.877	1045.19
497.094	1061.19
497.312	1096.19
497.529	1074.19
497.746	1123.19
497.963	1137.19
498.181	1159.19
498.398	1241.19
498.615	1314.19
498.832	1403.19
499.049	1532.19
499.267	1637.19
499.484	1765.19
499.701	1974.19
499.918	2178.19
