Data from Ni(NO3)2Standard.Agarose3%.GreenCap.LampEnergy5.5.E.O_HRD10591_14-41-09-188.txt Node
Date: Mon Jul 22 14:41:09 EDT 2019
User: cochatt
Spectrometer: HR+D1059
Trigger mode: 1
Integration Time (sec): 1.000000E-1
Scans to average: 1
Electric dark correction enabled: true
Nonlinearity correction enabled: false
Boxcar width: 0
XAxis mode: Wavelengths
Number of Pixels in Spectrum: 2048
>>>>>Begin Spectral Data<<<<<
223.165	-20.12
223.4	-20.12
223.635	-20.12
223.869	-26.12
224.104	-17.12
224.338	-28.12
224.573	-3.12
224.808	-7.12
225.042	-6.12
225.277	-8.12
225.511	-1.12
225.746	7.88
225.98	7.88
226.215	3.88
226.449	22.88
226.683	16.88
226.918	25.88
227.152	31.88
227.387	47.88
227.621	30.88
227.856	58.88
228.09	51.88
228.324	59.88
228.559	45.88
228.793	63.88
229.027	67.88
229.262	71.88
229.496	71.88
229.73	66.88
229.964	71.88
230.199	80.88
230.433	85.88
230.667	77.88
230.901	70.88
231.136	81.88
231.37	65.88
231.604	75.88
231.838	78.88
232.072	81.88
232.306	93.88
232.541	90.88
232.775	81.88
233.009	87.88
233.243	82.88
233.477	66.88
233.711	91.88
233.945	84.88
234.179	93.88
234.413	87.88
234.647	81.88
234.881	73.88
235.115	85.88
235.349	90.88
235.583	79.88
235.817	94.88
236.051	95.88
236.285	85.88
236.519	91.88
236.753	77.88
236.987	73.88
237.221	81.88
237.455	72.88
237.689	77.88
237.922	78.88
238.156	71.88
238.39	74.88
238.624	75.88
238.858	78.88
239.091	80.88
239.325	79.88
239.559	83.88
239.793	77.88
240.027	91.88
240.26	75.88
240.494	86.88
240.728	73.88
240.961	73.88
241.195	79.88
241.429	85.88
241.662	96.88
241.896	81.88
242.13	77.88
242.363	84.88
242.597	76.88
242.83	81.88
243.064	76.88
243.298	79.88
243.531	82.88
243.765	91.88
243.998	78.88
244.232	81.88
244.465	83.88
244.699	83.88
244.932	75.88
245.166	85.88
245.399	75.88
245.633	60.88
245.866	81.88
246.099	84.88
246.333	75.88
246.566	89.88
246.8	88.88
247.033	98.88
247.266	82.88
247.5	85.88
247.733	87.88
247.966	77.88
248.2	81.88
248.433	72.88
248.666	77.88
248.899	85.88
249.133	79.88
249.366	75.88
249.599	83.88
249.832	79.88
250.066	89.88
250.299	72.88
250.532	93.88
250.765	96.88
250.998	75.88
251.231	80.88
251.465	76.88
251.698	84.88
251.931	90.88
252.164	94.88
252.397	88.88
252.63	72.88
252.863	91.88
253.096	95.88
253.329	79.88
253.562	79.88
253.795	92.88
254.028	91.88
254.261	81.88
254.494	91.88
254.727	89.88
254.96	76.88
255.193	85.88
255.426	83.88
255.659	84.88
255.892	81.88
256.124	80.88
256.357	73.88
256.59	84.88
256.823	69.88
257.056	77.88
257.289	93.88
257.521	82.88
257.754	87.88
257.987	86.88
258.22	82.88
258.452	81.88
258.685	81.88
258.918	91.88
259.151	94.88
259.383	87.88
259.616	79.88
259.849	89.88
260.081	85.88
260.314	91.88
260.547	79.88
260.779	84.88
261.012	74.88
261.244	80.88
261.477	95.88
261.71	86.88
261.942	85.88
262.175	81.88
262.407	75.88
262.64	84.88
262.872	97.88
263.105	84.88
263.337	90.88
263.57	90.88
263.802	80.88
264.035	85.88
264.267	77.88
264.499	76.88
264.732	85.88
264.964	79.88
265.197	91.88
265.429	75.88
265.661	82.88
265.894	84.88
266.126	92.88
266.358	86.88
266.591	93.88
266.823	86.88
267.055	79.88
267.287	98.88
267.52	91.88
267.752	93.88
267.984	96.88
268.216	75.88
268.448	79.88
268.681	80.88
268.913	92.88
269.145	90.88
269.377	88.88
269.609	77.88
269.841	77.88
270.073	77.88
270.306	75.88
270.538	83.88
270.77	73.88
271.002	83.88
271.234	84.88
271.466	94.88
271.698	78.88
271.93	78.88
272.162	91.88
272.394	78.88
272.626	96.88
272.858	82.88
273.09	83.88
273.322	99.88
273.553	77.88
273.785	89.88
274.017	75.88
274.249	95.88
274.481	83.88
274.713	85.88
274.945	87.88
275.176	89.88
275.408	91.88
275.64	99.88
275.872	76.88
276.104	81.88
276.335	104.88
276.567	84.88
276.799	77.88
277.031	81.88
277.262	93.88
277.494	88.88
277.726	90.88
277.957	78.88
278.189	87.88
278.421	90.88
278.652	93.88
278.884	90.88
279.115	78.88
279.347	78.88
279.579	96.88
279.81	82.88
280.042	89.88
280.273	81.88
280.505	85.88
280.736	91.88
280.968	84.88
281.199	94.88
281.431	74.88
281.662	81.88
281.894	78.88
282.125	107.88
282.356	86.88
282.588	89.88
282.819	85.88
283.051	81.88
283.282	91.88
283.513	82.88
283.745	76.88
283.976	95.88
284.207	95.88
284.439	82.88
284.67	88.88
284.901	95.88
285.132	75.88
285.364	85.88
285.595	80.88
285.826	82.88
286.057	100.88
286.288	90.88
286.52	80.88
286.751	90.88
286.982	89.88
287.213	95.88
287.444	87.88
287.675	78.88
287.906	95.88
288.138	86.88
288.369	91.88
288.6	96.88
288.831	92.88
289.062	93.88
289.293	99.88
289.524	85.88
289.755	87.88
289.986	88.88
290.217	87.88
290.448	99.88
290.679	78.88
290.91	90.88
291.141	92.88
291.371	88.88
291.602	100.88
291.833	95.88
292.064	85.88
292.295	84.88
292.526	92.88
292.757	86.88
292.987	83.88
293.218	95.88
293.449	83.88
293.68	84.88
293.91	90.88
294.141	94.88
294.372	92.88
294.603	82.88
294.833	85.88
295.064	94.88
295.295	90.88
295.525	83.88
295.756	97.88
295.987	92.88
296.217	85.88
296.448	91.88
296.679	82.88
296.909	88.88
297.14	84.88
297.37	89.88
297.601	92.88
297.831	105.88
298.062	86.88
298.292	101.88
298.523	82.88
298.753	98.88
298.984	87.88
299.214	89.88
299.445	85.88
299.675	93.88
299.905	91.88
300.136	92.88
300.366	86.88
300.597	100.88
300.827	84.88
301.057	79.88
301.288	73.88
301.518	87.88
301.748	76.88
301.979	88.88
302.209	96.88
302.439	102.88
302.669	87.88
302.9	87.88
303.13	81.88
303.36	83.88
303.59	83.88
303.82	91.88
304.051	108.88
304.281	94.88
304.511	83.88
304.741	91.88
304.971	89.88
305.201	85.88
305.431	88.88
305.661	92.88
305.891	89.88
306.121	85.88
306.352	85.88
306.582	93.88
306.812	96.88
307.042	85.88
307.272	85.88
307.502	70.88
307.731	94.88
307.961	94.88
308.191	88.88
308.421	93.88
308.651	89.88
308.881	87.88
309.111	91.88
309.341	102.88
309.571	92.88
309.8	80.88
310.03	82.88
310.26	91.88
310.49	77.88
310.72	99.88
310.949	84.88
311.179	103.88
311.409	81.88
311.639	87.88
311.868	84.88
312.098	96.88
312.328	91.88
312.557	93.88
312.787	81.88
313.017	84.88
313.246	88.88
313.476	72.88
313.706	96.88
313.935	94.88
314.165	96.88
314.394	75.88
314.624	97.88
314.853	99.88
315.083	95.88
315.312	84.88
315.542	77.88
315.771	84.88
316.001	84.88
316.23	87.88
316.46	86.88
316.689	99.88
316.919	85.88
317.148	92.88
317.377	103.88
317.607	90.88
317.836	99.88
318.065	85.88
318.295	88.88
318.524	101.88
318.753	102.88
318.983	85.88
319.212	80.88
319.441	85.88
319.67	83.88
319.9	91.88
320.129	83.88
320.358	91.88
320.587	78.88
320.816	97.88
321.046	85.88
321.275	85.88
321.504	99.88
321.733	101.88
321.962	86.88
322.191	84.88
322.42	85.88
322.649	84.88
322.878	97.88
323.108	86.88
323.337	92.88
323.566	68.88
323.795	77.88
324.024	93.88
324.253	89.88
324.482	100.88
324.71	95.88
324.939	91.88
325.168	93.88
325.397	104.88
325.626	102.88
325.855	80.88
326.084	87.88
326.313	76.88
326.542	80.88
326.77	100.88
326.999	87.88
327.228	95.88
327.457	96.88
327.686	91.88
327.914	95.88
328.143	92.88
328.372	84.88
328.6	96.88
328.829	82.88
329.058	85.88
329.287	87.88
329.515	74.88
329.744	88.88
329.972	77.88
330.201	85.88
330.43	101.88
330.658	83.88
330.887	93.88
331.115	102.88
331.344	94.88
331.572	95.88
331.801	96.88
332.03	95.88
332.258	88.88
332.486	101.88
332.715	98.88
332.943	84.88
333.172	92.88
333.4	89.88
333.629	90.88
333.857	102.88
334.085	81.88
334.314	89.88
334.542	97.88
334.771	83.88
334.999	104.88
335.227	89.88
335.455	94.88
335.684	100.88
335.912	95.88
336.14	84.88
336.369	89.88
336.597	97.88
336.825	93.88
337.053	88.88
337.281	99.88
337.51	89.88
337.738	104.88
337.966	85.88
338.194	87.88
338.422	92.88
338.65	81.88
338.878	85.88
339.106	87.88
339.334	93.88
339.562	104.88
339.79	87.88
340.018	87.88
340.246	78.88
340.474	100.88
340.702	94.88
340.93	96.88
341.158	91.88
341.386	100.88
341.614	90.88
341.842	104.88
342.07	98.88
342.298	80.88
342.526	97.88
342.754	97.88
342.981	103.88
343.209	79.88
343.437	94.88
343.665	102.88
343.893	96.88
344.12	89.88
344.348	97.88
344.576	86.88
344.804	100.88
345.031	92.88
345.259	95.88
345.487	79.88
345.714	73.88
345.942	82.88
346.17	83.88
346.397	91.88
346.625	100.88
346.853	104.88
347.08	93.88
347.308	92.88
347.535	105.88
347.763	103.88
347.99	97.88
348.218	94.88
348.445	82.88
348.673	89.88
348.9	103.88
349.128	104.88
349.355	94.88
349.583	99.88
349.81	70.88
350.037	73.88
350.265	90.88
350.492	79.88
350.72	81.88
350.947	95.88
351.174	88.88
351.402	88.88
351.629	95.88
351.856	84.88
352.083	103.88
352.311	89.88
352.538	86.88
352.765	89.88
352.992	79.88
353.22	89.88
353.447	75.88
353.674	95.88
353.901	89.88
354.128	88.88
354.355	90.88
354.583	86.88
354.81	96.88
355.037	86.88
355.264	95.88
355.491	84.88
355.718	97.88
355.945	84.88
356.172	85.88
356.399	88.88
356.626	105.88
356.853	84.88
357.08	91.88
357.307	92.88
357.534	90.88
357.761	94.88
357.988	94.88
358.215	90.88
358.441	96.88
358.668	93.88
358.895	102.88
359.122	85.88
359.349	87.88
359.576	83.88
359.802	91.88
360.029	71.88
360.256	94.88
360.483	94.88
360.709	93.88
360.936	88.88
361.163	85.88
361.39	86.88
361.616	85.88
361.843	87.88
362.07	89.88
362.296	89.88
362.523	104.88
362.749	87.88
362.976	87.88
363.203	80.88
363.429	78.88
363.656	76.88
363.882	96.88
364.109	88.88
364.335	97.88
364.562	72.88
364.788	92.88
365.015	79.88
365.241	83.88
365.468	103.88
365.694	99.88
365.92	98.88
366.147	84.88
366.373	94.88
366.599	104.88
366.826	97.88
367.052	93.88
367.278	92.88
367.505	72.88
367.731	93.88
367.957	85.88
368.184	84.88
368.41	92.88
368.636	78.88
368.862	88.88
369.089	77.88
369.315	105.88
369.541	80.88
369.767	105.88
369.993	90.88
370.219	86.88
370.445	80.88
370.672	94.88
370.898	86.88
371.124	91.88
371.35	88.88
371.576	98.88
371.802	104.88
372.028	86.88
372.254	93.88
372.48	107.88
372.706	94.88
372.932	77.88
373.158	79.88
373.384	78.88
373.61	83.88
373.835	89.88
374.061	100.88
374.287	86.88
374.513	88.88
374.739	80.88
374.965	90.88
375.191	93.88
375.416	71.88
375.642	102.88
375.868	102.88
376.094	88.88
376.319	98.88
376.545	96.88
376.771	80.88
376.997	97.88
377.222	78.88
377.448	87.88
377.674	97.88
377.899	103.88
378.125	86.88
378.35	93.88
378.576	84.88
378.802	86.88
379.027	84.88
379.253	100.88
379.478	107.88
379.704	91.88
379.929	88.88
380.155	85.88
380.38	88.88
380.606	70.88
380.831	96.88
381.057	98.88
381.282	85.88
381.507	86.88
381.733	91.88
381.958	88.88
382.184	84.88
382.409	90.88
382.634	85.88
382.86	102.88
383.085	100.88
383.31	95.88
383.535	95.88
383.761	87.88
383.986	85.88
384.211	89.88
384.436	67.88
384.662	79.88
384.887	108.88
385.112	83.88
385.337	80.88
385.562	83.88
385.787	79.88
386.013	84.88
386.238	90.88
386.463	77.88
386.688	71.88
386.913	87.88
387.138	87.88
387.363	82.88
387.588	96.88
387.813	85.88
388.038	92.88
388.263	65.88
388.488	83.88
388.713	86.88
388.938	101.88
389.163	101.88
389.387	83.88
389.612	83.88
389.837	99.88
390.062	89.88
390.287	79.88
390.512	96.88
390.736	83.88
390.961	97.88
391.186	90.88
391.411	93.88
391.636	81.88
391.86	90.88
392.085	97.88
392.31	84.88
392.534	97.88
392.759	93.88
392.984	96.88
393.208	92.88
393.433	84.88
393.658	83.88
393.882	83.88
394.107	90.88
394.331	75.88
394.556	87.88
394.78	94.88
395.005	86.88
395.229	95.88
395.454	92.88
395.678	101.88
395.903	82.88
396.127	93.88
396.352	89.88
396.576	93.88
396.801	90.88
397.025	102.88
397.249	82.88
397.474	99.88
397.698	95.88
397.922	80.88
398.147	87.88
398.371	93.88
398.595	87.88
398.82	80.88
399.044	84.88
399.268	90.88
399.492	93.88
399.717	94.88
399.941	91.88
400.165	103.88
400.389	84.88
400.613	87.88
400.837	87.88
401.062	81.88
401.286	91.88
401.51	86.88
401.734	69.88
401.958	90.88
402.182	83.88
402.406	96.88
402.63	77.88
402.854	80.88
403.078	97.88
403.302	84.88
403.526	92.88
403.75	93.88
403.974	89.88
404.198	88.88
404.422	80.88
404.645	90.88
404.869	93.88
405.093	88.88
405.317	85.88
405.541	88.88
405.765	98.88
405.988	87.88
406.212	87.88
406.436	86.88
406.66	93.88
406.883	79.88
407.107	88.88
407.331	85.88
407.555	84.88
407.778	81.88
408.002	93.88
408.226	79.88
408.449	83.88
408.673	99.88
408.896	92.88
409.12	99.88
409.344	84.88
409.567	94.88
409.791	80.88
410.014	88.88
410.238	91.88
410.461	85.88
410.685	83.88
410.908	81.88
411.132	89.88
411.355	80.88
411.578	85.88
411.802	86.88
412.025	75.88
412.249	79.88
412.472	96.88
412.695	91.88
412.919	86.88
413.142	93.88
413.365	93.88
413.589	103.88
413.812	97.88
414.035	79.88
414.258	79.88
414.482	98.88
414.705	94.88
414.928	95.88
415.151	86.88
415.374	78.88
415.597	91.88
415.821	97.88
416.044	70.88
416.267	80.88
416.49	82.88
416.713	85.88
416.936	95.88
417.159	92.88
417.382	97.88
417.605	92.88
417.828	93.88
418.051	79.88
418.274	83.88
418.497	77.88
418.72	85.88
418.943	91.88
419.166	88.88
419.389	95.88
419.611	99.88
419.834	103.88
420.057	83.88
420.28	85.88
420.503	84.88
420.726	89.88
420.948	86.88
421.171	103.88
421.394	89.88
421.617	77.88
421.839	80.88
422.062	79.88
422.285	88.88
422.507	84.88
422.73	81.88
422.953	100.88
423.175	87.88
423.398	99.88
423.621	79.88
423.843	92.88
424.066	91.88
424.288	91.88
424.511	104.88
424.733	104.88
424.956	97.88
425.178	87.88
425.401	93.88
425.623	89.88
425.846	79.88
426.068	77.88
426.291	92.88
426.513	91.88
426.735	99.88
426.958	94.88
427.18	100.88
427.402	70.88
427.625	100.88
427.847	92.88
428.069	84.88
428.292	74.88
428.514	72.88
428.736	87.88
428.958	76.88
429.181	106.88
429.403	93.88
429.625	88.88
429.847	88.88
430.069	62.88
430.292	96.88
430.514	97.88
430.736	100.88
430.958	99.88
431.18	93.88
431.402	96.88
431.624	73.88
431.846	87.88
432.068	82.88
432.29	86.88
432.512	78.88
432.734	91.88
432.956	92.88
433.178	88.88
433.4	76.88
433.622	101.88
433.844	81.88
434.066	98.88
434.287	106.88
434.509	85.88
434.731	88.88
434.953	91.88
435.175	103.88
435.397	78.88
435.618	99.88
435.84	89.88
436.062	93.88
436.284	89.88
436.505	80.88
436.727	88.88
436.949	89.88
437.17	90.88
437.392	77.88
437.614	88.88
437.835	80.88
438.057	89.88
438.278	90.88
438.5	83.88
438.721	87.88
438.943	90.88
439.165	98.88
439.386	79.88
439.608	87.88
439.829	87.88
440.05	84.88
440.272	89.88
440.493	87.88
440.715	94.88
440.936	86.88
441.158	81.88
441.379	95.88
441.6	88.88
441.822	101.88
442.043	85.88
442.264	85.88
442.486	93.88
442.707	94.88
442.928	112.88
443.149	88.88
443.371	94.88
443.592	83.88
443.813	76.88
444.034	94.88
444.255	91.88
444.476	93.88
444.698	86.88
444.919	77.88
445.14	224.88
445.361	141.88
445.582	96.88
445.803	84.88
446.024	86.88
446.245	85.88
446.466	94.88
446.687	96.88
446.908	79.88
447.129	87.88
447.35	97.88
447.571	99.88
447.792	86.88
448.013	80.88
448.234	91.88
448.455	84.88
448.675	81.88
448.896	92.88
449.117	81.88
449.338	91.88
449.559	94.88
449.779	79.88
450	79.88
450.221	76.88
450.442	79.88
450.662	85.88
450.883	93.88
451.104	90.88
451.324	82.88
451.545	78.88
451.766	93.88
451.986	83.88
452.207	87.88
452.428	99.88
452.648	99.88
452.869	93.88
453.089	96.88
453.31	80.88
453.53	85.88
453.751	84.88
453.971	95.88
454.192	87.88
454.412	84.88
454.633	93.88
454.853	88.88
455.073	88.88
455.294	87.88
455.514	96.88
455.734	85.88
455.955	86.88
456.175	76.88
456.395	92.88
456.616	92.88
456.836	87.88
457.056	79.88
457.276	81.88
457.497	104.88
457.717	95.88
457.937	85.88
458.157	90.88
458.377	95.88
458.598	84.88
458.818	92.88
459.038	88.88
459.258	84.88
459.478	80.88
459.698	79.88
459.918	88.88
460.138	85.88
460.358	90.88
460.578	92.88
460.798	86.88
461.018	100.88
461.238	77.88
461.458	85.88
461.678	87.88
461.898	98.88
462.118	97.88
462.338	99.88
462.558	89.88
462.777	95.88
462.997	91.88
463.217	91.88
463.437	80.88
463.657	92.88
463.876	107.88
464.096	94.88
464.316	100.88
464.536	87.88
464.755	97.88
464.975	90.88
465.195	85.88
465.414	95.88
465.634	89.88
465.854	85.88
466.073	86.88
466.293	95.88
466.512	94.88
466.732	90.88
466.951	87.88
467.171	92.88
467.391	99.88
467.61	91.88
467.829	103.88
468.049	86.88
468.268	91.88
468.488	84.88
468.707	83.88
468.927	107.88
469.146	81.88
469.365	92.88
469.585	97.88
469.804	111.88
470.023	92.88
470.243	93.88
470.462	102.88
470.681	96.88
470.901	95.88
471.12	92.88
471.339	89.88
471.558	89.88
471.777	99.88
471.997	84.88
472.216	94.88
472.435	90.88
472.654	85.88
472.873	97.88
473.092	89.88
473.311	83.88
473.53	99.88
473.749	99.88
473.968	80.88
474.187	91.88
474.406	90.88
474.625	93.88
474.844	102.88
475.063	87.88
475.282	86.88
475.501	81.88
475.72	102.88
475.939	95.88
476.158	98.88
476.377	76.88
476.596	97.88
476.814	99.88
477.033	79.88
477.252	80.88
477.471	98.88
477.69	83.88
477.908	99.88
478.127	93.88
478.346	94.88
478.564	95.88
478.783	93.88
479.002	98.88
479.22	96.88
479.439	90.88
479.658	94.88
479.876	105.88
480.095	97.88
480.313	99.88
480.532	72.88
480.751	93.88
480.969	80.88
481.188	97.88
481.406	97.88
481.624	95.88
481.843	92.88
482.061	90.88
482.28	94.88
482.498	93.88
482.717	94.88
482.935	85.88
483.153	93.88
483.372	97.88
483.59	94.88
483.808	107.88
484.027	100.88
484.245	109.88
484.463	99.88
484.681	87.88
484.9	105.88
485.118	102.88
485.336	94.88
485.554	77.88
485.772	91.88
485.99	95.88
486.209	101.88
486.427	79.88
486.645	98.88
486.863	105.88
487.081	88.88
487.299	99.88
487.517	98.88
487.735	82.88
487.953	87.88
488.171	98.88
488.389	105.88
488.607	91.88
488.825	87.88
489.043	103.88
489.261	88.88
489.479	95.88
489.696	96.88
489.914	103.88
490.132	102.88
490.35	101.88
490.568	89.88
490.786	100.88
491.003	102.88
491.221	90.88
491.439	113.88
491.657	98.88
491.874	95.88
492.092	98.88
492.31	104.88
492.527	85.88
492.745	97.88
492.963	99.88
493.18	94.88
493.398	104.88
493.615	92.88
493.833	100.88
494.05	114.88
494.268	113.88
494.485	103.88
494.703	97.88
494.92	107.88
495.138	89.88
495.355	108.88
495.573	91.88
495.79	98.88
496.008	93.88
496.225	107.88
496.442	98.88
496.66	102.88
496.877	98.88
497.094	108.88
497.312	102.88
497.529	102.88
497.746	97.88
497.963	93.88
498.181	91.88
498.398	90.88
498.615	104.88
498.832	93.88
499.049	111.88
499.267	99.88
499.484	112.88
499.701	105.88
499.918	103.88
500.135	120.88
500.352	106.88
500.569	121.88
500.786	97.88
501.003	96.88
501.22	99.88
501.437	103.88
501.654	119.88
501.871	100.88
502.088	103.88
502.305	102.88
502.522	100.88
502.739	96.88
502.956	87.88
503.172	99.88
503.389	107.88
503.606	88.88
503.823	85.88
504.04	102.88
504.256	102.88
504.473	102.88
504.69	111.88
504.907	103.88
505.123	115.88
505.34	97.88
505.557	98.88
505.773	83.88
505.99	109.88
506.207	94.88
506.423	100.88
506.64	96.88
506.856	99.88
507.073	94.88
507.289	101.88
507.506	94.88
507.722	103.88
507.939	84.88
508.155	105.88
508.372	96.88
508.588	75.88
508.805	102.88
509.021	96.88
509.238	105.88
509.454	89.88
509.67	94.88
509.887	95.88
510.103	94.88
510.319	85.88
510.536	91.88
510.752	100.88
510.968	84.88
511.184	82.88
511.401	95.88
511.617	109.88
511.833	100.88
512.049	87.88
512.265	89.88
512.481	95.88
512.698	84.88
512.914	77.88
513.13	108.88
513.346	85.88
513.562	101.88
513.778	97.88
513.994	91.88
514.21	86.88
514.426	88.88
514.642	107.88
514.858	89.88
515.074	73.88
515.29	93.88
515.506	105.88
515.721	99.88
515.937	99.88
516.153	93.88
516.369	107.88
516.585	94.88
516.801	106.88
517.016	114.88
517.232	97.88
