Data from Ni(NO3)2@0.25M.TitratingCurve.Agarose3%dH2O.NegLispCup.LampEnergy10.LIBS07252019_HRD10591_18-05-22-566.txt Node
Date: Thu Jul 25 18:05:22 EDT 2019
User: cochatt
Spectrometer: HR+D1059
Trigger mode: 1
Integration Time (sec): 1.000000E-1
Scans to average: 1
Electric dark correction enabled: true
Nonlinearity correction enabled: false
Boxcar width: 0
XAxis mode: Wavelengths
Number of Pixels in Spectrum: 2048
>>>>>Begin Spectral Data<<<<<
223.165	-14.62
223.4	-14.62
223.635	-14.62
223.869	-25.62
224.104	1.38
224.338	-12.62
224.573	-7.62
224.808	-10.62
225.042	-3.62
225.277	-15.62
225.511	-6.62
225.746	5.38
225.98	5.38
226.215	8.38
226.449	12.38
226.683	16.38
226.918	20.38
227.152	27.38
227.387	32.38
227.621	31.38
227.856	46.38
228.09	35.38
228.324	42.38
228.559	65.38
228.793	59.38
229.027	73.38
229.262	89.38
229.496	98.38
229.73	81.38
229.964	100.38
230.199	79.38
230.433	81.38
230.667	95.38
230.901	91.38
231.136	97.38
231.37	89.38
231.604	82.38
231.838	89.38
232.072	90.38
232.306	102.38
232.541	88.38
232.775	106.38
233.009	102.38
233.243	94.38
233.477	92.38
233.711	106.38
233.945	96.38
234.179	93.38
234.413	107.38
234.647	114.38
234.881	106.38
235.115	97.38
235.349	97.38
235.583	103.38
235.817	100.38
236.051	100.38
236.285	113.38
236.519	106.38
236.753	95.38
236.987	109.38
237.221	89.38
237.455	106.38
237.689	95.38
237.922	102.38
238.156	100.38
238.39	111.38
238.624	115.38
238.858	117.38
239.091	104.38
239.325	108.38
239.559	108.38
239.793	113.38
240.027	111.38
240.26	104.38
240.494	119.38
240.728	112.38
240.961	114.38
241.195	114.38
241.429	120.38
241.662	116.38
241.896	106.38
242.13	115.38
242.363	104.38
242.597	113.38
242.83	116.38
243.064	120.38
243.298	122.38
243.531	119.38
243.765	113.38
243.998	139.38
244.232	126.38
244.465	123.38
244.699	119.38
244.932	115.38
245.166	122.38
245.399	120.38
245.633	127.38
245.866	125.38
246.099	120.38
246.333	121.38
246.566	124.38
246.8	121.38
247.033	138.38
247.266	112.38
247.5	123.38
247.733	141.38
247.966	141.38
248.2	127.38
248.433	137.38
248.666	130.38
248.899	151.38
249.133	149.38
249.366	131.38
249.599	136.38
249.832	135.38
250.066	139.38
250.299	148.38
250.532	143.38
250.765	147.38
250.998	155.38
251.231	147.38
251.465	152.38
251.698	159.38
251.931	138.38
252.164	159.38
252.397	151.38
252.63	177.38
252.863	164.38
253.096	172.38
253.329	167.38
253.562	145.38
253.795	150.38
254.028	172.38
254.261	173.38
254.494	157.38
254.727	163.38
254.96	155.38
255.193	177.38
255.426	172.38
255.659	153.38
255.892	184.38
256.124	170.38
256.357	183.38
256.59	170.38
256.823	171.38
257.056	182.38
257.289	170.38
257.521	187.38
257.754	177.38
257.987	174.38
258.22	183.38
258.452	179.38
258.685	186.38
258.918	202.38
259.151	187.38
259.383	185.38
259.616	184.38
259.849	190.38
260.081	197.38
260.314	177.38
260.547	184.38
260.779	188.38
261.012	196.38
261.244	200.38
261.477	182.38
261.71	183.38
261.942	177.38
262.175	188.38
262.407	192.38
262.64	203.38
262.872	219.38
263.105	184.38
263.337	207.38
263.57	199.38
263.802	199.38
264.035	210.38
264.267	204.38
264.499	218.38
264.732	216.38
264.964	207.38
265.197	196.38
265.429	211.38
265.661	204.38
265.894	210.38
266.126	210.38
266.358	220.38
266.591	207.38
266.823	218.38
267.055	212.38
267.287	215.38
267.52	212.38
267.752	224.38
267.984	216.38
268.216	225.38
268.448	232.38
268.681	212.38
268.913	219.38
269.145	225.38
269.377	230.38
269.609	217.38
269.841	241.38
270.073	220.38
270.306	205.38
270.538	215.38
270.77	224.38
271.002	225.38
271.234	226.38
271.466	232.38
271.698	219.38
271.93	214.38
272.162	249.38
272.394	251.38
272.626	230.38
272.858	245.38
273.09	240.38
273.322	232.38
273.553	224.38
273.785	235.38
274.017	236.38
274.249	252.38
274.481	244.38
274.713	229.38
274.945	257.38
275.176	225.38
275.408	225.38
275.64	227.38
275.872	244.38
276.104	246.38
276.335	237.38
276.567	251.38
276.799	223.38
277.031	246.38
277.262	225.38
277.494	242.38
277.726	242.38
277.957	243.38
278.189	245.38
278.421	236.38
278.652	245.38
278.884	219.38
279.115	231.38
279.347	235.38
279.579	264.38
279.81	242.38
280.042	248.38
280.273	233.38
280.505	267.38
280.736	248.38
280.968	257.38
281.199	259.38
281.431	244.38
281.662	249.38
281.894	254.38
282.125	245.38
282.356	245.38
282.588	257.38
282.819	288.38
283.051	274.38
283.282	259.38
283.513	279.38
283.745	287.38
283.976	260.38
284.207	275.38
284.439	241.38
284.67	277.38
284.901	267.38
285.132	276.38
285.364	283.38
285.595	259.38
285.826	265.38
286.057	277.38
286.288	268.38
286.52	271.38
286.751	261.38
286.982	263.38
287.213	286.38
287.444	284.38
287.675	275.38
287.906	278.38
288.138	288.38
288.369	251.38
288.6	267.38
288.831	253.38
289.062	282.38
289.293	266.38
289.524	262.38
289.755	266.38
289.986	272.38
290.217	273.38
290.448	295.38
290.679	284.38
290.91	280.38
291.141	281.38
291.371	256.38
291.602	279.38
291.833	277.38
292.064	261.38
292.295	288.38
292.526	269.38
292.757	285.38
292.987	288.38
293.218	287.38
293.449	278.38
293.68	277.38
293.91	299.38
294.141	278.38
294.372	268.38
294.603	267.38
294.833	257.38
295.064	290.38
295.295	285.38
295.525	301.38
295.756	291.38
295.987	279.38
296.217	288.38
296.448	281.38
296.679	275.38
296.909	284.38
297.14	291.38
297.37	274.38
297.601	283.38
297.831	286.38
298.062	287.38
298.292	293.38
298.523	305.38
298.753	292.38
298.984	325.38
299.214	320.38
299.445	306.38
299.675	291.38
299.905	294.38
300.136	319.38
300.366	298.38
300.597	309.38
300.827	295.38
301.057	311.38
301.288	296.38
301.518	309.38
301.748	298.38
301.979	307.38
302.209	318.38
302.439	297.38
302.669	313.38
302.9	303.38
303.13	305.38
303.36	312.38
303.59	324.38
303.82	315.38
304.051	295.38
304.281	317.38
304.511	305.38
304.741	322.38
304.971	303.38
305.201	289.38
305.431	307.38
305.661	321.38
305.891	319.38
306.121	308.38
306.352	307.38
306.582	305.38
306.812	316.38
307.042	306.38
307.272	298.38
307.502	301.38
307.731	307.38
307.961	313.38
308.191	297.38
308.421	325.38
308.651	294.38
308.881	303.38
309.111	319.38
309.341	304.38
309.571	328.38
309.8	327.38
310.03	316.38
310.26	295.38
310.49	327.38
310.72	329.38
310.949	329.38
311.179	330.38
311.409	325.38
311.639	320.38
311.868	325.38
312.098	331.38
312.328	324.38
312.557	336.38
312.787	326.38
313.017	337.38
313.246	354.38
313.476	332.38
313.706	339.38
313.935	341.38
314.165	342.38
314.394	350.38
314.624	349.38
314.853	352.38
315.083	336.38
315.312	345.38
315.542	329.38
315.771	356.38
316.001	359.38
316.23	355.38
316.46	346.38
316.689	336.38
316.919	355.38
317.148	351.38
317.377	340.38
317.607	353.38
317.836	349.38
318.065	332.38
318.295	343.38
318.524	343.38
318.753	372.38
318.983	365.38
319.212	350.38
319.441	355.38
319.67	360.38
319.9	367.38
320.129	350.38
320.358	355.38
320.587	370.38
320.816	346.38
321.046	357.38
321.275	367.38
321.504	375.38
321.733	362.38
321.962	379.38
322.191	371.38
322.42	364.38
322.649	381.38
322.878	373.38
323.108	370.38
323.337	370.38
323.566	388.38
323.795	389.38
324.024	390.38
324.253	403.38
324.482	396.38
324.71	382.38
324.939	371.38
325.168	408.38
325.397	386.38
325.626	394.38
325.855	419.38
326.084	415.38
326.313	427.38
326.542	414.38
326.77	422.38
326.999	418.38
327.228	411.38
327.457	415.38
327.686	418.38
327.914	416.38
328.143	438.38
328.372	419.38
328.6	403.38
328.829	429.38
329.058	417.38
329.287	417.38
329.515	428.38
329.744	431.38
329.972	434.38
330.201	434.38
330.43	438.38
330.658	417.38
330.887	444.38
331.115	438.38
331.344	447.38
331.572	463.38
331.801	454.38
332.03	473.38
332.258	479.38
332.486	489.38
332.715	485.38
332.943	513.38
333.172	552.38
333.4	544.38
333.629	562.38
333.857	563.38
334.085	556.38
334.314	569.38
334.542	554.38
334.771	549.38
334.999	543.38
335.227	547.38
335.455	524.38
335.684	523.38
335.912	525.38
336.14	534.38
336.369	531.38
336.597	538.38
336.825	515.38
337.053	516.38
337.281	541.38
337.51	520.38
337.738	500.38
337.966	475.38
338.194	496.38
338.422	469.38
338.65	462.38
338.878	485.38
339.106	509.38
339.334	501.38
339.562	497.38
339.79	472.38
340.018	464.38
340.246	465.38
340.474	459.38
340.702	467.38
340.93	468.38
341.158	472.38
341.386	469.38
341.614	473.38
341.842	467.38
342.07	475.38
342.298	477.38
342.526	457.38
342.754	466.38
342.981	465.38
343.209	467.38
343.437	498.38
343.665	523.38
343.893	539.38
344.12	563.38
344.348	537.38
344.576	515.38
344.804	492.38
345.031	495.38
345.259	481.38
345.487	491.38
345.714	461.38
345.942	483.38
346.17	486.38
346.397	477.38
346.625	449.38
346.853	472.38
347.08	453.38
347.308	455.38
347.535	458.38
347.763	475.38
347.99	463.38
348.218	479.38
348.445	457.38
348.673	454.38
348.9	460.38
349.128	440.38
349.355	465.38
349.583	451.38
349.81	466.38
350.037	428.38
350.265	470.38
350.492	435.38
350.72	456.38
350.947	442.38
351.174	438.38
351.402	466.38
351.629	431.38
351.856	444.38
352.083	453.38
352.311	435.38
352.538	459.38
352.765	459.38
352.992	455.38
353.22	417.38
353.447	435.38
353.674	421.38
353.901	435.38
354.128	441.38
354.355	427.38
354.583	444.38
354.81	459.38
355.037	444.38
355.264	459.38
355.491	435.38
355.718	448.38
355.945	437.38
356.172	465.38
356.399	441.38
356.626	433.38
356.853	437.38
357.08	432.38
357.307	442.38
357.534	449.38
357.761	459.38
357.988	439.38
358.215	446.38
358.441	434.38
358.668	444.38
358.895	443.38
359.122	432.38
359.349	447.38
359.576	417.38
359.802	439.38
360.029	437.38
360.256	450.38
360.483	428.38
360.709	416.38
360.936	435.38
361.163	436.38
361.39	438.38
361.616	447.38
361.843	440.38
362.07	459.38
362.296	459.38
362.523	447.38
362.749	436.38
362.976	425.38
363.203	444.38
363.429	417.38
363.656	418.38
363.882	432.38
364.109	415.38
364.335	426.38
364.562	420.38
364.788	422.38
365.015	455.38
365.241	431.38
365.468	442.38
365.694	428.38
365.92	413.38
366.147	422.38
366.373	448.38
366.599	422.38
366.826	454.38
367.052	436.38
367.278	440.38
367.505	427.38
367.731	427.38
367.957	416.38
368.184	448.38
368.41	436.38
368.636	435.38
368.862	435.38
369.089	439.38
369.315	443.38
369.541	442.38
369.767	438.38
369.993	431.38
370.219	445.38
370.445	453.38
370.672	464.38
370.898	464.38
371.124	476.38
371.35	457.38
371.576	473.38
371.802	449.38
372.028	448.38
372.254	468.38
372.48	462.38
372.706	452.38
372.932	454.38
373.158	470.38
373.384	482.38
373.61	473.38
373.835	449.38
374.061	475.38
374.287	460.38
374.513	477.38
374.739	482.38
374.965	513.38
375.191	489.38
375.416	509.38
375.642	493.38
375.868	471.38
376.094	459.38
376.319	474.38
376.545	464.38
376.771	463.38
376.997	457.38
377.222	464.38
377.448	443.38
377.674	450.38
377.899	454.38
378.125	442.38
378.35	442.38
378.576	457.38
378.802	442.38
379.027	423.38
379.253	472.38
379.478	457.38
379.704	412.38
379.929	433.38
380.155	431.38
380.38	446.38
380.606	463.38
380.831	453.38
381.057	475.38
381.282	462.38
381.507	460.38
381.733	448.38
381.958	451.38
382.184	465.38
382.409	467.38
382.634	471.38
382.86	470.38
383.085	483.38
383.31	474.38
383.535	472.38
383.761	461.38
383.986	497.38
384.211	514.38
384.436	516.38
384.662	491.38
384.887	529.38
385.112	493.38
385.337	513.38
385.562	530.38
385.787	539.38
386.013	521.38
386.238	534.38
386.463	520.38
386.688	524.38
386.913	512.38
387.138	492.38
387.363	517.38
387.588	504.38
387.813	517.38
388.038	513.38
388.263	522.38
388.488	518.38
388.713	527.38
388.938	529.38
389.163	506.38
389.387	495.38
389.612	491.38
389.837	492.38
390.062	511.38
390.287	523.38
390.512	523.38
390.736	523.38
390.961	529.38
391.186	516.38
391.411	557.38
391.636	554.38
391.86	581.38
392.085	598.38
392.31	583.38
392.534	593.38
392.759	557.38
392.984	567.38
393.208	536.38
393.433	519.38
393.658	549.38
393.882	549.38
394.107	564.38
394.331	559.38
394.556	552.38
394.78	568.38
395.005	543.38
395.229	532.38
395.454	576.38
395.678	587.38
395.903	571.38
396.127	563.38
396.352	583.38
396.576	558.38
396.801	561.38
397.025	564.38
397.249	582.38
397.474	594.38
397.698	583.38
397.922	562.38
398.147	588.38
398.371	607.38
398.595	615.38
398.82	648.38
399.044	671.38
399.268	744.38
399.492	823.38
399.717	910.38
399.941	889.38
400.165	815.38
400.389	786.38
400.613	695.38
400.837	656.38
401.062	671.38
401.286	673.38
401.51	651.38
401.734	649.38
401.958	675.38
402.182	654.38
402.406	688.38
402.63	671.38
402.854	673.38
403.078	667.38
403.302	707.38
403.526	696.38
403.75	718.38
403.974	746.38
404.198	729.38
404.422	738.38
404.645	726.38
404.869	707.38
405.093	716.38
405.317	701.38
405.541	703.38
405.765	729.38
405.988	709.38
406.212	718.38
406.436	726.38
406.66	733.38
406.883	765.38
407.107	785.38
407.331	796.38
407.555	819.38
407.778	837.38
408.002	789.38
408.226	776.38
408.449	761.38
408.673	768.38
408.896	731.38
409.12	735.38
409.344	757.38
409.567	777.38
409.791	753.38
410.014	738.38
410.238	732.38
410.461	722.38
410.685	693.38
410.908	710.38
411.132	713.38
411.355	675.38
411.578	690.38
411.802	679.38
412.025	693.38
412.249	718.38
412.472	721.38
412.695	716.38
412.919	659.38
413.142	673.38
413.365	668.38
413.589	681.38
413.812	667.38
414.035	673.38
414.258	680.38
414.482	677.38
414.705	685.38
414.928	699.38
415.151	699.38
415.374	694.38
415.597	685.38
415.821	669.38
416.044	661.38
416.267	656.38
416.49	668.38
416.713	661.38
416.936	670.38
417.159	661.38
417.382	668.38
417.605	670.38
417.828	670.38
418.051	696.38
418.274	685.38
418.497	665.38
418.72	687.38
418.943	692.38
419.166	705.38
419.389	757.38
419.611	751.38
419.834	739.38
420.057	724.38
420.28	650.38
420.503	669.38
420.726	681.38
420.948	654.38
421.171	672.38
421.394	672.38
421.617	673.38
421.839	665.38
422.062	692.38
422.285	701.38
422.507	700.38
422.73	692.38
422.953	677.38
423.175	701.38
423.398	711.38
423.621	713.38
423.843	705.38
424.066	723.38
424.288	712.38
424.511	714.38
424.733	711.38
424.956	699.38
425.178	697.38
425.401	688.38
425.623	703.38
425.846	664.38
426.068	670.38
426.291	674.38
426.513	659.38
426.735	660.38
426.958	684.38
427.18	657.38
427.402	649.38
427.625	632.38
427.847	647.38
428.069	626.38
428.292	642.38
428.514	635.38
428.736	617.38
428.958	636.38
429.181	638.38
429.403	625.38
429.625	610.38
429.847	637.38
430.069	593.38
430.292	604.38
430.514	590.38
430.736	623.38
430.958	620.38
431.18	625.38
431.402	646.38
431.624	618.38
431.846	651.38
432.068	612.38
432.29	634.38
432.512	621.38
432.734	641.38
432.956	632.38
433.178	641.38
433.4	632.38
433.622	654.38
433.844	649.38
434.066	657.38
434.287	647.38
434.509	651.38
434.731	712.38
434.953	689.38
435.175	701.38
435.397	708.38
435.618	664.38
435.84	652.38
436.062	620.38
436.284	644.38
436.505	635.38
436.727	635.38
436.949	643.38
437.17	637.38
437.392	624.38
437.614	630.38
437.835	617.38
438.057	597.38
438.278	605.38
438.5	623.38
438.721	621.38
438.943	607.38
439.165	618.38
439.386	637.38
439.608	647.38
439.829	637.38
440.05	625.38
440.272	657.38
440.493	654.38
440.715	651.38
440.936	678.38
441.158	687.38
441.379	679.38
441.6	713.38
441.822	697.38
442.043	707.38
442.264	699.38
442.486	681.38
442.707	690.38
442.928	668.38
443.149	693.38
443.371	714.38
443.592	717.38
443.813	729.38
444.034	700.38
444.255	716.38
444.476	780.38
444.698	790.38
444.919	820.38
445.14	901.38
445.361	807.38
445.582	733.38
445.803	682.38
446.024	691.38
446.245	681.38
446.466	667.38
446.687	680.38
446.908	668.38
447.129	653.38
447.35	634.38
447.571	624.38
447.792	617.38
448.013	635.38
448.234	610.38
448.455	629.38
448.675	601.38
448.896	585.38
449.117	575.38
449.338	592.38
449.559	587.38
449.779	600.38
450	586.38
450.221	603.38
450.442	591.38
450.662	600.38
450.883	609.38
451.104	609.38
451.324	596.38
451.545	564.38
451.766	580.38
451.986	589.38
452.207	581.38
452.428	583.38
452.648	595.38
452.869	575.38
453.089	579.38
453.31	564.38
453.53	571.38
453.751	573.38
453.971	584.38
454.192	555.38
454.412	571.38
454.633	563.38
454.853	540.38
455.073	542.38
455.294	545.38
455.514	553.38
455.734	557.38
455.955	564.38
456.175	547.38
456.395	545.38
456.616	557.38
456.836	545.38
457.056	537.38
457.276	554.38
457.497	560.38
457.717	545.38
457.937	565.38
458.157	548.38
458.377	571.38
458.598	587.38
458.818	620.38
459.038	592.38
459.258	628.38
459.478	647.38
459.698	663.38
459.918	676.38
460.138	695.38
460.358	732.38
460.578	712.38
460.798	754.38
461.018	748.38
461.238	732.38
461.458	736.38
461.678	734.38
461.898	747.38
462.118	756.38
462.338	789.38
462.558	803.38
462.777	837.38
462.997	888.38
463.217	938.38
463.437	966.38
463.657	865.38
463.876	870.38
464.096	845.38
464.316	817.38
464.536	831.38
464.755	795.38
464.975	809.38
465.195	756.38
465.414	693.38
465.634	674.38
465.854	669.38
466.073	658.38
466.293	640.38
466.512	615.38
466.732	619.38
466.951	636.38
467.171	616.38
467.391	613.38
467.61	624.38
467.829	594.38
468.049	594.38
468.268	605.38
468.488	588.38
468.707	588.38
468.927	604.38
469.146	589.38
469.365	611.38
469.585	597.38
469.804	633.38
470.023	639.38
470.243	624.38
470.462	633.38
470.681	649.38
470.901	641.38
471.12	635.38
471.339	657.38
471.558	623.38
471.777	631.38
471.997	595.38
472.216	596.38
472.435	588.38
472.654	599.38
472.873	577.38
473.092	579.38
473.311	584.38
473.53	604.38
473.749	586.38
473.968	588.38
474.187	565.38
474.406	575.38
474.625	577.38
474.844	586.38
475.063	592.38
475.282	585.38
475.501	586.38
475.72	602.38
475.939	598.38
476.158	604.38
476.377	588.38
476.596	595.38
476.814	613.38
477.033	634.38
477.252	625.38
477.471	650.38
477.69	633.38
477.908	665.38
478.127	671.38
478.346	656.38
478.564	687.38
478.783	699.38
479.002	725.38
479.22	724.38
479.439	736.38
479.658	723.38
479.876	676.38
480.095	699.38
480.313	755.38
480.532	744.38
480.751	746.38
480.969	712.38
481.188	705.38
481.406	673.38
481.624	673.38
481.843	665.38
482.061	690.38
482.28	673.38
482.498	667.38
482.717	661.38
482.935	665.38
483.153	654.38
483.372	678.38
483.59	680.38
483.808	671.38
484.027	685.38
484.245	659.38
484.463	674.38
484.681	700.38
484.9	677.38
485.118	651.38
485.336	666.38
485.554	651.38
485.772	674.38
485.99	682.38
486.209	660.38
486.427	704.38
486.645	693.38
486.863	695.38
487.081	683.38
487.299	681.38
487.517	691.38
487.735	705.38
487.953	696.38
488.171	716.38
488.389	693.38
488.607	695.38
488.825	670.38
489.043	698.38
489.261	668.38
489.479	685.38
489.696	684.38
489.914	682.38
490.132	701.38
490.35	685.38
490.568	698.38
490.786	735.38
491.003	688.38
491.221	725.38
491.439	703.38
491.657	730.38
491.874	699.38
492.092	741.38
492.31	744.38
492.527	743.38
492.745	737.38
492.963	728.38
493.18	735.38
493.398	758.38
493.615	726.38
493.833	732.38
494.05	744.38
494.268	737.38
494.485	725.38
494.703	744.38
494.92	761.38
495.138	784.38
495.355	758.38
495.573	760.38
495.79	766.38
496.008	751.38
496.225	775.38
496.442	776.38
496.66	803.38
496.877	829.38
497.094	808.38
497.312	827.38
497.529	823.38
497.746	829.38
497.963	884.38
498.181	885.38
498.398	919.38
498.615	981.38
498.832	1061.38
499.049	1094.38
499.267	1183.38
499.484	1287.38
499.701	1427.38
499.918	1496.38
500.135	1741.38
500.352	1885.38
500.569	1962.38
500.786	1923.38
501.003	1821.38
501.22	1651.38
501.437	1541.38
501.654	1373.38
