Data from Ni(NO3)2@0.25M.TitratingCurve.Agarose3%dH2O.NegLispCup.LampEnergy10.LIBS07252019_HRD10591_18-05-43-567.txt Node
Date: Thu Jul 25 18:05:43 EDT 2019
User: cochatt
Spectrometer: HR+D1059
Trigger mode: 1
Integration Time (sec): 1.000000E-1
Scans to average: 1
Electric dark correction enabled: true
Nonlinearity correction enabled: false
Boxcar width: 0
XAxis mode: Wavelengths
Number of Pixels in Spectrum: 2048
>>>>>Begin Spectral Data<<<<<
223.165	-19.38
223.4	-19.38
223.635	-19.38
223.869	-15.38
224.104	-10.38
224.338	-23.38
224.573	-29.38
224.808	-17.38
225.042	-23.38
225.277	-11.38
225.511	0.62
225.746	7.62
225.98	22.62
226.215	12.62
226.449	15.62
226.683	32.62
226.918	23.62
227.152	34.62
227.387	32.62
227.621	34.62
227.856	39.62
228.09	55.62
228.324	45.62
228.559	55.62
228.793	55.62
229.027	95.62
229.262	106.62
229.496	97.62
229.73	124.62
229.964	124.62
230.199	132.62
230.433	127.62
230.667	116.62
230.901	134.62
231.136	111.62
231.37	156.62
231.604	130.62
231.838	155.62
232.072	148.62
232.306	135.62
232.541	143.62
232.775	140.62
233.009	140.62
233.243	152.62
233.477	154.62
233.711	136.62
233.945	148.62
234.179	158.62
234.413	144.62
234.647	151.62
234.881	154.62
235.115	141.62
235.349	145.62
235.583	165.62
235.817	149.62
236.051	157.62
236.285	177.62
236.519	150.62
236.753	165.62
236.987	148.62
237.221	178.62
237.455	135.62
237.689	157.62
237.922	153.62
238.156	158.62
238.39	171.62
238.624	153.62
238.858	163.62
239.091	178.62
239.325	160.62
239.559	174.62
239.793	187.62
240.027	172.62
240.26	174.62
240.494	167.62
240.728	174.62
240.961	174.62
241.195	194.62
241.429	187.62
241.662	165.62
241.896	180.62
242.13	197.62
242.363	181.62
242.597	187.62
242.83	194.62
243.064	188.62
243.298	206.62
243.531	210.62
243.765	206.62
243.998	228.62
244.232	197.62
244.465	219.62
244.699	215.62
244.932	209.62
245.166	215.62
245.399	215.62
245.633	218.62
245.866	231.62
246.099	225.62
246.333	229.62
246.566	230.62
246.8	220.62
247.033	203.62
247.266	211.62
247.5	246.62
247.733	224.62
247.966	232.62
248.2	230.62
248.433	238.62
248.666	230.62
248.899	236.62
249.133	250.62
249.366	266.62
249.599	267.62
249.832	263.62
250.066	252.62
250.299	256.62
250.532	264.62
250.765	267.62
250.998	271.62
251.231	273.62
251.465	288.62
251.698	281.62
251.931	272.62
252.164	260.62
252.397	279.62
252.63	293.62
252.863	299.62
253.096	291.62
253.329	313.62
253.562	292.62
253.795	303.62
254.028	322.62
254.261	286.62
254.494	299.62
254.727	280.62
254.96	293.62
255.193	308.62
255.426	326.62
255.659	321.62
255.892	302.62
256.124	328.62
256.357	312.62
256.59	329.62
256.823	332.62
257.056	338.62
257.289	328.62
257.521	318.62
257.754	342.62
257.987	346.62
258.22	348.62
258.452	349.62
258.685	338.62
258.918	350.62
259.151	328.62
259.383	358.62
259.616	363.62
259.849	368.62
260.081	370.62
260.314	348.62
260.547	384.62
260.779	355.62
261.012	366.62
261.244	359.62
261.477	361.62
261.71	375.62
261.942	384.62
262.175	368.62
262.407	397.62
262.64	386.62
262.872	376.62
263.105	381.62
263.337	396.62
263.57	384.62
263.802	394.62
264.035	375.62
264.267	390.62
264.499	399.62
264.732	391.62
264.964	383.62
265.197	402.62
265.429	391.62
265.661	389.62
265.894	400.62
266.126	412.62
266.358	392.62
266.591	403.62
266.823	427.62
267.055	402.62
267.287	420.62
267.52	409.62
267.752	416.62
267.984	407.62
268.216	425.62
268.448	427.62
268.681	416.62
268.913	423.62
269.145	416.62
269.377	435.62
269.609	426.62
269.841	439.62
270.073	426.62
270.306	440.62
270.538	432.62
270.77	427.62
271.002	427.62
271.234	434.62
271.466	424.62
271.698	434.62
271.93	450.62
272.162	433.62
272.394	439.62
272.626	414.62
272.858	456.62
273.09	467.62
273.322	458.62
273.553	441.62
273.785	452.62
274.017	453.62
274.249	461.62
274.481	473.62
274.713	464.62
274.945	478.62
275.176	451.62
275.408	470.62
275.64	458.62
275.872	480.62
276.104	477.62
276.335	471.62
276.567	480.62
276.799	488.62
277.031	468.62
277.262	476.62
277.494	481.62
277.726	489.62
277.957	482.62
278.189	480.62
278.421	455.62
278.652	478.62
278.884	512.62
279.115	512.62
279.347	509.62
279.579	486.62
279.81	504.62
280.042	523.62
280.273	479.62
280.505	487.62
280.736	513.62
280.968	504.62
281.199	508.62
281.431	504.62
281.662	505.62
281.894	508.62
282.125	515.62
282.356	525.62
282.588	534.62
282.819	522.62
283.051	525.62
283.282	512.62
283.513	514.62
283.745	513.62
283.976	538.62
284.207	515.62
284.439	522.62
284.67	520.62
284.901	539.62
285.132	536.62
285.364	516.62
285.595	532.62
285.826	528.62
286.057	550.62
286.288	580.62
286.52	558.62
286.751	531.62
286.982	542.62
287.213	540.62
287.444	555.62
287.675	517.62
287.906	560.62
288.138	553.62
288.369	556.62
288.6	546.62
288.831	547.62
289.062	566.62
289.293	572.62
289.524	552.62
289.755	566.62
289.986	540.62
290.217	550.62
290.448	562.62
290.679	566.62
290.91	560.62
291.141	562.62
291.371	559.62
291.602	571.62
291.833	572.62
292.064	574.62
292.295	587.62
292.526	563.62
292.757	571.62
292.987	552.62
293.218	558.62
293.449	586.62
293.68	588.62
293.91	568.62
294.141	563.62
294.372	560.62
294.603	570.62
294.833	581.62
295.064	582.62
295.295	573.62
295.525	581.62
295.756	567.62
295.987	558.62
296.217	579.62
296.448	595.62
296.679	567.62
296.909	598.62
297.14	600.62
297.37	594.62
297.601	606.62
297.831	591.62
298.062	596.62
298.292	613.62
298.523	594.62
298.753	616.62
298.984	619.62
299.214	602.62
299.445	614.62
299.675	611.62
299.905	612.62
300.136	608.62
300.366	636.62
300.597	639.62
300.827	632.62
301.057	617.62
301.288	632.62
301.518	622.62
301.748	644.62
301.979	652.62
302.209	660.62
302.439	631.62
302.669	644.62
302.9	652.62
303.13	628.62
303.36	652.62
303.59	627.62
303.82	647.62
304.051	651.62
304.281	632.62
304.511	640.62
304.741	657.62
304.971	662.62
305.201	644.62
305.431	650.62
305.661	657.62
305.891	626.62
306.121	645.62
306.352	650.62
306.582	635.62
306.812	610.62
307.042	617.62
307.272	647.62
307.502	646.62
307.731	633.62
307.961	626.62
308.191	646.62
308.421	622.62
308.651	643.62
308.881	649.62
309.111	644.62
309.341	648.62
309.571	644.62
309.8	646.62
310.03	660.62
310.26	648.62
310.49	646.62
310.72	651.62
310.949	653.62
311.179	668.62
311.409	653.62
311.639	670.62
311.868	662.62
312.098	678.62
312.328	648.62
312.557	672.62
312.787	677.62
313.017	666.62
313.246	705.62
313.476	675.62
313.706	712.62
313.935	678.62
314.165	665.62
314.394	718.62
314.624	720.62
314.853	695.62
315.083	695.62
315.312	715.62
315.542	707.62
315.771	712.62
316.001	689.62
316.23	714.62
316.46	708.62
316.689	705.62
316.919	713.62
317.148	697.62
317.377	709.62
317.607	690.62
317.836	733.62
318.065	692.62
318.295	713.62
318.524	722.62
318.753	721.62
318.983	716.62
319.212	703.62
319.441	716.62
319.67	741.62
319.9	733.62
320.129	694.62
320.358	740.62
320.587	765.62
320.816	730.62
321.046	714.62
321.275	722.62
321.504	709.62
321.733	739.62
321.962	754.62
322.191	739.62
322.42	772.62
322.649	768.62
322.878	776.62
323.108	776.62
323.337	775.62
323.566	753.62
323.795	773.62
324.024	764.62
324.253	789.62
324.482	774.62
324.71	786.62
324.939	807.62
325.168	801.62
325.397	776.62
325.626	807.62
325.855	786.62
326.084	826.62
326.313	810.62
326.542	811.62
326.77	811.62
326.999	815.62
327.228	809.62
327.457	833.62
327.686	841.62
327.914	838.62
328.143	837.62
328.372	854.62
328.6	836.62
328.829	828.62
329.058	836.62
329.287	852.62
329.515	848.62
329.744	853.62
329.972	834.62
330.201	835.62
330.43	846.62
330.658	872.62
330.887	897.62
331.115	886.62
331.344	898.62
331.572	900.62
331.801	921.62
332.03	908.62
332.258	922.62
332.486	940.62
332.715	963.62
332.943	970.62
333.172	960.62
333.4	986.62
333.629	1000.62
333.857	1065.62
334.085	1082.62
334.314	1048.62
334.542	1090.62
334.771	1054.62
334.999	1083.62
335.227	1057.62
335.455	1078.62
335.684	1082.62
335.912	1106.62
336.14	1066.62
336.369	1065.62
336.597	1084.62
336.825	1046.62
337.053	1031.62
337.281	1030.62
337.51	1005.62
337.738	1022.62
337.966	984.62
338.194	1024.62
338.422	991.62
338.65	975.62
338.878	946.62
339.106	939.62
339.334	979.62
339.562	973.62
339.79	947.62
340.018	949.62
340.246	959.62
340.474	910.62
340.702	935.62
340.93	883.62
341.158	902.62
341.386	936.62
341.614	964.62
341.842	947.62
342.07	920.62
342.298	913.62
342.526	917.62
342.754	944.62
342.981	922.62
343.209	943.62
343.437	980.62
343.665	998.62
343.893	1008.62
344.12	1035.62
344.348	1056.62
344.576	1059.62
344.804	1020.62
345.031	975.62
345.259	959.62
345.487	944.62
345.714	960.62
345.942	948.62
346.17	989.62
346.397	943.62
346.625	916.62
346.853	907.62
347.08	912.62
347.308	863.62
347.535	873.62
347.763	901.62
347.99	916.62
348.218	888.62
348.445	886.62
348.673	893.62
348.9	876.62
349.128	898.62
349.355	901.62
349.583	921.62
349.81	887.62
350.037	866.62
350.265	864.62
350.492	872.62
350.72	870.62
350.947	832.62
351.174	844.62
351.402	881.62
351.629	875.62
351.856	875.62
352.083	850.62
352.311	865.62
352.538	875.62
352.765	922.62
352.992	860.62
353.22	856.62
353.447	850.62
353.674	843.62
353.901	859.62
354.128	873.62
354.355	853.62
354.583	843.62
354.81	863.62
355.037	865.62
355.264	844.62
355.491	848.62
355.718	844.62
355.945	845.62
356.172	864.62
356.399	892.62
356.626	886.62
356.853	907.62
357.08	867.62
357.307	852.62
357.534	865.62
357.761	853.62
357.988	878.62
358.215	857.62
358.441	852.62
358.668	839.62
358.895	846.62
359.122	853.62
359.349	856.62
359.576	853.62
359.802	830.62
360.029	839.62
360.256	859.62
360.483	840.62
360.709	870.62
360.936	863.62
361.163	838.62
361.39	852.62
361.616	876.62
361.843	856.62
362.07	887.62
362.296	885.62
362.523	882.62
362.749	855.62
362.976	837.62
363.203	864.62
363.429	860.62
363.656	868.62
363.882	866.62
364.109	861.62
364.335	833.62
364.562	856.62
364.788	819.62
365.015	846.62
365.241	858.62
365.468	831.62
365.694	855.62
365.92	850.62
366.147	836.62
366.373	847.62
366.599	834.62
366.826	854.62
367.052	856.62
367.278	870.62
367.505	837.62
367.731	861.62
367.957	843.62
368.184	871.62
368.41	835.62
368.636	862.62
368.862	863.62
369.089	858.62
369.315	876.62
369.541	875.62
369.767	875.62
369.993	871.62
370.219	854.62
370.445	873.62
370.672	891.62
370.898	859.62
371.124	898.62
371.35	872.62
371.576	891.62
371.802	900.62
372.028	914.62
372.254	884.62
372.48	904.62
372.706	933.62
372.932	944.62
373.158	960.62
373.384	915.62
373.61	909.62
373.835	870.62
374.061	910.62
374.287	894.62
374.513	934.62
374.739	923.62
374.965	968.62
375.191	965.62
375.416	912.62
375.642	934.62
375.868	923.62
376.094	914.62
376.319	918.62
376.545	904.62
376.771	888.62
376.997	886.62
377.222	881.62
377.448	894.62
377.674	911.62
377.899	896.62
378.125	881.62
378.35	887.62
378.576	882.62
378.802	892.62
379.027	916.62
379.253	907.62
379.478	864.62
379.704	886.62
379.929	869.62
380.155	864.62
380.38	864.62
380.606	884.62
380.831	892.62
381.057	890.62
381.282	894.62
381.507	895.62
381.733	885.62
381.958	864.62
382.184	886.62
382.409	889.62
382.634	926.62
382.86	891.62
383.085	942.62
383.31	914.62
383.535	947.62
383.761	949.62
383.986	946.62
384.211	962.62
384.436	968.62
384.662	969.62
384.887	992.62
385.112	1004.62
385.337	1014.62
385.562	1027.62
385.787	1024.62
386.013	1035.62
386.238	1043.62
386.463	1053.62
386.688	1030.62
386.913	995.62
387.138	1022.62
387.363	1055.62
387.588	1051.62
387.813	1035.62
388.038	1021.62
388.263	1039.62
388.488	1033.62
388.713	1029.62
388.938	1007.62
389.163	1025.62
389.387	1031.62
389.612	1002.62
389.837	1026.62
390.062	1029.62
390.287	1054.62
390.512	1038.62
390.736	1027.62
390.961	1030.62
391.186	1077.62
391.411	1094.62
391.636	1139.62
391.86	1124.62
392.085	1106.62
392.31	1123.62
392.534	1140.62
392.759	1117.62
392.984	1097.62
393.208	1085.62
393.433	1130.62
393.658	1106.62
393.882	1094.62
394.107	1110.62
394.331	1114.62
394.556	1080.62
394.78	1113.62
395.005	1143.62
395.229	1098.62
395.454	1110.62
395.678	1094.62
395.903	1162.62
396.127	1168.62
396.352	1150.62
396.576	1161.62
396.801	1128.62
397.025	1115.62
397.249	1120.62
397.474	1189.62
397.698	1145.62
397.922	1206.62
398.147	1171.62
398.371	1214.62
398.595	1269.62
398.82	1301.62
399.044	1330.62
399.268	1400.62
399.492	1538.62
399.717	1584.62
399.941	1598.62
400.165	1575.62
400.389	1518.62
400.613	1444.62
400.837	1371.62
401.062	1385.62
401.286	1328.62
401.51	1315.62
401.734	1334.62
401.958	1290.62
402.182	1307.62
402.406	1303.62
402.63	1291.62
402.854	1327.62
403.078	1299.62
403.302	1340.62
403.526	1338.62
403.75	1334.62
403.974	1367.62
404.198	1344.62
404.422	1384.62
404.645	1343.62
404.869	1329.62
405.093	1363.62
405.317	1329.62
405.541	1369.62
405.765	1367.62
405.988	1422.62
406.212	1383.62
406.436	1375.62
406.66	1455.62
406.883	1446.62
407.107	1470.62
407.331	1502.62
407.555	1599.62
407.778	1544.62
408.002	1555.62
408.226	1544.62
408.449	1554.62
408.673	1471.62
408.896	1422.62
409.12	1443.62
409.344	1447.62
409.567	1449.62
409.791	1455.62
410.014	1441.62
410.238	1410.62
410.461	1407.62
410.685	1387.62
410.908	1390.62
411.132	1379.62
411.355	1368.62
411.578	1345.62
411.802	1378.62
412.025	1358.62
412.249	1360.62
412.472	1393.62
412.695	1323.62
412.919	1323.62
413.142	1318.62
413.365	1327.62
413.589	1342.62
413.812	1324.62
414.035	1302.62
414.258	1313.62
414.482	1324.62
414.705	1332.62
414.928	1311.62
415.151	1292.62
415.374	1297.62
415.597	1298.62
415.821	1260.62
416.044	1272.62
416.267	1276.62
416.49	1281.62
416.713	1278.62
416.936	1273.62
417.159	1235.62
417.382	1257.62
417.605	1257.62
417.828	1281.62
418.051	1263.62
418.274	1290.62
418.497	1251.62
418.72	1298.62
418.943	1286.62
419.166	1376.62
419.389	1502.62
419.611	1442.62
419.834	1375.62
420.057	1321.62
420.28	1279.62
420.503	1280.62
420.726	1282.62
420.948	1279.62
421.171	1287.62
421.394	1292.62
421.617	1269.62
421.839	1299.62
422.062	1269.62
422.285	1251.62
422.507	1304.62
422.73	1336.62
422.953	1293.62
423.175	1283.62
423.398	1302.62
423.621	1276.62
423.843	1286.62
424.066	1329.62
424.288	1310.62
424.511	1279.62
424.733	1308.62
424.956	1297.62
425.178	1284.62
425.401	1282.62
425.623	1273.62
425.846	1266.62
426.068	1298.62
426.291	1259.62
426.513	1252.62
426.735	1254.62
426.958	1237.62
427.18	1210.62
427.402	1227.62
427.625	1240.62
427.847	1230.62
428.069	1204.62
428.292	1215.62
428.514	1206.62
428.736	1215.62
428.958	1206.62
429.181	1174.62
429.403	1216.62
429.625	1187.62
429.847	1193.62
430.069	1208.62
430.292	1253.62
430.514	1170.62
430.736	1209.62
430.958	1228.62
431.18	1216.62
431.402	1206.62
431.624	1223.62
431.846	1203.62
432.068	1185.62
432.29	1220.62
432.512	1176.62
432.734	1193.62
432.956	1184.62
433.178	1238.62
433.4	1225.62
433.622	1226.62
433.844	1227.62
434.066	1214.62
434.287	1248.62
434.509	1254.62
434.731	1290.62
434.953	1322.62
435.175	1320.62
435.397	1319.62
435.618	1250.62
435.84	1273.62
436.062	1225.62
436.284	1226.62
436.505	1227.62
436.727	1219.62
436.949	1238.62
437.17	1221.62
437.392	1219.62
437.614	1226.62
437.835	1174.62
438.057	1211.62
438.278	1192.62
438.5	1150.62
438.721	1180.62
438.943	1206.62
439.165	1182.62
439.386	1207.62
439.608	1182.62
439.829	1194.62
440.05	1219.62
440.272	1206.62
440.493	1218.62
440.715	1200.62
440.936	1262.62
441.158	1235.62
441.379	1255.62
441.6	1288.62
441.822	1289.62
442.043	1315.62
442.264	1285.62
442.486	1250.62
442.707	1282.62
442.928	1314.62
443.149	1294.62
443.371	1299.62
443.592	1307.62
443.813	1316.62
444.034	1316.62
444.255	1365.62
444.476	1357.62
444.698	1439.62
444.919	1421.62
445.14	1552.62
445.361	1414.62
445.582	1362.62
445.803	1310.62
446.024	1311.62
446.245	1284.62
446.466	1268.62
446.687	1230.62
446.908	1212.62
447.129	1243.62
447.35	1216.62
447.571	1190.62
447.792	1152.62
448.013	1147.62
448.234	1164.62
448.455	1174.62
448.675	1159.62
448.896	1131.62
449.117	1114.62
449.338	1114.62
449.559	1107.62
449.779	1124.62
450	1128.62
450.221	1137.62
450.442	1118.62
450.662	1136.62
450.883	1130.62
451.104	1126.62
451.324	1126.62
451.545	1114.62
451.766	1116.62
451.986	1099.62
452.207	1106.62
452.428	1104.62
452.648	1122.62
452.869	1082.62
453.089	1068.62
453.31	1083.62
453.53	1050.62
453.751	1047.62
453.971	1094.62
454.192	1080.62
454.412	1052.62
454.633	1056.62
454.853	1079.62
455.073	1060.62
455.294	1036.62
455.514	1047.62
455.734	1030.62
455.955	988.62
456.175	1023.62
456.395	1032.62
456.616	1028.62
456.836	1051.62
457.056	1070.62
457.276	1052.62
457.497	1075.62
457.717	1059.62
457.937	1087.62
458.157	1084.62
458.377	1102.62
458.598	1088.62
458.818	1129.62
459.038	1157.62
459.258	1160.62
459.478	1209.62
459.698	1227.62
459.918	1268.62
460.138	1260.62
460.358	1333.62
460.578	1339.62
460.798	1337.62
461.018	1365.62
461.238	1342.62
461.458	1380.62
461.678	1363.62
461.898	1386.62
462.118	1413.62
462.338	1422.62
462.558	1505.62
462.777	1542.62
462.997	1576.62
463.217	1638.62
463.437	1667.62
463.657	1608.62
463.876	1546.62
464.096	1590.62
464.316	1564.62
464.536	1546.62
464.755	1500.62
464.975	1433.62
465.195	1394.62
465.414	1348.62
465.634	1282.62
465.854	1242.62
466.073	1237.62
466.293	1254.62
466.512	1190.62
466.732	1192.62
466.951	1212.62
467.171	1191.62
467.391	1188.62
467.61	1192.62
467.829	1141.62
468.049	1143.62
468.268	1131.62
468.488	1126.62
468.707	1138.62
468.927	1125.62
469.146	1108.62
469.365	1142.62
469.585	1144.62
469.804	1155.62
470.023	1205.62
470.243	1152.62
470.462	1187.62
470.681	1164.62
470.901	1200.62
471.12	1137.62
471.339	1177.62
471.558	1161.62
471.777	1175.62
471.997	1166.62
472.216	1145.62
472.435	1127.62
472.654	1125.62
472.873	1100.62
473.092	1124.62
473.311	1103.62
473.53	1124.62
473.749	1090.62
473.968	1148.62
474.187	1115.62
474.406	1098.62
474.625	1118.62
474.844	1168.62
475.063	1124.62
475.282	1112.62
475.501	1151.62
475.72	1147.62
475.939	1193.62
476.158	1189.62
476.377	1198.62
476.596	1177.62
476.814	1195.62
477.033	1193.62
477.252	1211.62
477.471	1252.62
477.69	1271.62
477.908	1256.62
478.127	1300.62
478.346	1297.62
478.564	1330.62
478.783	1327.62
479.002	1344.62
479.22	1376.62
479.439	1359.62
479.658	1332.62
479.876	1355.62
480.095	1348.62
480.313	1387.62
480.532	1427.62
480.751	1396.62
480.969	1366.62
481.188	1342.62
481.406	1312.62
481.624	1310.62
481.843	1313.62
482.061	1288.62
482.28	1350.62
482.498	1292.62
482.717	1282.62
482.935	1350.62
483.153	1309.62
483.372	1296.62
483.59	1342.62
483.808	1317.62
484.027	1306.62
484.245	1301.62
484.463	1318.62
484.681	1348.62
484.9	1354.62
485.118	1379.62
485.336	1361.62
485.554	1344.62
485.772	1326.62
485.99	1349.62
486.209	1355.62
486.427	1364.62
486.645	1376.62
486.863	1356.62
487.081	1377.62
487.299	1387.62
487.517	1385.62
487.735	1381.62
487.953	1397.62
488.171	1398.62
488.389	1369.62
488.607	1316.62
488.825	1348.62
489.043	1344.62
489.261	1362.62
489.479	1369.62
489.696	1328.62
489.914	1369.62
490.132	1370.62
490.35	1344.62
490.568	1376.62
490.786	1410.62
491.003	1408.62
491.221	1376.62
491.439	1401.62
491.657	1370.62
491.874	1403.62
492.092	1422.62
492.31	1430.62
492.527	1426.62
492.745	1454.62
492.963	1423.62
493.18	1404.62
493.398	1419.62
493.615	1438.62
493.833	1419.62
494.05	1436.62
494.268	1433.62
494.485	1439.62
