Data from Ni(NO3)2@0.125M.TitratingCurve.Agarose3%dH2O.NegLispCup.LampEnergy10.LIBS07252019_HRD10591_18-11-08-568.txt Node
Date: Thu Jul 25 18:11:08 EDT 2019
User: cochatt
Spectrometer: HR+D1059
Trigger mode: 1
Integration Time (sec): 1.000000E-1
Scans to average: 1
Electric dark correction enabled: true
Nonlinearity correction enabled: false
Boxcar width: 0
XAxis mode: Wavelengths
Number of Pixels in Spectrum: 2048
>>>>>Begin Spectral Data<<<<<
223.165	-23.62
223.4	-23.62
223.635	-23.62
223.869	-7.62
224.104	-16.62
224.338	-14.62
224.573	-12.62
224.808	-21.62
225.042	-12.62
225.277	3.38
225.511	6.38
225.746	5.38
225.98	8.38
226.215	8.38
226.449	11.38
226.683	16.38
226.918	18.38
227.152	31.38
227.387	36.38
227.621	40.38
227.856	41.38
228.09	36.38
228.324	46.38
228.559	56.38
228.793	84.38
229.027	87.38
229.262	101.38
229.496	118.38
229.73	102.38
229.964	117.38
230.199	117.38
230.433	120.38
230.667	139.38
230.901	127.38
231.136	126.38
231.37	119.38
231.604	135.38
231.838	139.38
232.072	138.38
232.306	141.38
232.541	133.38
232.775	131.38
233.009	125.38
233.243	133.38
233.477	144.38
233.711	142.38
233.945	127.38
234.179	135.38
234.413	143.38
234.647	130.38
234.881	133.38
235.115	140.38
235.349	146.38
235.583	125.38
235.817	149.38
236.051	150.38
236.285	147.38
236.519	147.38
236.753	147.38
236.987	152.38
237.221	154.38
237.455	127.38
237.689	141.38
237.922	135.38
238.156	149.38
238.39	159.38
238.624	149.38
238.858	155.38
239.091	151.38
239.325	171.38
239.559	164.38
239.793	153.38
240.027	151.38
240.26	157.38
240.494	178.38
240.728	163.38
240.961	164.38
241.195	165.38
241.429	165.38
241.662	159.38
241.896	153.38
242.13	164.38
242.363	173.38
242.597	174.38
242.83	183.38
243.064	189.38
243.298	178.38
243.531	185.38
243.765	182.38
243.998	176.38
244.232	185.38
244.465	184.38
244.699	185.38
244.932	182.38
245.166	189.38
245.399	174.38
245.633	183.38
245.866	202.38
246.099	201.38
246.333	208.38
246.566	189.38
246.8	197.38
247.033	180.38
247.266	205.38
247.5	202.38
247.733	205.38
247.966	212.38
248.2	210.38
248.433	211.38
248.666	198.38
248.899	212.38
249.133	221.38
249.366	218.38
249.599	220.38
249.832	221.38
250.066	225.38
250.299	209.38
250.532	228.38
250.765	227.38
250.998	225.38
251.231	227.38
251.465	210.38
251.698	227.38
251.931	206.38
252.164	231.38
252.397	241.38
252.63	238.38
252.863	242.38
253.096	239.38
253.329	242.38
253.562	223.38
253.795	241.38
254.028	227.38
254.261	238.38
254.494	231.38
254.727	248.38
254.96	245.38
255.193	257.38
255.426	253.38
255.659	236.38
255.892	251.38
256.124	239.38
256.357	265.38
256.59	248.38
256.823	256.38
257.056	239.38
257.289	273.38
257.521	259.38
257.754	257.38
257.987	255.38
258.22	259.38
258.452	259.38
258.685	262.38
258.918	268.38
259.151	267.38
259.383	306.38
259.616	282.38
259.849	269.38
260.081	286.38
260.314	273.38
260.547	262.38
260.779	270.38
261.012	275.38
261.244	264.38
261.477	266.38
261.71	289.38
261.942	261.38
262.175	282.38
262.407	275.38
262.64	285.38
262.872	283.38
263.105	285.38
263.337	307.38
263.57	275.38
263.802	302.38
264.035	303.38
264.267	294.38
264.499	285.38
264.732	303.38
264.964	297.38
265.197	290.38
265.429	279.38
265.661	315.38
265.894	280.38
266.126	301.38
266.358	314.38
266.591	293.38
266.823	313.38
267.055	311.38
267.287	307.38
267.52	300.38
267.752	327.38
267.984	297.38
268.216	331.38
268.448	321.38
268.681	316.38
268.913	312.38
269.145	319.38
269.377	310.38
269.609	323.38
269.841	323.38
270.073	316.38
270.306	331.38
270.538	317.38
270.77	324.38
271.002	326.38
271.234	331.38
271.466	323.38
271.698	323.38
271.93	329.38
272.162	326.38
272.394	317.38
272.626	346.38
272.858	333.38
273.09	340.38
273.322	325.38
273.553	342.38
273.785	339.38
274.017	340.38
274.249	357.38
274.481	353.38
274.713	334.38
274.945	357.38
275.176	347.38
275.408	349.38
275.64	366.38
275.872	365.38
276.104	356.38
276.335	359.38
276.567	363.38
276.799	341.38
277.031	351.38
277.262	364.38
277.494	361.38
277.726	401.38
277.957	374.38
278.189	339.38
278.421	367.38
278.652	392.38
278.884	373.38
279.115	382.38
279.347	393.38
279.579	361.38
279.81	395.38
280.042	397.38
280.273	371.38
280.505	378.38
280.736	378.38
280.968	394.38
281.199	393.38
281.431	372.38
281.662	381.38
281.894	394.38
282.125	385.38
282.356	406.38
282.588	389.38
282.819	405.38
283.051	387.38
283.282	375.38
283.513	414.38
283.745	391.38
283.976	404.38
284.207	410.38
284.439	395.38
284.67	399.38
284.901	425.38
285.132	410.38
285.364	425.38
285.595	396.38
285.826	411.38
286.057	421.38
286.288	417.38
286.52	417.38
286.751	415.38
286.982	439.38
287.213	421.38
287.444	427.38
287.675	415.38
287.906	411.38
288.138	463.38
288.369	430.38
288.6	433.38
288.831	425.38
289.062	424.38
289.293	444.38
289.524	435.38
289.755	442.38
289.986	421.38
290.217	450.38
290.448	444.38
290.679	439.38
290.91	465.38
291.141	435.38
291.371	461.38
291.602	442.38
291.833	453.38
292.064	433.38
292.295	422.38
292.526	441.38
292.757	444.38
292.987	456.38
293.218	441.38
293.449	462.38
293.68	452.38
293.91	441.38
294.141	452.38
294.372	458.38
294.603	481.38
294.833	447.38
295.064	466.38
295.295	439.38
295.525	452.38
295.756	475.38
295.987	456.38
296.217	470.38
296.448	470.38
296.679	460.38
296.909	488.38
297.14	473.38
297.37	486.38
297.601	469.38
297.831	482.38
298.062	485.38
298.292	478.38
298.523	500.38
298.753	518.38
298.984	486.38
299.214	507.38
299.445	481.38
299.675	482.38
299.905	487.38
300.136	501.38
300.366	475.38
300.597	478.38
300.827	492.38
301.057	493.38
301.288	511.38
301.518	512.38
301.748	520.38
301.979	517.38
302.209	521.38
302.439	507.38
302.669	528.38
302.9	485.38
303.13	486.38
303.36	500.38
303.59	501.38
303.82	498.38
304.051	499.38
304.281	506.38
304.511	482.38
304.741	483.38
304.971	503.38
305.201	502.38
305.431	505.38
305.661	499.38
305.891	498.38
306.121	483.38
306.352	489.38
306.582	505.38
306.812	473.38
307.042	506.38
307.272	490.38
307.502	498.38
307.731	488.38
307.961	480.38
308.191	479.38
308.421	483.38
308.651	521.38
308.881	475.38
309.111	494.38
309.341	484.38
309.571	470.38
309.8	498.38
310.03	501.38
310.26	488.38
310.49	473.38
310.72	504.38
310.949	479.38
311.179	499.38
311.409	491.38
311.639	483.38
311.868	493.38
312.098	508.38
312.328	515.38
312.557	510.38
312.787	499.38
313.017	505.38
313.246	516.38
313.476	525.38
313.706	517.38
313.935	509.38
314.165	516.38
314.394	521.38
314.624	532.38
314.853	524.38
315.083	509.38
315.312	537.38
315.542	501.38
315.771	516.38
316.001	515.38
316.23	526.38
316.46	499.38
316.689	510.38
316.919	506.38
317.148	522.38
317.377	494.38
317.607	511.38
317.836	493.38
318.065	511.38
318.295	524.38
318.524	499.38
318.753	514.38
318.983	506.38
319.212	507.38
319.441	509.38
319.67	529.38
319.9	527.38
320.129	533.38
320.358	495.38
320.587	525.38
320.816	501.38
321.046	508.38
321.275	498.38
321.504	513.38
321.733	514.38
321.962	534.38
322.191	538.38
322.42	542.38
322.649	535.38
322.878	549.38
323.108	525.38
323.337	513.38
323.566	525.38
323.795	519.38
324.024	518.38
324.253	535.38
324.482	541.38
324.71	519.38
324.939	532.38
325.168	533.38
325.397	550.38
325.626	560.38
325.855	567.38
326.084	566.38
326.313	583.38
326.542	559.38
326.77	556.38
326.999	574.38
327.228	541.38
327.457	571.38
327.686	586.38
327.914	580.38
328.143	584.38
328.372	562.38
328.6	551.38
328.829	583.38
329.058	580.38
329.287	589.38
329.515	574.38
329.744	569.38
329.972	574.38
330.201	569.38
330.43	563.38
330.658	603.38
330.887	586.38
331.115	564.38
331.344	582.38
331.572	584.38
331.801	617.38
332.03	619.38
332.258	632.38
332.486	651.38
332.715	689.38
332.943	744.38
333.172	747.38
333.4	759.38
333.629	791.38
333.857	784.38
334.085	780.38
334.314	744.38
334.542	755.38
334.771	746.38
334.999	726.38
335.227	731.38
335.455	702.38
335.684	703.38
335.912	733.38
336.14	689.38
336.369	711.38
336.597	693.38
336.825	687.38
337.053	692.38
337.281	679.38
337.51	667.38
337.738	640.38
337.966	651.38
338.194	633.38
338.422	609.38
338.65	605.38
338.878	604.38
339.106	600.38
339.334	650.38
339.562	620.38
339.79	614.38
340.018	601.38
340.246	590.38
340.474	587.38
340.702	577.38
340.93	599.38
341.158	616.38
341.386	597.38
341.614	606.38
341.842	557.38
342.07	584.38
342.298	580.38
342.526	589.38
342.754	588.38
342.981	617.38
343.209	606.38
343.437	628.38
343.665	666.38
343.893	719.38
344.12	773.38
344.348	707.38
344.576	689.38
344.804	645.38
345.031	617.38
345.259	613.38
345.487	607.38
345.714	599.38
345.942	595.38
346.17	585.38
346.397	576.38
346.625	584.38
346.853	585.38
347.08	585.38
347.308	586.38
347.535	597.38
347.763	583.38
347.99	588.38
348.218	589.38
348.445	589.38
348.673	579.38
348.9	585.38
349.128	597.38
349.355	564.38
349.583	578.38
349.81	548.38
350.037	551.38
350.265	555.38
350.492	555.38
350.72	577.38
350.947	547.38
351.174	544.38
351.402	554.38
351.629	565.38
351.856	569.38
352.083	540.38
352.311	547.38
352.538	559.38
352.765	536.38
352.992	554.38
353.22	549.38
353.447	548.38
353.674	566.38
353.901	569.38
354.128	553.38
354.355	565.38
354.583	554.38
354.81	577.38
355.037	561.38
355.264	569.38
355.491	570.38
355.718	551.38
355.945	533.38
356.172	572.38
356.399	548.38
356.626	561.38
356.853	565.38
357.08	561.38
357.307	547.38
357.534	559.38
357.761	546.38
357.988	551.38
358.215	552.38
358.441	539.38
358.668	538.38
358.895	553.38
359.122	569.38
359.349	563.38
359.576	580.38
359.802	561.38
360.029	542.38
360.256	556.38
360.483	547.38
360.709	576.38
360.936	556.38
361.163	561.38
361.39	581.38
361.616	543.38
361.843	562.38
362.07	568.38
362.296	552.38
362.523	539.38
362.749	530.38
362.976	546.38
363.203	558.38
363.429	572.38
363.656	529.38
363.882	544.38
364.109	539.38
364.335	541.38
364.562	545.38
364.788	557.38
365.015	543.38
365.241	541.38
365.468	569.38
365.694	528.38
365.92	537.38
366.147	587.38
366.373	549.38
366.599	540.38
366.826	557.38
367.052	581.38
367.278	553.38
367.505	545.38
367.731	555.38
367.957	558.38
368.184	554.38
368.41	556.38
368.636	576.38
368.862	577.38
369.089	578.38
369.315	588.38
369.541	573.38
369.767	586.38
369.993	582.38
370.219	592.38
370.445	594.38
370.672	588.38
370.898	610.38
371.124	579.38
371.35	598.38
371.576	631.38
371.802	616.38
372.028	602.38
372.254	597.38
372.48	609.38
372.706	628.38
372.932	614.38
373.158	632.38
373.384	595.38
373.61	612.38
373.835	581.38
374.061	577.38
374.287	626.38
374.513	618.38
374.739	653.38
374.965	683.38
375.191	692.38
375.416	653.38
375.642	665.38
375.868	654.38
376.094	616.38
376.319	619.38
376.545	618.38
376.771	633.38
376.997	623.38
377.222	618.38
377.448	609.38
377.674	598.38
377.899	597.38
378.125	589.38
378.35	609.38
378.576	598.38
378.802	578.38
379.027	597.38
379.253	606.38
379.478	606.38
379.704	583.38
379.929	618.38
380.155	593.38
380.38	608.38
380.606	606.38
380.831	594.38
381.057	613.38
381.282	607.38
381.507	591.38
381.733	615.38
381.958	626.38
382.184	621.38
382.409	620.38
382.634	635.38
382.86	630.38
383.085	648.38
383.31	642.38
383.535	654.38
383.761	664.38
383.986	678.38
384.211	685.38
384.436	710.38
384.662	711.38
384.887	717.38
385.112	744.38
385.337	739.38
385.562	746.38
385.787	741.38
386.013	777.38
386.238	727.38
386.463	727.38
386.688	724.38
386.913	739.38
387.138	702.38
387.363	740.38
387.588	718.38
387.813	735.38
388.038	722.38
388.263	711.38
388.488	723.38
388.713	729.38
388.938	717.38
389.163	706.38
389.387	715.38
389.612	700.38
389.837	722.38
390.062	710.38
390.287	714.38
390.512	700.38
390.736	724.38
390.961	735.38
391.186	761.38
391.411	771.38
391.636	803.38
391.86	813.38
392.085	826.38
392.31	819.38
392.534	803.38
392.759	779.38
392.984	758.38
393.208	765.38
393.433	812.38
393.658	770.38
393.882	779.38
394.107	798.38
394.331	789.38
394.556	772.38
394.78	786.38
395.005	767.38
395.229	784.38
395.454	797.38
395.678	843.38
395.903	821.38
396.127	792.38
396.352	766.38
396.576	771.38
396.801	782.38
397.025	770.38
397.249	791.38
397.474	821.38
397.698	797.38
397.922	810.38
398.147	804.38
398.371	798.38
398.595	846.38
398.82	884.38
399.044	942.38
399.268	1009.38
399.492	1208.38
399.717	1443.38
399.941	1455.38
400.165	1230.38
400.389	1089.38
400.613	996.38
400.837	936.38
401.062	949.38
401.286	918.38
401.51	905.38
401.734	915.38
401.958	928.38
402.182	922.38
402.406	911.38
402.63	955.38
402.854	977.38
403.078	994.38
403.302	1030.38
403.526	1058.38
403.75	1053.38
403.974	1076.38
404.198	1083.38
404.422	1105.38
404.645	1082.38
404.869	1059.38
405.093	1061.38
405.317	1029.38
405.541	1034.38
405.765	1026.38
405.988	1014.38
406.212	987.38
406.436	1018.38
406.66	1046.38
406.883	1021.38
407.107	1083.38
407.331	1180.38
407.555	1182.38
407.778	1185.38
408.002	1199.38
408.226	1147.38
408.449	1078.38
408.673	1055.38
408.896	1039.38
409.12	1029.38
409.344	1062.38
409.567	1078.38
409.791	1066.38
410.014	1068.38
410.238	1046.38
410.461	1035.38
410.685	1049.38
410.908	1000.38
411.132	979.38
411.355	934.38
411.578	983.38
411.802	955.38
412.025	961.38
412.249	998.38
412.472	961.38
412.695	929.38
412.919	937.38
413.142	924.38
413.365	908.38
413.589	948.38
413.812	911.38
414.035	879.38
414.258	895.38
414.482	912.38
414.705	917.38
414.928	928.38
415.151	948.38
415.374	913.38
415.597	918.38
415.821	908.38
416.044	902.38
416.267	902.38
416.49	899.38
416.713	903.38
416.936	894.38
417.159	885.38
417.382	937.38
417.605	895.38
417.828	909.38
418.051	921.38
418.274	940.38
418.497	883.38
418.72	931.38
418.943	944.38
419.166	1011.38
419.389	1085.38
419.611	1023.38
419.834	982.38
420.057	961.38
420.28	918.38
420.503	914.38
420.726	886.38
420.948	925.38
421.171	940.38
421.394	922.38
421.617	895.38
421.839	917.38
422.062	929.38
422.285	904.38
422.507	942.38
422.73	919.38
422.953	921.38
423.175	954.38
423.398	980.38
423.621	980.38
423.843	984.38
424.066	988.38
424.288	1011.38
424.511	963.38
424.733	982.38
424.956	939.38
425.178	924.38
425.401	931.38
425.623	921.38
425.846	876.38
426.068	876.38
426.291	876.38
426.513	877.38
426.735	843.38
426.958	859.38
427.18	860.38
427.402	847.38
427.625	859.38
427.847	811.38
428.069	819.38
428.292	848.38
428.514	787.38
428.736	817.38
428.958	812.38
429.181	798.38
429.403	770.38
429.625	797.38
429.847	807.38
430.069	808.38
430.292	769.38
430.514	805.38
430.736	796.38
430.958	797.38
431.18	775.38
431.402	789.38
431.624	801.38
431.846	844.38
432.068	853.38
432.29	843.38
432.512	799.38
432.734	805.38
432.956	819.38
433.178	833.38
433.4	825.38
433.622	848.38
433.844	854.38
434.066	811.38
434.287	812.38
434.509	838.38
434.731	891.38
434.953	919.38
435.175	929.38
435.397	939.38
435.618	865.38
435.84	848.38
436.062	816.38
436.284	846.38
436.505	829.38
436.727	801.38
436.949	820.38
437.17	823.38
437.392	813.38
437.614	801.38
437.835	796.38
438.057	794.38
438.278	747.38
438.5	784.38
438.721	791.38
438.943	794.38
439.165	797.38
439.386	801.38
439.608	805.38
439.829	796.38
440.05	819.38
440.272	827.38
440.493	833.38
440.715	858.38
440.936	854.38
441.158	858.38
441.379	893.38
441.6	946.38
441.822	970.38
442.043	935.38
442.264	918.38
442.486	888.38
442.707	910.38
442.928	893.38
443.149	911.38
443.371	928.38
443.592	915.38
443.813	953.38
444.034	942.38
444.255	997.38
444.476	994.38
444.698	1087.38
444.919	1145.38
445.14	1212.38
445.361	1067.38
445.582	957.38
445.803	923.38
446.024	905.38
446.245	875.38
446.466	853.38
446.687	811.38
446.908	836.38
447.129	813.38
447.35	785.38
447.571	787.38
447.792	800.38
448.013	781.38
448.234	763.38
448.455	789.38
448.675	731.38
448.896	757.38
449.117	740.38
449.338	732.38
449.559	755.38
449.779	759.38
450	771.38
450.221	764.38
450.442	756.38
450.662	774.38
450.883	777.38
451.104	789.38
451.324	797.38
451.545	771.38
451.766	775.38
451.986	772.38
452.207	776.38
452.428	786.38
452.648	769.38
452.869	761.38
453.089	789.38
453.31	740.38
453.53	737.38
453.751	749.38
453.971	728.38
454.192	715.38
454.412	703.38
454.633	725.38
454.853	705.38
455.073	726.38
455.294	714.38
455.514	702.38
455.734	716.38
455.955	657.38
456.175	727.38
456.395	723.38
456.616	716.38
456.836	717.38
457.056	729.38
457.276	692.38
457.497	709.38
457.717	706.38
457.937	698.38
458.157	699.38
458.377	728.38
458.598	716.38
458.818	768.38
459.038	755.38
459.258	795.38
459.478	817.38
459.698	850.38
459.918	873.38
460.138	904.38
460.358	947.38
460.578	977.38
460.798	967.38
461.018	988.38
461.238	983.38
461.458	946.38
461.678	969.38
461.898	965.38
462.118	990.38
462.338	1025.38
462.558	1078.38
462.777	1114.38
462.997	1210.38
463.217	1328.38
463.437	1375.38
463.657	1220.38
463.876	1169.38
464.096	1161.38
464.316	1134.38
464.536	1182.38
464.755	1090.38
464.975	1079.38
465.195	1015.38
465.414	967.38
465.634	897.38
465.854	877.38
466.073	840.38
466.293	853.38
466.512	814.38
466.732	781.38
466.951	799.38
467.171	811.38
467.391	792.38
467.61	811.38
467.829	814.38
468.049	804.38
468.268	755.38
468.488	732.38
468.707	766.38
468.927	738.38
469.146	757.38
469.365	770.38
469.585	766.38
469.804	768.38
470.023	827.38
470.243	823.38
470.462	814.38
470.681	819.38
470.901	834.38
471.12	821.38
471.339	792.38
471.558	793.38
471.777	781.38
471.997	749.38
472.216	772.38
472.435	771.38
472.654	759.38
472.873	733.38
473.092	725.38
473.311	729.38
473.53	752.38
473.749	747.38
473.968	741.38
474.187	714.38
474.406	736.38
474.625	733.38
474.844	753.38
475.063	730.38
475.282	742.38
475.501	742.38
475.72	742.38
475.939	761.38
476.158	767.38
476.377	745.38
476.596	756.38
476.814	753.38
477.033	751.38
477.252	775.38
477.471	810.38
477.69	799.38
477.908	847.38
478.127	873.38
478.346	884.38
478.564	881.38
478.783	909.38
479.002	924.38
479.22	915.38
479.439	937.38
479.658	920.38
479.876	912.38
480.095	920.38
480.313	939.38
480.532	1002.38
480.751	994.38
480.969	953.38
481.188	898.38
481.406	906.38
481.624	883.38
481.843	889.38
482.061	845.38
482.28	838.38
482.498	845.38
482.717	815.38
482.935	828.38
483.153	838.38
483.372	825.38
483.59	830.38
483.808	809.38
484.027	835.38
484.245	853.38
484.463	853.38
484.681	890.38
484.9	883.38
485.118	877.38
485.336	883.38
485.554	882.38
485.772	883.38
485.99	897.38
486.209	903.38
486.427	892.38
486.645	912.38
486.863	883.38
487.081	906.38
487.299	871.38
487.517	911.38
487.735	875.38
487.953	913.38
488.171	865.38
488.389	889.38
488.607	860.38
488.825	872.38
489.043	857.38
489.261	869.38
489.479	876.38
489.696	869.38
489.914	892.38
490.132	881.38
490.35	862.38
490.568	871.38
490.786	909.38
491.003	878.38
491.221	868.38
491.439	863.38
491.657	904.38
491.874	903.38
492.092	894.38
492.31	899.38
492.527	911.38
492.745	893.38
492.963	927.38
493.18	909.38
493.398	894.38
493.615	911.38
493.833	934.38
494.05	919.38
494.268	926.38
494.485	941.38
494.703	912.38
494.92	941.38
495.138	938.38
495.355	924.38
495.573	922.38
495.79	932.38
496.008	929.38
496.225	956.38
496.442	966.38
496.66	930.38
496.877	974.38
497.094	990.38
497.312	1004.38
497.529	1009.38
497.746	1037.38
497.963	1067.38
498.181	1114.38
498.398	1182.38
498.615	1250.38
498.832	1354.38
499.049	1409.38
499.267	1549.38
499.484	1725.38
499.701	1911.38
499.918	2091.38
500.135	2445.38
500.352	2842.38
500.569	3041.38
