Data from Ni(NO3)2@0.25M.TitratingCurve.Agarose3%dH2O.NegLispCup.LampEnergy10.LIBS07252019_HRD10591_18-03-55-566.txt Node
Date: Thu Jul 25 18:03:55 EDT 2019
User: cochatt
Spectrometer: HR+D1059
Trigger mode: 1
Integration Time (sec): 1.000000E-1
Scans to average: 1
Electric dark correction enabled: true
Nonlinearity correction enabled: false
Boxcar width: 0
XAxis mode: Wavelengths
Number of Pixels in Spectrum: 2048
>>>>>Begin Spectral Data<<<<<
223.165	-10.75
223.4	-10.75
223.635	-10.75
223.869	-4.75
224.104	-21.75
224.338	-15.75
224.573	-27.75
224.808	-16.75
225.042	-15.75
225.277	-7.75
225.511	-2.75
225.746	2.25
225.98	8.25
226.215	3.25
226.449	18.25
226.683	17.25
226.918	34.25
227.152	40.25
227.387	26.25
227.621	32.25
227.856	49.25
228.09	52.25
228.324	42.25
228.559	53.25
228.793	61.25
229.027	92.25
229.262	120.25
229.496	108.25
229.73	120.25
229.964	122.25
230.199	125.25
230.433	132.25
230.667	130.25
230.901	124.25
231.136	122.25
231.37	130.25
231.604	123.25
231.838	136.25
232.072	125.25
232.306	149.25
232.541	121.25
232.775	133.25
233.009	141.25
233.243	136.25
233.477	142.25
233.711	143.25
233.945	139.25
234.179	122.25
234.413	136.25
234.647	127.25
234.881	132.25
235.115	131.25
235.349	132.25
235.583	140.25
235.817	142.25
236.051	130.25
236.285	135.25
236.519	146.25
236.753	137.25
236.987	136.25
237.221	146.25
237.455	131.25
237.689	132.25
237.922	134.25
238.156	154.25
238.39	146.25
238.624	142.25
238.858	144.25
239.091	154.25
239.325	142.25
239.559	142.25
239.793	154.25
240.027	155.25
240.26	148.25
240.494	136.25
240.728	140.25
240.961	157.25
241.195	161.25
241.429	160.25
241.662	157.25
241.896	160.25
242.13	166.25
242.363	165.25
242.597	141.25
242.83	154.25
243.064	164.25
243.298	166.25
243.531	166.25
243.765	162.25
243.998	165.25
244.232	181.25
244.465	161.25
244.699	175.25
244.932	182.25
245.166	193.25
245.399	195.25
245.633	191.25
245.866	196.25
246.099	200.25
246.333	189.25
246.566	202.25
246.8	200.25
247.033	204.25
247.266	177.25
247.5	188.25
247.733	200.25
247.966	194.25
248.2	191.25
248.433	195.25
248.666	209.25
248.899	208.25
249.133	193.25
249.366	194.25
249.599	215.25
249.832	220.25
250.066	216.25
250.299	224.25
250.532	223.25
250.765	206.25
250.998	236.25
251.231	235.25
251.465	241.25
251.698	248.25
251.931	232.25
252.164	240.25
252.397	240.25
252.63	240.25
252.863	248.25
253.096	250.25
253.329	239.25
253.562	246.25
253.795	245.25
254.028	248.25
254.261	248.25
254.494	248.25
254.727	260.25
254.96	260.25
255.193	253.25
255.426	247.25
255.659	269.25
255.892	274.25
256.124	281.25
256.357	273.25
256.59	276.25
256.823	282.25
257.056	270.25
257.289	268.25
257.521	289.25
257.754	297.25
257.987	291.25
258.22	288.25
258.452	289.25
258.685	298.25
258.918	306.25
259.151	290.25
259.383	286.25
259.616	286.25
259.849	304.25
260.081	301.25
260.314	300.25
260.547	311.25
260.779	299.25
261.012	306.25
261.244	297.25
261.477	320.25
261.71	307.25
261.942	312.25
262.175	310.25
262.407	316.25
262.64	297.25
262.872	312.25
263.105	336.25
263.337	330.25
263.57	314.25
263.802	340.25
264.035	333.25
264.267	321.25
264.499	333.25
264.732	348.25
264.964	334.25
265.197	357.25
265.429	341.25
265.661	336.25
265.894	331.25
266.126	362.25
266.358	349.25
266.591	361.25
266.823	365.25
267.055	364.25
267.287	345.25
267.52	340.25
267.752	344.25
267.984	335.25
268.216	346.25
268.448	363.25
268.681	344.25
268.913	348.25
269.145	356.25
269.377	356.25
269.609	363.25
269.841	361.25
270.073	357.25
270.306	380.25
270.538	364.25
270.77	372.25
271.002	363.25
271.234	361.25
271.466	381.25
271.698	377.25
271.93	356.25
272.162	368.25
272.394	371.25
272.626	373.25
272.858	384.25
273.09	369.25
273.322	376.25
273.553	362.25
273.785	381.25
274.017	384.25
274.249	386.25
274.481	396.25
274.713	395.25
274.945	397.25
275.176	384.25
275.408	386.25
275.64	410.25
275.872	379.25
276.104	397.25
276.335	408.25
276.567	396.25
276.799	380.25
277.031	399.25
277.262	413.25
277.494	400.25
277.726	390.25
277.957	394.25
278.189	398.25
278.421	414.25
278.652	397.25
278.884	416.25
279.115	406.25
279.347	409.25
279.579	428.25
279.81	406.25
280.042	420.25
280.273	410.25
280.505	411.25
280.736	411.25
280.968	421.25
281.199	410.25
281.431	423.25
281.662	424.25
281.894	424.25
282.125	427.25
282.356	424.25
282.588	398.25
282.819	434.25
283.051	425.25
283.282	426.25
283.513	434.25
283.745	409.25
283.976	440.25
284.207	435.25
284.439	449.25
284.67	450.25
284.901	442.25
285.132	435.25
285.364	437.25
285.595	426.25
285.826	442.25
286.057	446.25
286.288	450.25
286.52	455.25
286.751	456.25
286.982	443.25
287.213	441.25
287.444	445.25
287.675	463.25
287.906	436.25
288.138	447.25
288.369	446.25
288.6	458.25
288.831	445.25
289.062	454.25
289.293	474.25
289.524	458.25
289.755	447.25
289.986	465.25
290.217	454.25
290.448	441.25
290.679	459.25
290.91	475.25
291.141	456.25
291.371	471.25
291.602	467.25
291.833	470.25
292.064	446.25
292.295	443.25
292.526	464.25
292.757	462.25
292.987	452.25
293.218	443.25
293.449	446.25
293.68	469.25
293.91	450.25
294.141	468.25
294.372	448.25
294.603	470.25
294.833	473.25
295.064	466.25
295.295	481.25
295.525	466.25
295.756	476.25
295.987	468.25
296.217	483.25
296.448	461.25
296.679	480.25
296.909	483.25
297.14	497.25
297.37	487.25
297.601	489.25
297.831	502.25
298.062	480.25
298.292	484.25
298.523	512.25
298.753	498.25
298.984	484.25
299.214	510.25
299.445	524.25
299.675	517.25
299.905	497.25
300.136	512.25
300.366	531.25
300.597	522.25
300.827	534.25
301.057	512.25
301.288	538.25
301.518	532.25
301.748	538.25
301.979	553.25
302.209	537.25
302.439	530.25
302.669	518.25
302.9	556.25
303.13	552.25
303.36	531.25
303.59	543.25
303.82	540.25
304.051	540.25
304.281	516.25
304.511	532.25
304.741	514.25
304.971	532.25
305.201	552.25
305.431	560.25
305.661	556.25
305.891	537.25
306.121	522.25
306.352	524.25
306.582	547.25
306.812	517.25
307.042	518.25
307.272	528.25
307.502	513.25
307.731	521.25
307.961	542.25
308.191	536.25
308.421	537.25
308.651	539.25
308.881	528.25
309.111	534.25
309.341	555.25
309.571	525.25
309.8	565.25
310.03	547.25
310.26	546.25
310.49	576.25
310.72	565.25
310.949	557.25
311.179	565.25
311.409	539.25
311.639	552.25
311.868	581.25
312.098	573.25
312.328	565.25
312.557	576.25
312.787	575.25
313.017	582.25
313.246	587.25
313.476	608.25
313.706	588.25
313.935	602.25
314.165	595.25
314.394	602.25
314.624	596.25
314.853	587.25
315.083	630.25
315.312	585.25
315.542	605.25
315.771	585.25
316.001	591.25
316.23	617.25
316.46	591.25
316.689	603.25
316.919	594.25
317.148	594.25
317.377	602.25
317.607	604.25
317.836	599.25
318.065	617.25
318.295	613.25
318.524	629.25
318.753	603.25
318.983	618.25
319.212	596.25
319.441	616.25
319.67	610.25
319.9	603.25
320.129	606.25
320.358	641.25
320.587	635.25
320.816	652.25
321.046	639.25
321.275	635.25
321.504	662.25
321.733	643.25
321.962	663.25
322.191	664.25
322.42	685.25
322.649	660.25
322.878	662.25
323.108	653.25
323.337	647.25
323.566	669.25
323.795	686.25
324.024	681.25
324.253	676.25
324.482	699.25
324.71	669.25
324.939	694.25
325.168	707.25
325.397	696.25
325.626	725.25
325.855	706.25
326.084	714.25
326.313	715.25
326.542	708.25
326.77	731.25
326.999	719.25
327.228	705.25
327.457	712.25
327.686	729.25
327.914	745.25
328.143	740.25
328.372	722.25
328.6	745.25
328.829	736.25
329.058	740.25
329.287	730.25
329.515	744.25
329.744	740.25
329.972	748.25
330.201	772.25
330.43	766.25
330.658	790.25
330.887	781.25
331.115	767.25
331.344	773.25
331.572	801.25
331.801	831.25
332.03	859.25
332.258	846.25
332.486	844.25
332.715	862.25
332.943	883.25
333.172	886.25
333.4	932.25
333.629	931.25
333.857	970.25
334.085	936.25
334.314	953.25
334.542	944.25
334.771	950.25
334.999	945.25
335.227	924.25
335.455	961.25
335.684	920.25
335.912	927.25
336.14	940.25
336.369	929.25
336.597	940.25
336.825	916.25
337.053	953.25
337.281	914.25
337.51	919.25
337.738	902.25
337.966	880.25
338.194	927.25
338.422	892.25
338.65	863.25
338.878	854.25
339.106	869.25
339.334	885.25
339.562	875.25
339.79	829.25
340.018	824.25
340.246	854.25
340.474	843.25
340.702	827.25
340.93	824.25
341.158	858.25
341.386	869.25
341.614	901.25
341.842	882.25
342.07	833.25
342.298	837.25
342.526	829.25
342.754	833.25
342.981	826.25
343.209	849.25
343.437	879.25
343.665	910.25
343.893	962.25
344.12	957.25
344.348	964.25
344.576	922.25
344.804	918.25
345.031	871.25
345.259	852.25
345.487	861.25
345.714	876.25
345.942	847.25
346.17	881.25
346.397	865.25
346.625	819.25
346.853	788.25
347.08	772.25
347.308	803.25
347.535	811.25
347.763	804.25
347.99	789.25
348.218	804.25
348.445	793.25
348.673	794.25
348.9	818.25
349.128	782.25
349.355	807.25
349.583	791.25
349.81	791.25
350.037	772.25
350.265	788.25
350.492	780.25
350.72	774.25
350.947	792.25
351.174	802.25
351.402	820.25
351.629	833.25
351.856	796.25
352.083	798.25
352.311	792.25
352.538	836.25
352.765	829.25
352.992	794.25
353.22	753.25
353.447	756.25
353.674	770.25
353.901	744.25
354.128	761.25
354.355	768.25
354.583	746.25
354.81	745.25
355.037	774.25
355.264	782.25
355.491	787.25
355.718	792.25
355.945	764.25
356.172	767.25
356.399	793.25
356.626	797.25
356.853	822.25
357.08	775.25
357.307	782.25
357.534	789.25
357.761	769.25
357.988	753.25
358.215	765.25
358.441	774.25
358.668	744.25
358.895	788.25
359.122	764.25
359.349	777.25
359.576	787.25
359.802	758.25
360.029	793.25
360.256	780.25
360.483	777.25
360.709	804.25
360.936	793.25
361.163	797.25
361.39	781.25
361.616	782.25
361.843	786.25
362.07	846.25
362.296	808.25
362.523	758.25
362.749	755.25
362.976	771.25
363.203	749.25
363.429	745.25
363.656	737.25
363.882	755.25
364.109	756.25
364.335	771.25
364.562	778.25
364.788	786.25
365.015	775.25
365.241	754.25
365.468	754.25
365.694	765.25
365.92	741.25
366.147	763.25
366.373	776.25
366.599	770.25
366.826	763.25
367.052	741.25
367.278	774.25
367.505	780.25
367.731	777.25
367.957	772.25
368.184	748.25
368.41	770.25
368.636	762.25
368.862	770.25
369.089	802.25
369.315	792.25
369.541	769.25
369.767	770.25
369.993	753.25
370.219	776.25
370.445	773.25
370.672	803.25
370.898	786.25
371.124	776.25
371.35	819.25
371.576	820.25
371.802	821.25
372.028	800.25
372.254	806.25
372.48	832.25
372.706	850.25
372.932	839.25
373.158	819.25
373.384	805.25
373.61	800.25
373.835	826.25
374.061	804.25
374.287	830.25
374.513	839.25
374.739	838.25
374.965	847.25
375.191	861.25
375.416	871.25
375.642	828.25
375.868	841.25
376.094	821.25
376.319	819.25
376.545	791.25
376.771	825.25
376.997	781.25
377.222	782.25
377.448	807.25
377.674	790.25
377.899	793.25
378.125	794.25
378.35	788.25
378.576	789.25
378.802	791.25
379.027	770.25
379.253	777.25
379.478	791.25
379.704	779.25
379.929	794.25
380.155	778.25
380.38	772.25
380.606	790.25
380.831	808.25
381.057	792.25
381.282	777.25
381.507	800.25
381.733	794.25
381.958	781.25
382.184	797.25
382.409	800.25
382.634	806.25
382.86	781.25
383.085	824.25
383.31	826.25
383.535	832.25
383.761	845.25
383.986	857.25
384.211	872.25
384.436	853.25
384.662	870.25
384.887	907.25
385.112	886.25
385.337	867.25
385.562	909.25
385.787	921.25
386.013	929.25
386.238	942.25
386.463	909.25
386.688	900.25
386.913	905.25
387.138	892.25
387.363	910.25
387.588	917.25
387.813	912.25
388.038	926.25
388.263	919.25
388.488	910.25
388.713	914.25
388.938	919.25
389.163	921.25
389.387	899.25
389.612	908.25
389.837	918.25
390.062	901.25
390.287	908.25
390.512	928.25
390.736	886.25
390.961	957.25
391.186	937.25
391.411	946.25
391.636	967.25
391.86	952.25
392.085	995.25
392.31	970.25
392.534	971.25
392.759	984.25
392.984	956.25
393.208	969.25
393.433	972.25
393.658	980.25
393.882	953.25
394.107	938.25
394.331	948.25
394.556	976.25
394.78	976.25
395.005	975.25
395.229	961.25
395.454	991.25
395.678	973.25
395.903	992.25
396.127	1036.25
396.352	984.25
396.576	979.25
396.801	965.25
397.025	971.25
397.249	1009.25
397.474	1048.25
397.698	1035.25
397.922	1025.25
398.147	1040.25
398.371	1077.25
398.595	1142.25
398.82	1132.25
399.044	1159.25
399.268	1274.25
399.492	1382.25
399.717	1487.25
399.941	1514.25
400.165	1455.25
400.389	1373.25
400.613	1286.25
400.837	1208.25
401.062	1189.25
401.286	1177.25
401.51	1138.25
401.734	1131.25
401.958	1150.25
402.182	1184.25
402.406	1142.25
402.63	1150.25
402.854	1175.25
403.078	1186.25
403.302	1225.25
403.526	1172.25
403.75	1204.25
403.974	1240.25
404.198	1230.25
404.422	1255.25
404.645	1197.25
404.869	1226.25
405.093	1213.25
405.317	1244.25
405.541	1216.25
405.765	1238.25
405.988	1231.25
406.212	1240.25
406.436	1254.25
406.66	1290.25
406.883	1267.25
407.107	1312.25
407.331	1396.25
407.555	1414.25
407.778	1404.25
408.002	1377.25
408.226	1348.25
408.449	1358.25
408.673	1290.25
408.896	1288.25
409.12	1282.25
409.344	1303.25
409.567	1238.25
409.791	1289.25
410.014	1248.25
410.238	1262.25
410.461	1250.25
410.685	1249.25
410.908	1196.25
411.132	1225.25
411.355	1179.25
411.578	1200.25
411.802	1190.25
412.025	1225.25
412.249	1219.25
412.472	1239.25
412.695	1213.25
412.919	1169.25
413.142	1170.25
413.365	1180.25
413.589	1181.25
413.812	1161.25
414.035	1194.25
414.258	1169.25
414.482	1181.25
414.705	1185.25
414.928	1174.25
415.151	1166.25
415.374	1182.25
415.597	1161.25
415.821	1136.25
416.044	1157.25
416.267	1146.25
416.49	1142.25
416.713	1141.25
416.936	1170.25
417.159	1133.25
417.382	1143.25
417.605	1174.25
417.828	1182.25
418.051	1193.25
418.274	1140.25
418.497	1145.25
418.72	1175.25
418.943	1166.25
419.166	1223.25
419.389	1316.25
419.611	1290.25
419.834	1254.25
420.057	1226.25
420.28	1193.25
420.503	1163.25
420.726	1152.25
420.948	1170.25
421.171	1170.25
421.394	1168.25
421.617	1162.25
421.839	1170.25
422.062	1194.25
422.285	1141.25
422.507	1187.25
422.73	1157.25
422.953	1207.25
423.175	1166.25
423.398	1190.25
423.621	1161.25
423.843	1164.25
424.066	1202.25
424.288	1202.25
424.511	1194.25
424.733	1195.25
424.956	1179.25
425.178	1167.25
425.401	1174.25
425.623	1179.25
425.846	1156.25
426.068	1140.25
426.291	1164.25
426.513	1122.25
426.735	1139.25
426.958	1161.25
427.18	1094.25
427.402	1121.25
427.625	1120.25
427.847	1086.25
428.069	1085.25
428.292	1123.25
428.514	1081.25
428.736	1093.25
428.958	1110.25
429.181	1051.25
429.403	1062.25
429.625	1086.25
429.847	1086.25
430.069	1096.25
430.292	1094.25
430.514	1051.25
430.736	1037.25
430.958	1065.25
431.18	1058.25
431.402	1085.25
431.624	1090.25
431.846	1059.25
432.068	1102.25
432.29	1106.25
432.512	1090.25
432.734	1109.25
432.956	1086.25
433.178	1094.25
433.4	1129.25
433.622	1111.25
433.844	1126.25
434.066	1091.25
434.287	1116.25
434.509	1120.25
434.731	1152.25
434.953	1156.25
435.175	1196.25
435.397	1170.25
435.618	1117.25
435.84	1126.25
436.062	1085.25
436.284	1088.25
436.505	1116.25
436.727	1100.25
436.949	1110.25
437.17	1106.25
437.392	1052.25
437.614	1087.25
437.835	1040.25
438.057	1083.25
438.278	1017.25
438.5	1086.25
438.721	1066.25
438.943	1065.25
439.165	1042.25
439.386	1088.25
439.608	1107.25
439.829	1095.25
440.05	1106.25
440.272	1106.25
440.493	1118.25
440.715	1145.25
440.936	1182.25
441.158	1148.25
441.379	1166.25
441.6	1230.25
441.822	1194.25
442.043	1220.25
442.264	1209.25
442.486	1190.25
442.707	1200.25
442.928	1197.25
443.149	1180.25
443.371	1169.25
443.592	1180.25
443.813	1208.25
444.034	1207.25
444.255	1244.25
444.476	1292.25
444.698	1316.25
444.919	1362.25
445.14	1412.25
445.361	1329.25
445.582	1238.25
445.803	1208.25
446.024	1190.25
446.245	1165.25
446.466	1157.25
446.687	1137.25
446.908	1123.25
447.129	1103.25
447.35	1101.25
447.571	1099.25
447.792	1039.25
448.013	1045.25
448.234	1036.25
448.455	1041.25
448.675	1013.25
448.896	1036.25
449.117	979.25
449.338	1010.25
449.559	996.25
449.779	1000.25
450	1026.25
450.221	1012.25
450.442	1032.25
450.662	1025.25
450.883	1026.25
451.104	1044.25
451.324	1041.25
451.545	998.25
451.766	1014.25
451.986	1010.25
452.207	1000.25
452.428	999.25
452.648	992.25
452.869	1005.25
453.089	987.25
453.31	994.25
453.53	950.25
453.751	968.25
453.971	964.25
454.192	952.25
454.412	965.25
454.633	967.25
454.853	957.25
455.073	967.25
455.294	939.25
455.514	970.25
455.734	956.25
455.955	936.25
456.175	925.25
456.395	948.25
456.616	952.25
456.836	945.25
457.056	955.25
457.276	947.25
457.497	949.25
457.717	974.25
457.937	967.25
458.157	962.25
458.377	967.25
458.598	986.25
458.818	1016.25
459.038	1022.25
459.258	1050.25
459.478	1095.25
459.698	1167.25
459.918	1198.25
460.138	1188.25
460.358	1242.25
460.578	1227.25
460.798	1252.25
461.018	1270.25
461.238	1261.25
461.458	1232.25
461.678	1264.25
461.898	1281.25
462.118	1266.25
462.338	1342.25
462.558	1404.25
462.777	1410.25
462.997	1506.25
463.217	1518.25
463.437	1517.25
463.657	1496.25
463.876	1466.25
464.096	1433.25
464.316	1415.25
464.536	1396.25
464.755	1380.25
464.975	1377.25
465.195	1266.25
465.414	1243.25
465.634	1135.25
465.854	1138.25
466.073	1101.25
466.293	1109.25
466.512	1108.25
466.732	1077.25
466.951	1088.25
467.171	1067.25
467.391	1082.25
467.61	1025.25
467.829	1062.25
468.049	1070.25
468.268	1039.25
468.488	1018.25
468.707	1037.25
468.927	1042.25
469.146	1024.25
469.365	1070.25
469.585	1031.25
469.804	1091.25
470.023	1093.25
470.243	1094.25
470.462	1099.25
470.681	1085.25
470.901	1086.25
471.12	1099.25
471.339	1056.25
471.558	1064.25
471.777	1097.25
471.997	1058.25
472.216	1056.25
472.435	1042.25
472.654	1012.25
472.873	990.25
473.092	1003.25
473.311	1038.25
473.53	1039.25
473.749	1010.25
473.968	1004.25
474.187	1005.25
474.406	993.25
474.625	1010.25
474.844	1038.25
475.063	1050.25
475.282	1031.25
475.501	1063.25
475.72	1038.25
475.939	1041.25
476.158	1050.25
476.377	1078.25
476.596	1050.25
476.814	1048.25
477.033	1067.25
477.252	1062.25
477.471	1092.25
477.69	1148.25
477.908	1155.25
478.127	1179.25
478.346	1178.25
478.564	1213.25
478.783	1186.25
479.002	1238.25
479.22	1284.25
479.439	1259.25
479.658	1232.25
479.876	1243.25
480.095	1236.25
480.313	1255.25
480.532	1297.25
480.751	1292.25
480.969	1259.25
481.188	1243.25
481.406	1203.25
481.624	1209.25
481.843	1155.25
482.061	1179.25
482.28	1165.25
482.498	1158.25
482.717	1128.25
482.935	1168.25
483.153	1194.25
483.372	1202.25
483.59	1180.25
483.808	1190.25
484.027	1177.25
484.245	1165.25
484.463	1187.25
484.681	1201.25
484.9	1187.25
485.118	1211.25
485.336	1204.25
485.554	1203.25
485.772	1194.25
485.99	1188.25
486.209	1172.25
486.427	1206.25
486.645	1216.25
486.863	1209.25
487.081	1205.25
487.299	1212.25
487.517	1212.25
487.735	1212.25
487.953	1225.25
488.171	1234.25
488.389	1205.25
488.607	1234.25
488.825	1196.25
489.043	1209.25
489.261	1169.25
489.479	1204.25
489.696	1206.25
489.914	1207.25
490.132	1211.25
490.35	1268.25
490.568	1225.25
490.786	1271.25
491.003	1244.25
491.221	1240.25
491.439	1269.25
491.657	1257.25
491.874	1304.25
492.092	1280.25
492.31	1300.25
492.527	1275.25
492.745	1291.25
492.963	1295.25
493.18	1286.25
493.398	1299.25
493.615	1297.25
493.833	1304.25
494.05	1347.25
494.268	1332.25
494.485	1297.25
494.703	1331.25
494.92	1332.25
495.138	1338.25
495.355	1345.25
495.573	1376.25
495.79	1339.25
496.008	1354.25
