Data from Ni(NO3)2@0.0625M.TitratingCurve.Agarose3%dH2O.NegLispCup.LampEnergy10.LIBS07252019_HRD10591_18-12-52-569.txt Node
Date: Thu Jul 25 18:12:52 EDT 2019
User: cochatt
Spectrometer: HR+D1059
Trigger mode: 1
Integration Time (sec): 1.000000E-1
Scans to average: 1
Electric dark correction enabled: true
Nonlinearity correction enabled: false
Boxcar width: 0
XAxis mode: Wavelengths
Number of Pixels in Spectrum: 2048
>>>>>Begin Spectral Data<<<<<
223.165	-16.5
223.4	-16.5
223.635	-16.5
223.869	-32.5
224.104	-39.5
224.338	-12.5
224.573	-23.5
224.808	-0.5
225.042	-0.5
225.277	5.5
225.511	10.5
225.746	11.5
225.98	3.5
226.215	16.5
226.449	10.5
226.683	26.5
226.918	22.5
227.152	18.5
227.387	22.5
227.621	36.5
227.856	37.5
228.09	46.5
228.324	45.5
228.559	48.5
228.793	63.5
229.027	100.5
229.262	96.5
229.496	99.5
229.73	101.5
229.964	111.5
230.199	111.5
230.433	106.5
230.667	122.5
230.901	119.5
231.136	118.5
231.37	121.5
231.604	137.5
231.838	122.5
232.072	128.5
232.306	119.5
232.541	121.5
232.775	117.5
233.009	123.5
233.243	147.5
233.477	134.5
233.711	124.5
233.945	132.5
234.179	137.5
234.413	141.5
234.647	133.5
234.881	133.5
235.115	133.5
235.349	133.5
235.583	133.5
235.817	127.5
236.051	128.5
236.285	137.5
236.519	151.5
236.753	145.5
236.987	140.5
237.221	129.5
237.455	129.5
237.689	136.5
237.922	127.5
238.156	132.5
238.39	155.5
238.624	131.5
238.858	149.5
239.091	142.5
239.325	152.5
239.559	153.5
239.793	151.5
240.027	158.5
240.26	156.5
240.494	153.5
240.728	149.5
240.961	161.5
241.195	155.5
241.429	166.5
241.662	165.5
241.896	173.5
242.13	185.5
242.363	168.5
242.597	167.5
242.83	159.5
243.064	166.5
243.298	166.5
243.531	168.5
243.765	164.5
243.998	185.5
244.232	175.5
244.465	179.5
244.699	186.5
244.932	182.5
245.166	193.5
245.399	193.5
245.633	194.5
245.866	180.5
246.099	198.5
246.333	200.5
246.566	178.5
246.8	207.5
247.033	193.5
247.266	187.5
247.5	206.5
247.733	198.5
247.966	196.5
248.2	203.5
248.433	201.5
248.666	211.5
248.899	204.5
249.133	187.5
249.366	209.5
249.599	198.5
249.832	203.5
250.066	213.5
250.299	212.5
250.532	230.5
250.765	219.5
250.998	203.5
251.231	221.5
251.465	229.5
251.698	218.5
251.931	223.5
252.164	246.5
252.397	225.5
252.63	244.5
252.863	251.5
253.096	227.5
253.329	237.5
253.562	241.5
253.795	253.5
254.028	243.5
254.261	223.5
254.494	234.5
254.727	215.5
254.96	241.5
255.193	238.5
255.426	237.5
255.659	249.5
255.892	251.5
256.124	254.5
256.357	259.5
256.59	262.5
256.823	258.5
257.056	264.5
257.289	247.5
257.521	247.5
257.754	257.5
257.987	274.5
258.22	260.5
258.452	283.5
258.685	264.5
258.918	271.5
259.151	257.5
259.383	280.5
259.616	267.5
259.849	265.5
260.081	268.5
260.314	274.5
260.547	283.5
260.779	261.5
261.012	253.5
261.244	279.5
261.477	269.5
261.71	267.5
261.942	275.5
262.175	279.5
262.407	275.5
262.64	290.5
262.872	313.5
263.105	291.5
263.337	290.5
263.57	281.5
263.802	306.5
264.035	279.5
264.267	273.5
264.499	282.5
264.732	290.5
264.964	311.5
265.197	291.5
265.429	309.5
265.661	305.5
265.894	289.5
266.126	307.5
266.358	314.5
266.591	307.5
266.823	295.5
267.055	305.5
267.287	291.5
267.52	306.5
267.752	307.5
267.984	319.5
268.216	315.5
268.448	327.5
268.681	321.5
268.913	301.5
269.145	332.5
269.377	339.5
269.609	321.5
269.841	326.5
270.073	315.5
270.306	319.5
270.538	335.5
270.77	309.5
271.002	311.5
271.234	324.5
271.466	331.5
271.698	337.5
271.93	325.5
272.162	341.5
272.394	345.5
272.626	337.5
272.858	333.5
273.09	341.5
273.322	347.5
273.553	330.5
273.785	349.5
274.017	326.5
274.249	314.5
274.481	331.5
274.713	353.5
274.945	351.5
275.176	342.5
275.408	369.5
275.64	340.5
275.872	342.5
276.104	349.5
276.335	343.5
276.567	354.5
276.799	358.5
277.031	363.5
277.262	365.5
277.494	375.5
277.726	371.5
277.957	375.5
278.189	370.5
278.421	370.5
278.652	365.5
278.884	362.5
279.115	363.5
279.347	390.5
279.579	390.5
279.81	367.5
280.042	388.5
280.273	362.5
280.505	359.5
280.736	378.5
280.968	379.5
281.199	386.5
281.431	375.5
281.662	365.5
281.894	378.5
282.125	392.5
282.356	397.5
282.588	385.5
282.819	387.5
283.051	387.5
283.282	401.5
283.513	404.5
283.745	389.5
283.976	404.5
284.207	407.5
284.439	417.5
284.67	410.5
284.901	403.5
285.132	403.5
285.364	395.5
285.595	398.5
285.826	392.5
286.057	407.5
286.288	400.5
286.52	414.5
286.751	421.5
286.982	439.5
287.213	431.5
287.444	425.5
287.675	422.5
287.906	422.5
288.138	431.5
288.369	433.5
288.6	432.5
288.831	424.5
289.062	430.5
289.293	421.5
289.524	435.5
289.755	418.5
289.986	455.5
290.217	433.5
290.448	441.5
290.679	443.5
290.91	436.5
291.141	441.5
291.371	457.5
291.602	458.5
291.833	422.5
292.064	438.5
292.295	460.5
292.526	426.5
292.757	433.5
292.987	447.5
293.218	460.5
293.449	437.5
293.68	442.5
293.91	433.5
294.141	442.5
294.372	436.5
294.603	441.5
294.833	453.5
295.064	465.5
295.295	458.5
295.525	448.5
295.756	456.5
295.987	451.5
296.217	478.5
296.448	491.5
296.679	439.5
296.909	458.5
297.14	462.5
297.37	477.5
297.601	484.5
297.831	490.5
298.062	477.5
298.292	486.5
298.523	487.5
298.753	485.5
298.984	470.5
299.214	471.5
299.445	482.5
299.675	498.5
299.905	480.5
300.136	489.5
300.366	491.5
300.597	500.5
300.827	488.5
301.057	509.5
301.288	508.5
301.518	514.5
301.748	508.5
301.979	498.5
302.209	517.5
302.439	509.5
302.669	516.5
302.9	505.5
303.13	466.5
303.36	491.5
303.59	478.5
303.82	497.5
304.051	501.5
304.281	512.5
304.511	490.5
304.741	493.5
304.971	504.5
305.201	496.5
305.431	481.5
305.661	506.5
305.891	497.5
306.121	511.5
306.352	484.5
306.582	485.5
306.812	475.5
307.042	477.5
307.272	484.5
307.502	479.5
307.731	486.5
307.961	493.5
308.191	473.5
308.421	488.5
308.651	479.5
308.881	481.5
309.111	468.5
309.341	473.5
309.571	507.5
309.8	502.5
310.03	517.5
310.26	482.5
310.49	496.5
310.72	508.5
310.949	511.5
311.179	508.5
311.409	493.5
311.639	509.5
311.868	508.5
312.098	504.5
312.328	517.5
312.557	527.5
312.787	518.5
313.017	513.5
313.246	510.5
313.476	515.5
313.706	529.5
313.935	531.5
314.165	536.5
314.394	532.5
314.624	525.5
314.853	520.5
315.083	525.5
315.312	521.5
315.542	549.5
315.771	496.5
316.001	514.5
316.23	511.5
316.46	525.5
316.689	536.5
316.919	487.5
317.148	496.5
317.377	517.5
317.607	501.5
317.836	503.5
318.065	514.5
318.295	520.5
318.524	509.5
318.753	512.5
318.983	513.5
319.212	513.5
319.441	530.5
319.67	522.5
319.9	516.5
320.129	498.5
320.358	508.5
320.587	527.5
320.816	506.5
321.046	519.5
321.275	531.5
321.504	514.5
321.733	514.5
321.962	527.5
322.191	513.5
322.42	509.5
322.649	504.5
322.878	510.5
323.108	513.5
323.337	545.5
323.566	513.5
323.795	509.5
324.024	533.5
324.253	533.5
324.482	533.5
324.71	523.5
324.939	529.5
325.168	531.5
325.397	546.5
325.626	527.5
325.855	518.5
326.084	571.5
326.313	590.5
326.542	578.5
326.77	590.5
326.999	560.5
327.228	579.5
327.457	551.5
327.686	559.5
327.914	565.5
328.143	579.5
328.372	561.5
328.6	579.5
328.829	570.5
329.058	564.5
329.287	561.5
329.515	574.5
329.744	581.5
329.972	555.5
330.201	569.5
330.43	581.5
330.658	575.5
330.887	567.5
331.115	579.5
331.344	587.5
331.572	597.5
331.801	629.5
332.03	605.5
332.258	627.5
332.486	643.5
332.715	688.5
332.943	707.5
333.172	714.5
333.4	767.5
333.629	759.5
333.857	782.5
334.085	739.5
334.314	738.5
334.542	750.5
334.771	741.5
334.999	727.5
335.227	730.5
335.455	729.5
335.684	721.5
335.912	711.5
336.14	685.5
336.369	683.5
336.597	723.5
336.825	725.5
337.053	674.5
337.281	677.5
337.51	662.5
337.738	659.5
337.966	655.5
338.194	629.5
338.422	623.5
338.65	625.5
338.878	635.5
339.106	629.5
339.334	607.5
339.562	611.5
339.79	603.5
340.018	594.5
340.246	569.5
340.474	599.5
340.702	605.5
340.93	590.5
341.158	588.5
341.386	617.5
341.614	621.5
341.842	605.5
342.07	606.5
342.298	614.5
342.526	583.5
342.754	594.5
342.981	616.5
343.209	619.5
343.437	658.5
343.665	671.5
343.893	732.5
344.12	765.5
344.348	702.5
344.576	674.5
344.804	651.5
345.031	625.5
345.259	592.5
345.487	589.5
345.714	604.5
345.942	575.5
346.17	599.5
346.397	583.5
346.625	583.5
346.853	608.5
347.08	585.5
347.308	581.5
347.535	587.5
347.763	594.5
347.99	601.5
348.218	572.5
348.445	599.5
348.673	586.5
348.9	592.5
349.128	581.5
349.355	580.5
349.583	564.5
349.81	582.5
350.037	553.5
350.265	566.5
350.492	569.5
350.72	546.5
350.947	555.5
351.174	562.5
351.402	569.5
351.629	528.5
351.856	562.5
352.083	573.5
352.311	573.5
352.538	555.5
352.765	565.5
352.992	541.5
353.22	547.5
353.447	544.5
353.674	542.5
353.901	565.5
354.128	547.5
354.355	560.5
354.583	570.5
354.81	570.5
355.037	562.5
355.264	567.5
355.491	574.5
355.718	557.5
355.945	553.5
356.172	571.5
356.399	558.5
356.626	557.5
356.853	568.5
357.08	572.5
357.307	590.5
357.534	561.5
357.761	581.5
357.988	584.5
358.215	542.5
358.441	563.5
358.668	568.5
358.895	548.5
359.122	569.5
359.349	560.5
359.576	551.5
359.802	561.5
360.029	573.5
360.256	566.5
360.483	563.5
360.709	572.5
360.936	544.5
361.163	561.5
361.39	559.5
361.616	566.5
361.843	564.5
362.07	598.5
362.296	581.5
362.523	557.5
362.749	555.5
362.976	567.5
363.203	566.5
363.429	553.5
363.656	565.5
363.882	546.5
364.109	561.5
364.335	577.5
364.562	562.5
364.788	542.5
365.015	543.5
365.241	542.5
365.468	546.5
365.694	547.5
365.92	554.5
366.147	561.5
366.373	580.5
366.599	548.5
366.826	540.5
367.052	537.5
367.278	562.5
367.505	558.5
367.731	567.5
367.957	547.5
368.184	575.5
368.41	552.5
368.636	570.5
368.862	593.5
369.089	562.5
369.315	567.5
369.541	594.5
369.767	586.5
369.993	589.5
370.219	610.5
370.445	602.5
370.672	591.5
370.898	573.5
371.124	601.5
371.35	614.5
371.576	612.5
371.802	599.5
372.028	599.5
372.254	623.5
372.48	612.5
372.706	612.5
372.932	650.5
373.158	649.5
373.384	606.5
373.61	601.5
373.835	602.5
374.061	619.5
374.287	615.5
374.513	651.5
374.739	674.5
374.965	650.5
375.191	677.5
375.416	655.5
375.642	647.5
375.868	633.5
376.094	630.5
376.319	606.5
376.545	631.5
376.771	609.5
376.997	595.5
377.222	600.5
377.448	632.5
377.674	601.5
377.899	595.5
378.125	609.5
378.35	610.5
378.576	609.5
378.802	597.5
379.027	601.5
379.253	600.5
379.478	584.5
379.704	605.5
379.929	618.5
380.155	588.5
380.38	609.5
380.606	638.5
380.831	620.5
381.057	595.5
381.282	601.5
381.507	591.5
381.733	612.5
381.958	621.5
382.184	632.5
382.409	631.5
382.634	616.5
382.86	631.5
383.085	665.5
383.31	656.5
383.535	645.5
383.761	687.5
383.986	693.5
384.211	702.5
384.436	742.5
384.662	728.5
384.887	704.5
385.112	719.5
385.337	735.5
385.562	721.5
385.787	734.5
386.013	753.5
386.238	721.5
386.463	723.5
386.688	753.5
386.913	721.5
387.138	708.5
387.363	725.5
387.588	693.5
387.813	709.5
388.038	678.5
388.263	710.5
388.488	754.5
388.713	710.5
388.938	712.5
389.163	711.5
389.387	688.5
389.612	700.5
389.837	718.5
390.062	701.5
390.287	717.5
390.512	695.5
390.736	701.5
390.961	750.5
391.186	751.5
391.411	790.5
391.636	767.5
391.86	790.5
392.085	840.5
392.31	841.5
392.534	781.5
392.759	806.5
392.984	765.5
393.208	767.5
393.433	789.5
393.658	759.5
393.882	771.5
394.107	782.5
394.331	773.5
394.556	785.5
394.78	786.5
395.005	794.5
395.229	761.5
395.454	810.5
395.678	835.5
395.903	831.5
396.127	834.5
396.352	771.5
396.576	749.5
396.801	745.5
397.025	781.5
397.249	756.5
397.474	822.5
397.698	823.5
397.922	807.5
398.147	787.5
398.371	831.5
398.595	844.5
398.82	864.5
399.044	919.5
399.268	1042.5
399.492	1237.5
399.717	1376.5
399.941	1411.5
400.165	1212.5
400.389	1077.5
400.613	976.5
400.837	927.5
401.062	897.5
401.286	867.5
401.51	906.5
401.734	877.5
401.958	937.5
402.182	899.5
402.406	946.5
402.63	952.5
402.854	970.5
403.078	982.5
403.302	993.5
403.526	1040.5
403.75	1053.5
403.974	1082.5
404.198	1090.5
404.422	1066.5
404.645	1051.5
404.869	1037.5
405.093	1070.5
405.317	1009.5
405.541	994.5
405.765	1014.5
405.988	971.5
406.212	993.5
406.436	994.5
406.66	1012.5
406.883	1056.5
407.107	1140.5
407.331	1166.5
407.555	1216.5
407.778	1205.5
408.002	1169.5
408.226	1111.5
408.449	1090.5
408.673	1048.5
408.896	1057.5
409.12	1014.5
409.344	1036.5
409.567	1029.5
409.791	1032.5
410.014	1060.5
410.238	1041.5
410.461	1046.5
410.685	973.5
410.908	1016.5
411.132	978.5
411.355	958.5
411.578	961.5
411.802	954.5
412.025	927.5
412.249	984.5
412.472	999.5
412.695	907.5
412.919	890.5
413.142	917.5
413.365	882.5
413.589	917.5
413.812	913.5
414.035	886.5
414.258	874.5
414.482	938.5
414.705	905.5
414.928	914.5
415.151	919.5
415.374	909.5
415.597	895.5
415.821	887.5
416.044	885.5
416.267	867.5
416.49	890.5
416.713	891.5
416.936	895.5
417.159	906.5
417.382	901.5
417.605	890.5
417.828	893.5
418.051	895.5
418.274	916.5
418.497	930.5
418.72	913.5
418.943	930.5
419.166	991.5
419.389	1043.5
419.611	1013.5
419.834	993.5
420.057	961.5
420.28	917.5
420.503	908.5
420.726	930.5
420.948	874.5
421.171	892.5
421.394	897.5
421.617	888.5
421.839	899.5
422.062	908.5
422.285	883.5
422.507	922.5
422.73	914.5
422.953	951.5
423.175	965.5
423.398	950.5
423.621	956.5
423.843	972.5
424.066	998.5
424.288	985.5
424.511	928.5
424.733	931.5
424.956	971.5
425.178	897.5
425.401	917.5
425.623	899.5
425.846	908.5
426.068	873.5
426.291	845.5
426.513	874.5
426.735	832.5
426.958	840.5
427.18	794.5
427.402	823.5
427.625	832.5
427.847	815.5
428.069	825.5
428.292	824.5
428.514	822.5
428.736	822.5
428.958	783.5
429.181	777.5
429.403	807.5
429.625	801.5
429.847	803.5
430.069	792.5
430.292	807.5
430.514	784.5
430.736	805.5
430.958	767.5
431.18	783.5
431.402	807.5
431.624	793.5
431.846	823.5
432.068	814.5
432.29	818.5
432.512	801.5
432.734	819.5
432.956	807.5
433.178	803.5
433.4	799.5
433.622	816.5
433.844	837.5
434.066	817.5
434.287	831.5
434.509	878.5
434.731	896.5
434.953	900.5
435.175	927.5
435.397	915.5
435.618	843.5
435.84	842.5
436.062	831.5
436.284	822.5
436.505	822.5
436.727	830.5
436.949	840.5
437.17	815.5
437.392	797.5
437.614	787.5
437.835	783.5
438.057	770.5
438.278	769.5
438.5	770.5
438.721	746.5
438.943	810.5
439.165	784.5
439.386	803.5
439.608	820.5
439.829	812.5
440.05	822.5
440.272	826.5
440.493	824.5
440.715	833.5
440.936	857.5
441.158	847.5
441.379	887.5
441.6	943.5
441.822	970.5
442.043	955.5
442.264	910.5
442.486	905.5
442.707	903.5
442.928	886.5
443.149	907.5
443.371	901.5
443.592	941.5
443.813	919.5
444.034	907.5
444.255	945.5
444.476	977.5
444.698	1068.5
444.919	1091.5
445.14	1150.5
445.361	1058.5
445.582	930.5
445.803	917.5
446.024	850.5
446.245	868.5
446.466	887.5
446.687	838.5
446.908	826.5
447.129	807.5
447.35	799.5
447.571	793.5
447.792	773.5
448.013	771.5
448.234	767.5
448.455	754.5
448.675	763.5
448.896	767.5
449.117	734.5
449.338	750.5
449.559	748.5
449.779	745.5
450	726.5
450.221	747.5
450.442	754.5
450.662	735.5
450.883	775.5
451.104	777.5
451.324	772.5
451.545	786.5
451.766	756.5
451.986	770.5
452.207	778.5
452.428	744.5
452.648	775.5
452.869	752.5
453.089	742.5
453.31	724.5
453.53	766.5
453.751	726.5
453.971	706.5
454.192	743.5
454.412	734.5
454.633	710.5
454.853	701.5
455.073	718.5
455.294	737.5
455.514	697.5
455.734	709.5
455.955	708.5
456.175	706.5
456.395	700.5
456.616	713.5
456.836	686.5
457.056	695.5
457.276	678.5
457.497	706.5
457.717	689.5
457.937	738.5
458.157	693.5
458.377	701.5
458.598	728.5
458.818	767.5
459.038	765.5
459.258	785.5
459.478	850.5
459.698	850.5
459.918	874.5
460.138	902.5
460.358	934.5
460.578	953.5
460.798	1000.5
461.018	997.5
461.238	965.5
461.458	926.5
461.678	936.5
461.898	965.5
462.118	985.5
462.338	1014.5
462.558	1058.5
462.777	1094.5
462.997	1187.5
463.217	1347.5
463.437	1328.5
463.657	1193.5
463.876	1107.5
464.096	1109.5
464.316	1174.5
464.536	1159.5
464.755	1089.5
464.975	1067.5
465.195	975.5
465.414	927.5
465.634	887.5
465.854	858.5
466.073	835.5
466.293	821.5
466.512	779.5
466.732	803.5
466.951	791.5
467.171	790.5
467.391	796.5
467.61	782.5
467.829	778.5
468.049	770.5
468.268	779.5
468.488	751.5
468.707	777.5
468.927	760.5
469.146	744.5
469.365	754.5
469.585	744.5
469.804	774.5
470.023	799.5
470.243	793.5
470.462	824.5
470.681	806.5
470.901	801.5
471.12	794.5
471.339	789.5
471.558	752.5
471.777	781.5
471.997	753.5
472.216	749.5
472.435	756.5
472.654	704.5
472.873	739.5
473.092	744.5
473.311	718.5
473.53	750.5
473.749	723.5
473.968	740.5
474.187	732.5
474.406	724.5
474.625	705.5
474.844	727.5
475.063	733.5
475.282	727.5
475.501	714.5
475.72	768.5
475.939	739.5
476.158	773.5
476.377	753.5
476.596	751.5
476.814	781.5
477.033	771.5
477.252	791.5
477.471	791.5
477.69	800.5
477.908	843.5
478.127	881.5
478.346	883.5
478.564	872.5
478.783	893.5
479.002	922.5
479.22	891.5
479.439	894.5
479.658	945.5
479.876	908.5
480.095	925.5
480.313	974.5
480.532	1000.5
480.751	986.5
480.969	947.5
481.188	939.5
481.406	850.5
481.624	850.5
481.843	861.5
482.061	835.5
482.28	828.5
482.498	822.5
482.717	835.5
482.935	830.5
483.153	835.5
483.372	849.5
483.59	812.5
483.808	833.5
484.027	832.5
484.245	828.5
484.463	856.5
484.681	851.5
484.9	865.5
485.118	869.5
485.336	869.5
485.554	873.5
485.772	890.5
485.99	887.5
486.209	899.5
486.427	890.5
486.645	895.5
486.863	877.5
487.081	895.5
487.299	882.5
487.517	886.5
487.735	865.5
487.953	879.5
488.171	873.5
488.389	872.5
488.607	869.5
488.825	862.5
489.043	857.5
489.261	869.5
489.479	862.5
489.696	885.5
489.914	868.5
490.132	893.5
490.35	886.5
490.568	886.5
490.786	872.5
491.003	886.5
491.221	888.5
491.439	853.5
491.657	874.5
491.874	864.5
492.092	887.5
492.31	875.5
492.527	898.5
492.745	889.5
492.963	899.5
493.18	905.5
493.398	907.5
493.615	908.5
493.833	906.5
494.05	914.5
494.268	933.5
494.485	934.5
494.703	920.5
494.92	934.5
495.138	928.5
495.355	927.5
495.573	912.5
495.79	933.5
496.008	910.5
496.225	934.5
496.442	960.5
496.66	939.5
496.877	957.5
497.094	983.5
497.312	1000.5
497.529	989.5
497.746	1027.5
497.963	1052.5
498.181	1130.5
498.398	1164.5
498.615	1235.5
498.832	1333.5
499.049	1403.5
499.267	1513.5
499.484	1643.5
499.701	1854.5
499.918	2064.5
500.135	2400.5
500.352	2767.5
500.569	2947.5
500.786	2910.5
501.003	2671.5
501.22	2344.5
501.437	2056.5
501.654	1771.5
501.871	1633.5
502.088	1504.5
502.305	1400.5
502.522	1315.5
502.739	1263.5
502.956	1185.5
503.172	1135.5
503.389	1084.5
503.606	1052.5
503.823	1066.5
504.04	1018.5
504.256	1105.5
504.473	1105.5
504.69	1138.5
504.907	1110.5
505.123	1002.5
505.34	970.5
505.557	928.5
505.773	918.5
505.99	874.5
506.207	857.5
506.423	859.5
506.64	847.5
506.856	844.5
507.073	798.5
507.289	827.5
507.506	821.5
507.722	828.5
507.939	795.5
508.155	793.5
508.372	801.5
508.588	765.5
508.805	785.5
509.021	768.5
509.238	770.5
509.454	774.5
509.67	745.5
509.887	751.5
510.103	757.5
510.319	772.5
510.536	755.5
510.752	757.5
510.968	742.5
511.184	739.5
511.401	763.5
511.617	742.5
511.833	746.5
512.049	745.5
512.265	752.5
512.481	750.5
512.698	761.5
512.914	747.5
513.13	754.5
513.346	771.5
513.562	735.5
513.778	770.5
513.994	739.5
514.21	769.5
514.426	754.5
514.642	769.5
514.858	787.5
515.074	794.5
515.29	778.5
515.506	763.5
515.721	806.5
515.937	836.5
516.153	825.5
516.369	846.5
516.585	844.5
516.801	882.5
517.016	903.5
517.232	952.5
517.448	1043.5
517.664	1057.5
517.879	1047.5
518.095	1063.5
