Data from Ni(NO3)2Standard.Agarose3%.GreenCap.LampEnergy5.5.E.O_HRD10591_14-40-33-188.txt Node
Date: Mon Jul 22 14:40:33 EDT 2019
User: cochatt
Spectrometer: HR+D1059
Trigger mode: 1
Integration Time (sec): 1.000000E-1
Scans to average: 1
Electric dark correction enabled: true
Nonlinearity correction enabled: false
Boxcar width: 0
XAxis mode: Wavelengths
Number of Pixels in Spectrum: 2048
>>>>>Begin Spectral Data<<<<<
223.165	-26.38
223.4	-26.38
223.635	-26.38
223.869	-17.38
224.104	-11.38
224.338	-11.38
224.573	-12.38
224.808	-8.38
225.042	-10.38
225.277	3.62
225.511	0.62
225.746	-10.38
225.98	11.62
226.215	24.62
226.449	10.62
226.683	6.62
226.918	25.62
227.152	24.62
227.387	40.62
227.621	30.62
227.856	33.62
228.09	43.62
228.324	35.62
228.559	57.62
228.793	61.62
229.027	62.62
229.262	66.62
229.496	76.62
229.73	72.62
229.964	65.62
230.199	64.62
230.433	70.62
230.667	78.62
230.901	85.62
231.136	82.62
231.37	71.62
231.604	77.62
231.838	74.62
232.072	112.62
232.306	84.62
232.541	84.62
232.775	72.62
233.009	88.62
233.243	84.62
233.477	103.62
233.711	106.62
233.945	77.62
234.179	92.62
234.413	89.62
234.647	87.62
234.881	90.62
235.115	77.62
235.349	76.62
235.583	90.62
235.817	93.62
236.051	91.62
236.285	73.62
236.519	70.62
236.753	64.62
236.987	74.62
237.221	82.62
237.455	84.62
237.689	86.62
237.922	85.62
238.156	64.62
238.39	77.62
238.624	88.62
238.858	89.62
239.091	87.62
239.325	85.62
239.559	69.62
239.793	63.62
240.027	75.62
240.26	85.62
240.494	68.62
240.728	72.62
240.961	84.62
241.195	93.62
241.429	88.62
241.662	77.62
241.896	74.62
242.13	90.62
242.363	75.62
242.597	75.62
242.83	72.62
243.064	75.62
243.298	83.62
243.531	81.62
243.765	79.62
243.998	67.62
244.232	77.62
244.465	65.62
244.699	81.62
244.932	91.62
245.166	73.62
245.399	82.62
245.633	94.62
245.866	87.62
246.099	80.62
246.333	73.62
246.566	72.62
246.8	75.62
247.033	75.62
247.266	77.62
247.5	83.62
247.733	75.62
247.966	75.62
248.2	82.62
248.433	94.62
248.666	86.62
248.899	95.62
249.133	82.62
249.366	87.62
249.599	85.62
249.832	80.62
250.066	86.62
250.299	84.62
250.532	61.62
250.765	64.62
250.998	68.62
251.231	64.62
251.465	85.62
251.698	64.62
251.931	83.62
252.164	68.62
252.397	80.62
252.63	78.62
252.863	83.62
253.096	81.62
253.329	93.62
253.562	65.62
253.795	72.62
254.028	85.62
254.261	80.62
254.494	98.62
254.727	80.62
254.96	60.62
255.193	81.62
255.426	81.62
255.659	92.62
255.892	88.62
256.124	89.62
256.357	84.62
256.59	94.62
256.823	93.62
257.056	84.62
257.289	74.62
257.521	75.62
257.754	76.62
257.987	86.62
258.22	94.62
258.452	90.62
258.685	80.62
258.918	81.62
259.151	90.62
259.383	94.62
259.616	87.62
259.849	84.62
260.081	73.62
260.314	99.62
260.547	76.62
260.779	87.62
261.012	75.62
261.244	83.62
261.477	86.62
261.71	73.62
261.942	81.62
262.175	73.62
262.407	87.62
262.64	77.62
262.872	78.62
263.105	73.62
263.337	101.62
263.57	87.62
263.802	83.62
264.035	84.62
264.267	90.62
264.499	88.62
264.732	92.62
264.964	90.62
265.197	85.62
265.429	84.62
265.661	85.62
265.894	83.62
266.126	92.62
266.358	77.62
266.591	99.62
266.823	90.62
267.055	83.62
267.287	83.62
267.52	85.62
267.752	78.62
267.984	86.62
268.216	79.62
268.448	97.62
268.681	84.62
268.913	79.62
269.145	85.62
269.377	82.62
269.609	82.62
269.841	92.62
270.073	83.62
270.306	88.62
270.538	87.62
270.77	88.62
271.002	96.62
271.234	91.62
271.466	86.62
271.698	61.62
271.93	94.62
272.162	84.62
272.394	77.62
272.626	85.62
272.858	93.62
273.09	82.62
273.322	86.62
273.553	90.62
273.785	89.62
274.017	83.62
274.249	99.62
274.481	95.62
274.713	70.62
274.945	86.62
275.176	88.62
275.408	82.62
275.64	88.62
275.872	77.62
276.104	84.62
276.335	68.62
276.567	91.62
276.799	78.62
277.031	99.62
277.262	83.62
277.494	87.62
277.726	87.62
277.957	81.62
278.189	89.62
278.421	84.62
278.652	78.62
278.884	83.62
279.115	102.62
279.347	102.62
279.579	81.62
279.81	86.62
280.042	96.62
280.273	93.62
280.505	99.62
280.736	89.62
280.968	87.62
281.199	81.62
281.431	86.62
281.662	82.62
281.894	84.62
282.125	94.62
282.356	98.62
282.588	93.62
282.819	89.62
283.051	93.62
283.282	74.62
283.513	83.62
283.745	86.62
283.976	76.62
284.207	90.62
284.439	82.62
284.67	90.62
284.901	85.62
285.132	72.62
285.364	90.62
285.595	82.62
285.826	89.62
286.057	83.62
286.288	75.62
286.52	79.62
286.751	80.62
286.982	90.62
287.213	94.62
287.444	92.62
287.675	88.62
287.906	98.62
288.138	101.62
288.369	85.62
288.6	70.62
288.831	87.62
289.062	82.62
289.293	78.62
289.524	91.62
289.755	85.62
289.986	81.62
290.217	88.62
290.448	83.62
290.679	81.62
290.91	91.62
291.141	85.62
291.371	101.62
291.602	99.62
291.833	93.62
292.064	90.62
292.295	79.62
292.526	84.62
292.757	87.62
292.987	93.62
293.218	87.62
293.449	88.62
293.68	82.62
293.91	82.62
294.141	78.62
294.372	80.62
294.603	89.62
294.833	77.62
295.064	84.62
295.295	96.62
295.525	78.62
295.756	72.62
295.987	86.62
296.217	78.62
296.448	95.62
296.679	85.62
296.909	94.62
297.14	83.62
297.37	100.62
297.601	93.62
297.831	89.62
298.062	86.62
298.292	93.62
298.523	98.62
298.753	79.62
298.984	92.62
299.214	85.62
299.445	101.62
299.675	72.62
299.905	95.62
300.136	85.62
300.366	81.62
300.597	82.62
300.827	87.62
301.057	90.62
301.288	82.62
301.518	86.62
301.748	83.62
301.979	88.62
302.209	85.62
302.439	94.62
302.669	83.62
302.9	70.62
303.13	100.62
303.36	97.62
303.59	81.62
303.82	93.62
304.051	89.62
304.281	91.62
304.511	78.62
304.741	84.62
304.971	98.62
305.201	84.62
305.431	76.62
305.661	86.62
305.891	86.62
306.121	89.62
306.352	89.62
306.582	89.62
306.812	74.62
307.042	89.62
307.272	93.62
307.502	90.62
307.731	89.62
307.961	92.62
308.191	82.62
308.421	91.62
308.651	98.62
308.881	97.62
309.111	83.62
309.341	97.62
309.571	73.62
309.8	95.62
310.03	82.62
310.26	81.62
310.49	84.62
310.72	96.62
310.949	97.62
311.179	80.62
311.409	90.62
311.639	94.62
311.868	87.62
312.098	94.62
312.328	89.62
312.557	92.62
312.787	82.62
313.017	92.62
313.246	79.62
313.476	83.62
313.706	90.62
313.935	89.62
314.165	78.62
314.394	77.62
314.624	91.62
314.853	92.62
315.083	101.62
315.312	89.62
315.542	91.62
315.771	94.62
316.001	99.62
316.23	86.62
316.46	90.62
316.689	84.62
316.919	78.62
317.148	86.62
317.377	88.62
317.607	95.62
317.836	96.62
318.065	88.62
318.295	89.62
318.524	89.62
318.753	101.62
318.983	82.62
319.212	89.62
319.441	97.62
319.67	86.62
319.9	86.62
320.129	104.62
320.358	95.62
320.587	97.62
320.816	97.62
321.046	84.62
321.275	84.62
321.504	78.62
321.733	101.62
321.962	90.62
322.191	90.62
322.42	89.62
322.649	83.62
322.878	89.62
323.108	101.62
323.337	91.62
323.566	95.62
323.795	92.62
324.024	93.62
324.253	88.62
324.482	76.62
324.71	73.62
324.939	85.62
325.168	90.62
325.397	89.62
325.626	82.62
325.855	86.62
326.084	70.62
326.313	89.62
326.542	84.62
326.77	75.62
326.999	85.62
327.228	82.62
327.457	93.62
327.686	90.62
327.914	86.62
328.143	91.62
328.372	93.62
328.6	74.62
328.829	69.62
329.058	85.62
329.287	87.62
329.515	90.62
329.744	84.62
329.972	100.62
330.201	89.62
330.43	83.62
330.658	84.62
330.887	88.62
331.115	77.62
331.344	94.62
331.572	81.62
331.801	82.62
332.03	86.62
332.258	88.62
332.486	93.62
332.715	78.62
332.943	85.62
333.172	85.62
333.4	87.62
333.629	88.62
333.857	89.62
334.085	91.62
334.314	82.62
334.542	86.62
334.771	87.62
334.999	85.62
335.227	79.62
335.455	80.62
335.684	92.62
335.912	100.62
336.14	87.62
336.369	82.62
336.597	91.62
336.825	91.62
337.053	73.62
337.281	83.62
337.51	92.62
337.738	84.62
337.966	91.62
338.194	102.62
338.422	91.62
338.65	94.62
338.878	84.62
339.106	89.62
339.334	93.62
339.562	90.62
339.79	83.62
340.018	81.62
340.246	85.62
340.474	86.62
340.702	77.62
340.93	91.62
341.158	85.62
341.386	86.62
341.614	90.62
341.842	76.62
342.07	74.62
342.298	80.62
342.526	91.62
342.754	87.62
342.981	91.62
343.209	70.62
343.437	83.62
343.665	80.62
343.893	88.62
344.12	89.62
344.348	94.62
344.576	82.62
344.804	89.62
345.031	92.62
345.259	100.62
345.487	96.62
345.714	87.62
345.942	95.62
346.17	96.62
346.397	84.62
346.625	87.62
346.853	86.62
347.08	72.62
347.308	99.62
347.535	99.62
347.763	91.62
347.99	97.62
348.218	92.62
348.445	100.62
348.673	84.62
348.9	87.62
349.128	79.62
349.355	103.62
349.583	94.62
349.81	78.62
350.037	91.62
350.265	84.62
350.492	84.62
350.72	85.62
350.947	81.62
351.174	84.62
351.402	88.62
351.629	83.62
351.856	82.62
352.083	68.62
352.311	69.62
352.538	99.62
352.765	102.62
352.992	83.62
353.22	82.62
353.447	112.62
353.674	98.62
353.901	81.62
354.128	81.62
354.355	89.62
354.583	99.62
354.81	81.62
355.037	87.62
355.264	69.62
355.491	83.62
355.718	65.62
355.945	84.62
356.172	78.62
356.399	77.62
356.626	89.62
356.853	89.62
357.08	88.62
357.307	84.62
357.534	88.62
357.761	82.62
357.988	99.62
358.215	94.62
358.441	97.62
358.668	81.62
358.895	99.62
359.122	105.62
359.349	82.62
359.576	77.62
359.802	77.62
360.029	84.62
360.256	78.62
360.483	92.62
360.709	71.62
360.936	97.62
361.163	92.62
361.39	86.62
361.616	89.62
361.843	83.62
362.07	109.62
362.296	98.62
362.523	81.62
362.749	96.62
362.976	78.62
363.203	77.62
363.429	89.62
363.656	90.62
363.882	73.62
364.109	85.62
364.335	77.62
364.562	77.62
364.788	76.62
365.015	79.62
365.241	78.62
365.468	89.62
365.694	83.62
365.92	80.62
366.147	82.62
366.373	77.62
366.599	92.62
366.826	95.62
367.052	92.62
367.278	67.62
367.505	84.62
367.731	96.62
367.957	86.62
368.184	77.62
368.41	82.62
368.636	91.62
368.862	83.62
369.089	83.62
369.315	86.62
369.541	87.62
369.767	90.62
369.993	89.62
370.219	88.62
370.445	87.62
370.672	71.62
370.898	84.62
371.124	82.62
371.35	78.62
371.576	85.62
371.802	92.62
372.028	92.62
372.254	94.62
372.48	85.62
372.706	89.62
372.932	79.62
373.158	92.62
373.384	87.62
373.61	85.62
373.835	74.62
374.061	105.62
374.287	93.62
374.513	80.62
374.739	92.62
374.965	85.62
375.191	89.62
375.416	99.62
375.642	87.62
375.868	100.62
376.094	92.62
376.319	78.62
376.545	91.62
376.771	92.62
376.997	77.62
377.222	87.62
377.448	96.62
377.674	96.62
377.899	86.62
378.125	83.62
378.35	89.62
378.576	88.62
378.802	88.62
379.027	74.62
379.253	78.62
379.478	93.62
379.704	91.62
379.929	97.62
380.155	71.62
380.38	85.62
380.606	83.62
380.831	94.62
381.057	81.62
381.282	90.62
381.507	92.62
381.733	98.62
381.958	89.62
382.184	85.62
382.409	84.62
382.634	89.62
382.86	88.62
383.085	72.62
383.31	67.62
383.535	75.62
383.761	78.62
383.986	88.62
384.211	88.62
384.436	98.62
384.662	79.62
384.887	101.62
385.112	65.62
385.337	91.62
385.562	81.62
385.787	83.62
386.013	94.62
386.238	88.62
386.463	95.62
386.688	91.62
386.913	71.62
387.138	78.62
387.363	85.62
387.588	81.62
387.813	86.62
388.038	92.62
388.263	92.62
388.488	83.62
388.713	87.62
388.938	84.62
389.163	73.62
389.387	88.62
389.612	81.62
389.837	89.62
390.062	86.62
390.287	87.62
390.512	88.62
390.736	91.62
390.961	96.62
391.186	90.62
391.411	61.62
391.636	90.62
391.86	85.62
392.085	85.62
392.31	76.62
392.534	86.62
392.759	84.62
392.984	80.62
393.208	93.62
393.433	86.62
393.658	75.62
393.882	96.62
394.107	80.62
394.331	77.62
394.556	93.62
394.78	84.62
395.005	85.62
395.229	80.62
395.454	84.62
395.678	89.62
395.903	85.62
396.127	112.62
396.352	93.62
396.576	97.62
396.801	92.62
397.025	83.62
397.249	91.62
397.474	101.62
397.698	88.62
397.922	92.62
398.147	84.62
398.371	94.62
398.595	80.62
398.82	82.62
399.044	91.62
399.268	71.62
399.492	98.62
399.717	77.62
399.941	93.62
400.165	86.62
400.389	84.62
400.613	89.62
400.837	87.62
401.062	83.62
401.286	81.62
401.51	88.62
401.734	84.62
401.958	93.62
402.182	87.62
402.406	92.62
402.63	86.62
402.854	97.62
403.078	98.62
403.302	93.62
403.526	88.62
403.75	98.62
403.974	85.62
404.198	94.62
404.422	100.62
404.645	94.62
404.869	100.62
405.093	75.62
405.317	85.62
405.541	85.62
405.765	76.62
405.988	86.62
406.212	89.62
406.436	89.62
406.66	92.62
406.883	95.62
407.107	87.62
407.331	94.62
407.555	82.62
407.778	82.62
408.002	91.62
408.226	78.62
408.449	90.62
408.673	91.62
408.896	93.62
409.12	102.62
409.344	93.62
409.567	86.62
409.791	86.62
410.014	77.62
410.238	91.62
410.461	81.62
410.685	78.62
410.908	83.62
411.132	85.62
411.355	77.62
411.578	91.62
411.802	88.62
412.025	72.62
412.249	79.62
412.472	101.62
412.695	97.62
412.919	91.62
413.142	93.62
413.365	79.62
413.589	89.62
413.812	84.62
414.035	93.62
414.258	87.62
414.482	103.62
414.705	96.62
414.928	91.62
415.151	88.62
415.374	89.62
415.597	95.62
415.821	93.62
416.044	89.62
416.267	83.62
416.49	85.62
416.713	84.62
416.936	82.62
417.159	86.62
417.382	75.62
417.605	81.62
417.828	95.62
418.051	82.62
418.274	91.62
418.497	79.62
418.72	77.62
418.943	84.62
419.166	93.62
419.389	77.62
419.611	78.62
419.834	86.62
420.057	90.62
420.28	75.62
420.503	89.62
420.726	81.62
420.948	70.62
421.171	85.62
421.394	92.62
421.617	79.62
421.839	90.62
422.062	98.62
422.285	84.62
422.507	97.62
422.73	93.62
422.953	89.62
423.175	87.62
423.398	92.62
423.621	78.62
423.843	83.62
424.066	87.62
424.288	84.62
424.511	86.62
424.733	99.62
424.956	85.62
425.178	85.62
425.401	82.62
425.623	87.62
425.846	85.62
426.068	94.62
426.291	99.62
426.513	82.62
426.735	74.62
426.958	70.62
427.18	88.62
427.402	88.62
427.625	91.62
427.847	81.62
428.069	85.62
428.292	88.62
428.514	94.62
428.736	84.62
428.958	83.62
429.181	98.62
429.403	87.62
429.625	70.62
429.847	85.62
430.069	99.62
430.292	82.62
430.514	93.62
430.736	86.62
430.958	75.62
431.18	72.62
431.402	102.62
431.624	84.62
431.846	84.62
432.068	91.62
432.29	85.62
432.512	79.62
432.734	87.62
432.956	102.62
433.178	83.62
433.4	87.62
433.622	94.62
433.844	97.62
434.066	78.62
434.287	82.62
434.509	79.62
434.731	92.62
434.953	66.62
435.175	91.62
435.397	99.62
435.618	92.62
435.84	78.62
436.062	82.62
436.284	85.62
436.505	77.62
436.727	81.62
436.949	81.62
437.17	88.62
437.392	97.62
437.614	84.62
437.835	83.62
438.057	76.62
438.278	82.62
438.5	82.62
438.721	82.62
438.943	81.62
439.165	80.62
439.386	91.62
439.608	89.62
439.829	101.62
440.05	106.62
440.272	81.62
440.493	87.62
440.715	82.62
440.936	85.62
441.158	105.62
441.379	82.62
441.6	82.62
441.822	89.62
442.043	93.62
442.264	90.62
442.486	96.62
442.707	86.62
442.928	76.62
443.149	88.62
443.371	86.62
443.592	77.62
443.813	105.62
444.034	86.62
444.255	89.62
444.476	86.62
444.698	92.62
444.919	89.62
445.14	207.62
445.361	145.62
445.582	90.62
445.803	75.62
446.024	97.62
446.245	89.62
446.466	84.62
446.687	87.62
446.908	77.62
447.129	87.62
447.35	73.62
447.571	76.62
447.792	85.62
448.013	78.62
448.234	73.62
448.455	89.62
448.675	87.62
448.896	89.62
449.117	69.62
449.338	83.62
449.559	89.62
449.779	74.62
450	78.62
450.221	87.62
450.442	84.62
450.662	87.62
450.883	72.62
451.104	98.62
451.324	91.62
451.545	73.62
451.766	101.62
451.986	79.62
452.207	82.62
452.428	74.62
452.648	85.62
452.869	95.62
453.089	91.62
453.31	99.62
453.53	81.62
453.751	89.62
453.971	96.62
454.192	87.62
454.412	77.62
454.633	96.62
454.853	85.62
455.073	85.62
455.294	77.62
455.514	90.62
455.734	93.62
455.955	100.62
456.175	83.62
456.395	81.62
456.616	72.62
456.836	88.62
457.056	89.62
457.276	86.62
457.497	91.62
457.717	102.62
457.937	100.62
458.157	94.62
458.377	74.62
458.598	88.62
458.818	74.62
459.038	85.62
459.258	100.62
459.478	84.62
459.698	78.62
459.918	87.62
460.138	85.62
460.358	92.62
460.578	94.62
460.798	88.62
461.018	90.62
461.238	106.62
461.458	83.62
461.678	87.62
461.898	84.62
462.118	80.62
462.338	96.62
462.558	87.62
462.777	78.62
462.997	76.62
463.217	92.62
463.437	91.62
463.657	98.62
463.876	100.62
464.096	94.62
464.316	79.62
464.536	84.62
464.755	90.62
464.975	88.62
465.195	97.62
465.414	89.62
465.634	80.62
465.854	93.62
466.073	90.62
466.293	95.62
466.512	92.62
466.732	100.62
466.951	93.62
467.171	91.62
467.391	86.62
467.61	91.62
467.829	98.62
468.049	88.62
468.268	80.62
468.488	94.62
468.707	90.62
468.927	83.62
469.146	92.62
469.365	92.62
469.585	100.62
469.804	105.62
470.023	91.62
470.243	84.62
470.462	85.62
470.681	75.62
470.901	84.62
471.12	86.62
471.339	93.62
471.558	81.62
471.777	93.62
471.997	91.62
472.216	77.62
472.435	85.62
472.654	82.62
472.873	95.62
473.092	85.62
473.311	87.62
473.53	98.62
473.749	102.62
473.968	89.62
474.187	78.62
474.406	80.62
474.625	88.62
474.844	85.62
475.063	79.62
475.282	98.62
475.501	82.62
475.72	96.62
475.939	92.62
476.158	90.62
476.377	91.62
476.596	85.62
476.814	93.62
477.033	83.62
477.252	99.62
477.471	78.62
477.69	96.62
477.908	90.62
478.127	102.62
478.346	76.62
478.564	93.62
478.783	91.62
479.002	98.62
479.22	89.62
479.439	93.62
479.658	92.62
479.876	87.62
480.095	93.62
480.313	81.62
480.532	79.62
480.751	97.62
480.969	102.62
481.188	78.62
481.406	92.62
481.624	79.62
481.843	93.62
482.061	92.62
482.28	100.62
482.498	105.62
482.717	93.62
482.935	92.62
483.153	99.62
483.372	98.62
483.59	89.62
483.808	85.62
484.027	96.62
484.245	98.62
484.463	88.62
484.681	88.62
484.9	109.62
485.118	88.62
485.336	96.62
485.554	82.62
485.772	93.62
485.99	90.62
486.209	92.62
486.427	102.62
486.645	83.62
486.863	92.62
487.081	98.62
487.299	86.62
487.517	94.62
487.735	97.62
487.953	97.62
488.171	101.62
488.389	105.62
488.607	93.62
488.825	87.62
489.043	77.62
489.261	91.62
489.479	106.62
489.696	87.62
489.914	90.62
490.132	97.62
490.35	86.62
490.568	101.62
490.786	95.62
491.003	114.62
491.221	79.62
491.439	95.62
491.657	101.62
491.874	107.62
492.092	117.62
492.31	102.62
492.527	96.62
492.745	102.62
492.963	90.62
493.18	98.62
493.398	84.62
493.615	95.62
493.833	97.62
494.05	100.62
494.268	106.62
494.485	86.62
494.703	102.62
494.92	97.62
495.138	89.62
495.355	90.62
495.573	96.62
495.79	89.62
496.008	95.62
496.225	92.62
496.442	93.62
496.66	123.62
496.877	98.62
497.094	100.62
497.312	89.62
497.529	96.62
497.746	92.62
497.963	94.62
498.181	102.62
498.398	102.62
498.615	100.62
498.832	94.62
499.049	93.62
499.267	98.62
499.484	115.62
499.701	112.62
499.918	112.62
500.135	106.62
500.352	98.62
500.569	116.62
500.786	128.62
501.003	127.62
501.22	114.62
501.437	117.62
501.654	114.62
501.871	106.62
502.088	101.62
502.305	99.62
502.522	104.62
502.739	96.62
502.956	92.62
503.172	113.62
503.389	84.62
503.606	100.62
503.823	90.62
504.04	101.62
504.256	99.62
504.473	93.62
504.69	90.62
504.907	107.62
505.123	99.62
505.34	90.62
505.557	88.62
505.773	115.62
505.99	91.62
506.207	84.62
506.423	103.62
506.64	93.62
506.856	99.62
507.073	97.62
507.289	86.62
507.506	99.62
507.722	89.62
507.939	87.62
508.155	92.62
508.372	73.62
508.588	102.62
508.805	96.62
509.021	76.62
509.238	103.62
509.454	87.62
509.67	91.62
509.887	89.62
510.103	89.62
510.319	91.62
510.536	91.62
510.752	85.62
510.968	82.62
511.184	86.62
511.401	99.62
511.617	85.62
511.833	100.62
512.049	94.62
512.265	90.62
512.481	92.62
512.698	89.62
512.914	86.62
513.13	80.62
513.346	85.62
513.562	89.62
513.778	94.62
513.994	101.62
514.21	77.62
514.426	84.62
514.642	97.62
514.858	100.62
515.074	67.62
515.29	100.62
515.506	89.62
515.721	84.62
515.937	90.62
516.153	87.62
516.369	88.62
516.585	91.62
516.801	100.62
517.016	83.62
517.232	85.62
517.448	107.62
517.664	92.62
517.879	102.62
