Data from Ni(NO3)2@0.5M.TitratingCurve.Agarose3%dH2O.NegLispCup.LampEnergy10.LIBS07252019_HRD10591_18-00-14-565.txt Node
Date: Thu Jul 25 18:00:14 EDT 2019
User: cochatt
Spectrometer: HR+D1059
Trigger mode: 1
Integration Time (sec): 1.000000E-1
Scans to average: 1
Electric dark correction enabled: true
Nonlinearity correction enabled: false
Boxcar width: 0
XAxis mode: Wavelengths
Number of Pixels in Spectrum: 2048
>>>>>Begin Spectral Data<<<<<
223.165	-12.44
223.4	-12.44
223.635	-12.44
223.869	-18.44
224.104	-25.44
224.338	-6.44
224.573	-14.44
224.808	-14.44
225.042	-15.44
225.277	-10.44
225.511	-4.44
225.746	7.56
225.98	16.56
226.215	5.56
226.449	27.56
226.683	25.56
226.918	16.56
227.152	22.56
227.387	21.56
227.621	39.56
227.856	46.56
228.09	55.56
228.324	46.56
228.559	53.56
228.793	73.56
229.027	84.56
229.262	93.56
229.496	83.56
229.73	106.56
229.964	106.56
230.199	117.56
230.433	123.56
230.667	111.56
230.901	122.56
231.136	110.56
231.37	119.56
231.604	113.56
231.838	119.56
232.072	140.56
232.306	120.56
232.541	126.56
232.775	123.56
233.009	105.56
233.243	117.56
233.477	125.56
233.711	122.56
233.945	123.56
234.179	119.56
234.413	126.56
234.647	121.56
234.881	131.56
235.115	110.56
235.349	119.56
235.583	125.56
235.817	115.56
236.051	123.56
236.285	115.56
236.519	121.56
236.753	121.56
236.987	115.56
237.221	122.56
237.455	130.56
237.689	125.56
237.922	123.56
238.156	118.56
238.39	127.56
238.624	116.56
238.858	128.56
239.091	118.56
239.325	132.56
239.559	125.56
239.793	150.56
240.027	138.56
240.26	137.56
240.494	130.56
240.728	139.56
240.961	147.56
241.195	136.56
241.429	127.56
241.662	137.56
241.896	158.56
242.13	152.56
242.363	140.56
242.597	141.56
242.83	149.56
243.064	142.56
243.298	146.56
243.531	149.56
243.765	152.56
243.998	152.56
244.232	157.56
244.465	165.56
244.699	130.56
244.932	143.56
245.166	150.56
245.399	141.56
245.633	167.56
245.866	159.56
246.099	167.56
246.333	155.56
246.566	153.56
246.8	147.56
247.033	164.56
247.266	173.56
247.5	155.56
247.733	167.56
247.966	147.56
248.2	154.56
248.433	162.56
248.666	149.56
248.899	168.56
249.133	179.56
249.366	173.56
249.599	167.56
249.832	166.56
250.066	175.56
250.299	171.56
250.532	196.56
250.765	165.56
250.998	189.56
251.231	173.56
251.465	184.56
251.698	187.56
251.931	192.56
252.164	173.56
252.397	187.56
252.63	211.56
252.863	181.56
253.096	184.56
253.329	194.56
253.562	186.56
253.795	180.56
254.028	185.56
254.261	201.56
254.494	202.56
254.727	193.56
254.96	189.56
255.193	190.56
255.426	198.56
255.659	193.56
255.892	196.56
256.124	201.56
256.357	199.56
256.59	207.56
256.823	214.56
257.056	204.56
257.289	201.56
257.521	205.56
257.754	203.56
257.987	199.56
258.22	222.56
258.452	221.56
258.685	214.56
258.918	218.56
259.151	205.56
259.383	210.56
259.616	213.56
259.849	212.56
260.081	207.56
260.314	231.56
260.547	193.56
260.779	229.56
261.012	217.56
261.244	220.56
261.477	219.56
261.71	226.56
261.942	210.56
262.175	230.56
262.407	218.56
262.64	219.56
262.872	217.56
263.105	234.56
263.337	226.56
263.57	227.56
263.802	236.56
264.035	225.56
264.267	211.56
264.499	241.56
264.732	222.56
264.964	259.56
265.197	244.56
265.429	238.56
265.661	228.56
265.894	226.56
266.126	251.56
266.358	229.56
266.591	234.56
266.823	245.56
267.055	231.56
267.287	241.56
267.52	232.56
267.752	245.56
267.984	244.56
268.216	255.56
268.448	250.56
268.681	245.56
268.913	250.56
269.145	265.56
269.377	260.56
269.609	251.56
269.841	258.56
270.073	261.56
270.306	281.56
270.538	239.56
270.77	271.56
271.002	248.56
271.234	252.56
271.466	249.56
271.698	271.56
271.93	264.56
272.162	249.56
272.394	256.56
272.626	258.56
272.858	250.56
273.09	268.56
273.322	263.56
273.553	290.56
273.785	270.56
274.017	263.56
274.249	268.56
274.481	268.56
274.713	250.56
274.945	292.56
275.176	269.56
275.408	292.56
275.64	289.56
275.872	282.56
276.104	290.56
276.335	280.56
276.567	271.56
276.799	275.56
277.031	300.56
277.262	262.56
277.494	288.56
277.726	283.56
277.957	286.56
278.189	295.56
278.421	284.56
278.652	281.56
278.884	318.56
279.115	291.56
279.347	304.56
279.579	298.56
279.81	298.56
280.042	313.56
280.273	305.56
280.505	294.56
280.736	303.56
280.968	307.56
281.199	286.56
281.431	319.56
281.662	306.56
281.894	319.56
282.125	310.56
282.356	300.56
282.588	316.56
282.819	299.56
283.051	302.56
283.282	322.56
283.513	334.56
283.745	317.56
283.976	303.56
284.207	308.56
284.439	311.56
284.67	330.56
284.901	328.56
285.132	323.56
285.364	319.56
285.595	306.56
285.826	321.56
286.057	316.56
286.288	313.56
286.52	326.56
286.751	323.56
286.982	307.56
287.213	332.56
287.444	321.56
287.675	323.56
287.906	334.56
288.138	346.56
288.369	332.56
288.6	353.56
288.831	345.56
289.062	324.56
289.293	339.56
289.524	332.56
289.755	373.56
289.986	354.56
290.217	337.56
290.448	331.56
290.679	352.56
290.91	345.56
291.141	357.56
291.371	335.56
291.602	337.56
291.833	343.56
292.064	344.56
292.295	345.56
292.526	353.56
292.757	337.56
292.987	319.56
293.218	343.56
293.449	346.56
293.68	333.56
293.91	351.56
294.141	346.56
294.372	322.56
294.603	341.56
294.833	339.56
295.064	336.56
295.295	350.56
295.525	346.56
295.756	351.56
295.987	360.56
296.217	337.56
296.448	348.56
296.679	356.56
296.909	347.56
297.14	361.56
297.37	370.56
297.601	371.56
297.831	372.56
298.062	357.56
298.292	366.56
298.523	359.56
298.753	353.56
298.984	366.56
299.214	377.56
299.445	366.56
299.675	377.56
299.905	373.56
300.136	353.56
300.366	381.56
300.597	374.56
300.827	379.56
301.057	369.56
301.288	365.56
301.518	372.56
301.748	373.56
301.979	390.56
302.209	395.56
302.439	378.56
302.669	363.56
302.9	375.56
303.13	382.56
303.36	382.56
303.59	378.56
303.82	394.56
304.051	394.56
304.281	385.56
304.511	410.56
304.741	385.56
304.971	385.56
305.201	392.56
305.431	393.56
305.661	394.56
305.891	396.56
306.121	400.56
306.352	377.56
306.582	384.56
306.812	384.56
307.042	387.56
307.272	390.56
307.502	372.56
307.731	377.56
307.961	387.56
308.191	380.56
308.421	373.56
308.651	379.56
308.881	375.56
309.111	390.56
309.341	387.56
309.571	377.56
309.8	385.56
310.03	372.56
310.26	404.56
310.49	420.56
310.72	397.56
310.949	379.56
311.179	388.56
311.409	391.56
311.639	411.56
311.868	385.56
312.098	418.56
312.328	392.56
312.557	423.56
312.787	419.56
313.017	400.56
313.246	417.56
313.476	393.56
313.706	413.56
313.935	419.56
314.165	393.56
314.394	418.56
314.624	426.56
314.853	415.56
315.083	417.56
315.312	400.56
315.542	418.56
315.771	417.56
316.001	435.56
316.23	404.56
316.46	412.56
316.689	437.56
316.919	415.56
317.148	386.56
317.377	415.56
317.607	401.56
317.836	420.56
318.065	419.56
318.295	407.56
318.524	411.56
318.753	406.56
318.983	422.56
319.212	418.56
319.441	409.56
319.67	437.56
319.9	430.56
320.129	431.56
320.358	420.56
320.587	428.56
320.816	406.56
321.046	399.56
321.275	428.56
321.504	408.56
321.733	420.56
321.962	416.56
322.191	442.56
322.42	407.56
322.649	446.56
322.878	434.56
323.108	424.56
323.337	431.56
323.566	434.56
323.795	447.56
324.024	441.56
324.253	428.56
324.482	436.56
324.71	449.56
324.939	404.56
325.168	447.56
325.397	448.56
325.626	452.56
325.855	435.56
326.084	455.56
326.313	456.56
326.542	455.56
326.77	462.56
326.999	449.56
327.228	472.56
327.457	482.56
327.686	441.56
327.914	432.56
328.143	466.56
328.372	457.56
328.6	475.56
328.829	482.56
329.058	485.56
329.287	457.56
329.515	474.56
329.744	465.56
329.972	476.56
330.201	490.56
330.43	459.56
330.658	469.56
330.887	470.56
331.115	487.56
331.344	479.56
331.572	497.56
331.801	502.56
332.03	505.56
332.258	509.56
332.486	510.56
332.715	520.56
332.943	547.56
333.172	563.56
333.4	551.56
333.629	589.56
333.857	557.56
334.085	575.56
334.314	591.56
334.542	575.56
334.771	578.56
334.999	576.56
335.227	585.56
335.455	589.56
335.684	563.56
335.912	561.56
336.14	567.56
336.369	570.56
336.597	572.56
336.825	574.56
337.053	566.56
337.281	541.56
337.51	563.56
337.738	561.56
337.966	525.56
338.194	538.56
338.422	540.56
338.65	525.56
338.878	513.56
339.106	524.56
339.334	543.56
339.562	514.56
339.79	501.56
340.018	505.56
340.246	498.56
340.474	523.56
340.702	524.56
340.93	512.56
341.158	494.56
341.386	516.56
341.614	536.56
341.842	533.56
342.07	477.56
342.298	495.56
342.526	493.56
342.754	512.56
342.981	486.56
343.209	527.56
343.437	522.56
343.665	550.56
343.893	537.56
344.12	565.56
344.348	572.56
344.576	568.56
344.804	536.56
345.031	534.56
345.259	510.56
345.487	515.56
345.714	511.56
345.942	502.56
346.17	540.56
346.397	494.56
346.625	479.56
346.853	471.56
347.08	474.56
347.308	491.56
347.535	501.56
347.763	509.56
347.99	466.56
348.218	478.56
348.445	496.56
348.673	476.56
348.9	486.56
349.128	485.56
349.355	506.56
349.583	491.56
349.81	491.56
350.037	471.56
350.265	496.56
350.492	470.56
350.72	451.56
350.947	450.56
351.174	471.56
351.402	478.56
351.629	489.56
351.856	489.56
352.083	490.56
352.311	451.56
352.538	501.56
352.765	484.56
352.992	471.56
353.22	459.56
353.447	449.56
353.674	460.56
353.901	450.56
354.128	455.56
354.355	444.56
354.583	466.56
354.81	478.56
355.037	478.56
355.264	467.56
355.491	459.56
355.718	462.56
355.945	461.56
356.172	455.56
356.399	452.56
356.626	482.56
356.853	479.56
357.08	475.56
357.307	459.56
357.534	484.56
357.761	466.56
357.988	465.56
358.215	475.56
358.441	479.56
358.668	462.56
358.895	488.56
359.122	477.56
359.349	479.56
359.576	475.56
359.802	468.56
360.029	466.56
360.256	457.56
360.483	456.56
360.709	477.56
360.936	484.56
361.163	483.56
361.39	469.56
361.616	468.56
361.843	474.56
362.07	507.56
362.296	497.56
362.523	464.56
362.749	469.56
362.976	481.56
363.203	497.56
363.429	455.56
363.656	469.56
363.882	459.56
364.109	462.56
364.335	456.56
364.562	458.56
364.788	451.56
365.015	462.56
365.241	463.56
365.468	468.56
365.694	476.56
365.92	453.56
366.147	470.56
366.373	469.56
366.599	463.56
366.826	485.56
367.052	466.56
367.278	481.56
367.505	468.56
367.731	467.56
367.957	468.56
368.184	468.56
368.41	493.56
368.636	486.56
368.862	476.56
369.089	469.56
369.315	501.56
369.541	482.56
369.767	504.56
369.993	491.56
370.219	493.56
370.445	503.56
370.672	490.56
370.898	501.56
371.124	525.56
371.35	512.56
371.576	503.56
371.802	493.56
372.028	513.56
372.254	493.56
372.48	517.56
372.706	535.56
372.932	509.56
373.158	515.56
373.384	530.56
373.61	522.56
373.835	513.56
374.061	525.56
374.287	528.56
374.513	513.56
374.739	531.56
374.965	548.56
375.191	559.56
375.416	539.56
375.642	518.56
375.868	518.56
376.094	519.56
376.319	536.56
376.545	531.56
376.771	522.56
376.997	513.56
377.222	489.56
377.448	522.56
377.674	491.56
377.899	501.56
378.125	507.56
378.35	505.56
378.576	488.56
378.802	504.56
379.027	508.56
379.253	499.56
379.478	497.56
379.704	502.56
379.929	507.56
380.155	514.56
380.38	494.56
380.606	509.56
380.831	511.56
381.057	494.56
381.282	495.56
381.507	493.56
381.733	532.56
381.958	508.56
382.184	526.56
382.409	534.56
382.634	540.56
382.86	528.56
383.085	519.56
383.31	535.56
383.535	534.56
383.761	530.56
383.986	548.56
384.211	546.56
384.436	542.56
384.662	557.56
384.887	560.56
385.112	571.56
385.337	574.56
385.562	571.56
385.787	574.56
386.013	588.56
386.238	598.56
386.463	583.56
386.688	608.56
386.913	605.56
387.138	573.56
387.363	588.56
387.588	583.56
387.813	587.56
388.038	585.56
388.263	568.56
388.488	572.56
388.713	583.56
388.938	602.56
389.163	585.56
389.387	582.56
389.612	618.56
389.837	609.56
390.062	589.56
390.287	592.56
390.512	577.56
390.736	619.56
390.961	601.56
391.186	595.56
391.411	636.56
391.636	620.56
391.86	649.56
392.085	652.56
392.31	640.56
392.534	629.56
392.759	618.56
392.984	639.56
393.208	627.56
393.433	619.56
393.658	639.56
393.882	622.56
394.107	597.56
394.331	609.56
394.556	611.56
394.78	623.56
395.005	629.56
395.229	631.56
395.454	646.56
395.678	659.56
395.903	647.56
396.127	667.56
396.352	617.56
396.576	628.56
396.801	671.56
397.025	638.56
397.249	654.56
397.474	650.56
397.698	680.56
397.922	663.56
398.147	654.56
398.371	693.56
398.595	682.56
398.82	725.56
399.044	774.56
399.268	823.56
399.492	890.56
399.717	938.56
399.941	949.56
400.165	885.56
400.389	828.56
400.613	788.56
400.837	782.56
401.062	744.56
401.286	725.56
401.51	708.56
401.734	725.56
401.958	729.56
402.182	717.56
402.406	731.56
402.63	728.56
402.854	742.56
403.078	754.56
403.302	737.56
403.526	758.56
403.75	750.56
403.974	781.56
404.198	760.56
404.422	757.56
404.645	762.56
404.869	766.56
405.093	784.56
405.317	777.56
405.541	765.56
405.765	790.56
405.988	784.56
406.212	825.56
406.436	804.56
406.66	809.56
406.883	811.56
407.107	858.56
407.331	887.56
407.555	881.56
407.778	876.56
408.002	888.56
408.226	857.56
408.449	844.56
408.673	826.56
408.896	817.56
409.12	797.56
409.344	820.56
409.567	787.56
409.791	802.56
410.014	803.56
410.238	792.56
410.461	788.56
410.685	790.56
410.908	781.56
411.132	761.56
411.355	737.56
411.578	748.56
411.802	760.56
412.025	747.56
412.249	771.56
412.472	777.56
412.695	733.56
412.919	742.56
413.142	733.56
413.365	745.56
413.589	701.56
413.812	712.56
414.035	731.56
414.258	719.56
414.482	715.56
414.705	761.56
414.928	724.56
415.151	763.56
415.374	726.56
415.597	737.56
415.821	713.56
416.044	720.56
416.267	717.56
416.49	723.56
416.713	705.56
416.936	696.56
417.159	685.56
417.382	683.56
417.605	686.56
417.828	703.56
418.051	723.56
418.274	715.56
418.497	715.56
418.72	716.56
418.943	731.56
419.166	769.56
419.389	821.56
419.611	794.56
419.834	761.56
420.057	754.56
420.28	723.56
420.503	697.56
420.726	719.56
420.948	719.56
421.171	715.56
421.394	706.56
421.617	702.56
421.839	709.56
422.062	707.56
422.285	690.56
422.507	709.56
422.73	721.56
422.953	717.56
423.175	733.56
423.398	717.56
423.621	730.56
423.843	710.56
424.066	728.56
424.288	716.56
424.511	730.56
424.733	728.56
424.956	731.56
425.178	730.56
425.401	702.56
425.623	709.56
425.846	679.56
426.068	701.56
426.291	691.56
426.513	703.56
426.735	692.56
426.958	694.56
427.18	656.56
427.402	686.56
427.625	686.56
427.847	657.56
428.069	652.56
428.292	657.56
428.514	653.56
428.736	656.56
428.958	650.56
429.181	659.56
429.403	634.56
429.625	645.56
429.847	661.56
430.069	650.56
430.292	655.56
430.514	652.56
430.736	651.56
430.958	669.56
431.18	629.56
431.402	643.56
431.624	631.56
431.846	691.56
432.068	673.56
432.29	645.56
432.512	663.56
432.734	661.56
432.956	652.56
433.178	680.56
433.4	687.56
433.622	701.56
433.844	668.56
434.066	669.56
434.287	683.56
434.509	695.56
434.731	685.56
434.953	727.56
435.175	711.56
435.397	732.56
435.618	706.56
435.84	672.56
436.062	690.56
436.284	672.56
436.505	676.56
436.727	645.56
436.949	662.56
437.17	644.56
437.392	638.56
437.614	644.56
437.835	618.56
438.057	634.56
438.278	633.56
438.5	638.56
438.721	629.56
438.943	631.56
439.165	636.56
439.386	646.56
439.608	655.56
439.829	663.56
440.05	657.56
440.272	660.56
440.493	692.56
440.715	676.56
440.936	685.56
441.158	693.56
441.379	667.56
441.6	685.56
441.822	726.56
442.043	718.56
442.264	722.56
442.486	704.56
442.707	692.56
442.928	714.56
443.149	720.56
443.371	685.56
443.592	719.56
443.813	730.56
444.034	725.56
444.255	730.56
444.476	774.56
444.698	766.56
444.919	829.56
445.14	888.56
445.361	821.56
445.582	747.56
445.803	720.56
446.024	698.56
446.245	697.56
446.466	705.56
446.687	671.56
446.908	678.56
447.129	676.56
447.35	636.56
447.571	668.56
447.792	653.56
448.013	635.56
448.234	622.56
448.455	630.56
448.675	618.56
448.896	637.56
449.117	618.56
449.338	616.56
449.559	603.56
449.779	616.56
450	602.56
450.221	607.56
450.442	619.56
450.662	624.56
450.883	635.56
451.104	620.56
451.324	590.56
451.545	602.56
451.766	637.56
451.986	622.56
452.207	588.56
452.428	598.56
452.648	579.56
452.869	590.56
453.089	573.56
453.31	607.56
453.53	593.56
453.751	583.56
453.971	573.56
454.192	586.56
454.412	569.56
454.633	578.56
454.853	590.56
455.073	586.56
455.294	551.56
455.514	591.56
455.734	581.56
455.955	588.56
456.175	575.56
456.395	579.56
456.616	578.56
456.836	571.56
457.056	566.56
457.276	562.56
457.497	585.56
457.717	585.56
457.937	596.56
458.157	576.56
458.377	583.56
458.598	594.56
458.818	610.56
459.038	626.56
459.258	641.56
459.478	657.56
459.698	670.56
459.918	685.56
460.138	708.56
460.358	748.56
460.578	737.56
460.798	775.56
461.018	782.56
461.238	749.56
461.458	743.56
461.678	759.56
461.898	738.56
462.118	761.56
462.338	780.56
462.558	814.56
462.777	820.56
462.997	853.56
463.217	917.56
463.437	924.56
463.657	899.56
463.876	842.56
464.096	836.56
464.316	832.56
464.536	852.56
464.755	811.56
464.975	784.56
465.195	767.56
465.414	724.56
465.634	698.56
465.854	680.56
466.073	670.56
466.293	657.56
466.512	665.56
466.732	630.56
466.951	635.56
467.171	643.56
467.391	639.56
467.61	639.56
467.829	631.56
468.049	626.56
468.268	621.56
468.488	626.56
468.707	611.56
468.927	639.56
469.146	627.56
469.365	633.56
469.585	640.56
469.804	627.56
470.023	647.56
470.243	657.56
470.462	663.56
470.681	652.56
470.901	649.56
471.12	630.56
471.339	668.56
471.558	652.56
471.777	647.56
471.997	610.56
472.216	613.56
472.435	614.56
472.654	622.56
472.873	605.56
473.092	622.56
473.311	597.56
473.53	604.56
473.749	603.56
473.968	614.56
474.187	607.56
474.406	617.56
474.625	606.56
474.844	613.56
475.063	610.56
475.282	620.56
475.501	614.56
475.72	624.56
475.939	619.56
476.158	611.56
476.377	629.56
476.596	636.56
476.814	652.56
477.033	637.56
477.252	639.56
477.471	670.56
477.69	687.56
477.908	676.56
478.127	697.56
478.346	701.56
478.564	698.56
478.783	693.56
479.002	746.56
479.22	746.56
479.439	764.56
479.658	723.56
479.876	728.56
480.095	700.56
480.313	734.56
480.532	757.56
480.751	769.56
480.969	756.56
481.188	722.56
481.406	719.56
481.624	703.56
481.843	699.56
482.061	744.56
482.28	703.56
482.498	691.56
482.717	695.56
482.935	710.56
483.153	694.56
483.372	721.56
483.59	731.56
483.808	714.56
484.027	717.56
484.245	710.56
484.463	679.56
484.681	711.56
484.9	706.56
485.118	747.56
485.336	719.56
485.554	700.56
485.772	740.56
485.99	729.56
486.209	732.56
486.427	732.56
486.645	730.56
486.863	722.56
487.081	721.56
487.299	723.56
487.517	719.56
487.735	755.56
487.953	776.56
488.171	777.56
488.389	736.56
488.607	697.56
488.825	705.56
489.043	711.56
489.261	718.56
489.479	693.56
489.696	740.56
489.914	701.56
490.132	722.56
490.35	738.56
490.568	712.56
490.786	761.56
491.003	727.56
491.221	728.56
491.439	730.56
491.657	745.56
491.874	753.56
492.092	724.56
492.31	773.56
492.527	746.56
492.745	740.56
492.963	783.56
493.18	769.56
493.398	748.56
493.615	738.56
493.833	730.56
494.05	764.56
494.268	758.56
494.485	769.56
494.703	786.56
494.92	778.56
495.138	759.56
495.355	773.56
495.573	784.56
495.79	761.56
496.008	772.56
496.225	773.56
496.442	790.56
496.66	797.56
496.877	781.56
497.094	836.56
497.312	848.56
497.529	876.56
497.746	861.56
497.963	871.56
498.181	907.56
498.398	954.56
498.615	1005.56
498.832	1044.56
499.049	1107.56
499.267	1150.56
499.484	1234.56
499.701	1346.56
499.918	1420.56
500.135	1562.56
500.352	1697.56
500.569	1766.56
500.786	1715.56
501.003	1666.56
501.22	1549.56
501.437	1395.56
