Data from Ni(NO3)2@0.125M.TitratingCurve.Agarose3%dH2O.NegLispCup.LampEnergy10.LIBS07252019_HRD10591_18-10-20-568.txt Node
Date: Thu Jul 25 18:10:20 EDT 2019
User: cochatt
Spectrometer: HR+D1059
Trigger mode: 1
Integration Time (sec): 1.000000E-1
Scans to average: 1
Electric dark correction enabled: true
Nonlinearity correction enabled: false
Boxcar width: 0
XAxis mode: Wavelengths
Number of Pixels in Spectrum: 2048
>>>>>Begin Spectral Data<<<<<
223.165	-28.06
223.4	-28.06
223.635	-28.06
223.869	-13.06
224.104	-12.06
224.338	-18.06
224.573	-16.06
224.808	-13.06
225.042	-8.06
225.277	1.94
225.511	5.94
225.746	2.94
225.98	4.94
226.215	2.94
226.449	22.94
226.683	21.94
226.918	26.94
227.152	17.94
227.387	33.94
227.621	40.94
227.856	36.94
228.09	42.94
228.324	46.94
228.559	48.94
228.793	56.94
229.027	93.94
229.262	106.94
229.496	84.94
229.73	84.94
229.964	106.94
230.199	110.94
230.433	108.94
230.667	108.94
230.901	117.94
231.136	123.94
231.37	130.94
231.604	105.94
231.838	116.94
232.072	118.94
232.306	120.94
232.541	122.94
232.775	126.94
233.009	121.94
233.243	122.94
233.477	119.94
233.711	118.94
233.945	124.94
234.179	116.94
234.413	120.94
234.647	130.94
234.881	122.94
235.115	127.94
235.349	127.94
235.583	131.94
235.817	124.94
236.051	134.94
236.285	128.94
236.519	136.94
236.753	115.94
236.987	127.94
237.221	132.94
237.455	131.94
237.689	139.94
237.922	134.94
238.156	118.94
238.39	124.94
238.624	137.94
238.858	148.94
239.091	132.94
239.325	140.94
239.559	138.94
239.793	146.94
240.027	154.94
240.26	146.94
240.494	140.94
240.728	148.94
240.961	142.94
241.195	143.94
241.429	141.94
241.662	150.94
241.896	147.94
242.13	141.94
242.363	137.94
242.597	144.94
242.83	171.94
243.064	158.94
243.298	165.94
243.531	167.94
243.765	172.94
243.998	172.94
244.232	161.94
244.465	161.94
244.699	163.94
244.932	175.94
245.166	161.94
245.399	160.94
245.633	153.94
245.866	169.94
246.099	164.94
246.333	177.94
246.566	171.94
246.8	180.94
247.033	167.94
247.266	186.94
247.5	184.94
247.733	177.94
247.966	167.94
248.2	183.94
248.433	178.94
248.666	178.94
248.899	186.94
249.133	194.94
249.366	199.94
249.599	178.94
249.832	189.94
250.066	193.94
250.299	194.94
250.532	179.94
250.765	185.94
250.998	198.94
251.231	202.94
251.465	203.94
251.698	197.94
251.931	204.94
252.164	190.94
252.397	195.94
252.63	231.94
252.863	213.94
253.096	206.94
253.329	218.94
253.562	211.94
253.795	213.94
254.028	218.94
254.261	223.94
254.494	222.94
254.727	212.94
254.96	214.94
255.193	207.94
255.426	223.94
255.659	193.94
255.892	239.94
256.124	229.94
256.357	222.94
256.59	208.94
256.823	211.94
257.056	219.94
257.289	228.94
257.521	230.94
257.754	238.94
257.987	226.94
258.22	224.94
258.452	235.94
258.685	221.94
258.918	232.94
259.151	229.94
259.383	229.94
259.616	233.94
259.849	239.94
260.081	224.94
260.314	228.94
260.547	248.94
260.779	244.94
261.012	226.94
261.244	244.94
261.477	248.94
261.71	245.94
261.942	257.94
262.175	228.94
262.407	229.94
262.64	247.94
262.872	250.94
263.105	252.94
263.337	260.94
263.57	262.94
263.802	247.94
264.035	250.94
264.267	256.94
264.499	256.94
264.732	259.94
264.964	276.94
265.197	281.94
265.429	265.94
265.661	266.94
265.894	296.94
266.126	278.94
266.358	265.94
266.591	278.94
266.823	263.94
267.055	272.94
267.287	275.94
267.52	285.94
267.752	282.94
267.984	266.94
268.216	293.94
268.448	282.94
268.681	265.94
268.913	276.94
269.145	276.94
269.377	279.94
269.609	277.94
269.841	290.94
270.073	273.94
270.306	268.94
270.538	295.94
270.77	276.94
271.002	281.94
271.234	292.94
271.466	291.94
271.698	298.94
271.93	298.94
272.162	303.94
272.394	290.94
272.626	282.94
272.858	280.94
273.09	289.94
273.322	308.94
273.553	292.94
273.785	286.94
274.017	306.94
274.249	300.94
274.481	306.94
274.713	292.94
274.945	293.94
275.176	306.94
275.408	302.94
275.64	297.94
275.872	312.94
276.104	327.94
276.335	330.94
276.567	301.94
276.799	307.94
277.031	302.94
277.262	303.94
277.494	299.94
277.726	330.94
277.957	321.94
278.189	345.94
278.421	316.94
278.652	317.94
278.884	320.94
279.115	328.94
279.347	329.94
279.579	328.94
279.81	319.94
280.042	319.94
280.273	332.94
280.505	340.94
280.736	341.94
280.968	338.94
281.199	324.94
281.431	343.94
281.662	346.94
281.894	326.94
282.125	324.94
282.356	358.94
282.588	356.94
282.819	345.94
283.051	328.94
283.282	339.94
283.513	352.94
283.745	358.94
283.976	348.94
284.207	359.94
284.439	356.94
284.67	387.94
284.901	352.94
285.132	366.94
285.364	361.94
285.595	353.94
285.826	359.94
286.057	372.94
286.288	363.94
286.52	359.94
286.751	360.94
286.982	362.94
287.213	368.94
287.444	364.94
287.675	359.94
287.906	384.94
288.138	366.94
288.369	360.94
288.6	363.94
288.831	390.94
289.062	398.94
289.293	382.94
289.524	394.94
289.755	369.94
289.986	371.94
290.217	373.94
290.448	379.94
290.679	367.94
290.91	391.94
291.141	391.94
291.371	380.94
291.602	404.94
291.833	381.94
292.064	383.94
292.295	388.94
292.526	388.94
292.757	393.94
292.987	386.94
293.218	374.94
293.449	382.94
293.68	393.94
293.91	392.94
294.141	373.94
294.372	376.94
294.603	383.94
294.833	380.94
295.064	421.94
295.295	388.94
295.525	406.94
295.756	396.94
295.987	414.94
296.217	402.94
296.448	392.94
296.679	422.94
296.909	388.94
297.14	430.94
297.37	401.94
297.601	403.94
297.831	432.94
298.062	412.94
298.292	430.94
298.523	432.94
298.753	443.94
298.984	433.94
299.214	434.94
299.445	426.94
299.675	415.94
299.905	416.94
300.136	412.94
300.366	422.94
300.597	416.94
300.827	438.94
301.057	437.94
301.288	441.94
301.518	447.94
301.748	450.94
301.979	428.94
302.209	426.94
302.439	438.94
302.669	457.94
302.9	438.94
303.13	422.94
303.36	435.94
303.59	416.94
303.82	439.94
304.051	427.94
304.281	447.94
304.511	439.94
304.741	430.94
304.971	436.94
305.201	423.94
305.431	440.94
305.661	438.94
305.891	436.94
306.121	411.94
306.352	432.94
306.582	400.94
306.812	422.94
307.042	436.94
307.272	418.94
307.502	421.94
307.731	419.94
307.961	414.94
308.191	406.94
308.421	404.94
308.651	419.94
308.881	433.94
309.111	418.94
309.341	414.94
309.571	434.94
309.8	430.94
310.03	424.94
310.26	421.94
310.49	425.94
310.72	441.94
310.949	430.94
311.179	430.94
311.409	425.94
311.639	437.94
311.868	433.94
312.098	450.94
312.328	442.94
312.557	442.94
312.787	437.94
313.017	443.94
313.246	466.94
313.476	444.94
313.706	461.94
313.935	467.94
314.165	465.94
314.394	455.94
314.624	470.94
314.853	446.94
315.083	451.94
315.312	467.94
315.542	455.94
315.771	443.94
316.001	456.94
316.23	445.94
316.46	438.94
316.689	447.94
316.919	436.94
317.148	444.94
317.377	448.94
317.607	444.94
317.836	428.94
318.065	437.94
318.295	434.94
318.524	440.94
318.753	442.94
318.983	466.94
319.212	453.94
319.441	441.94
319.67	438.94
319.9	434.94
320.129	447.94
320.358	440.94
320.587	462.94
320.816	438.94
321.046	477.94
321.275	468.94
321.504	446.94
321.733	455.94
321.962	443.94
322.191	461.94
322.42	446.94
322.649	460.94
322.878	444.94
323.108	450.94
323.337	466.94
323.566	444.94
323.795	463.94
324.024	452.94
324.253	482.94
324.482	466.94
324.71	459.94
324.939	484.94
325.168	463.94
325.397	463.94
325.626	476.94
325.855	499.94
326.084	506.94
326.313	482.94
326.542	498.94
326.77	494.94
326.999	479.94
327.228	476.94
327.457	491.94
327.686	512.94
327.914	475.94
328.143	483.94
328.372	474.94
328.6	487.94
328.829	499.94
329.058	489.94
329.287	492.94
329.515	503.94
329.744	490.94
329.972	505.94
330.201	510.94
330.43	522.94
330.658	514.94
330.887	487.94
331.115	520.94
331.344	509.94
331.572	531.94
331.801	536.94
332.03	542.94
332.258	567.94
332.486	601.94
332.715	606.94
332.943	631.94
333.172	663.94
333.4	668.94
333.629	707.94
333.857	686.94
334.085	686.94
334.314	653.94
334.542	624.94
334.771	650.94
334.999	612.94
335.227	612.94
335.455	616.94
335.684	626.94
335.912	629.94
336.14	627.94
336.369	623.94
336.597	602.94
336.825	622.94
337.053	619.94
337.281	589.94
337.51	587.94
337.738	566.94
337.966	552.94
338.194	549.94
338.422	521.94
338.65	554.94
338.878	537.94
339.106	544.94
339.334	538.94
339.562	535.94
339.79	521.94
340.018	536.94
340.246	514.94
340.474	525.94
340.702	551.94
340.93	543.94
341.158	536.94
341.386	522.94
341.614	499.94
341.842	522.94
342.07	501.94
342.298	516.94
342.526	526.94
342.754	494.94
342.981	532.94
343.209	540.94
343.437	543.94
343.665	600.94
343.893	652.94
344.12	673.94
344.348	617.94
344.576	600.94
344.804	571.94
345.031	538.94
345.259	550.94
345.487	530.94
345.714	525.94
345.942	524.94
346.17	512.94
346.397	540.94
346.625	511.94
346.853	510.94
347.08	514.94
347.308	502.94
347.535	531.94
347.763	551.94
347.99	542.94
348.218	529.94
348.445	528.94
348.673	520.94
348.9	508.94
349.128	519.94
349.355	520.94
349.583	527.94
349.81	520.94
350.037	489.94
350.265	504.94
350.492	519.94
350.72	498.94
350.947	493.94
351.174	494.94
351.402	511.94
351.629	498.94
351.856	490.94
352.083	482.94
352.311	479.94
352.538	462.94
352.765	468.94
352.992	498.94
353.22	468.94
353.447	483.94
353.674	478.94
353.901	502.94
354.128	502.94
354.355	483.94
354.583	494.94
354.81	503.94
355.037	486.94
355.264	511.94
355.491	496.94
355.718	502.94
355.945	478.94
356.172	487.94
356.399	508.94
356.626	497.94
356.853	499.94
357.08	506.94
357.307	498.94
357.534	478.94
357.761	498.94
357.988	504.94
358.215	504.94
358.441	510.94
358.668	500.94
358.895	485.94
359.122	500.94
359.349	504.94
359.576	494.94
359.802	503.94
360.029	490.94
360.256	498.94
360.483	488.94
360.709	489.94
360.936	485.94
361.163	495.94
361.39	505.94
361.616	491.94
361.843	491.94
362.07	483.94
362.296	480.94
362.523	488.94
362.749	487.94
362.976	475.94
363.203	491.94
363.429	472.94
363.656	488.94
363.882	477.94
364.109	496.94
364.335	485.94
364.562	486.94
364.788	468.94
365.015	472.94
365.241	498.94
365.468	493.94
365.694	485.94
365.92	476.94
366.147	498.94
366.373	480.94
366.599	510.94
366.826	475.94
367.052	490.94
367.278	494.94
367.505	498.94
367.731	496.94
367.957	478.94
368.184	483.94
368.41	493.94
368.636	474.94
368.862	504.94
369.089	481.94
369.315	490.94
369.541	487.94
369.767	498.94
369.993	493.94
370.219	534.94
370.445	528.94
370.672	530.94
370.898	510.94
371.124	538.94
371.35	533.94
371.576	546.94
371.802	570.94
372.028	500.94
372.254	534.94
372.48	544.94
372.706	553.94
372.932	571.94
373.158	572.94
373.384	548.94
373.61	525.94
373.835	555.94
374.061	530.94
374.287	562.94
374.513	554.94
374.739	552.94
374.965	582.94
375.191	595.94
375.416	602.94
375.642	581.94
375.868	578.94
376.094	548.94
376.319	544.94
376.545	552.94
376.771	528.94
376.997	553.94
377.222	550.94
377.448	569.94
377.674	538.94
377.899	528.94
378.125	540.94
378.35	524.94
378.576	528.94
378.802	546.94
379.027	527.94
379.253	542.94
379.478	528.94
379.704	535.94
379.929	550.94
380.155	542.94
380.38	539.94
380.606	534.94
380.831	558.94
381.057	542.94
381.282	543.94
381.507	504.94
381.733	538.94
381.958	535.94
382.184	520.94
382.409	550.94
382.634	544.94
382.86	566.94
383.085	573.94
383.31	575.94
383.535	597.94
383.761	592.94
383.986	618.94
384.211	602.94
384.436	648.94
384.662	626.94
384.887	631.94
385.112	632.94
385.337	651.94
385.562	652.94
385.787	660.94
386.013	653.94
386.238	665.94
386.463	681.94
386.688	645.94
386.913	618.94
387.138	624.94
387.363	631.94
387.588	608.94
387.813	634.94
388.038	615.94
388.263	598.94
388.488	630.94
388.713	624.94
388.938	617.94
389.163	602.94
389.387	622.94
389.612	605.94
389.837	617.94
390.062	606.94
390.287	621.94
390.512	638.94
390.736	655.94
390.961	649.94
391.186	668.94
391.411	674.94
391.636	676.94
391.86	723.94
392.085	722.94
392.31	722.94
392.534	680.94
392.759	676.94
392.984	677.94
393.208	652.94
393.433	657.94
393.658	664.94
393.882	670.94
394.107	660.94
394.331	683.94
394.556	689.94
394.78	700.94
395.005	690.94
395.229	693.94
395.454	712.94
395.678	738.94
395.903	720.94
396.127	703.94
396.352	692.94
396.576	676.94
396.801	673.94
397.025	659.94
397.249	697.94
397.474	743.94
397.698	714.94
397.922	706.94
398.147	704.94
398.371	697.94
398.595	727.94
398.82	766.94
399.044	811.94
399.268	889.94
399.492	1065.94
399.717	1236.94
399.941	1246.94
400.165	1064.94
400.389	939.94
400.613	875.94
400.837	821.94
401.062	787.94
401.286	795.94
401.51	762.94
401.734	790.94
401.958	789.94
402.182	797.94
402.406	850.94
402.63	823.94
402.854	850.94
403.078	862.94
403.302	886.94
403.526	908.94
403.75	946.94
403.974	948.94
404.198	939.94
404.422	924.94
404.645	927.94
404.869	890.94
405.093	918.94
405.317	903.94
405.541	894.94
405.765	860.94
405.988	844.94
406.212	875.94
406.436	868.94
406.66	909.94
406.883	912.94
407.107	961.94
407.331	1026.94
407.555	1055.94
407.778	1051.94
408.002	1045.94
408.226	949.94
408.449	921.94
408.673	934.94
408.896	907.94
409.12	902.94
409.344	926.94
409.567	908.94
409.791	948.94
410.014	950.94
410.238	895.94
410.461	903.94
410.685	898.94
410.908	895.94
411.132	838.94
411.355	831.94
411.578	842.94
411.802	839.94
412.025	866.94
412.249	859.94
412.472	841.94
412.695	800.94
412.919	825.94
413.142	822.94
413.365	795.94
413.589	798.94
413.812	798.94
414.035	811.94
414.258	788.94
414.482	804.94
414.705	800.94
414.928	832.94
415.151	812.94
415.374	825.94
415.597	810.94
415.821	804.94
416.044	801.94
416.267	780.94
416.49	799.94
416.713	760.94
416.936	793.94
417.159	788.94
417.382	785.94
417.605	792.94
417.828	821.94
418.051	820.94
418.274	806.94
418.497	807.94
418.72	811.94
418.943	817.94
419.166	914.94
419.389	930.94
419.611	903.94
419.834	852.94
420.057	834.94
420.28	831.94
420.503	780.94
420.726	787.94
420.948	780.94
421.171	798.94
421.394	790.94
421.617	803.94
421.839	805.94
422.062	811.94
422.285	803.94
422.507	834.94
422.73	804.94
422.953	829.94
423.175	822.94
423.398	844.94
423.621	840.94
423.843	864.94
424.066	876.94
424.288	874.94
424.511	864.94
424.733	840.94
424.956	780.94
425.178	819.94
425.401	804.94
425.623	794.94
425.846	788.94
426.068	771.94
426.291	757.94
426.513	762.94
426.735	737.94
426.958	761.94
427.18	734.94
427.402	722.94
427.625	719.94
427.847	718.94
428.069	704.94
428.292	731.94
428.514	710.94
428.736	708.94
428.958	721.94
429.181	705.94
429.403	706.94
429.625	693.94
429.847	715.94
430.069	692.94
430.292	716.94
430.514	707.94
430.736	688.94
430.958	683.94
431.18	714.94
431.402	708.94
431.624	713.94
431.846	730.94
432.068	706.94
432.29	750.94
432.512	705.94
432.734	709.94
432.956	704.94
433.178	728.94
433.4	719.94
433.622	714.94
433.844	715.94
434.066	740.94
434.287	744.94
434.509	761.94
434.731	784.94
434.953	823.94
435.175	836.94
435.397	827.94
435.618	770.94
435.84	772.94
436.062	744.94
436.284	741.94
436.505	716.94
436.727	733.94
436.949	727.94
437.17	734.94
437.392	706.94
437.614	708.94
437.835	676.94
438.057	689.94
438.278	670.94
438.5	717.94
438.721	694.94
438.943	715.94
439.165	676.94
439.386	688.94
439.608	715.94
439.829	718.94
440.05	744.94
440.272	723.94
440.493	736.94
440.715	760.94
440.936	732.94
441.158	748.94
441.379	782.94
441.6	818.94
441.822	867.94
442.043	820.94
442.264	816.94
442.486	803.94
442.707	825.94
442.928	805.94
443.149	796.94
443.371	798.94
443.592	819.94
443.813	827.94
444.034	801.94
444.255	850.94
444.476	888.94
444.698	971.94
444.919	1038.94
445.14	1098.94
445.361	935.94
445.582	831.94
445.803	776.94
446.024	780.94
446.245	753.94
446.466	763.94
446.687	711.94
446.908	723.94
447.129	713.94
447.35	702.94
447.571	716.94
447.792	690.94
448.013	691.94
448.234	699.94
448.455	682.94
448.675	705.94
448.896	704.94
449.117	690.94
449.338	657.94
449.559	658.94
449.779	664.94
450	652.94
450.221	684.94
450.442	669.94
450.662	666.94
450.883	698.94
451.104	686.94
451.324	698.94
451.545	716.94
451.766	714.94
451.986	671.94
452.207	673.94
452.428	666.94
452.648	683.94
452.869	676.94
453.089	679.94
453.31	671.94
453.53	679.94
453.751	638.94
453.971	641.94
454.192	650.94
454.412	655.94
454.633	648.94
454.853	670.94
455.073	652.94
455.294	632.94
455.514	642.94
455.734	620.94
455.955	604.94
456.175	618.94
456.395	634.94
456.616	642.94
456.836	632.94
457.056	621.94
457.276	623.94
457.497	617.94
457.717	624.94
457.937	645.94
458.157	628.94
458.377	632.94
458.598	656.94
458.818	656.94
459.038	693.94
459.258	718.94
459.478	745.94
459.698	742.94
459.918	767.94
460.138	793.94
460.358	856.94
460.578	849.94
460.798	864.94
461.018	869.94
461.238	860.94
461.458	855.94
461.678	832.94
461.898	834.94
462.118	872.94
462.338	944.94
462.558	953.94
462.777	958.94
462.997	1057.94
463.217	1151.94
463.437	1185.94
463.657	1087.94
463.876	1032.94
464.096	1031.94
464.316	994.94
464.536	1044.94
464.755	990.94
464.975	938.94
465.195	914.94
465.414	840.94
465.634	791.94
465.854	766.94
466.073	745.94
466.293	728.94
466.512	717.94
466.732	691.94
466.951	723.94
467.171	716.94
467.391	713.94
467.61	699.94
467.829	694.94
468.049	678.94
468.268	682.94
468.488	667.94
468.707	636.94
468.927	658.94
469.146	668.94
469.365	684.94
469.585	674.94
469.804	672.94
470.023	709.94
470.243	706.94
470.462	727.94
470.681	750.94
470.901	751.94
471.12	734.94
471.339	712.94
471.558	690.94
471.777	683.94
471.997	647.94
472.216	659.94
472.435	664.94
472.654	676.94
472.873	651.94
473.092	647.94
473.311	622.94
473.53	638.94
473.749	653.94
473.968	650.94
474.187	653.94
474.406	637.94
474.625	641.94
474.844	655.94
475.063	659.94
475.282	640.94
475.501	644.94
475.72	660.94
475.939	656.94
476.158	663.94
476.377	686.94
476.596	675.94
476.814	672.94
477.033	697.94
477.252	692.94
477.471	716.94
477.69	727.94
477.908	736.94
478.127	774.94
478.346	795.94
478.564	795.94
478.783	780.94
479.002	810.94
479.22	823.94
479.439	811.94
479.658	820.94
479.876	830.94
480.095	823.94
480.313	865.94
480.532	860.94
480.751	871.94
480.969	834.94
481.188	788.94
481.406	783.94
481.624	752.94
481.843	738.94
482.061	724.94
482.28	743.94
482.498	734.94
482.717	712.94
482.935	733.94
483.153	755.94
483.372	726.94
483.59	773.94
483.808	758.94
484.027	743.94
484.245	728.94
484.463	727.94
484.681	776.94
484.9	787.94
485.118	783.94
485.336	760.94
485.554	786.94
485.772	754.94
485.99	784.94
486.209	802.94
486.427	795.94
486.645	803.94
486.863	823.94
487.081	792.94
487.299	736.94
487.517	796.94
487.735	794.94
487.953	797.94
488.171	802.94
488.389	770.94
488.607	779.94
488.825	767.94
489.043	760.94
489.261	758.94
489.479	759.94
489.696	760.94
489.914	768.94
490.132	787.94
490.35	770.94
490.568	745.94
490.786	760.94
491.003	803.94
491.221	773.94
491.439	791.94
491.657	799.94
491.874	800.94
492.092	815.94
492.31	810.94
492.527	804.94
492.745	795.94
492.963	820.94
493.18	831.94
493.398	828.94
493.615	831.94
493.833	818.94
494.05	820.94
494.268	851.94
494.485	802.94
494.703	828.94
494.92	844.94
495.138	803.94
495.355	818.94
495.573	828.94
495.79	824.94
496.008	862.94
496.225	818.94
496.442	840.94
496.66	875.94
496.877	871.94
497.094	864.94
497.312	892.94
497.529	912.94
497.746	919.94
497.963	962.94
498.181	984.94
498.398	1015.94
498.615	1087.94
498.832	1193.94
499.049	1235.94
499.267	1359.94
499.484	1492.94
499.701	1668.94
499.918	1838.94
500.135	2144.94
500.352	2524.94
500.569	2629.94
500.786	2584.94
501.003	2391.94
501.22	2134.94
