Data from Ni(NO3)2Standard.Agarose3%.GreenCap.LampEnergy5.5.E.O_HRD10591_14-40-29-195.txt Node
Date: Mon Jul 22 14:40:29 EDT 2019
User: cochatt
Spectrometer: HR+D1059
Trigger mode: 1
Integration Time (sec): 1.000000E-1
Scans to average: 1
Electric dark correction enabled: true
Nonlinearity correction enabled: false
Boxcar width: 0
XAxis mode: Wavelengths
Number of Pixels in Spectrum: 2048
>>>>>Begin Spectral Data<<<<<
223.165	-25.25
223.4	-25.25
223.635	-25.25
223.869	-6.25
224.104	-12.25
224.338	-14.25
224.573	-19.25
224.808	-13.25
225.042	-13.25
225.277	6.75
225.511	-11.25
225.746	3.75
225.98	2.75
226.215	9.75
226.449	22.75
226.683	12.75
226.918	21.75
227.152	34.75
227.387	23.75
227.621	37.75
227.856	46.75
228.09	33.75
228.324	42.75
228.559	65.75
228.793	58.75
229.027	53.75
229.262	70.75
229.496	68.75
229.73	51.75
229.964	62.75
230.199	70.75
230.433	73.75
230.667	85.75
230.901	74.75
231.136	77.75
231.37	86.75
231.604	72.75
231.838	88.75
232.072	87.75
232.306	72.75
232.541	86.75
232.775	91.75
233.009	84.75
233.243	88.75
233.477	77.75
233.711	82.75
233.945	86.75
234.179	75.75
234.413	78.75
234.647	73.75
234.881	76.75
235.115	87.75
235.349	82.75
235.583	80.75
235.817	78.75
236.051	74.75
236.285	78.75
236.519	60.75
236.753	75.75
236.987	62.75
237.221	88.75
237.455	89.75
237.689	84.75
237.922	75.75
238.156	71.75
238.39	83.75
238.624	83.75
238.858	88.75
239.091	68.75
239.325	75.75
239.559	68.75
239.793	82.75
240.027	74.75
240.26	75.75
240.494	80.75
240.728	66.75
240.961	75.75
241.195	85.75
241.429	84.75
241.662	84.75
241.896	69.75
242.13	81.75
242.363	59.75
242.597	67.75
242.83	62.75
243.064	78.75
243.298	82.75
243.531	78.75
243.765	75.75
243.998	71.75
244.232	63.75
244.465	67.75
244.699	64.75
244.932	72.75
245.166	68.75
245.399	70.75
245.633	83.75
245.866	83.75
246.099	86.75
246.333	79.75
246.566	61.75
246.8	79.75
247.033	87.75
247.266	84.75
247.5	87.75
247.733	81.75
247.966	75.75
248.2	78.75
248.433	86.75
248.666	77.75
248.899	74.75
249.133	84.75
249.366	87.75
249.599	73.75
249.832	66.75
250.066	79.75
250.299	60.75
250.532	81.75
250.765	85.75
250.998	76.75
251.231	72.75
251.465	93.75
251.698	91.75
251.931	65.75
252.164	82.75
252.397	81.75
252.63	75.75
252.863	82.75
253.096	83.75
253.329	79.75
253.562	90.75
253.795	79.75
254.028	74.75
254.261	89.75
254.494	81.75
254.727	77.75
254.96	93.75
255.193	74.75
255.426	77.75
255.659	90.75
255.892	81.75
256.124	82.75
256.357	85.75
256.59	101.75
256.823	87.75
257.056	80.75
257.289	82.75
257.521	83.75
257.754	85.75
257.987	78.75
258.22	78.75
258.452	78.75
258.685	84.75
258.918	71.75
259.151	86.75
259.383	83.75
259.616	80.75
259.849	74.75
260.081	84.75
260.314	82.75
260.547	91.75
260.779	85.75
261.012	85.75
261.244	80.75
261.477	93.75
261.71	74.75
261.942	88.75
262.175	65.75
262.407	84.75
262.64	75.75
262.872	80.75
263.105	86.75
263.337	92.75
263.57	71.75
263.802	88.75
264.035	90.75
264.267	74.75
264.499	83.75
264.732	87.75
264.964	78.75
265.197	83.75
265.429	85.75
265.661	78.75
265.894	74.75
266.126	76.75
266.358	62.75
266.591	80.75
266.823	83.75
267.055	69.75
267.287	82.75
267.52	80.75
267.752	75.75
267.984	83.75
268.216	88.75
268.448	86.75
268.681	85.75
268.913	105.75
269.145	87.75
269.377	85.75
269.609	76.75
269.841	80.75
270.073	75.75
270.306	81.75
270.538	89.75
270.77	74.75
271.002	76.75
271.234	92.75
271.466	80.75
271.698	92.75
271.93	92.75
272.162	90.75
272.394	76.75
272.626	79.75
272.858	82.75
273.09	72.75
273.322	88.75
273.553	88.75
273.785	82.75
274.017	90.75
274.249	79.75
274.481	79.75
274.713	78.75
274.945	85.75
275.176	77.75
275.408	87.75
275.64	94.75
275.872	85.75
276.104	84.75
276.335	96.75
276.567	81.75
276.799	78.75
277.031	85.75
277.262	92.75
277.494	89.75
277.726	76.75
277.957	83.75
278.189	91.75
278.421	83.75
278.652	98.75
278.884	74.75
279.115	85.75
279.347	80.75
279.579	83.75
279.81	87.75
280.042	94.75
280.273	75.75
280.505	84.75
280.736	85.75
280.968	84.75
281.199	76.75
281.431	79.75
281.662	79.75
281.894	87.75
282.125	90.75
282.356	87.75
282.588	100.75
282.819	74.75
283.051	83.75
283.282	81.75
283.513	86.75
283.745	80.75
283.976	85.75
284.207	72.75
284.439	81.75
284.67	74.75
284.901	89.75
285.132	78.75
285.364	65.75
285.595	98.75
285.826	67.75
286.057	85.75
286.288	83.75
286.52	78.75
286.751	87.75
286.982	96.75
287.213	86.75
287.444	82.75
287.675	82.75
287.906	90.75
288.138	94.75
288.369	88.75
288.6	78.75
288.831	74.75
289.062	102.75
289.293	79.75
289.524	69.75
289.755	73.75
289.986	80.75
290.217	85.75
290.448	77.75
290.679	83.75
290.91	88.75
291.141	87.75
291.371	92.75
291.602	88.75
291.833	95.75
292.064	73.75
292.295	95.75
292.526	99.75
292.757	89.75
292.987	73.75
293.218	68.75
293.449	78.75
293.68	90.75
293.91	95.75
294.141	86.75
294.372	86.75
294.603	70.75
294.833	77.75
295.064	88.75
295.295	92.75
295.525	89.75
295.756	87.75
295.987	84.75
296.217	91.75
296.448	87.75
296.679	94.75
296.909	88.75
297.14	83.75
297.37	88.75
297.601	75.75
297.831	70.75
298.062	84.75
298.292	71.75
298.523	91.75
298.753	69.75
298.984	94.75
299.214	102.75
299.445	78.75
299.675	94.75
299.905	92.75
300.136	76.75
300.366	70.75
300.597	90.75
300.827	83.75
301.057	90.75
301.288	92.75
301.518	89.75
301.748	79.75
301.979	79.75
302.209	77.75
302.439	69.75
302.669	85.75
302.9	85.75
303.13	87.75
303.36	85.75
303.59	98.75
303.82	84.75
304.051	71.75
304.281	91.75
304.511	90.75
304.741	89.75
304.971	88.75
305.201	82.75
305.431	78.75
305.661	85.75
305.891	92.75
306.121	91.75
306.352	100.75
306.582	93.75
306.812	90.75
307.042	101.75
307.272	90.75
307.502	87.75
307.731	85.75
307.961	93.75
308.191	60.75
308.421	87.75
308.651	77.75
308.881	85.75
309.111	91.75
309.341	87.75
309.571	79.75
309.8	72.75
310.03	81.75
310.26	97.75
310.49	93.75
310.72	94.75
310.949	87.75
311.179	79.75
311.409	81.75
311.639	83.75
311.868	87.75
312.098	81.75
312.328	83.75
312.557	89.75
312.787	91.75
313.017	85.75
313.246	94.75
313.476	77.75
313.706	72.75
313.935	85.75
314.165	87.75
314.394	74.75
314.624	95.75
314.853	87.75
315.083	83.75
315.312	82.75
315.542	92.75
315.771	98.75
316.001	84.75
316.23	77.75
316.46	73.75
316.689	82.75
316.919	87.75
317.148	89.75
317.377	84.75
317.607	86.75
317.836	92.75
318.065	100.75
318.295	79.75
318.524	77.75
318.753	84.75
318.983	97.75
319.212	80.75
319.441	98.75
319.67	88.75
319.9	89.75
320.129	67.75
320.358	86.75
320.587	81.75
320.816	84.75
321.046	77.75
321.275	92.75
321.504	88.75
321.733	90.75
321.962	80.75
322.191	78.75
322.42	86.75
322.649	83.75
322.878	90.75
323.108	88.75
323.337	86.75
323.566	87.75
323.795	86.75
324.024	91.75
324.253	77.75
324.482	87.75
324.71	71.75
324.939	83.75
325.168	87.75
325.397	88.75
325.626	92.75
325.855	94.75
326.084	89.75
326.313	82.75
326.542	84.75
326.77	92.75
326.999	91.75
327.228	82.75
327.457	92.75
327.686	83.75
327.914	97.75
328.143	107.75
328.372	85.75
328.6	85.75
328.829	85.75
329.058	81.75
329.287	85.75
329.515	93.75
329.744	91.75
329.972	90.75
330.201	76.75
330.43	80.75
330.658	97.75
330.887	90.75
331.115	94.75
331.344	90.75
331.572	102.75
331.801	86.75
332.03	79.75
332.258	92.75
332.486	89.75
332.715	86.75
332.943	85.75
333.172	81.75
333.4	92.75
333.629	101.75
333.857	89.75
334.085	106.75
334.314	93.75
334.542	88.75
334.771	106.75
334.999	91.75
335.227	100.75
335.455	84.75
335.684	88.75
335.912	95.75
336.14	93.75
336.369	88.75
336.597	96.75
336.825	81.75
337.053	66.75
337.281	83.75
337.51	93.75
337.738	95.75
337.966	87.75
338.194	104.75
338.422	92.75
338.65	94.75
338.878	86.75
339.106	97.75
339.334	93.75
339.562	89.75
339.79	97.75
340.018	86.75
340.246	87.75
340.474	89.75
340.702	104.75
340.93	95.75
341.158	90.75
341.386	93.75
341.614	92.75
341.842	89.75
342.07	74.75
342.298	89.75
342.526	86.75
342.754	81.75
342.981	75.75
343.209	79.75
343.437	94.75
343.665	83.75
343.893	88.75
344.12	90.75
344.348	79.75
344.576	87.75
344.804	88.75
345.031	87.75
345.259	92.75
345.487	87.75
345.714	93.75
345.942	91.75
346.17	94.75
346.397	107.75
346.625	83.75
346.853	74.75
347.08	79.75
347.308	98.75
347.535	85.75
347.763	93.75
347.99	97.75
348.218	83.75
348.445	82.75
348.673	86.75
348.9	94.75
349.128	80.75
349.355	84.75
349.583	81.75
349.81	88.75
350.037	96.75
350.265	79.75
350.492	96.75
350.72	74.75
350.947	82.75
351.174	81.75
351.402	81.75
351.629	93.75
351.856	97.75
352.083	72.75
352.311	90.75
352.538	80.75
352.765	94.75
352.992	95.75
353.22	83.75
353.447	95.75
353.674	87.75
353.901	86.75
354.128	92.75
354.355	86.75
354.583	85.75
354.81	85.75
355.037	86.75
355.264	86.75
355.491	89.75
355.718	85.75
355.945	78.75
356.172	83.75
356.399	83.75
356.626	88.75
356.853	73.75
357.08	83.75
357.307	79.75
357.534	96.75
357.761	75.75
357.988	93.75
358.215	84.75
358.441	90.75
358.668	78.75
358.895	84.75
359.122	81.75
359.349	73.75
359.576	90.75
359.802	81.75
360.029	92.75
360.256	89.75
360.483	81.75
360.709	74.75
360.936	92.75
361.163	83.75
361.39	102.75
361.616	105.75
361.843	96.75
362.07	93.75
362.296	95.75
362.523	67.75
362.749	89.75
362.976	90.75
363.203	93.75
363.429	84.75
363.656	91.75
363.882	86.75
364.109	91.75
364.335	90.75
364.562	74.75
364.788	82.75
365.015	90.75
365.241	85.75
365.468	80.75
365.694	98.75
365.92	81.75
366.147	87.75
366.373	100.75
366.599	82.75
366.826	74.75
367.052	81.75
367.278	83.75
367.505	96.75
367.731	84.75
367.957	82.75
368.184	87.75
368.41	77.75
368.636	90.75
368.862	85.75
369.089	89.75
369.315	85.75
369.541	86.75
369.767	98.75
369.993	89.75
370.219	94.75
370.445	95.75
370.672	97.75
370.898	84.75
371.124	75.75
371.35	81.75
371.576	79.75
371.802	90.75
372.028	85.75
372.254	90.75
372.48	93.75
372.706	77.75
372.932	72.75
373.158	86.75
373.384	78.75
373.61	77.75
373.835	74.75
374.061	79.75
374.287	91.75
374.513	97.75
374.739	92.75
374.965	81.75
375.191	92.75
375.416	74.75
375.642	72.75
375.868	87.75
376.094	93.75
376.319	85.75
376.545	87.75
376.771	79.75
376.997	79.75
377.222	78.75
377.448	98.75
377.674	81.75
377.899	80.75
378.125	86.75
378.35	86.75
378.576	71.75
378.802	87.75
379.027	85.75
379.253	98.75
379.478	92.75
379.704	86.75
379.929	98.75
380.155	82.75
380.38	94.75
380.606	86.75
380.831	88.75
381.057	77.75
381.282	81.75
381.507	90.75
381.733	82.75
381.958	78.75
382.184	86.75
382.409	84.75
382.634	81.75
382.86	94.75
383.085	96.75
383.31	86.75
383.535	97.75
383.761	77.75
383.986	85.75
384.211	74.75
384.436	80.75
384.662	90.75
384.887	89.75
385.112	63.75
385.337	93.75
385.562	87.75
385.787	85.75
386.013	88.75
386.238	88.75
386.463	82.75
386.688	85.75
386.913	92.75
387.138	83.75
387.363	72.75
387.588	82.75
387.813	85.75
388.038	72.75
388.263	91.75
388.488	83.75
388.713	91.75
388.938	77.75
389.163	77.75
389.387	74.75
389.612	72.75
389.837	84.75
390.062	81.75
390.287	94.75
390.512	106.75
390.736	85.75
390.961	92.75
391.186	99.75
391.411	83.75
391.636	83.75
391.86	88.75
392.085	91.75
392.31	99.75
392.534	91.75
392.759	85.75
392.984	93.75
393.208	79.75
393.433	87.75
393.658	94.75
393.882	94.75
394.107	69.75
394.331	99.75
394.556	97.75
394.78	88.75
395.005	89.75
395.229	89.75
395.454	78.75
395.678	93.75
395.903	97.75
396.127	82.75
396.352	92.75
396.576	86.75
396.801	88.75
397.025	88.75
397.249	84.75
397.474	90.75
397.698	76.75
397.922	92.75
398.147	81.75
398.371	82.75
398.595	93.75
398.82	83.75
399.044	87.75
399.268	72.75
399.492	92.75
399.717	89.75
399.941	78.75
400.165	83.75
400.389	91.75
400.613	92.75
400.837	90.75
401.062	83.75
401.286	92.75
401.51	75.75
401.734	82.75
401.958	98.75
402.182	83.75
402.406	82.75
402.63	79.75
402.854	85.75
403.078	78.75
403.302	79.75
403.526	81.75
403.75	85.75
403.974	82.75
404.198	94.75
404.422	80.75
404.645	82.75
404.869	89.75
405.093	67.75
405.317	55.75
405.541	82.75
405.765	93.75
405.988	101.75
406.212	103.75
406.436	85.75
406.66	85.75
406.883	89.75
407.107	88.75
407.331	92.75
407.555	98.75
407.778	86.75
408.002	86.75
408.226	80.75
408.449	92.75
408.673	79.75
408.896	98.75
409.12	85.75
409.344	90.75
409.567	87.75
409.791	90.75
410.014	90.75
410.238	79.75
410.461	78.75
410.685	91.75
410.908	86.75
411.132	83.75
411.355	77.75
411.578	91.75
411.802	86.75
412.025	98.75
412.249	88.75
412.472	80.75
412.695	81.75
412.919	72.75
413.142	93.75
413.365	84.75
413.589	86.75
413.812	80.75
414.035	97.75
414.258	97.75
414.482	81.75
414.705	87.75
414.928	83.75
415.151	93.75
415.374	74.75
415.597	81.75
415.821	86.75
416.044	91.75
416.267	88.75
416.49	94.75
416.713	85.75
416.936	91.75
417.159	84.75
417.382	79.75
417.605	83.75
417.828	73.75
418.051	76.75
418.274	91.75
418.497	74.75
418.72	71.75
418.943	75.75
419.166	93.75
419.389	82.75
419.611	93.75
419.834	89.75
420.057	86.75
420.28	70.75
420.503	77.75
420.726	83.75
420.948	72.75
421.171	89.75
421.394	91.75
421.617	83.75
421.839	72.75
422.062	89.75
422.285	78.75
422.507	84.75
422.73	102.75
422.953	98.75
423.175	87.75
423.398	90.75
423.621	91.75
423.843	78.75
424.066	80.75
424.288	78.75
424.511	105.75
424.733	99.75
424.956	100.75
425.178	75.75
425.401	92.75
425.623	77.75
425.846	80.75
426.068	92.75
426.291	81.75
426.513	71.75
426.735	83.75
426.958	94.75
427.18	86.75
427.402	90.75
427.625	91.75
427.847	82.75
428.069	105.75
428.292	87.75
428.514	75.75
428.736	87.75
428.958	81.75
429.181	73.75
429.403	86.75
429.625	87.75
429.847	84.75
430.069	98.75
430.292	83.75
430.514	87.75
430.736	89.75
430.958	98.75
431.18	80.75
431.402	82.75
431.624	75.75
431.846	82.75
432.068	93.75
432.29	92.75
432.512	76.75
432.734	84.75
432.956	82.75
433.178	90.75
433.4	100.75
433.622	90.75
433.844	90.75
434.066	91.75
434.287	85.75
434.509	72.75
434.731	91.75
434.953	70.75
435.175	77.75
435.397	100.75
435.618	73.75
435.84	98.75
436.062	85.75
436.284	70.75
436.505	92.75
436.727	79.75
436.949	72.75
437.17	89.75
437.392	90.75
437.614	91.75
437.835	82.75
438.057	77.75
438.278	87.75
438.5	79.75
438.721	69.75
438.943	88.75
439.165	80.75
439.386	79.75
439.608	83.75
439.829	95.75
440.05	87.75
440.272	81.75
440.493	86.75
440.715	84.75
440.936	92.75
441.158	87.75
441.379	77.75
441.6	80.75
441.822	93.75
442.043	83.75
442.264	77.75
442.486	103.75
442.707	79.75
442.928	98.75
443.149	85.75
443.371	96.75
443.592	94.75
443.813	87.75
444.034	83.75
444.255	78.75
444.476	74.75
444.698	70.75
444.919	84.75
445.14	189.75
445.361	139.75
445.582	95.75
445.803	95.75
446.024	81.75
446.245	92.75
446.466	90.75
446.687	82.75
446.908	96.75
447.129	89.75
447.35	95.75
447.571	78.75
447.792	104.75
448.013	94.75
448.234	77.75
448.455	86.75
448.675	87.75
448.896	78.75
449.117	80.75
449.338	79.75
449.559	92.75
449.779	95.75
450	83.75
450.221	81.75
450.442	82.75
450.662	84.75
450.883	87.75
451.104	87.75
451.324	103.75
451.545	80.75
451.766	83.75
451.986	81.75
452.207	84.75
452.428	94.75
452.648	93.75
452.869	87.75
453.089	86.75
453.31	82.75
453.53	100.75
453.751	90.75
453.971	71.75
454.192	84.75
454.412	93.75
454.633	93.75
454.853	81.75
455.073	91.75
455.294	76.75
455.514	87.75
455.734	78.75
455.955	99.75
456.175	78.75
456.395	57.75
456.616	83.75
456.836	82.75
457.056	80.75
457.276	84.75
457.497	100.75
457.717	104.75
457.937	103.75
458.157	98.75
458.377	89.75
458.598	91.75
458.818	94.75
459.038	94.75
459.258	82.75
459.478	87.75
459.698	97.75
459.918	89.75
460.138	97.75
460.358	93.75
460.578	78.75
460.798	83.75
461.018	91.75
461.238	89.75
461.458	83.75
461.678	85.75
461.898	86.75
462.118	94.75
462.338	92.75
462.558	89.75
462.777	79.75
462.997	83.75
463.217	76.75
463.437	95.75
463.657	78.75
463.876	88.75
464.096	93.75
464.316	81.75
464.536	76.75
464.755	97.75
464.975	92.75
465.195	100.75
465.414	91.75
465.634	84.75
465.854	78.75
466.073	80.75
466.293	82.75
466.512	92.75
466.732	92.75
466.951	93.75
467.171	94.75
467.391	87.75
467.61	90.75
467.829	85.75
468.049	93.75
468.268	83.75
468.488	78.75
468.707	86.75
468.927	90.75
469.146	85.75
469.365	102.75
469.585	90.75
469.804	94.75
470.023	86.75
470.243	86.75
470.462	78.75
470.681	82.75
470.901	88.75
471.12	78.75
471.339	90.75
471.558	90.75
471.777	77.75
471.997	81.75
472.216	93.75
472.435	83.75
472.654	87.75
472.873	98.75
473.092	85.75
473.311	94.75
473.53	78.75
473.749	86.75
473.968	95.75
474.187	105.75
474.406	82.75
474.625	91.75
474.844	97.75
475.063	87.75
475.282	90.75
475.501	90.75
475.72	87.75
475.939	81.75
476.158	73.75
476.377	95.75
476.596	87.75
476.814	94.75
477.033	83.75
477.252	78.75
477.471	78.75
477.69	76.75
477.908	91.75
478.127	98.75
478.346	88.75
478.564	97.75
478.783	82.75
479.002	88.75
479.22	99.75
479.439	88.75
479.658	84.75
479.876	78.75
480.095	96.75
480.313	96.75
480.532	86.75
480.751	86.75
480.969	105.75
481.188	96.75
481.406	95.75
481.624	72.75
481.843	79.75
482.061	95.75
482.28	98.75
482.498	92.75
482.717	90.75
482.935	82.75
483.153	85.75
483.372	105.75
483.59	77.75
483.808	90.75
484.027	85.75
484.245	80.75
484.463	104.75
484.681	95.75
484.9	91.75
485.118	87.75
485.336	97.75
485.554	87.75
485.772	89.75
485.99	90.75
486.209	90.75
486.427	85.75
486.645	90.75
486.863	87.75
487.081	85.75
487.299	76.75
487.517	86.75
487.735	101.75
487.953	76.75
488.171	87.75
488.389	108.75
488.607	104.75
488.825	84.75
489.043	98.75
489.261	99.75
489.479	85.75
489.696	99.75
489.914	87.75
490.132	88.75
490.35	98.75
490.568	86.75
490.786	93.75
491.003	96.75
491.221	93.75
491.439	92.75
491.657	86.75
491.874	88.75
492.092	104.75
492.31	82.75
492.527	96.75
492.745	100.75
492.963	97.75
493.18	100.75
493.398	94.75
493.615	108.75
493.833	89.75
494.05	107.75
494.268	105.75
494.485	101.75
494.703	78.75
494.92	94.75
495.138	87.75
495.355	92.75
495.573	98.75
495.79	92.75
496.008	91.75
496.225	96.75
496.442	92.75
496.66	104.75
496.877	87.75
497.094	105.75
497.312	92.75
497.529	86.75
497.746	105.75
497.963	82.75
498.181	90.75
498.398	94.75
498.615	104.75
498.832	92.75
499.049	91.75
499.267	99.75
499.484	113.75
499.701	114.75
499.918	94.75
500.135	109.75
500.352	113.75
500.569	113.75
500.786	119.75
501.003	117.75
501.22	94.75
501.437	109.75
501.654	97.75
501.871	103.75
502.088	90.75
502.305	98.75
502.522	91.75
502.739	99.75
502.956	105.75
503.172	93.75
503.389	96.75
503.606	88.75
503.823	93.75
504.04	93.75
504.256	98.75
504.473	94.75
504.69	97.75
504.907	101.75
505.123	102.75
505.34	86.75
505.557	102.75
505.773	96.75
505.99	85.75
506.207	79.75
506.423	82.75
506.64	97.75
506.856	93.75
507.073	91.75
507.289	99.75
507.506	104.75
507.722	82.75
507.939	92.75
508.155	113.75
508.372	73.75
508.588	83.75
508.805	77.75
509.021	96.75
509.238	90.75
509.454	81.75
509.67	95.75
509.887	89.75
510.103	89.75
510.319	79.75
510.536	91.75
510.752	93.75
510.968	84.75
511.184	98.75
511.401	106.75
511.617	108.75
511.833	92.75
512.049	83.75
512.265	84.75
512.481	97.75
512.698	94.75
512.914	89.75
513.13	95.75
513.346	107.75
513.562	103.75
513.778	99.75
513.994	92.75
514.21	96.75
514.426	85.75
514.642	80.75
514.858	87.75
515.074	96.75
515.29	102.75
515.506	94.75
515.721	92.75
515.937	97.75
516.153	87.75
516.369	91.75
516.585	97.75
516.801	89.75
517.016	84.75
517.232	99.75
517.448	95.75
517.664	94.75
517.879	82.75
518.095	95.75
518.311	105.75
