Data from Ni(NO3)2@0.125M.TitratingCurve.Agarose3%dH2O.NegLispCup.LampEnergy10.LIBS07252019_HRD10591_18-10-11-568.txt Node
Date: Thu Jul 25 18:10:11 EDT 2019
User: cochatt
Spectrometer: HR+D1059
Trigger mode: 1
Integration Time (sec): 1.000000E-1
Scans to average: 1
Electric dark correction enabled: true
Nonlinearity correction enabled: false
Boxcar width: 0
XAxis mode: Wavelengths
Number of Pixels in Spectrum: 2048
>>>>>Begin Spectral Data<<<<<
223.165	-6
223.4	-6
223.635	-6
223.869	-15
224.104	-21
224.338	-11
224.573	-27
224.808	-15
225.042	-10
225.277	2
225.511	-1
225.746	10
225.98	4
226.215	8
226.449	22
226.683	13
226.918	15
227.152	32
227.387	34
227.621	35
227.856	41
228.09	49
228.324	40
228.559	66
228.793	79
229.027	100
229.262	99
229.496	116
229.73	114
229.964	133
230.199	113
230.433	105
230.667	122
230.901	136
231.136	120
231.37	131
231.604	124
231.838	128
232.072	136
232.306	145
232.541	140
232.775	140
233.009	134
233.243	128
233.477	147
233.711	134
233.945	125
234.179	141
234.413	141
234.647	136
234.881	138
235.115	148
235.349	136
235.583	137
235.817	139
236.051	138
236.285	146
236.519	139
236.753	146
236.987	132
237.221	136
237.455	138
237.689	147
237.922	162
238.156	148
238.39	155
238.624	142
238.858	143
239.091	138
239.325	150
239.559	154
239.793	145
240.027	166
240.26	156
240.494	146
240.728	158
240.961	159
241.195	166
241.429	170
241.662	157
241.896	163
242.13	164
242.363	187
242.597	171
242.83	165
243.064	180
243.298	176
243.531	181
243.765	181
243.998	200
244.232	205
244.465	190
244.699	184
244.932	196
245.166	200
245.399	178
245.633	166
245.866	190
246.099	180
246.333	196
246.566	195
246.8	202
247.033	194
247.266	205
247.5	213
247.733	196
247.966	221
248.2	200
248.433	207
248.666	208
248.899	212
249.133	218
249.366	206
249.599	207
249.832	220
250.066	221
250.299	198
250.532	204
250.765	217
250.998	203
251.231	205
251.465	218
251.698	224
251.931	234
252.164	213
252.397	228
252.63	240
252.863	241
253.096	244
253.329	245
253.562	217
253.795	236
254.028	228
254.261	240
254.494	237
254.727	256
254.96	245
255.193	234
255.426	230
255.659	245
255.892	241
256.124	234
256.357	249
256.59	259
256.823	248
257.056	243
257.289	272
257.521	255
257.754	260
257.987	260
258.22	275
258.452	253
258.685	276
258.918	264
259.151	244
259.383	252
259.616	268
259.849	276
260.081	264
260.314	273
260.547	274
260.779	278
261.012	290
261.244	281
261.477	272
261.71	290
261.942	282
262.175	274
262.407	267
262.64	280
262.872	296
263.105	303
263.337	300
263.57	285
263.802	318
264.035	301
264.267	305
264.499	308
264.732	299
264.964	297
265.197	292
265.429	314
265.661	309
265.894	309
266.126	322
266.358	316
266.591	297
266.823	316
267.055	330
267.287	315
267.52	310
267.752	306
267.984	315
268.216	323
268.448	323
268.681	302
268.913	301
269.145	312
269.377	327
269.609	334
269.841	318
270.073	316
270.306	331
270.538	316
270.77	308
271.002	342
271.234	337
271.466	351
271.698	318
271.93	342
272.162	338
272.394	341
272.626	332
272.858	331
273.09	346
273.322	331
273.553	345
273.785	348
274.017	342
274.249	341
274.481	351
274.713	333
274.945	357
275.176	365
275.408	373
275.64	351
275.872	361
276.104	377
276.335	362
276.567	356
276.799	385
277.031	356
277.262	362
277.494	360
277.726	366
277.957	375
278.189	364
278.421	362
278.652	373
278.884	372
279.115	376
279.347	376
279.579	395
279.81	394
280.042	353
280.273	392
280.505	387
280.736	415
280.968	390
281.199	400
281.431	404
281.662	396
281.894	402
282.125	399
282.356	394
282.588	407
282.819	403
283.051	397
283.282	403
283.513	403
283.745	419
283.976	418
284.207	409
284.439	414
284.67	420
284.901	425
285.132	412
285.364	422
285.595	418
285.826	422
286.057	420
286.288	443
286.52	434
286.751	429
286.982	431
287.213	444
287.444	440
287.675	434
287.906	437
288.138	436
288.369	442
288.6	453
288.831	451
289.062	442
289.293	440
289.524	435
289.755	442
289.986	448
290.217	437
290.448	447
290.679	443
290.91	442
291.141	456
291.371	477
291.602	454
291.833	451
292.064	457
292.295	446
292.526	455
292.757	470
292.987	466
293.218	460
293.449	438
293.68	441
293.91	450
294.141	448
294.372	443
294.603	438
294.833	459
295.064	451
295.295	452
295.525	465
295.756	473
295.987	457
296.217	477
296.448	451
296.679	480
296.909	466
297.14	467
297.37	500
297.601	479
297.831	498
298.062	489
298.292	503
298.523	487
298.753	507
298.984	494
299.214	481
299.445	469
299.675	484
299.905	490
300.136	483
300.366	492
300.597	503
300.827	525
301.057	500
301.288	532
301.518	508
301.748	515
301.979	532
302.209	522
302.439	523
302.669	522
302.9	525
303.13	504
303.36	504
303.59	500
303.82	502
304.051	530
304.281	504
304.511	502
304.741	520
304.971	492
305.201	520
305.431	508
305.661	526
305.891	514
306.121	509
306.352	512
306.582	492
306.812	521
307.042	504
307.272	542
307.502	499
307.731	525
307.961	497
308.191	508
308.421	508
308.651	502
308.881	513
309.111	500
309.341	504
309.571	524
309.8	508
310.03	500
310.26	528
310.49	510
310.72	523
310.949	515
311.179	515
311.409	509
311.639	508
311.868	518
312.098	524
312.328	525
312.557	520
312.787	525
313.017	538
313.246	534
313.476	524
313.706	551
313.935	556
314.165	547
314.394	541
314.624	532
314.853	544
315.083	557
315.312	562
315.542	557
315.771	562
316.001	526
316.23	523
316.46	560
316.689	540
316.919	532
317.148	546
317.377	545
317.607	538
317.836	525
318.065	520
318.295	525
318.524	540
318.753	518
318.983	534
319.212	541
319.441	544
319.67	538
319.9	546
320.129	538
320.358	515
320.587	556
320.816	558
321.046	550
321.275	563
321.504	534
321.733	554
321.962	540
322.191	543
322.42	551
322.649	549
322.878	537
323.108	558
323.337	572
323.566	561
323.795	565
324.024	552
324.253	562
324.482	562
324.71	585
324.939	557
325.168	594
325.397	589
325.626	575
325.855	582
326.084	600
326.313	593
326.542	591
326.77	609
326.999	578
327.228	582
327.457	598
327.686	584
327.914	585
328.143	594
328.372	588
328.6	605
328.829	594
329.058	580
329.287	611
329.515	596
329.744	620
329.972	630
330.201	619
330.43	604
330.658	606
330.887	628
331.115	633
331.344	631
331.572	635
331.801	651
332.03	666
332.258	692
332.486	704
332.715	752
332.943	761
333.172	795
333.4	820
333.629	844
333.857	818
334.085	800
334.314	792
334.542	782
334.771	793
334.999	756
335.227	758
335.455	770
335.684	772
335.912	747
336.14	730
336.369	710
336.597	721
336.825	720
337.053	758
337.281	701
337.51	725
337.738	693
337.966	670
338.194	660
338.422	655
338.65	640
338.878	676
339.106	660
339.334	650
339.562	625
339.79	630
340.018	636
340.246	605
340.474	658
340.702	642
340.93	664
341.158	630
341.386	646
341.614	631
341.842	631
342.07	628
342.298	645
342.526	629
342.754	635
342.981	630
343.209	663
343.437	688
343.665	739
343.893	783
344.12	806
344.348	755
344.576	731
344.804	688
345.031	655
345.259	636
345.487	634
345.714	621
345.942	629
346.17	603
346.397	613
346.625	624
346.853	614
347.08	618
347.308	642
347.535	618
347.763	619
347.99	622
348.218	632
348.445	627
348.673	612
348.9	598
349.128	614
349.355	611
349.583	605
349.81	610
350.037	613
350.265	589
350.492	605
350.72	583
350.947	586
351.174	602
351.402	596
351.629	606
351.856	600
352.083	597
352.311	590
352.538	590
352.765	580
352.992	592
353.22	584
353.447	572
353.674	573
353.901	568
354.128	590
354.355	573
354.583	584
354.81	614
355.037	583
355.264	595
355.491	617
355.718	608
355.945	598
356.172	592
356.399	594
356.626	596
356.853	596
357.08	595
357.307	609
357.534	596
357.761	594
357.988	630
358.215	607
358.441	611
358.668	606
358.895	606
359.122	604
359.349	591
359.576	580
359.802	594
360.029	603
360.256	593
360.483	611
360.709	586
360.936	584
361.163	581
361.39	604
361.616	578
361.843	579
362.07	571
362.296	589
362.523	610
362.749	596
362.976	605
363.203	601
363.429	586
363.656	609
363.882	594
364.109	587
364.335	578
364.562	569
364.788	590
365.015	581
365.241	601
365.468	608
365.694	580
365.92	594
366.147	584
366.373	578
366.599	593
366.826	586
367.052	597
367.278	592
367.505	598
367.731	616
367.957	581
368.184	596
368.41	606
368.636	597
368.862	596
369.089	613
369.315	607
369.541	586
369.767	605
369.993	636
370.219	608
370.445	650
370.672	624
370.898	650
371.124	634
371.35	650
371.576	667
371.802	644
372.028	637
372.254	630
372.48	661
372.706	673
372.932	705
373.158	678
373.384	657
373.61	654
373.835	641
374.061	650
374.287	657
374.513	687
374.739	685
374.965	717
375.191	739
375.416	704
375.642	693
375.868	674
376.094	666
376.319	653
376.545	681
376.771	641
376.997	650
377.222	641
377.448	636
377.674	664
377.899	641
378.125	646
378.35	620
378.576	634
378.802	639
379.027	636
379.253	639
379.478	659
379.704	635
379.929	628
380.155	642
380.38	612
380.606	642
380.831	640
381.057	637
381.282	640
381.507	630
381.733	650
381.958	662
382.184	652
382.409	674
382.634	677
382.86	690
383.085	702
383.31	681
383.535	722
383.761	732
383.986	708
384.211	756
384.436	764
384.662	771
384.887	767
385.112	784
385.337	781
385.562	780
385.787	805
386.013	800
386.238	798
386.463	776
386.688	796
386.913	778
387.138	776
387.363	771
387.588	768
387.813	788
388.038	783
388.263	753
388.488	761
388.713	746
388.938	764
389.163	736
389.387	758
389.612	762
389.837	748
390.062	749
390.287	775
390.512	786
390.736	766
390.961	819
391.186	802
391.411	814
391.636	829
391.86	887
392.085	898
392.31	898
392.534	860
392.759	840
392.984	807
393.208	810
393.433	810
393.658	810
393.882	793
394.107	825
394.331	828
394.556	825
394.78	858
395.005	835
395.229	853
395.454	851
395.678	877
395.903	848
396.127	835
396.352	830
396.576	783
396.801	794
397.025	840
397.249	852
397.474	897
397.698	859
397.922	843
398.147	855
398.371	897
398.595	909
398.82	947
399.044	1021
399.268	1130
399.492	1346
399.717	1507
399.941	1479
400.165	1271
400.389	1149
400.613	1045
400.837	1000
401.062	1008
401.286	968
401.51	969
401.734	972
401.958	965
402.182	1001
402.406	1010
402.63	1020
402.854	1030
403.078	1061
403.302	1074
403.526	1113
403.75	1157
403.974	1162
404.198	1131
404.422	1154
404.645	1142
404.869	1123
405.093	1117
405.317	1056
405.541	1067
405.765	1061
405.988	1013
406.212	1034
406.436	1073
406.66	1095
406.883	1109
407.107	1189
407.331	1261
407.555	1256
407.778	1253
408.002	1221
408.226	1167
408.449	1171
408.673	1124
408.896	1093
409.12	1101
409.344	1109
409.567	1123
409.791	1144
410.014	1114
410.238	1084
410.461	1067
410.685	1071
410.908	1060
411.132	1046
411.355	1032
411.578	1024
411.802	1005
412.025	1021
412.249	1031
412.472	1023
412.695	974
412.919	999
413.142	979
413.365	974
413.589	989
413.812	962
414.035	948
414.258	926
414.482	975
414.705	964
414.928	1001
415.151	981
415.374	1000
415.597	986
415.821	968
416.044	950
416.267	939
416.49	947
416.713	937
416.936	958
417.159	924
417.382	983
417.605	974
417.828	939
418.051	980
418.274	962
418.497	996
418.72	1005
418.943	1025
419.166	1048
419.389	1094
419.611	1073
419.834	1019
420.057	1003
420.28	998
420.503	977
420.726	954
420.948	921
421.171	969
421.394	948
421.617	921
421.839	975
422.062	984
422.285	983
422.507	1000
422.73	995
422.953	983
423.175	1031
423.398	1017
423.621	1006
423.843	1040
424.066	1064
424.288	1008
424.511	1034
424.733	1002
424.956	1014
425.178	995
425.401	952
425.623	975
425.846	933
426.068	965
426.291	933
426.513	913
426.735	898
426.958	918
427.18	882
427.402	881
427.625	869
427.847	828
428.069	884
428.292	869
428.514	842
428.736	862
428.958	855
429.181	866
429.403	860
429.625	832
429.847	838
430.069	812
430.292	818
430.514	838
430.736	844
430.958	838
431.18	841
431.402	826
431.624	841
431.846	836
432.068	861
432.29	892
432.512	858
432.734	848
432.956	845
433.178	892
433.4	860
433.622	878
433.844	865
434.066	868
434.287	860
434.509	908
434.731	953
434.953	969
435.175	997
435.397	961
435.618	890
435.84	873
436.062	850
436.284	860
436.505	863
436.727	854
436.949	877
437.17	869
437.392	837
437.614	839
437.835	816
438.057	837
438.278	834
438.5	817
438.721	802
438.943	835
439.165	829
439.386	830
439.608	862
439.829	853
440.05	861
440.272	881
440.493	873
440.715	857
440.936	889
441.158	921
441.379	941
441.6	1002
441.822	961
442.043	958
442.264	956
442.486	961
442.707	933
442.928	952
443.149	960
443.371	952
443.592	937
443.813	979
444.034	989
444.255	1008
444.476	1058
444.698	1119
444.919	1161
445.14	1231
445.361	1074
445.582	989
445.803	928
446.024	931
446.245	920
446.466	893
446.687	863
446.908	880
447.129	866
447.35	869
447.571	843
447.792	814
448.013	830
448.234	815
448.455	813
448.675	792
448.896	825
449.117	785
449.338	774
449.559	791
449.779	788
450	790
450.221	790
450.442	811
450.662	802
450.883	789
451.104	836
451.324	808
451.545	796
451.766	806
451.986	810
452.207	785
452.428	792
452.648	775
452.869	754
453.089	775
453.31	791
453.53	796
453.751	759
453.971	753
454.192	765
454.412	742
454.633	737
454.853	731
455.073	742
455.294	737
455.514	738
455.734	717
455.955	732
456.175	697
456.395	738
456.616	749
456.836	752
457.056	724
457.276	700
457.497	726
457.717	698
457.937	712
458.157	760
458.377	762
458.598	769
458.818	792
459.038	809
459.258	818
459.478	848
459.698	880
459.918	904
460.138	947
460.358	1032
460.578	1028
460.798	1017
461.018	1035
461.238	1001
461.458	1011
461.678	995
461.898	1009
462.118	987
462.338	1087
462.558	1105
462.777	1154
462.997	1271
463.217	1393
463.437	1376
463.657	1244
463.876	1189
464.096	1193
464.316	1157
464.536	1206
464.755	1171
464.975	1100
465.195	1025
465.414	959
465.634	937
465.854	886
466.073	860
466.293	880
466.512	853
466.732	850
466.951	829
467.171	829
467.391	838
467.61	836
467.829	826
468.049	829
468.268	790
468.488	787
468.707	790
468.927	801
469.146	792
469.365	802
469.585	806
469.804	818
470.023	822
470.243	846
470.462	843
470.681	858
470.901	866
471.12	856
471.339	838
471.558	788
471.777	823
471.997	813
472.216	766
472.435	798
472.654	765
472.873	774
473.092	772
473.311	770
473.53	761
473.749	757
473.968	741
474.187	750
474.406	756
474.625	759
474.844	740
475.063	742
475.282	746
475.501	772
475.72	768
475.939	769
476.158	776
476.377	793
476.596	819
476.814	820
477.033	811
477.252	816
477.471	830
477.69	865
477.908	862
478.127	898
478.346	926
478.564	933
478.783	950
479.002	972
479.22	984
479.439	962
479.658	973
479.876	978
480.095	960
480.313	1030
480.532	1044
480.751	1054
480.969	992
481.188	907
481.406	918
481.624	908
481.843	888
482.061	881
482.28	876
482.498	871
482.717	861
482.935	874
483.153	865
483.372	857
483.59	906
483.808	888
484.027	888
484.245	902
484.463	903
484.681	916
484.9	902
485.118	902
485.336	915
485.554	920
485.772	892
485.99	931
486.209	930
486.427	936
486.645	915
486.863	946
487.081	906
487.299	909
487.517	930
487.735	936
487.953	925
488.171	911
488.389	918
488.607	901
488.825	895
489.043	899
489.261	914
489.479	918
489.696	926
489.914	929
490.132	909
490.35	916
490.568	924
490.786	930
491.003	939
491.221	926
491.439	939
491.657	937
491.874	928
492.092	918
492.31	925
492.527	945
492.745	946
492.963	953
493.18	937
493.398	961
493.615	952
493.833	976
494.05	944
494.268	1002
494.485	961
494.703	962
494.92	969
495.138	969
495.355	984
495.573	971
495.79	970
496.008	984
496.225	999
496.442	1022
496.66	1024
496.877	1016
497.094	1058
497.312	1059
497.529	1078
497.746	1070
497.963	1123
498.181	1176
498.398	1206
498.615	1309
498.832	1412
499.049	1492
499.267	1611
499.484	1764
499.701	1984
499.918	2146
500.135	2526
500.352	2943
500.569	3094
500.786	3008
501.003	2748
501.22	2430
501.437	2102
501.654	1865
501.871	1682
502.088	1569
502.305	1426
502.522	1376
502.739	1293
502.956	1253
503.172	1194
503.389	1153
503.606	1144
503.823	1114
504.04	1103
504.256	1119
504.473	1157
504.69	1202
504.907	1160
505.123	1096
505.34	1004
505.557	959
505.773	952
505.99	922
506.207	928
506.423	904
506.64	892
506.856	867
507.073	858
507.289	867
507.506	852
507.722	828
507.939	837
508.155	845
508.372	828
508.588	846
508.805	804
509.021	790
509.238	788
509.454	806
509.67	785
509.887	794
510.103	802
510.319	778
510.536	786
510.752	800
510.968	787
511.184	761
511.401	781
511.617	790
511.833	785
512.049	777
512.265	781
512.481	795
512.698	801
512.914	766
513.13	762
513.346	773
513.562	820
513.778	774
513.994	772
514.21	783
514.426	795
514.642	801
514.858	794
515.074	779
515.29	829
515.506	827
515.721	831
515.937	841
516.153	857
516.369	918
516.585	885
516.801	928
517.016	972
517.232	981
517.448	1091
517.664	1105
517.879	1114
518.095	1117
518.311	1050
518.527	1006
518.742	996
518.958	936
519.173	933
519.389	882
519.605	860
519.82	851
520.036	840
520.251	802
520.467	808
520.682	805
520.898	768
521.113	740
521.329	773
521.544	742
521.76	742
521.975	743
522.19	736
522.406	712
522.621	731
522.836	742
523.052	731
523.267	705
523.482	728
523.698	708
523.913	700
524.128	727
524.343	720
524.559	713
524.774	724
524.989	716
525.204	729
525.419	720
525.634	708
525.849	698
526.064	696
526.28	699
526.495	700
526.71	679
526.925	701
527.14	685
527.355	688
527.57	686
527.785	717
527.999	718
528.214	692
528.429	697
528.644	709
528.859	698
529.074	716
529.289	713
529.503	682
529.718	688
529.933	700
530.148	705
530.363	706
530.577	679
530.792	669
531.007	683
531.221	718
531.436	725
531.651	688
531.865	689
532.08	723
532.295	703
532.509	703
532.724	685
532.938	714
533.153	698
533.367	707
533.582	699
533.796	722
534.011	713
534.225	693
534.44	681
534.654	697
534.868	684
535.083	693
535.297	674
535.511	679
535.726	686
535.94	692
536.154	660
536.369	646
536.583	664
536.797	648
537.011	642
537.225	660
537.44	660
537.654	636
537.868	647
538.082	645
538.296	652
538.51	651
538.724	663
538.938	653
539.153	632
539.367	640
539.581	634
539.795	613
540.009	622
540.222	646
540.436	626
540.65	607
540.864	615
541.078	641
541.292	624
541.506	649
541.72	620
541.934	636
542.147	647
542.361	639
542.575	599
542.789	630
543.002	600
543.216	626
543.43	622
543.644	586
543.857	618
544.071	618
544.285	624
544.498	645
544.712	648
544.925	648
545.139	653
545.352	648
545.566	662
545.779	644
545.993	636
546.206	640
546.42	655
546.633	654
546.847	668
547.06	647
547.274	652
547.487	641
547.7	653
547.914	638
548.127	650
548.34	671
548.554	659
548.767	652
548.98	623
549.193	638
549.407	666
549.62	666
549.833	690
550.046	646
550.259	643
550.473	626
550.686	636
550.899	625
551.112	645
551.325	636
551.538	636
551.751	611
551.964	648
552.177	666
552.39	650
552.603	696
552.816	677
553.029	682
553.242	712
553.455	718
553.667	703
553.88	714
554.093	700
554.306	673
554.519	646
554.732	625
554.944	621
555.157	598
555.37	632
555.583	600
555.795	593
556.008	577
556.221	569
556.433	582
556.646	554
556.859	576
557.071	559
557.284	553
557.496	552
557.709	570
557.921	534
558.134	562
558.346	560
558.559	530
558.771	546
558.984	557
559.196	535
559.409	547
559.621	531
559.833	535
560.046	534
560.258	543
560.47	520
560.683	532
