Data from Ni(NO3)2@0.125M.TitratingCurve.Agarose3%dH2O.NegLispCup.LampEnergy10.LIBS07252019_HRD10591_18-10-30-568.txt Node
Date: Thu Jul 25 18:10:30 EDT 2019
User: cochatt
Spectrometer: HR+D1059
Trigger mode: 1
Integration Time (sec): 1.000000E-1
Scans to average: 1
Electric dark correction enabled: true
Nonlinearity correction enabled: false
Boxcar width: 0
XAxis mode: Wavelengths
Number of Pixels in Spectrum: 2048
>>>>>Begin Spectral Data<<<<<
223.165	-22.94
223.4	-22.94
223.635	-22.94
223.869	-21.94
224.104	-16.94
224.338	-13.94
224.573	-11.94
224.808	-5.94
225.042	-3.94
225.277	-7.94
225.511	0.06
225.746	11.06
225.98	17.06
226.215	13.06
226.449	12.06
226.683	21.06
226.918	16.06
227.152	15.06
227.387	35.06
227.621	48.06
227.856	48.06
228.09	41.06
228.324	63.06
228.559	59.06
228.793	67.06
229.027	104.06
229.262	78.06
229.496	90.06
229.73	97.06
229.964	81.06
230.199	90.06
230.433	105.06
230.667	87.06
230.901	109.06
231.136	103.06
231.37	113.06
231.604	111.06
231.838	123.06
232.072	126.06
232.306	124.06
232.541	128.06
232.775	126.06
233.009	114.06
233.243	116.06
233.477	119.06
233.711	114.06
233.945	131.06
234.179	126.06
234.413	133.06
234.647	128.06
234.881	118.06
235.115	107.06
235.349	129.06
235.583	118.06
235.817	106.06
236.051	118.06
236.285	118.06
236.519	125.06
236.753	109.06
236.987	130.06
237.221	115.06
237.455	131.06
237.689	125.06
237.922	130.06
238.156	120.06
238.39	128.06
238.624	121.06
238.858	127.06
239.091	115.06
239.325	133.06
239.559	126.06
239.793	127.06
240.027	114.06
240.26	128.06
240.494	127.06
240.728	123.06
240.961	137.06
241.195	136.06
241.429	131.06
241.662	134.06
241.896	138.06
242.13	134.06
242.363	140.06
242.597	136.06
242.83	140.06
243.064	141.06
243.298	142.06
243.531	144.06
243.765	131.06
243.998	135.06
244.232	147.06
244.465	135.06
244.699	146.06
244.932	145.06
245.166	157.06
245.399	138.06
245.633	154.06
245.866	151.06
246.099	154.06
246.333	164.06
246.566	160.06
246.8	162.06
247.033	156.06
247.266	156.06
247.5	156.06
247.733	150.06
247.966	171.06
248.2	150.06
248.433	141.06
248.666	154.06
248.899	162.06
249.133	174.06
249.366	164.06
249.599	175.06
249.832	167.06
250.066	168.06
250.299	169.06
250.532	167.06
250.765	186.06
250.998	160.06
251.231	175.06
251.465	179.06
251.698	181.06
251.931	185.06
252.164	176.06
252.397	180.06
252.63	157.06
252.863	179.06
253.096	166.06
253.329	172.06
253.562	172.06
253.795	194.06
254.028	188.06
254.261	168.06
254.494	186.06
254.727	186.06
254.96	195.06
255.193	194.06
255.426	181.06
255.659	179.06
255.892	192.06
256.124	184.06
256.357	185.06
256.59	194.06
256.823	200.06
257.056	194.06
257.289	189.06
257.521	198.06
257.754	193.06
257.987	202.06
258.22	202.06
258.452	184.06
258.685	183.06
258.918	203.06
259.151	188.06
259.383	191.06
259.616	195.06
259.849	194.06
260.081	208.06
260.314	201.06
260.547	199.06
260.779	197.06
261.012	205.06
261.244	218.06
261.477	208.06
261.71	217.06
261.942	200.06
262.175	212.06
262.407	207.06
262.64	205.06
262.872	199.06
263.105	207.06
263.337	234.06
263.57	203.06
263.802	212.06
264.035	214.06
264.267	183.06
264.499	240.06
264.732	232.06
264.964	230.06
265.197	230.06
265.429	225.06
265.661	242.06
265.894	220.06
266.126	220.06
266.358	221.06
266.591	221.06
266.823	233.06
267.055	214.06
267.287	211.06
267.52	239.06
267.752	229.06
267.984	245.06
268.216	232.06
268.448	236.06
268.681	236.06
268.913	251.06
269.145	236.06
269.377	225.06
269.609	232.06
269.841	235.06
270.073	230.06
270.306	233.06
270.538	232.06
270.77	222.06
271.002	233.06
271.234	238.06
271.466	224.06
271.698	223.06
271.93	259.06
272.162	240.06
272.394	221.06
272.626	235.06
272.858	250.06
273.09	254.06
273.322	257.06
273.553	244.06
273.785	247.06
274.017	278.06
274.249	250.06
274.481	259.06
274.713	241.06
274.945	248.06
275.176	252.06
275.408	246.06
275.64	259.06
275.872	266.06
276.104	262.06
276.335	267.06
276.567	262.06
276.799	263.06
277.031	269.06
277.262	283.06
277.494	265.06
277.726	285.06
277.957	266.06
278.189	263.06
278.421	266.06
278.652	252.06
278.884	269.06
279.115	274.06
279.347	263.06
279.579	278.06
279.81	271.06
280.042	260.06
280.273	270.06
280.505	298.06
280.736	280.06
280.968	288.06
281.199	277.06
281.431	278.06
281.662	293.06
281.894	268.06
282.125	272.06
282.356	294.06
282.588	283.06
282.819	278.06
283.051	295.06
283.282	292.06
283.513	276.06
283.745	279.06
283.976	285.06
284.207	289.06
284.439	306.06
284.67	320.06
284.901	312.06
285.132	302.06
285.364	293.06
285.595	300.06
285.826	302.06
286.057	298.06
286.288	326.06
286.52	310.06
286.751	298.06
286.982	311.06
287.213	308.06
287.444	308.06
287.675	315.06
287.906	322.06
288.138	309.06
288.369	316.06
288.6	329.06
288.831	310.06
289.062	313.06
289.293	303.06
289.524	296.06
289.755	319.06
289.986	326.06
290.217	322.06
290.448	308.06
290.679	325.06
290.91	318.06
291.141	293.06
291.371	299.06
291.602	346.06
291.833	312.06
292.064	322.06
292.295	330.06
292.526	326.06
292.757	323.06
292.987	321.06
293.218	339.06
293.449	326.06
293.68	328.06
293.91	326.06
294.141	322.06
294.372	339.06
294.603	325.06
294.833	330.06
295.064	330.06
295.295	319.06
295.525	335.06
295.756	294.06
295.987	324.06
296.217	318.06
296.448	325.06
296.679	356.06
296.909	317.06
297.14	328.06
297.37	345.06
297.601	347.06
297.831	346.06
298.062	331.06
298.292	331.06
298.523	357.06
298.753	349.06
298.984	334.06
299.214	334.06
299.445	347.06
299.675	333.06
299.905	337.06
300.136	340.06
300.366	349.06
300.597	371.06
300.827	366.06
301.057	346.06
301.288	362.06
301.518	353.06
301.748	359.06
301.979	362.06
302.209	361.06
302.439	349.06
302.669	346.06
302.9	354.06
303.13	344.06
303.36	373.06
303.59	363.06
303.82	342.06
304.051	370.06
304.281	352.06
304.511	368.06
304.741	363.06
304.971	351.06
305.201	340.06
305.431	358.06
305.661	367.06
305.891	359.06
306.121	349.06
306.352	364.06
306.582	351.06
306.812	354.06
307.042	368.06
307.272	364.06
307.502	367.06
307.731	373.06
307.961	336.06
308.191	346.06
308.421	342.06
308.651	354.06
308.881	352.06
309.111	358.06
309.341	351.06
309.571	354.06
309.8	356.06
310.03	339.06
310.26	367.06
310.49	358.06
310.72	372.06
310.949	355.06
311.179	372.06
311.409	365.06
311.639	362.06
311.868	371.06
312.098	386.06
312.328	380.06
312.557	365.06
312.787	372.06
313.017	384.06
313.246	381.06
313.476	363.06
313.706	374.06
313.935	382.06
314.165	370.06
314.394	368.06
314.624	356.06
314.853	356.06
315.083	386.06
315.312	355.06
315.542	355.06
315.771	348.06
316.001	364.06
316.23	366.06
316.46	356.06
316.689	372.06
316.919	365.06
317.148	360.06
317.377	387.06
317.607	380.06
317.836	364.06
318.065	380.06
318.295	366.06
318.524	359.06
318.753	362.06
318.983	375.06
319.212	372.06
319.441	366.06
319.67	358.06
319.9	366.06
320.129	367.06
320.358	376.06
320.587	377.06
320.816	370.06
321.046	366.06
321.275	385.06
321.504	365.06
321.733	382.06
321.962	377.06
322.191	375.06
322.42	376.06
322.649	381.06
322.878	376.06
323.108	382.06
323.337	398.06
323.566	379.06
323.795	392.06
324.024	379.06
324.253	392.06
324.482	389.06
324.71	389.06
324.939	383.06
325.168	393.06
325.397	380.06
325.626	415.06
325.855	381.06
326.084	423.06
326.313	409.06
326.542	415.06
326.77	416.06
326.999	401.06
327.228	398.06
327.457	412.06
327.686	399.06
327.914	399.06
328.143	413.06
328.372	440.06
328.6	406.06
328.829	416.06
329.058	403.06
329.287	415.06
329.515	422.06
329.744	406.06
329.972	419.06
330.201	416.06
330.43	431.06
330.658	411.06
330.887	430.06
331.115	418.06
331.344	426.06
331.572	431.06
331.801	478.06
332.03	444.06
332.258	459.06
332.486	477.06
332.715	473.06
332.943	487.06
333.172	521.06
333.4	547.06
333.629	580.06
333.857	529.06
334.085	544.06
334.314	532.06
334.542	526.06
334.771	516.06
334.999	508.06
335.227	514.06
335.455	512.06
335.684	527.06
335.912	507.06
336.14	495.06
336.369	493.06
336.597	511.06
336.825	486.06
337.053	488.06
337.281	497.06
337.51	474.06
337.738	478.06
337.966	462.06
338.194	461.06
338.422	461.06
338.65	464.06
338.878	442.06
339.106	456.06
339.334	471.06
339.562	448.06
339.79	452.06
340.018	437.06
340.246	412.06
340.474	444.06
340.702	443.06
340.93	420.06
341.158	414.06
341.386	425.06
341.614	433.06
341.842	455.06
342.07	433.06
342.298	443.06
342.526	424.06
342.754	438.06
342.981	438.06
343.209	443.06
343.437	466.06
343.665	493.06
343.893	518.06
344.12	524.06
344.348	510.06
344.576	479.06
344.804	461.06
345.031	463.06
345.259	463.06
345.487	431.06
345.714	438.06
345.942	446.06
346.17	434.06
346.397	442.06
346.625	399.06
346.853	410.06
347.08	434.06
347.308	430.06
347.535	431.06
347.763	442.06
347.99	449.06
348.218	425.06
348.445	450.06
348.673	419.06
348.9	430.06
349.128	414.06
349.355	408.06
349.583	421.06
349.81	422.06
350.037	418.06
350.265	407.06
350.492	399.06
350.72	420.06
350.947	428.06
351.174	399.06
351.402	404.06
351.629	424.06
351.856	402.06
352.083	407.06
352.311	405.06
352.538	412.06
352.765	416.06
352.992	396.06
353.22	386.06
353.447	400.06
353.674	398.06
353.901	386.06
354.128	391.06
354.355	405.06
354.583	404.06
354.81	409.06
355.037	406.06
355.264	408.06
355.491	413.06
355.718	388.06
355.945	422.06
356.172	414.06
356.399	421.06
356.626	412.06
356.853	397.06
357.08	404.06
357.307	400.06
357.534	400.06
357.761	422.06
357.988	406.06
358.215	406.06
358.441	413.06
358.668	403.06
358.895	411.06
359.122	412.06
359.349	401.06
359.576	403.06
359.802	405.06
360.029	413.06
360.256	408.06
360.483	395.06
360.709	387.06
360.936	411.06
361.163	415.06
361.39	404.06
361.616	422.06
361.843	401.06
362.07	409.06
362.296	383.06
362.523	396.06
362.749	401.06
362.976	393.06
363.203	393.06
363.429	388.06
363.656	406.06
363.882	396.06
364.109	402.06
364.335	394.06
364.562	404.06
364.788	402.06
365.015	429.06
365.241	400.06
365.468	392.06
365.694	412.06
365.92	403.06
366.147	388.06
366.373	384.06
366.599	407.06
366.826	418.06
367.052	406.06
367.278	392.06
367.505	406.06
367.731	404.06
367.957	414.06
368.184	408.06
368.41	405.06
368.636	409.06
368.862	414.06
369.089	415.06
369.315	415.06
369.541	429.06
369.767	430.06
369.993	430.06
370.219	427.06
370.445	405.06
370.672	436.06
370.898	435.06
371.124	424.06
371.35	434.06
371.576	425.06
371.802	439.06
372.028	432.06
372.254	423.06
372.48	445.06
372.706	456.06
372.932	463.06
373.158	464.06
373.384	440.06
373.61	445.06
373.835	447.06
374.061	452.06
374.287	429.06
374.513	448.06
374.739	458.06
374.965	500.06
375.191	485.06
375.416	470.06
375.642	466.06
375.868	491.06
376.094	447.06
376.319	435.06
376.545	460.06
376.771	451.06
376.997	459.06
377.222	438.06
377.448	436.06
377.674	430.06
377.899	446.06
378.125	426.06
378.35	438.06
378.576	458.06
378.802	419.06
379.027	436.06
379.253	426.06
379.478	436.06
379.704	420.06
379.929	439.06
380.155	421.06
380.38	428.06
380.606	425.06
380.831	436.06
381.057	430.06
381.282	429.06
381.507	448.06
381.733	414.06
381.958	441.06
382.184	446.06
382.409	467.06
382.634	450.06
382.86	455.06
383.085	461.06
383.31	474.06
383.535	472.06
383.761	488.06
383.986	489.06
384.211	486.06
384.436	518.06
384.662	512.06
384.887	529.06
385.112	519.06
385.337	521.06
385.562	518.06
385.787	533.06
386.013	517.06
386.238	512.06
386.463	522.06
386.688	500.06
386.913	500.06
387.138	508.06
387.363	513.06
387.588	511.06
387.813	521.06
388.038	495.06
388.263	512.06
388.488	565.06
388.713	527.06
388.938	523.06
389.163	512.06
389.387	488.06
389.612	510.06
389.837	486.06
390.062	477.06
390.287	518.06
390.512	491.06
390.736	518.06
390.961	514.06
391.186	515.06
391.411	553.06
391.636	559.06
391.86	559.06
392.085	617.06
392.31	600.06
392.534	554.06
392.759	543.06
392.984	558.06
393.208	547.06
393.433	535.06
393.658	554.06
393.882	544.06
394.107	559.06
394.331	535.06
394.556	526.06
394.78	576.06
395.005	556.06
395.229	540.06
395.454	565.06
395.678	601.06
395.903	590.06
396.127	570.06
396.352	537.06
396.576	541.06
396.801	526.06
397.025	540.06
397.249	561.06
397.474	578.06
397.698	573.06
397.922	552.06
398.147	574.06
398.371	574.06
398.595	583.06
398.82	611.06
399.044	644.06
399.268	696.06
399.492	838.06
399.717	984.06
399.941	970.06
400.165	829.06
400.389	764.06
400.613	680.06
400.837	671.06
401.062	628.06
401.286	632.06
401.51	632.06
401.734	623.06
401.958	639.06
402.182	662.06
402.406	648.06
402.63	664.06
402.854	676.06
403.078	683.06
403.302	726.06
403.526	720.06
403.75	745.06
403.974	754.06
404.198	747.06
404.422	759.06
404.645	764.06
404.869	742.06
405.093	718.06
405.317	710.06
405.541	707.06
405.765	707.06
405.988	720.06
406.212	719.06
406.436	676.06
406.66	699.06
406.883	735.06
407.107	767.06
407.331	799.06
407.555	824.06
407.778	815.06
408.002	780.06
408.226	771.06
408.449	736.06
408.673	713.06
408.896	730.06
409.12	732.06
409.344	720.06
409.567	746.06
409.791	750.06
410.014	762.06
410.238	725.06
410.461	730.06
410.685	729.06
410.908	711.06
411.132	687.06
411.355	655.06
411.578	695.06
411.802	662.06
412.025	662.06
412.249	691.06
412.472	687.06
412.695	632.06
412.919	647.06
413.142	644.06
413.365	641.06
413.589	660.06
413.812	645.06
414.035	621.06
414.258	629.06
414.482	629.06
414.705	665.06
414.928	640.06
415.151	635.06
415.374	651.06
415.597	651.06
415.821	648.06
416.044	611.06
416.267	604.06
416.49	623.06
416.713	627.06
416.936	658.06
417.159	636.06
417.382	645.06
417.605	626.06
417.828	638.06
418.051	638.06
418.274	647.06
418.497	648.06
418.72	654.06
418.943	647.06
419.166	694.06
419.389	747.06
419.611	726.06
419.834	696.06
420.057	663.06
420.28	636.06
420.503	621.06
420.726	622.06
420.948	646.06
421.171	629.06
421.394	651.06
421.617	657.06
421.839	664.06
422.062	655.06
422.285	642.06
422.507	668.06
422.73	651.06
422.953	655.06
423.175	667.06
423.398	707.06
423.621	680.06
423.843	703.06
424.066	711.06
424.288	720.06
424.511	687.06
424.733	699.06
424.956	678.06
425.178	660.06
425.401	670.06
425.623	656.06
425.846	613.06
426.068	625.06
426.291	632.06
426.513	610.06
426.735	592.06
426.958	599.06
427.18	586.06
427.402	592.06
427.625	599.06
427.847	584.06
428.069	581.06
428.292	580.06
428.514	590.06
428.736	564.06
428.958	582.06
429.181	571.06
429.403	591.06
429.625	559.06
429.847	569.06
430.069	587.06
430.292	591.06
430.514	555.06
430.736	574.06
430.958	570.06
431.18	589.06
431.402	562.06
431.624	579.06
431.846	579.06
432.068	567.06
432.29	583.06
432.512	558.06
432.734	559.06
432.956	600.06
433.178	591.06
433.4	597.06
433.622	584.06
433.844	596.06
434.066	594.06
434.287	590.06
434.509	621.06
434.731	651.06
434.953	664.06
435.175	660.06
435.397	666.06
435.618	604.06
435.84	624.06
436.062	588.06
436.284	578.06
436.505	588.06
436.727	593.06
436.949	576.06
437.17	594.06
437.392	590.06
437.614	587.06
437.835	567.06
438.057	558.06
438.278	568.06
438.5	575.06
438.721	573.06
438.943	600.06
439.165	555.06
439.386	578.06
439.608	574.06
439.829	586.06
440.05	573.06
440.272	586.06
440.493	602.06
440.715	612.06
440.936	609.06
441.158	630.06
441.379	642.06
441.6	663.06
441.822	674.06
442.043	694.06
442.264	634.06
442.486	639.06
442.707	641.06
442.928	628.06
443.149	670.06
443.371	665.06
443.592	644.06
443.813	653.06
444.034	669.06
444.255	709.06
444.476	724.06
444.698	763.06
444.919	797.06
445.14	886.06
445.361	775.06
445.582	671.06
445.803	648.06
446.024	631.06
446.245	600.06
446.466	624.06
446.687	593.06
446.908	587.06
447.129	594.06
447.35	581.06
447.571	582.06
447.792	565.06
448.013	565.06
448.234	535.06
448.455	555.06
448.675	557.06
448.896	571.06
449.117	550.06
449.338	542.06
449.559	568.06
449.779	556.06
450	536.06
450.221	553.06
450.442	532.06
450.662	553.06
450.883	555.06
451.104	582.06
451.324	581.06
451.545	574.06
451.766	575.06
451.986	566.06
452.207	586.06
452.428	580.06
452.648	557.06
452.869	538.06
453.089	535.06
453.31	557.06
453.53	552.06
453.751	534.06
453.971	538.06
454.192	524.06
454.412	511.06
454.633	520.06
454.853	517.06
455.073	495.06
455.294	540.06
455.514	510.06
455.734	518.06
455.955	503.06
456.175	484.06
456.395	514.06
456.616	519.06
456.836	527.06
457.056	532.06
457.276	500.06
457.497	492.06
457.717	493.06
457.937	510.06
458.157	518.06
458.377	517.06
458.598	529.06
458.818	541.06
459.038	563.06
459.258	552.06
459.478	570.06
459.698	605.06
459.918	612.06
460.138	650.06
460.358	686.06
460.578	684.06
460.798	675.06
461.018	714.06
461.238	682.06
461.458	673.06
461.678	677.06
461.898	710.06
462.118	694.06
462.338	742.06
462.558	752.06
462.777	777.06
462.997	845.06
463.217	922.06
463.437	942.06
463.657	848.06
463.876	825.06
464.096	806.06
464.316	823.06
464.536	830.06
464.755	798.06
464.975	765.06
465.195	707.06
465.414	667.06
465.634	632.06
465.854	619.06
466.073	606.06
466.293	598.06
466.512	591.06
466.732	581.06
466.951	591.06
467.171	570.06
467.391	593.06
467.61	578.06
467.829	571.06
468.049	582.06
468.268	556.06
468.488	570.06
468.707	558.06
468.927	542.06
469.146	552.06
469.365	540.06
469.585	563.06
469.804	572.06
470.023	584.06
470.243	576.06
470.462	615.06
470.681	610.06
470.901	607.06
471.12	591.06
471.339	565.06
471.558	563.06
471.777	539.06
471.997	543.06
472.216	534.06
472.435	534.06
472.654	523.06
472.873	531.06
473.092	523.06
473.311	518.06
473.53	514.06
473.749	516.06
473.968	536.06
474.187	526.06
474.406	534.06
474.625	523.06
474.844	524.06
475.063	539.06
475.282	555.06
475.501	537.06
475.72	542.06
475.939	554.06
476.158	573.06
476.377	573.06
476.596	568.06
476.814	547.06
477.033	539.06
477.252	543.06
477.471	575.06
477.69	604.06
477.908	608.06
478.127	628.06
478.346	600.06
478.564	634.06
478.783	668.06
479.002	671.06
479.22	659.06
479.439	633.06
479.658	661.06
479.876	658.06
480.095	675.06
480.313	671.06
480.532	718.06
480.751	699.06
480.969	682.06
481.188	634.06
481.406	662.06
481.624	600.06
481.843	603.06
482.061	592.06
482.28	586.06
482.498	619.06
482.717	584.06
482.935	618.06
483.153	611.06
483.372	589.06
483.59	606.06
483.808	609.06
484.027	591.06
484.245	614.06
484.463	616.06
484.681	611.06
484.9	606.06
485.118	632.06
485.336	626.06
485.554	615.06
485.772	642.06
485.99	631.06
486.209	657.06
486.427	639.06
486.645	644.06
486.863	621.06
487.081	637.06
487.299	627.06
487.517	622.06
487.735	612.06
487.953	638.06
488.171	650.06
488.389	629.06
488.607	624.06
488.825	635.06
489.043	623.06
489.261	628.06
489.479	607.06
489.696	630.06
489.914	630.06
490.132	597.06
490.35	610.06
490.568	639.06
490.786	648.06
491.003	641.06
491.221	660.06
491.439	622.06
491.657	656.06
491.874	638.06
492.092	638.06
492.31	659.06
492.527	644.06
492.745	649.06
492.963	668.06
493.18	649.06
493.398	645.06
493.615	673.06
493.833	663.06
494.05	699.06
494.268	649.06
494.485	657.06
494.703	646.06
494.92	672.06
495.138	660.06
495.355	663.06
495.573	681.06
495.79	675.06
496.008	665.06
496.225	676.06
496.442	700.06
496.66	688.06
496.877	688.06
497.094	695.06
497.312	728.06
497.529	752.06
497.746	775.06
497.963	747.06
498.181	800.06
498.398	848.06
498.615	880.06
498.832	924.06
499.049	986.06
499.267	1083.06
499.484	1168.06
499.701	1318.06
499.918	1437.06
500.135	1682.06
500.352	1929.06
500.569	2005.06
500.786	2036.06
501.003	1839.06
501.22	1586.06
501.437	1412.06
