Data from Ni(NO3)2@0.0625M.TitratingCurve.Agarose3%dH2O.NegLispCup.LampEnergy10.LIBS07252019_HRD10591_18-13-46-569.txt Node
Date: Thu Jul 25 18:13:46 EDT 2019
User: cochatt
Spectrometer: HR+D1059
Trigger mode: 1
Integration Time (sec): 1.000000E-1
Scans to average: 1
Electric dark correction enabled: true
Nonlinearity correction enabled: false
Boxcar width: 0
XAxis mode: Wavelengths
Number of Pixels in Spectrum: 2048
>>>>>Begin Spectral Data<<<<<
223.165	-13.25
223.4	-13.25
223.635	-13.25
223.869	-12.25
224.104	-12.25
224.338	-21.25
224.573	-9.25
224.808	-26.25
225.042	0.75
225.277	-6.25
225.511	-11.25
225.746	9.75
225.98	1.75
226.215	10.75
226.449	6.75
226.683	19.75
226.918	34.75
227.152	27.75
227.387	37.75
227.621	38.75
227.856	54.75
228.09	48.75
228.324	61.75
228.559	72.75
228.793	65.75
229.027	96.75
229.262	105.75
229.496	95.75
229.73	109.75
229.964	105.75
230.199	127.75
230.433	116.75
230.667	118.75
230.901	116.75
231.136	122.75
231.37	128.75
231.604	125.75
231.838	141.75
232.072	133.75
232.306	128.75
232.541	141.75
232.775	133.75
233.009	126.75
233.243	134.75
233.477	130.75
233.711	143.75
233.945	140.75
234.179	141.75
234.413	133.75
234.647	145.75
234.881	130.75
235.115	131.75
235.349	128.75
235.583	139.75
235.817	139.75
236.051	158.75
236.285	152.75
236.519	152.75
236.753	142.75
236.987	132.75
237.221	133.75
237.455	158.75
237.689	136.75
237.922	138.75
238.156	142.75
238.39	149.75
238.624	152.75
238.858	161.75
239.091	152.75
239.325	149.75
239.559	162.75
239.793	157.75
240.027	137.75
240.26	146.75
240.494	152.75
240.728	160.75
240.961	164.75
241.195	172.75
241.429	156.75
241.662	176.75
241.896	173.75
242.13	176.75
242.363	168.75
242.597	172.75
242.83	183.75
243.064	187.75
243.298	173.75
243.531	187.75
243.765	188.75
243.998	199.75
244.232	185.75
244.465	169.75
244.699	169.75
244.932	184.75
245.166	184.75
245.399	183.75
245.633	194.75
245.866	193.75
246.099	204.75
246.333	189.75
246.566	204.75
246.8	198.75
247.033	213.75
247.266	201.75
247.5	208.75
247.733	219.75
247.966	192.75
248.2	200.75
248.433	209.75
248.666	208.75
248.899	209.75
249.133	217.75
249.366	237.75
249.599	217.75
249.832	210.75
250.066	223.75
250.299	211.75
250.532	222.75
250.765	231.75
250.998	219.75
251.231	210.75
251.465	229.75
251.698	228.75
251.931	226.75
252.164	231.75
252.397	236.75
252.63	219.75
252.863	252.75
253.096	214.75
253.329	243.75
253.562	241.75
253.795	233.75
254.028	228.75
254.261	236.75
254.494	247.75
254.727	242.75
254.96	241.75
255.193	257.75
255.426	232.75
255.659	234.75
255.892	245.75
256.124	259.75
256.357	259.75
256.59	235.75
256.823	248.75
257.056	253.75
257.289	255.75
257.521	254.75
257.754	263.75
257.987	251.75
258.22	261.75
258.452	256.75
258.685	252.75
258.918	281.75
259.151	268.75
259.383	269.75
259.616	268.75
259.849	274.75
260.081	278.75
260.314	275.75
260.547	280.75
260.779	278.75
261.012	280.75
261.244	272.75
261.477	289.75
261.71	280.75
261.942	271.75
262.175	297.75
262.407	277.75
262.64	286.75
262.872	288.75
263.105	290.75
263.337	295.75
263.57	295.75
263.802	293.75
264.035	303.75
264.267	313.75
264.499	296.75
264.732	300.75
264.964	306.75
265.197	308.75
265.429	309.75
265.661	309.75
265.894	298.75
266.126	305.75
266.358	315.75
266.591	324.75
266.823	321.75
267.055	304.75
267.287	307.75
267.52	300.75
267.752	318.75
267.984	304.75
268.216	309.75
268.448	306.75
268.681	324.75
268.913	309.75
269.145	322.75
269.377	318.75
269.609	304.75
269.841	318.75
270.073	316.75
270.306	334.75
270.538	345.75
270.77	334.75
271.002	316.75
271.234	331.75
271.466	332.75
271.698	318.75
271.93	349.75
272.162	362.75
272.394	342.75
272.626	349.75
272.858	332.75
273.09	340.75
273.322	351.75
273.553	344.75
273.785	339.75
274.017	343.75
274.249	347.75
274.481	353.75
274.713	349.75
274.945	337.75
275.176	356.75
275.408	348.75
275.64	349.75
275.872	350.75
276.104	368.75
276.335	340.75
276.567	368.75
276.799	351.75
277.031	370.75
277.262	378.75
277.494	352.75
277.726	376.75
277.957	358.75
278.189	372.75
278.421	365.75
278.652	360.75
278.884	376.75
279.115	366.75
279.347	364.75
279.579	386.75
279.81	377.75
280.042	395.75
280.273	384.75
280.505	358.75
280.736	378.75
280.968	393.75
281.199	394.75
281.431	386.75
281.662	393.75
281.894	388.75
282.125	389.75
282.356	394.75
282.588	397.75
282.819	392.75
283.051	395.75
283.282	405.75
283.513	392.75
283.745	384.75
283.976	412.75
284.207	413.75
284.439	406.75
284.67	411.75
284.901	411.75
285.132	422.75
285.364	421.75
285.595	403.75
285.826	422.75
286.057	417.75
286.288	411.75
286.52	450.75
286.751	426.75
286.982	416.75
287.213	442.75
287.444	420.75
287.675	435.75
287.906	425.75
288.138	417.75
288.369	432.75
288.6	440.75
288.831	450.75
289.062	452.75
289.293	439.75
289.524	426.75
289.755	445.75
289.986	446.75
290.217	454.75
290.448	451.75
290.679	448.75
290.91	465.75
291.141	429.75
291.371	438.75
291.602	450.75
291.833	448.75
292.064	441.75
292.295	453.75
292.526	460.75
292.757	448.75
292.987	453.75
293.218	447.75
293.449	457.75
293.68	459.75
293.91	445.75
294.141	433.75
294.372	446.75
294.603	452.75
294.833	454.75
295.064	468.75
295.295	456.75
295.525	482.75
295.756	476.75
295.987	464.75
296.217	461.75
296.448	469.75
296.679	473.75
296.909	477.75
297.14	489.75
297.37	492.75
297.601	491.75
297.831	481.75
298.062	478.75
298.292	524.75
298.523	500.75
298.753	493.75
298.984	506.75
299.214	494.75
299.445	496.75
299.675	487.75
299.905	494.75
300.136	503.75
300.366	504.75
300.597	486.75
300.827	512.75
301.057	524.75
301.288	534.75
301.518	511.75
301.748	512.75
301.979	499.75
302.209	496.75
302.439	506.75
302.669	508.75
302.9	528.75
303.13	509.75
303.36	519.75
303.59	515.75
303.82	502.75
304.051	526.75
304.281	517.75
304.511	503.75
304.741	501.75
304.971	508.75
305.201	502.75
305.431	509.75
305.661	498.75
305.891	474.75
306.121	502.75
306.352	501.75
306.582	477.75
306.812	498.75
307.042	491.75
307.272	483.75
307.502	466.75
307.731	489.75
307.961	484.75
308.191	510.75
308.421	494.75
308.651	481.75
308.881	497.75
309.111	493.75
309.341	482.75
309.571	477.75
309.8	484.75
310.03	489.75
310.26	479.75
310.49	500.75
310.72	493.75
310.949	502.75
311.179	486.75
311.409	493.75
311.639	493.75
311.868	521.75
312.098	489.75
312.328	493.75
312.557	524.75
312.787	508.75
313.017	514.75
313.246	517.75
313.476	526.75
313.706	533.75
313.935	526.75
314.165	526.75
314.394	537.75
314.624	541.75
314.853	491.75
315.083	538.75
315.312	503.75
315.542	505.75
315.771	510.75
316.001	542.75
316.23	514.75
316.46	528.75
316.689	530.75
316.919	505.75
317.148	518.75
317.377	529.75
317.607	510.75
317.836	510.75
318.065	502.75
318.295	501.75
318.524	550.75
318.753	508.75
318.983	505.75
319.212	508.75
319.441	505.75
319.67	512.75
319.9	522.75
320.129	517.75
320.358	504.75
320.587	514.75
320.816	517.75
321.046	515.75
321.275	508.75
321.504	511.75
321.733	516.75
321.962	530.75
322.191	534.75
322.42	515.75
322.649	498.75
322.878	548.75
323.108	534.75
323.337	545.75
323.566	508.75
323.795	535.75
324.024	541.75
324.253	535.75
324.482	527.75
324.71	543.75
324.939	533.75
325.168	545.75
325.397	553.75
325.626	542.75
325.855	530.75
326.084	549.75
326.313	566.75
326.542	567.75
326.77	596.75
326.999	583.75
327.228	546.75
327.457	561.75
327.686	570.75
327.914	577.75
328.143	573.75
328.372	562.75
328.6	541.75
328.829	564.75
329.058	553.75
329.287	567.75
329.515	557.75
329.744	593.75
329.972	547.75
330.201	577.75
330.43	602.75
330.658	571.75
330.887	605.75
331.115	590.75
331.344	591.75
331.572	591.75
331.801	602.75
332.03	636.75
332.258	665.75
332.486	669.75
332.715	685.75
332.943	718.75
333.172	733.75
333.4	759.75
333.629	784.75
333.857	794.75
334.085	746.75
334.314	739.75
334.542	738.75
334.771	712.75
334.999	708.75
335.227	714.75
335.455	694.75
335.684	709.75
335.912	717.75
336.14	677.75
336.369	660.75
336.597	658.75
336.825	674.75
337.053	689.75
337.281	667.75
337.51	650.75
337.738	645.75
337.966	660.75
338.194	637.75
338.422	611.75
338.65	642.75
338.878	622.75
339.106	616.75
339.334	609.75
339.562	575.75
339.79	596.75
340.018	628.75
340.246	588.75
340.474	568.75
340.702	594.75
340.93	610.75
341.158	579.75
341.386	596.75
341.614	594.75
341.842	576.75
342.07	593.75
342.298	577.75
342.526	590.75
342.754	585.75
342.981	596.75
343.209	606.75
343.437	629.75
343.665	667.75
343.893	733.75
344.12	788.75
344.348	710.75
344.576	671.75
344.804	655.75
345.031	637.75
345.259	622.75
345.487	582.75
345.714	621.75
345.942	600.75
346.17	586.75
346.397	606.75
346.625	585.75
346.853	564.75
347.08	586.75
347.308	602.75
347.535	599.75
347.763	596.75
347.99	602.75
348.218	597.75
348.445	596.75
348.673	587.75
348.9	580.75
349.128	570.75
349.355	562.75
349.583	556.75
349.81	583.75
350.037	548.75
350.265	544.75
350.492	567.75
350.72	574.75
350.947	553.75
351.174	554.75
351.402	555.75
351.629	551.75
351.856	568.75
352.083	574.75
352.311	551.75
352.538	550.75
352.765	530.75
352.992	557.75
353.22	525.75
353.447	552.75
353.674	552.75
353.901	552.75
354.128	557.75
354.355	555.75
354.583	548.75
354.81	558.75
355.037	566.75
355.264	556.75
355.491	565.75
355.718	570.75
355.945	582.75
356.172	587.75
356.399	571.75
356.626	547.75
356.853	555.75
357.08	561.75
357.307	562.75
357.534	538.75
357.761	557.75
357.988	583.75
358.215	554.75
358.441	574.75
358.668	540.75
358.895	570.75
359.122	572.75
359.349	566.75
359.576	548.75
359.802	560.75
360.029	569.75
360.256	568.75
360.483	561.75
360.709	558.75
360.936	568.75
361.163	562.75
361.39	552.75
361.616	568.75
361.843	561.75
362.07	550.75
362.296	534.75
362.523	564.75
362.749	545.75
362.976	563.75
363.203	538.75
363.429	556.75
363.656	530.75
363.882	555.75
364.109	537.75
364.335	539.75
364.562	557.75
364.788	525.75
365.015	546.75
365.241	541.75
365.468	539.75
365.694	563.75
365.92	554.75
366.147	570.75
366.373	562.75
366.599	545.75
366.826	560.75
367.052	556.75
367.278	579.75
367.505	580.75
367.731	582.75
367.957	553.75
368.184	578.75
368.41	551.75
368.636	572.75
368.862	572.75
369.089	565.75
369.315	595.75
369.541	577.75
369.767	594.75
369.993	565.75
370.219	594.75
370.445	595.75
370.672	582.75
370.898	585.75
371.124	610.75
371.35	635.75
371.576	611.75
371.802	619.75
372.028	596.75
372.254	573.75
372.48	601.75
372.706	650.75
372.932	615.75
373.158	630.75
373.384	618.75
373.61	615.75
373.835	585.75
374.061	607.75
374.287	616.75
374.513	636.75
374.739	633.75
374.965	666.75
375.191	680.75
375.416	678.75
375.642	660.75
375.868	668.75
376.094	643.75
376.319	630.75
376.545	625.75
376.771	589.75
376.997	598.75
377.222	633.75
377.448	587.75
377.674	598.75
377.899	615.75
378.125	601.75
378.35	605.75
378.576	587.75
378.802	589.75
379.027	610.75
379.253	597.75
379.478	602.75
379.704	613.75
379.929	605.75
380.155	593.75
380.38	600.75
380.606	607.75
380.831	600.75
381.057	612.75
381.282	585.75
381.507	608.75
381.733	593.75
381.958	611.75
382.184	609.75
382.409	627.75
382.634	640.75
382.86	638.75
383.085	655.75
383.31	642.75
383.535	674.75
383.761	672.75
383.986	689.75
384.211	698.75
384.436	701.75
384.662	738.75
384.887	739.75
385.112	736.75
385.337	727.75
385.562	728.75
385.787	719.75
386.013	735.75
386.238	740.75
386.463	747.75
386.688	727.75
386.913	704.75
387.138	711.75
387.363	706.75
387.588	682.75
387.813	718.75
388.038	727.75
388.263	718.75
388.488	706.75
388.713	729.75
388.938	697.75
389.163	695.75
389.387	712.75
389.612	701.75
389.837	707.75
390.062	711.75
390.287	735.75
390.512	727.75
390.736	720.75
390.961	734.75
391.186	741.75
391.411	737.75
391.636	782.75
391.86	821.75
392.085	826.75
392.31	826.75
392.534	802.75
392.759	768.75
392.984	788.75
393.208	732.75
393.433	785.75
393.658	776.75
393.882	786.75
394.107	773.75
394.331	779.75
394.556	788.75
394.78	787.75
395.005	791.75
395.229	766.75
395.454	821.75
395.678	826.75
395.903	826.75
396.127	808.75
396.352	805.75
396.576	740.75
396.801	765.75
397.025	754.75
397.249	802.75
397.474	807.75
397.698	810.75
397.922	805.75
398.147	811.75
398.371	812.75
398.595	845.75
398.82	866.75
399.044	965.75
399.268	1020.75
399.492	1205.75
399.717	1421.75
399.941	1410.75
400.165	1244.75
400.389	1068.75
400.613	996.75
400.837	966.75
401.062	909.75
401.286	929.75
401.51	916.75
401.734	896.75
401.958	921.75
402.182	938.75
402.406	972.75
402.63	948.75
402.854	966.75
403.078	948.75
403.302	1011.75
403.526	1042.75
403.75	1070.75
403.974	1095.75
404.198	1070.75
404.422	1085.75
404.645	1097.75
404.869	1049.75
405.093	1052.75
405.317	1003.75
405.541	1044.75
405.765	998.75
405.988	1019.75
406.212	957.75
406.436	1000.75
406.66	1028.75
406.883	1042.75
407.107	1113.75
407.331	1177.75
407.555	1212.75
407.778	1198.75
408.002	1172.75
408.226	1114.75
408.449	1074.75
408.673	1069.75
408.896	1064.75
409.12	1024.75
409.344	1074.75
409.567	1051.75
409.791	1081.75
410.014	1028.75
410.238	1050.75
410.461	1046.75
410.685	1027.75
410.908	997.75
411.132	983.75
411.355	962.75
411.578	950.75
411.802	975.75
412.025	965.75
412.249	962.75
412.472	931.75
412.695	936.75
412.919	884.75
413.142	890.75
413.365	914.75
413.589	934.75
413.812	878.75
414.035	903.75
414.258	886.75
414.482	909.75
414.705	941.75
414.928	931.75
415.151	904.75
415.374	906.75
415.597	909.75
415.821	899.75
416.044	889.75
416.267	924.75
416.49	865.75
416.713	896.75
416.936	919.75
417.159	886.75
417.382	906.75
417.605	913.75
417.828	921.75
418.051	903.75
418.274	924.75
418.497	908.75
418.72	899.75
418.943	932.75
419.166	988.75
419.389	1056.75
419.611	1022.75
419.834	992.75
420.057	962.75
420.28	922.75
420.503	877.75
420.726	886.75
420.948	864.75
421.171	896.75
421.394	896.75
421.617	875.75
421.839	908.75
422.062	925.75
422.285	882.75
422.507	903.75
422.73	934.75
422.953	972.75
423.175	968.75
423.398	967.75
423.621	987.75
423.843	1009.75
424.066	974.75
424.288	982.75
424.511	952.75
424.733	949.75
424.956	940.75
425.178	920.75
425.401	911.75
425.623	889.75
425.846	885.75
426.068	857.75
426.291	855.75
426.513	833.75
426.735	853.75
426.958	855.75
427.18	824.75
427.402	859.75
427.625	825.75
427.847	814.75
428.069	786.75
428.292	829.75
428.514	813.75
428.736	776.75
428.958	783.75
429.181	768.75
429.403	782.75
429.625	792.75
429.847	798.75
430.069	800.75
430.292	785.75
430.514	775.75
430.736	779.75
430.958	790.75
431.18	805.75
431.402	792.75
431.624	808.75
431.846	798.75
432.068	821.75
432.29	806.75
432.512	784.75
432.734	822.75
432.956	835.75
433.178	816.75
433.4	813.75
433.622	802.75
433.844	805.75
434.066	844.75
434.287	826.75
434.509	855.75
434.731	888.75
434.953	919.75
435.175	925.75
435.397	878.75
435.618	877.75
435.84	844.75
436.062	813.75
436.284	816.75
436.505	779.75
436.727	797.75
436.949	809.75
437.17	811.75
437.392	779.75
437.614	795.75
437.835	769.75
438.057	807.75
438.278	731.75
438.5	762.75
438.721	776.75
438.943	793.75
439.165	781.75
439.386	796.75
439.608	805.75
439.829	822.75
440.05	816.75
440.272	841.75
440.493	795.75
440.715	830.75
440.936	844.75
441.158	837.75
441.379	869.75
441.6	917.75
441.822	921.75
442.043	933.75
442.264	898.75
442.486	883.75
442.707	893.75
442.928	895.75
443.149	898.75
443.371	905.75
443.592	926.75
443.813	893.75
444.034	920.75
444.255	976.75
444.476	991.75
444.698	1091.75
444.919	1138.75
445.14	1144.75
445.361	1038.75
445.582	948.75
445.803	893.75
446.024	850.75
446.245	845.75
446.466	834.75
446.687	820.75
446.908	827.75
447.129	839.75
447.35	765.75
447.571	792.75
447.792	765.75
448.013	767.75
448.234	770.75
448.455	756.75
448.675	749.75
448.896	744.75
449.117	744.75
449.338	745.75
449.559	725.75
449.779	715.75
450	727.75
450.221	724.75
450.442	729.75
450.662	741.75
450.883	760.75
451.104	770.75
451.324	776.75
451.545	774.75
451.766	781.75
451.986	735.75
452.207	745.75
452.428	743.75
452.648	732.75
452.869	730.75
453.089	733.75
453.31	742.75
453.53	728.75
453.751	732.75
453.971	733.75
454.192	728.75
454.412	705.75
454.633	708.75
454.853	724.75
455.073	679.75
455.294	721.75
455.514	683.75
455.734	708.75
455.955	680.75
456.175	702.75
456.395	690.75
456.616	664.75
456.836	705.75
457.056	696.75
457.276	679.75
457.497	686.75
457.717	708.75
457.937	678.75
458.157	679.75
458.377	712.75
458.598	723.75
458.818	723.75
459.038	778.75
459.258	786.75
459.478	793.75
459.698	841.75
459.918	860.75
460.138	887.75
460.358	976.75
460.578	990.75
460.798	985.75
461.018	996.75
461.238	957.75
461.458	955.75
461.678	921.75
461.898	948.75
462.118	981.75
462.338	1027.75
462.558	1048.75
462.777	1077.75
462.997	1217.75
463.217	1314.75
463.437	1349.75
463.657	1218.75
463.876	1123.75
464.096	1126.75
464.316	1147.75
464.536	1163.75
464.755	1122.75
464.975	1066.75
465.195	997.75
465.414	912.75
465.634	876.75
465.854	846.75
466.073	828.75
466.293	840.75
466.512	793.75
466.732	796.75
466.951	779.75
467.171	778.75
467.391	778.75
467.61	785.75
467.829	790.75
468.049	756.75
468.268	746.75
468.488	739.75
468.707	762.75
468.927	746.75
469.146	734.75
469.365	748.75
469.585	767.75
469.804	796.75
470.023	790.75
470.243	816.75
470.462	806.75
470.681	803.75
470.901	804.75
471.12	790.75
471.339	792.75
471.558	760.75
471.777	768.75
471.997	774.75
472.216	741.75
472.435	734.75
472.654	714.75
472.873	736.75
473.092	722.75
473.311	738.75
473.53	719.75
473.749	718.75
473.968	738.75
474.187	726.75
474.406	712.75
474.625	700.75
474.844	740.75
475.063	738.75
475.282	713.75
475.501	696.75
475.72	729.75
475.939	733.75
476.158	745.75
476.377	744.75
476.596	788.75
476.814	756.75
477.033	769.75
477.252	788.75
477.471	774.75
477.69	820.75
477.908	813.75
478.127	830.75
478.346	872.75
478.564	900.75
478.783	894.75
479.002	905.75
479.22	899.75
479.439	920.75
479.658	918.75
479.876	894.75
480.095	917.75
480.313	947.75
480.532	961.75
480.751	1013.75
480.969	934.75
481.188	894.75
481.406	870.75
481.624	850.75
481.843	840.75
482.061	816.75
482.28	841.75
482.498	801.75
482.717	828.75
482.935	838.75
483.153	797.75
483.372	801.75
483.59	832.75
483.808	813.75
484.027	829.75
484.245	830.75
484.463	817.75
484.681	852.75
484.9	869.75
485.118	819.75
485.336	877.75
485.554	891.75
485.772	848.75
485.99	879.75
486.209	885.75
486.427	892.75
486.645	882.75
486.863	885.75
487.081	865.75
487.299	874.75
487.517	842.75
487.735	851.75
487.953	848.75
488.171	879.75
488.389	867.75
488.607	845.75
488.825	841.75
489.043	835.75
489.261	838.75
489.479	853.75
489.696	858.75
489.914	865.75
490.132	844.75
490.35	848.75
490.568	846.75
490.786	846.75
491.003	856.75
491.221	890.75
491.439	876.75
491.657	854.75
491.874	882.75
492.092	862.75
492.31	857.75
492.527	892.75
492.745	899.75
492.963	901.75
493.18	898.75
493.398	908.75
493.615	906.75
493.833	907.75
494.05	958.75
494.268	911.75
494.485	944.75
494.703	912.75
494.92	907.75
495.138	900.75
495.355	920.75
495.573	904.75
495.79	930.75
496.008	925.75
496.225	922.75
496.442	933.75
496.66	947.75
496.877	960.75
497.094	961.75
497.312	998.75
497.529	983.75
497.746	997.75
497.963	1065.75
498.181	1112.75
498.398	1145.75
498.615	1195.75
498.832	1318.75
499.049	1384.75
499.267	1500.75
499.484	1685.75
499.701	1904.75
499.918	2101.75
500.135	2401.75
500.352	2849.75
500.569	2975.75
