Data from Ni(NO3)2Standard.Agarose3%.GreenCap.LampEnergy5.5.E.O_HRD10591_14-41-38-188.txt Node
Date: Mon Jul 22 14:41:38 EDT 2019
User: cochatt
Spectrometer: HR+D1059
Trigger mode: 1
Integration Time (sec): 1.000000E-1
Scans to average: 1
Electric dark correction enabled: true
Nonlinearity correction enabled: false
Boxcar width: 0
XAxis mode: Wavelengths
Number of Pixels in Spectrum: 2048
>>>>>Begin Spectral Data<<<<<
223.165	1.81
223.4	1.81
223.635	1.81
223.869	-20.19
224.104	-31.19
224.338	-22.19
224.573	-15.19
224.808	-17.19
225.042	-10.19
225.277	-12.19
225.511	0.81
225.746	8.81
225.98	11.81
226.215	5.81
226.449	18.81
226.683	21.81
226.918	28.81
227.152	29.81
227.387	22.81
227.621	41.81
227.856	46.81
228.09	58.81
228.324	46.81
228.559	52.81
228.793	61.81
229.027	72.81
229.262	61.81
229.496	62.81
229.73	65.81
229.964	72.81
230.199	44.81
230.433	61.81
230.667	77.81
230.901	74.81
231.136	78.81
231.37	62.81
231.604	69.81
231.838	79.81
232.072	58.81
232.306	66.81
232.541	84.81
232.775	87.81
233.009	85.81
233.243	87.81
233.477	88.81
233.711	69.81
233.945	69.81
234.179	78.81
234.413	73.81
234.647	79.81
234.881	67.81
235.115	88.81
235.349	76.81
235.583	82.81
235.817	75.81
236.051	76.81
236.285	81.81
236.519	80.81
236.753	60.81
236.987	83.81
237.221	75.81
237.455	81.81
237.689	80.81
237.922	73.81
238.156	66.81
238.39	66.81
238.624	60.81
238.858	73.81
239.091	69.81
239.325	60.81
239.559	78.81
239.793	79.81
240.027	69.81
240.26	67.81
240.494	80.81
240.728	80.81
240.961	70.81
241.195	82.81
241.429	69.81
241.662	80.81
241.896	77.81
242.13	84.81
242.363	60.81
242.597	68.81
242.83	84.81
243.064	75.81
243.298	76.81
243.531	90.81
243.765	64.81
243.998	82.81
244.232	62.81
244.465	78.81
244.699	61.81
244.932	60.81
245.166	82.81
245.399	80.81
245.633	73.81
245.866	67.81
246.099	76.81
246.333	70.81
246.566	71.81
246.8	64.81
247.033	77.81
247.266	77.81
247.5	79.81
247.733	66.81
247.966	69.81
248.2	78.81
248.433	77.81
248.666	75.81
248.899	80.81
249.133	68.81
249.366	70.81
249.599	73.81
249.832	73.81
250.066	91.81
250.299	77.81
250.532	77.81
250.765	71.81
250.998	75.81
251.231	64.81
251.465	59.81
251.698	80.81
251.931	71.81
252.164	85.81
252.397	84.81
252.63	73.81
252.863	88.81
253.096	62.81
253.329	69.81
253.562	86.81
253.795	79.81
254.028	82.81
254.261	84.81
254.494	74.81
254.727	82.81
254.96	83.81
255.193	73.81
255.426	57.81
255.659	77.81
255.892	103.81
256.124	80.81
256.357	73.81
256.59	78.81
256.823	75.81
257.056	70.81
257.289	76.81
257.521	83.81
257.754	77.81
257.987	92.81
258.22	75.81
258.452	74.81
258.685	78.81
258.918	77.81
259.151	88.81
259.383	63.81
259.616	87.81
259.849	69.81
260.081	83.81
260.314	72.81
260.547	72.81
260.779	75.81
261.012	77.81
261.244	73.81
261.477	75.81
261.71	57.81
261.942	73.81
262.175	83.81
262.407	92.81
262.64	69.81
262.872	84.81
263.105	81.81
263.337	72.81
263.57	69.81
263.802	82.81
264.035	65.81
264.267	87.81
264.499	86.81
264.732	91.81
264.964	88.81
265.197	72.81
265.429	66.81
265.661	77.81
265.894	79.81
266.126	69.81
266.358	78.81
266.591	80.81
266.823	70.81
267.055	67.81
267.287	67.81
267.52	71.81
267.752	92.81
267.984	80.81
268.216	81.81
268.448	89.81
268.681	85.81
268.913	83.81
269.145	79.81
269.377	75.81
269.609	72.81
269.841	79.81
270.073	73.81
270.306	85.81
270.538	84.81
270.77	85.81
271.002	78.81
271.234	61.81
271.466	86.81
271.698	69.81
271.93	75.81
272.162	78.81
272.394	63.81
272.626	68.81
272.858	78.81
273.09	72.81
273.322	86.81
273.553	75.81
273.785	87.81
274.017	75.81
274.249	78.81
274.481	66.81
274.713	84.81
274.945	77.81
275.176	75.81
275.408	85.81
275.64	87.81
275.872	77.81
276.104	85.81
276.335	81.81
276.567	75.81
276.799	79.81
277.031	94.81
277.262	54.81
277.494	66.81
277.726	97.81
277.957	80.81
278.189	68.81
278.421	70.81
278.652	85.81
278.884	85.81
279.115	80.81
279.347	72.81
279.579	76.81
279.81	81.81
280.042	88.81
280.273	84.81
280.505	87.81
280.736	92.81
280.968	83.81
281.199	89.81
281.431	71.81
281.662	68.81
281.894	80.81
282.125	85.81
282.356	73.81
282.588	64.81
282.819	76.81
283.051	79.81
283.282	69.81
283.513	75.81
283.745	85.81
283.976	82.81
284.207	76.81
284.439	74.81
284.67	92.81
284.901	84.81
285.132	77.81
285.364	72.81
285.595	74.81
285.826	94.81
286.057	73.81
286.288	96.81
286.52	79.81
286.751	62.81
286.982	81.81
287.213	82.81
287.444	87.81
287.675	68.81
287.906	88.81
288.138	65.81
288.369	78.81
288.6	82.81
288.831	84.81
289.062	87.81
289.293	82.81
289.524	79.81
289.755	78.81
289.986	82.81
290.217	79.81
290.448	69.81
290.679	86.81
290.91	85.81
291.141	87.81
291.371	78.81
291.602	84.81
291.833	77.81
292.064	75.81
292.295	83.81
292.526	79.81
292.757	86.81
292.987	82.81
293.218	76.81
293.449	83.81
293.68	95.81
293.91	70.81
294.141	67.81
294.372	77.81
294.603	87.81
294.833	85.81
295.064	84.81
295.295	81.81
295.525	91.81
295.756	77.81
295.987	87.81
296.217	71.81
296.448	83.81
296.679	81.81
296.909	80.81
297.14	76.81
297.37	83.81
297.601	76.81
297.831	86.81
298.062	86.81
298.292	84.81
298.523	79.81
298.753	79.81
298.984	65.81
299.214	83.81
299.445	91.81
299.675	72.81
299.905	80.81
300.136	77.81
300.366	73.81
300.597	79.81
300.827	84.81
301.057	71.81
301.288	84.81
301.518	80.81
301.748	76.81
301.979	93.81
302.209	94.81
302.439	92.81
302.669	88.81
302.9	73.81
303.13	81.81
303.36	80.81
303.59	91.81
303.82	80.81
304.051	73.81
304.281	76.81
304.511	85.81
304.741	77.81
304.971	91.81
305.201	85.81
305.431	92.81
305.661	85.81
305.891	78.81
306.121	80.81
306.352	82.81
306.582	85.81
306.812	86.81
307.042	83.81
307.272	80.81
307.502	73.81
307.731	90.81
307.961	86.81
308.191	79.81
308.421	80.81
308.651	72.81
308.881	92.81
309.111	72.81
309.341	83.81
309.571	76.81
309.8	81.81
310.03	87.81
310.26	83.81
310.49	71.81
310.72	76.81
310.949	77.81
311.179	75.81
311.409	80.81
311.639	76.81
311.868	83.81
312.098	80.81
312.328	81.81
312.557	81.81
312.787	89.81
313.017	77.81
313.246	92.81
313.476	73.81
313.706	77.81
313.935	74.81
314.165	72.81
314.394	82.81
314.624	82.81
314.853	88.81
315.083	94.81
315.312	82.81
315.542	83.81
315.771	78.81
316.001	77.81
316.23	69.81
316.46	70.81
316.689	86.81
316.919	81.81
317.148	86.81
317.377	84.81
317.607	75.81
317.836	82.81
318.065	84.81
318.295	76.81
318.524	78.81
318.753	85.81
318.983	78.81
319.212	91.81
319.441	84.81
319.67	75.81
319.9	68.81
320.129	86.81
320.358	77.81
320.587	83.81
320.816	82.81
321.046	77.81
321.275	74.81
321.504	80.81
321.733	76.81
321.962	93.81
322.191	88.81
322.42	84.81
322.649	85.81
322.878	85.81
323.108	81.81
323.337	74.81
323.566	81.81
323.795	79.81
324.024	85.81
324.253	91.81
324.482	88.81
324.71	89.81
324.939	88.81
325.168	87.81
325.397	68.81
325.626	81.81
325.855	81.81
326.084	96.81
326.313	96.81
326.542	77.81
326.77	87.81
326.999	73.81
327.228	87.81
327.457	79.81
327.686	81.81
327.914	81.81
328.143	89.81
328.372	82.81
328.6	97.81
328.829	74.81
329.058	79.81
329.287	82.81
329.515	81.81
329.744	94.81
329.972	88.81
330.201	93.81
330.43	79.81
330.658	96.81
330.887	78.81
331.115	91.81
331.344	89.81
331.572	81.81
331.801	67.81
332.03	86.81
332.258	87.81
332.486	91.81
332.715	80.81
332.943	86.81
333.172	89.81
333.4	86.81
333.629	81.81
333.857	83.81
334.085	96.81
334.314	89.81
334.542	78.81
334.771	83.81
334.999	68.81
335.227	77.81
335.455	73.81
335.684	84.81
335.912	86.81
336.14	68.81
336.369	69.81
336.597	67.81
336.825	86.81
337.053	93.81
337.281	83.81
337.51	85.81
337.738	83.81
337.966	85.81
338.194	80.81
338.422	87.81
338.65	92.81
338.878	84.81
339.106	74.81
339.334	81.81
339.562	92.81
339.79	94.81
340.018	78.81
340.246	85.81
340.474	87.81
340.702	89.81
340.93	92.81
341.158	96.81
341.386	84.81
341.614	74.81
341.842	84.81
342.07	89.81
342.298	83.81
342.526	81.81
342.754	86.81
342.981	81.81
343.209	82.81
343.437	86.81
343.665	81.81
343.893	94.81
344.12	86.81
344.348	86.81
344.576	84.81
344.804	90.81
345.031	84.81
345.259	84.81
345.487	84.81
345.714	80.81
345.942	86.81
346.17	79.81
346.397	97.81
346.625	71.81
346.853	80.81
347.08	80.81
347.308	83.81
347.535	77.81
347.763	85.81
347.99	78.81
348.218	91.81
348.445	77.81
348.673	96.81
348.9	92.81
349.128	72.81
349.355	65.81
349.583	89.81
349.81	86.81
350.037	86.81
350.265	80.81
350.492	80.81
350.72	80.81
350.947	80.81
351.174	76.81
351.402	79.81
351.629	78.81
351.856	80.81
352.083	75.81
352.311	76.81
352.538	70.81
352.765	59.81
352.992	79.81
353.22	67.81
353.447	87.81
353.674	81.81
353.901	93.81
354.128	90.81
354.355	81.81
354.583	70.81
354.81	87.81
355.037	77.81
355.264	93.81
355.491	94.81
355.718	85.81
355.945	82.81
356.172	83.81
356.399	70.81
356.626	86.81
356.853	100.81
357.08	84.81
357.307	79.81
357.534	80.81
357.761	61.81
357.988	83.81
358.215	72.81
358.441	89.81
358.668	104.81
358.895	88.81
359.122	92.81
359.349	70.81
359.576	85.81
359.802	84.81
360.029	83.81
360.256	72.81
360.483	84.81
360.709	89.81
360.936	86.81
361.163	69.81
361.39	84.81
361.616	76.81
361.843	82.81
362.07	94.81
362.296	99.81
362.523	97.81
362.749	76.81
362.976	91.81
363.203	101.81
363.429	67.81
363.656	76.81
363.882	81.81
364.109	100.81
364.335	97.81
364.562	78.81
364.788	85.81
365.015	80.81
365.241	87.81
365.468	75.81
365.694	83.81
365.92	89.81
366.147	92.81
366.373	87.81
366.599	75.81
366.826	74.81
367.052	73.81
367.278	77.81
367.505	82.81
367.731	85.81
367.957	91.81
368.184	80.81
368.41	83.81
368.636	88.81
368.862	80.81
369.089	88.81
369.315	78.81
369.541	75.81
369.767	93.81
369.993	74.81
370.219	83.81
370.445	79.81
370.672	71.81
370.898	87.81
371.124	80.81
371.35	72.81
371.576	74.81
371.802	88.81
372.028	73.81
372.254	78.81
372.48	80.81
372.706	83.81
372.932	70.81
373.158	77.81
373.384	75.81
373.61	85.81
373.835	100.81
374.061	85.81
374.287	89.81
374.513	90.81
374.739	79.81
374.965	72.81
375.191	72.81
375.416	73.81
375.642	66.81
375.868	88.81
376.094	80.81
376.319	76.81
376.545	75.81
376.771	73.81
376.997	85.81
377.222	74.81
377.448	77.81
377.674	75.81
377.899	68.81
378.125	77.81
378.35	92.81
378.576	76.81
378.802	80.81
379.027	81.81
379.253	73.81
379.478	65.81
379.704	91.81
379.929	88.81
380.155	79.81
380.38	63.81
380.606	74.81
380.831	82.81
381.057	87.81
381.282	72.81
381.507	81.81
381.733	73.81
381.958	76.81
382.184	72.81
382.409	84.81
382.634	100.81
382.86	79.81
383.085	84.81
383.31	83.81
383.535	85.81
383.761	78.81
383.986	82.81
384.211	77.81
384.436	75.81
384.662	84.81
384.887	79.81
385.112	78.81
385.337	80.81
385.562	82.81
385.787	88.81
386.013	90.81
386.238	81.81
386.463	81.81
386.688	77.81
386.913	67.81
387.138	64.81
387.363	71.81
387.588	77.81
387.813	89.81
388.038	78.81
388.263	79.81
388.488	80.81
388.713	93.81
388.938	85.81
389.163	84.81
389.387	79.81
389.612	68.81
389.837	74.81
390.062	84.81
390.287	82.81
390.512	68.81
390.736	74.81
390.961	71.81
391.186	91.81
391.411	81.81
391.636	76.81
391.86	79.81
392.085	90.81
392.31	88.81
392.534	94.81
392.759	86.81
392.984	89.81
393.208	77.81
393.433	91.81
393.658	63.81
393.882	83.81
394.107	80.81
394.331	90.81
394.556	81.81
394.78	84.81
395.005	71.81
395.229	68.81
395.454	88.81
395.678	83.81
395.903	86.81
396.127	85.81
396.352	89.81
396.576	91.81
396.801	92.81
397.025	75.81
397.249	84.81
397.474	86.81
397.698	73.81
397.922	74.81
398.147	77.81
398.371	89.81
398.595	87.81
398.82	85.81
399.044	72.81
399.268	77.81
399.492	79.81
399.717	89.81
399.941	71.81
400.165	82.81
400.389	85.81
400.613	75.81
400.837	87.81
401.062	93.81
401.286	69.81
401.51	83.81
401.734	74.81
401.958	83.81
402.182	81.81
402.406	89.81
402.63	87.81
402.854	76.81
403.078	82.81
403.302	91.81
403.526	85.81
403.75	73.81
403.974	71.81
404.198	90.81
404.422	91.81
404.645	81.81
404.869	73.81
405.093	68.81
405.317	84.81
405.541	80.81
405.765	86.81
405.988	79.81
406.212	85.81
406.436	70.81
406.66	88.81
406.883	86.81
407.107	76.81
407.331	67.81
407.555	89.81
407.778	78.81
408.002	90.81
408.226	99.81
408.449	84.81
408.673	68.81
408.896	88.81
409.12	82.81
409.344	77.81
409.567	75.81
409.791	85.81
410.014	77.81
410.238	79.81
410.461	70.81
410.685	80.81
410.908	78.81
411.132	83.81
411.355	72.81
411.578	91.81
411.802	86.81
412.025	78.81
412.249	72.81
412.472	73.81
412.695	78.81
412.919	78.81
413.142	83.81
413.365	62.81
413.589	94.81
413.812	81.81
414.035	100.81
414.258	73.81
414.482	76.81
414.705	81.81
414.928	80.81
415.151	76.81
415.374	78.81
415.597	73.81
415.821	93.81
416.044	75.81
416.267	76.81
416.49	78.81
416.713	74.81
416.936	86.81
417.159	85.81
417.382	68.81
417.605	83.81
417.828	68.81
418.051	74.81
418.274	80.81
418.497	77.81
418.72	76.81
418.943	88.81
419.166	67.81
419.389	89.81
419.611	90.81
419.834	74.81
420.057	77.81
420.28	84.81
420.503	92.81
420.726	82.81
420.948	83.81
421.171	92.81
421.394	85.81
421.617	86.81
421.839	77.81
422.062	84.81
422.285	80.81
422.507	90.81
422.73	75.81
422.953	76.81
423.175	74.81
423.398	92.81
423.621	83.81
423.843	82.81
424.066	64.81
424.288	85.81
424.511	75.81
424.733	86.81
424.956	75.81
425.178	82.81
425.401	78.81
425.623	79.81
425.846	80.81
426.068	71.81
426.291	75.81
426.513	83.81
426.735	84.81
426.958	66.81
427.18	93.81
427.402	82.81
427.625	78.81
427.847	84.81
428.069	92.81
428.292	87.81
428.514	98.81
428.736	71.81
428.958	68.81
429.181	71.81
429.403	74.81
429.625	89.81
429.847	84.81
430.069	81.81
430.292	85.81
430.514	87.81
430.736	78.81
430.958	81.81
431.18	76.81
431.402	62.81
431.624	76.81
431.846	75.81
432.068	82.81
432.29	81.81
432.512	94.81
432.734	90.81
432.956	78.81
433.178	79.81
433.4	83.81
433.622	76.81
433.844	80.81
434.066	101.81
434.287	83.81
434.509	74.81
434.731	87.81
434.953	72.81
435.175	96.81
435.397	86.81
435.618	99.81
435.84	95.81
436.062	75.81
436.284	75.81
436.505	81.81
436.727	89.81
436.949	75.81
437.17	89.81
437.392	70.81
437.614	87.81
437.835	83.81
438.057	78.81
438.278	89.81
438.5	87.81
438.721	77.81
438.943	80.81
439.165	79.81
439.386	81.81
439.608	75.81
439.829	95.81
440.05	88.81
440.272	76.81
440.493	83.81
440.715	72.81
440.936	63.81
441.158	81.81
441.379	83.81
441.6	76.81
441.822	99.81
442.043	90.81
442.264	77.81
442.486	86.81
442.707	73.81
442.928	101.81
443.149	92.81
443.371	93.81
443.592	73.81
443.813	80.81
444.034	82.81
444.255	94.81
444.476	79.81
444.698	81.81
444.919	70.81
445.14	195.81
445.361	123.81
445.582	92.81
445.803	84.81
446.024	91.81
446.245	87.81
446.466	87.81
446.687	91.81
446.908	84.81
447.129	78.81
447.35	81.81
447.571	100.81
447.792	77.81
448.013	81.81
448.234	84.81
448.455	79.81
448.675	78.81
448.896	81.81
449.117	79.81
449.338	78.81
449.559	82.81
449.779	77.81
450	77.81
450.221	68.81
450.442	79.81
450.662	66.81
450.883	77.81
451.104	87.81
451.324	86.81
451.545	77.81
451.766	77.81
451.986	74.81
452.207	83.81
452.428	80.81
452.648	69.81
452.869	82.81
453.089	72.81
453.31	69.81
453.53	78.81
453.751	66.81
453.971	92.81
454.192	81.81
454.412	77.81
454.633	91.81
454.853	88.81
455.073	79.81
455.294	72.81
455.514	84.81
455.734	78.81
455.955	89.81
456.175	84.81
456.395	73.81
456.616	82.81
456.836	89.81
457.056	79.81
457.276	66.81
457.497	82.81
457.717	90.81
457.937	85.81
458.157	86.81
458.377	71.81
458.598	71.81
458.818	68.81
459.038	87.81
459.258	76.81
459.478	85.81
459.698	70.81
459.918	95.81
460.138	73.81
460.358	76.81
460.578	88.81
460.798	79.81
461.018	79.81
461.238	88.81
461.458	84.81
461.678	88.81
461.898	93.81
462.118	80.81
462.338	91.81
462.558	87.81
462.777	81.81
462.997	81.81
463.217	84.81
463.437	85.81
463.657	74.81
463.876	65.81
464.096	100.81
464.316	98.81
464.536	91.81
464.755	103.81
464.975	85.81
465.195	91.81
465.414	79.81
465.634	77.81
465.854	73.81
466.073	87.81
466.293	83.81
466.512	79.81
466.732	79.81
466.951	63.81
467.171	81.81
467.391	67.81
467.61	76.81
467.829	66.81
468.049	80.81
468.268	80.81
468.488	88.81
468.707	90.81
468.927	78.81
469.146	77.81
469.365	82.81
469.585	94.81
469.804	86.81
470.023	89.81
470.243	80.81
470.462	87.81
470.681	82.81
470.901	76.81
471.12	78.81
471.339	89.81
471.558	83.81
471.777	81.81
471.997	79.81
472.216	76.81
472.435	83.81
472.654	92.81
472.873	87.81
473.092	72.81
473.311	83.81
473.53	75.81
473.749	60.81
473.968	74.81
474.187	89.81
474.406	87.81
474.625	75.81
474.844	92.81
475.063	89.81
475.282	78.81
475.501	82.81
475.72	91.81
475.939	91.81
476.158	80.81
476.377	83.81
476.596	87.81
476.814	90.81
477.033	87.81
477.252	82.81
477.471	90.81
477.69	87.81
477.908	82.81
478.127	80.81
478.346	84.81
478.564	88.81
478.783	77.81
479.002	88.81
479.22	92.81
479.439	87.81
479.658	89.81
479.876	93.81
480.095	95.81
480.313	75.81
480.532	101.81
480.751	83.81
480.969	90.81
481.188	72.81
481.406	78.81
481.624	73.81
481.843	89.81
482.061	62.81
482.28	73.81
482.498	81.81
482.717	89.81
482.935	68.81
483.153	88.81
483.372	73.81
483.59	76.81
483.808	76.81
484.027	87.81
484.245	105.81
484.463	91.81
484.681	79.81
484.9	82.81
485.118	87.81
485.336	88.81
485.554	89.81
485.772	80.81
485.99	77.81
486.209	88.81
486.427	89.81
486.645	84.81
486.863	86.81
487.081	83.81
487.299	94.81
487.517	82.81
487.735	80.81
487.953	89.81
488.171	82.81
488.389	98.81
488.607	88.81
488.825	80.81
489.043	96.81
489.261	96.81
489.479	65.81
489.696	99.81
489.914	83.81
490.132	88.81
490.35	102.81
490.568	72.81
490.786	103.81
491.003	103.81
491.221	81.81
491.439	89.81
491.657	83.81
491.874	100.81
492.092	79.81
492.31	89.81
492.527	88.81
492.745	87.81
492.963	108.81
493.18	93.81
493.398	96.81
493.615	91.81
493.833	94.81
494.05	94.81
494.268	95.81
494.485	97.81
494.703	95.81
494.92	100.81
495.138	83.81
495.355	83.81
495.573	95.81
495.79	85.81
496.008	80.81
496.225	101.81
496.442	87.81
496.66	95.81
496.877	101.81
497.094	86.81
497.312	93.81
497.529	81.81
497.746	92.81
497.963	87.81
498.181	92.81
498.398	92.81
498.615	98.81
498.832	93.81
499.049	84.81
499.267	108.81
499.484	93.81
499.701	96.81
499.918	95.81
500.135	99.81
500.352	100.81
500.569	109.81
500.786	118.81
501.003	118.81
501.22	96.81
501.437	106.81
501.654	85.81
501.871	98.81
502.088	98.81
502.305	109.81
502.522	89.81
502.739	87.81
502.956	84.81
503.172	91.81
503.389	90.81
503.606	86.81
503.823	88.81
504.04	89.81
504.256	92.81
504.473	97.81
504.69	101.81
504.907	85.81
505.123	94.81
505.34	102.81
505.557	90.81
505.773	98.81
505.99	97.81
506.207	87.81
506.423	77.81
506.64	79.81
506.856	87.81
507.073	69.81
507.289	84.81
507.506	83.81
507.722	102.81
507.939	84.81
508.155	76.81
508.372	69.81
508.588	90.81
508.805	96.81
509.021	79.81
509.238	87.81
509.454	92.81
509.67	89.81
509.887	89.81
510.103	76.81
510.319	97.81
510.536	71.81
510.752	77.81
510.968	73.81
511.184	77.81
511.401	82.81
511.617	71.81
511.833	89.81
512.049	98.81
512.265	88.81
512.481	91.81
512.698	93.81
512.914	85.81
513.13	94.81
513.346	86.81
513.562	95.81
513.778	85.81
513.994	80.81
514.21	104.81
514.426	95.81
514.642	86.81
514.858	88.81
515.074	89.81
515.29	88.81
515.506	88.81
515.721	69.81
515.937	95.81
516.153	92.81
516.369	79.81
516.585	78.81
516.801	83.81
517.016	102.81
517.232	94.81
517.448	87.81
517.664	84.81
517.879	91.81
518.095	91.81
518.311	91.81
518.527	80.81
518.742	87.81
518.958	96.81
