Data from Ni(NO3)2Standard.Agarose3%.GreenCap.LampEnergy5.5.E.O_HRD10591_14-40-49-188.txt Node
Date: Mon Jul 22 14:40:49 EDT 2019
User: cochatt
Spectrometer: HR+D1059
Trigger mode: 1
Integration Time (sec): 1.000000E-1
Scans to average: 1
Electric dark correction enabled: true
Nonlinearity correction enabled: false
Boxcar width: 0
XAxis mode: Wavelengths
Number of Pixels in Spectrum: 2048
>>>>>Begin Spectral Data<<<<<
223.165	-20.12
223.4	-20.12
223.635	-20.12
223.869	-6.12
224.104	-30.12
224.338	-10.12
224.573	-10.12
224.808	-16.12
225.042	-12.12
225.277	-1.12
225.511	14.88
225.746	-4.12
225.98	7.88
226.215	13.88
226.449	5.88
226.683	23.88
226.918	20.88
227.152	22.88
227.387	27.88
227.621	37.88
227.856	53.88
228.09	52.88
228.324	56.88
228.559	63.88
228.793	53.88
229.027	68.88
229.262	59.88
229.496	63.88
229.73	66.88
229.964	82.88
230.199	79.88
230.433	76.88
230.667	73.88
230.901	77.88
231.136	86.88
231.37	82.88
231.604	83.88
231.838	78.88
232.072	83.88
232.306	83.88
232.541	87.88
232.775	90.88
233.009	83.88
233.243	63.88
233.477	86.88
233.711	88.88
233.945	82.88
234.179	85.88
234.413	75.88
234.647	78.88
234.881	69.88
235.115	81.88
235.349	73.88
235.583	79.88
235.817	79.88
236.051	82.88
236.285	79.88
236.519	74.88
236.753	76.88
236.987	83.88
237.221	61.88
237.455	86.88
237.689	92.88
237.922	83.88
238.156	88.88
238.39	77.88
238.624	80.88
238.858	77.88
239.091	79.88
239.325	90.88
239.559	81.88
239.793	81.88
240.027	97.88
240.26	81.88
240.494	73.88
240.728	91.88
240.961	77.88
241.195	61.88
241.429	82.88
241.662	74.88
241.896	77.88
242.13	84.88
242.363	73.88
242.597	81.88
242.83	82.88
243.064	73.88
243.298	88.88
243.531	85.88
243.765	78.88
243.998	84.88
244.232	99.88
244.465	74.88
244.699	74.88
244.932	78.88
245.166	80.88
245.399	90.88
245.633	78.88
245.866	72.88
246.099	66.88
246.333	81.88
246.566	76.88
246.8	71.88
247.033	75.88
247.266	78.88
247.5	85.88
247.733	83.88
247.966	76.88
248.2	85.88
248.433	71.88
248.666	74.88
248.899	83.88
249.133	96.88
249.366	76.88
249.599	83.88
249.832	90.88
250.066	89.88
250.299	52.88
250.532	92.88
250.765	80.88
250.998	76.88
251.231	84.88
251.465	74.88
251.698	74.88
251.931	90.88
252.164	67.88
252.397	76.88
252.63	80.88
252.863	86.88
253.096	83.88
253.329	86.88
253.562	79.88
253.795	98.88
254.028	84.88
254.261	78.88
254.494	79.88
254.727	82.88
254.96	85.88
255.193	71.88
255.426	84.88
255.659	91.88
255.892	79.88
256.124	85.88
256.357	89.88
256.59	73.88
256.823	81.88
257.056	78.88
257.289	85.88
257.521	86.88
257.754	84.88
257.987	87.88
258.22	85.88
258.452	80.88
258.685	84.88
258.918	84.88
259.151	76.88
259.383	78.88
259.616	91.88
259.849	76.88
260.081	82.88
260.314	78.88
260.547	81.88
260.779	78.88
261.012	98.88
261.244	85.88
261.477	76.88
261.71	94.88
261.942	86.88
262.175	85.88
262.407	73.88
262.64	75.88
262.872	87.88
263.105	85.88
263.337	83.88
263.57	81.88
263.802	93.88
264.035	86.88
264.267	71.88
264.499	76.88
264.732	82.88
264.964	88.88
265.197	86.88
265.429	74.88
265.661	76.88
265.894	99.88
266.126	88.88
266.358	89.88
266.591	78.88
266.823	83.88
267.055	79.88
267.287	96.88
267.52	92.88
267.752	87.88
267.984	82.88
268.216	82.88
268.448	74.88
268.681	75.88
268.913	90.88
269.145	92.88
269.377	83.88
269.609	76.88
269.841	82.88
270.073	81.88
270.306	84.88
270.538	101.88
270.77	86.88
271.002	88.88
271.234	73.88
271.466	78.88
271.698	73.88
271.93	94.88
272.162	88.88
272.394	87.88
272.626	79.88
272.858	93.88
273.09	88.88
273.322	74.88
273.553	82.88
273.785	80.88
274.017	87.88
274.249	96.88
274.481	79.88
274.713	82.88
274.945	91.88
275.176	87.88
275.408	73.88
275.64	94.88
275.872	93.88
276.104	103.88
276.335	97.88
276.567	96.88
276.799	100.88
277.031	86.88
277.262	92.88
277.494	82.88
277.726	94.88
277.957	90.88
278.189	92.88
278.421	90.88
278.652	93.88
278.884	89.88
279.115	83.88
279.347	88.88
279.579	90.88
279.81	95.88
280.042	92.88
280.273	95.88
280.505	85.88
280.736	82.88
280.968	97.88
281.199	86.88
281.431	86.88
281.662	89.88
281.894	81.88
282.125	82.88
282.356	90.88
282.588	83.88
282.819	79.88
283.051	85.88
283.282	87.88
283.513	85.88
283.745	84.88
283.976	90.88
284.207	100.88
284.439	86.88
284.67	86.88
284.901	73.88
285.132	91.88
285.364	85.88
285.595	96.88
285.826	85.88
286.057	87.88
286.288	95.88
286.52	78.88
286.751	87.88
286.982	91.88
287.213	101.88
287.444	83.88
287.675	93.88
287.906	84.88
288.138	76.88
288.369	94.88
288.6	94.88
288.831	90.88
289.062	85.88
289.293	83.88
289.524	85.88
289.755	94.88
289.986	86.88
290.217	86.88
290.448	84.88
290.679	86.88
290.91	82.88
291.141	81.88
291.371	103.88
291.602	88.88
291.833	94.88
292.064	94.88
292.295	88.88
292.526	102.88
292.757	106.88
292.987	94.88
293.218	83.88
293.449	87.88
293.68	75.88
293.91	86.88
294.141	86.88
294.372	94.88
294.603	89.88
294.833	93.88
295.064	84.88
295.295	82.88
295.525	82.88
295.756	73.88
295.987	90.88
296.217	82.88
296.448	86.88
296.679	82.88
296.909	85.88
297.14	88.88
297.37	90.88
297.601	91.88
297.831	87.88
298.062	85.88
298.292	77.88
298.523	97.88
298.753	97.88
298.984	90.88
299.214	90.88
299.445	84.88
299.675	92.88
299.905	80.88
300.136	94.88
300.366	79.88
300.597	76.88
300.827	92.88
301.057	78.88
301.288	86.88
301.518	86.88
301.748	91.88
301.979	80.88
302.209	79.88
302.439	86.88
302.669	79.88
302.9	106.88
303.13	90.88
303.36	93.88
303.59	83.88
303.82	85.88
304.051	82.88
304.281	92.88
304.511	109.88
304.741	77.88
304.971	89.88
305.201	93.88
305.431	94.88
305.661	92.88
305.891	90.88
306.121	72.88
306.352	98.88
306.582	77.88
306.812	99.88
307.042	93.88
307.272	101.88
307.502	82.88
307.731	84.88
307.961	93.88
308.191	79.88
308.421	75.88
308.651	89.88
308.881	85.88
309.111	76.88
309.341	75.88
309.571	103.88
309.8	81.88
310.03	79.88
310.26	79.88
310.49	88.88
310.72	85.88
310.949	89.88
311.179	96.88
311.409	98.88
311.639	84.88
311.868	80.88
312.098	84.88
312.328	89.88
312.557	88.88
312.787	88.88
313.017	98.88
313.246	76.88
313.476	85.88
313.706	75.88
313.935	91.88
314.165	85.88
314.394	94.88
314.624	85.88
314.853	89.88
315.083	97.88
315.312	93.88
315.542	78.88
315.771	98.88
316.001	77.88
316.23	83.88
316.46	89.88
316.689	77.88
316.919	85.88
317.148	83.88
317.377	96.88
317.607	97.88
317.836	102.88
318.065	91.88
318.295	82.88
318.524	99.88
318.753	94.88
318.983	93.88
319.212	100.88
319.441	89.88
319.67	77.88
319.9	66.88
320.129	73.88
320.358	85.88
320.587	83.88
320.816	87.88
321.046	69.88
321.275	102.88
321.504	97.88
321.733	94.88
321.962	85.88
322.191	101.88
322.42	91.88
322.649	88.88
322.878	89.88
323.108	84.88
323.337	93.88
323.566	87.88
323.795	98.88
324.024	88.88
324.253	73.88
324.482	88.88
324.71	90.88
324.939	77.88
325.168	89.88
325.397	85.88
325.626	87.88
325.855	97.88
326.084	101.88
326.313	96.88
326.542	88.88
326.77	90.88
326.999	101.88
327.228	97.88
327.457	96.88
327.686	83.88
327.914	98.88
328.143	84.88
328.372	83.88
328.6	91.88
328.829	71.88
329.058	101.88
329.287	92.88
329.515	89.88
329.744	99.88
329.972	85.88
330.201	98.88
330.43	89.88
330.658	95.88
330.887	97.88
331.115	90.88
331.344	81.88
331.572	100.88
331.801	86.88
332.03	93.88
332.258	86.88
332.486	78.88
332.715	70.88
332.943	91.88
333.172	104.88
333.4	91.88
333.629	80.88
333.857	94.88
334.085	87.88
334.314	83.88
334.542	83.88
334.771	87.88
334.999	97.88
335.227	82.88
335.455	87.88
335.684	75.88
335.912	86.88
336.14	85.88
336.369	78.88
336.597	89.88
336.825	96.88
337.053	75.88
337.281	89.88
337.51	97.88
337.738	81.88
337.966	89.88
338.194	92.88
338.422	89.88
338.65	101.88
338.878	88.88
339.106	93.88
339.334	89.88
339.562	79.88
339.79	89.88
340.018	91.88
340.246	82.88
340.474	86.88
340.702	84.88
340.93	90.88
341.158	94.88
341.386	98.88
341.614	89.88
341.842	99.88
342.07	76.88
342.298	85.88
342.526	88.88
342.754	84.88
342.981	79.88
343.209	86.88
343.437	93.88
343.665	70.88
343.893	106.88
344.12	79.88
344.348	79.88
344.576	86.88
344.804	99.88
345.031	93.88
345.259	88.88
345.487	78.88
345.714	91.88
345.942	84.88
346.17	83.88
346.397	99.88
346.625	83.88
346.853	85.88
347.08	91.88
347.308	88.88
347.535	86.88
347.763	78.88
347.99	101.88
348.218	87.88
348.445	82.88
348.673	96.88
348.9	85.88
349.128	102.88
349.355	75.88
349.583	92.88
349.81	79.88
350.037	93.88
350.265	88.88
350.492	73.88
350.72	78.88
350.947	93.88
351.174	83.88
351.402	98.88
351.629	109.88
351.856	82.88
352.083	89.88
352.311	87.88
352.538	85.88
352.765	82.88
352.992	99.88
353.22	102.88
353.447	85.88
353.674	85.88
353.901	80.88
354.128	77.88
354.355	95.88
354.583	71.88
354.81	104.88
355.037	81.88
355.264	93.88
355.491	78.88
355.718	98.88
355.945	91.88
356.172	82.88
356.399	83.88
356.626	103.88
356.853	87.88
357.08	75.88
357.307	101.88
357.534	95.88
357.761	91.88
357.988	83.88
358.215	95.88
358.441	86.88
358.668	95.88
358.895	87.88
359.122	94.88
359.349	91.88
359.576	93.88
359.802	72.88
360.029	66.88
360.256	88.88
360.483	89.88
360.709	75.88
360.936	86.88
361.163	99.88
361.39	82.88
361.616	94.88
361.843	91.88
362.07	97.88
362.296	101.88
362.523	89.88
362.749	79.88
362.976	83.88
363.203	92.88
363.429	104.88
363.656	89.88
363.882	89.88
364.109	103.88
364.335	91.88
364.562	89.88
364.788	75.88
365.015	85.88
365.241	83.88
365.468	94.88
365.694	79.88
365.92	83.88
366.147	99.88
366.373	97.88
366.599	94.88
366.826	83.88
367.052	83.88
367.278	95.88
367.505	99.88
367.731	81.88
367.957	100.88
368.184	87.88
368.41	74.88
368.636	82.88
368.862	80.88
369.089	78.88
369.315	90.88
369.541	79.88
369.767	92.88
369.993	89.88
370.219	100.88
370.445	88.88
370.672	91.88
370.898	77.88
371.124	72.88
371.35	79.88
371.576	85.88
371.802	77.88
372.028	89.88
372.254	85.88
372.48	85.88
372.706	92.88
372.932	94.88
373.158	93.88
373.384	93.88
373.61	86.88
373.835	92.88
374.061	111.88
374.287	108.88
374.513	83.88
374.739	93.88
374.965	79.88
375.191	81.88
375.416	77.88
375.642	88.88
375.868	92.88
376.094	79.88
376.319	88.88
376.545	82.88
376.771	91.88
376.997	94.88
377.222	84.88
377.448	95.88
377.674	87.88
377.899	89.88
378.125	81.88
378.35	89.88
378.576	94.88
378.802	101.88
379.027	89.88
379.253	83.88
379.478	95.88
379.704	77.88
379.929	92.88
380.155	87.88
380.38	95.88
380.606	75.88
380.831	77.88
381.057	94.88
381.282	80.88
381.507	86.88
381.733	83.88
381.958	93.88
382.184	63.88
382.409	93.88
382.634	76.88
382.86	91.88
383.085	82.88
383.31	82.88
383.535	102.88
383.761	95.88
383.986	91.88
384.211	92.88
384.436	77.88
384.662	76.88
384.887	78.88
385.112	91.88
385.337	85.88
385.562	99.88
385.787	105.88
386.013	89.88
386.238	102.88
386.463	93.88
386.688	99.88
386.913	86.88
387.138	93.88
387.363	86.88
387.588	97.88
387.813	86.88
388.038	93.88
388.263	98.88
388.488	86.88
388.713	79.88
388.938	77.88
389.163	89.88
389.387	86.88
389.612	92.88
389.837	87.88
390.062	93.88
390.287	88.88
390.512	89.88
390.736	73.88
390.961	86.88
391.186	80.88
391.411	101.88
391.636	88.88
391.86	81.88
392.085	88.88
392.31	84.88
392.534	88.88
392.759	71.88
392.984	88.88
393.208	100.88
393.433	88.88
393.658	91.88
393.882	75.88
394.107	77.88
394.331	80.88
394.556	86.88
394.78	86.88
395.005	93.88
395.229	84.88
395.454	78.88
395.678	99.88
395.903	83.88
396.127	95.88
396.352	96.88
396.576	94.88
396.801	92.88
397.025	90.88
397.249	85.88
397.474	94.88
397.698	89.88
397.922	88.88
398.147	89.88
398.371	106.88
398.595	82.88
398.82	61.88
399.044	89.88
399.268	110.88
399.492	87.88
399.717	87.88
399.941	77.88
400.165	88.88
400.389	82.88
400.613	82.88
400.837	79.88
401.062	81.88
401.286	89.88
401.51	96.88
401.734	86.88
401.958	96.88
402.182	89.88
402.406	79.88
402.63	80.88
402.854	94.88
403.078	88.88
403.302	87.88
403.526	79.88
403.75	82.88
403.974	95.88
404.198	91.88
404.422	95.88
404.645	90.88
404.869	87.88
405.093	91.88
405.317	97.88
405.541	94.88
405.765	89.88
405.988	101.88
406.212	82.88
406.436	69.88
406.66	94.88
406.883	88.88
407.107	64.88
407.331	88.88
407.555	93.88
407.778	78.88
408.002	94.88
408.226	82.88
408.449	84.88
408.673	95.88
408.896	79.88
409.12	76.88
409.344	78.88
409.567	82.88
409.791	86.88
410.014	70.88
410.238	88.88
410.461	84.88
410.685	74.88
410.908	70.88
411.132	84.88
411.355	83.88
411.578	96.88
411.802	87.88
412.025	93.88
412.249	87.88
412.472	97.88
412.695	80.88
412.919	85.88
413.142	80.88
413.365	90.88
413.589	98.88
413.812	99.88
414.035	84.88
414.258	98.88
414.482	89.88
414.705	80.88
414.928	81.88
415.151	100.88
415.374	79.88
415.597	94.88
415.821	98.88
416.044	84.88
416.267	77.88
416.49	82.88
416.713	97.88
416.936	90.88
417.159	96.88
417.382	87.88
417.605	94.88
417.828	85.88
418.051	97.88
418.274	92.88
418.497	91.88
418.72	93.88
418.943	86.88
419.166	74.88
419.389	88.88
419.611	81.88
419.834	83.88
420.057	96.88
420.28	85.88
420.503	103.88
420.726	85.88
420.948	83.88
421.171	86.88
421.394	82.88
421.617	100.88
421.839	95.88
422.062	94.88
422.285	80.88
422.507	83.88
422.73	81.88
422.953	89.88
423.175	89.88
423.398	88.88
423.621	94.88
423.843	65.88
424.066	70.88
424.288	84.88
424.511	90.88
424.733	93.88
424.956	84.88
425.178	91.88
425.401	86.88
425.623	87.88
425.846	88.88
426.068	71.88
426.291	80.88
426.513	84.88
426.735	89.88
426.958	78.88
427.18	82.88
427.402	93.88
427.625	81.88
427.847	84.88
428.069	92.88
428.292	92.88
428.514	79.88
428.736	92.88
428.958	96.88
429.181	83.88
429.403	72.88
429.625	84.88
429.847	86.88
430.069	84.88
430.292	78.88
430.514	89.88
430.736	93.88
430.958	84.88
431.18	98.88
431.402	105.88
431.624	96.88
431.846	90.88
432.068	100.88
432.29	79.88
432.512	80.88
432.734	85.88
432.956	90.88
433.178	87.88
433.4	84.88
433.622	86.88
433.844	90.88
434.066	90.88
434.287	99.88
434.509	89.88
434.731	69.88
434.953	93.88
435.175	92.88
435.397	86.88
435.618	108.88
435.84	83.88
436.062	77.88
436.284	82.88
436.505	77.88
436.727	93.88
436.949	95.88
437.17	77.88
437.392	93.88
437.614	86.88
437.835	83.88
438.057	85.88
438.278	74.88
438.5	90.88
438.721	97.88
438.943	77.88
439.165	83.88
439.386	96.88
439.608	89.88
439.829	83.88
440.05	82.88
440.272	91.88
440.493	94.88
440.715	84.88
440.936	86.88
441.158	93.88
441.379	95.88
441.6	94.88
441.822	86.88
442.043	91.88
442.264	84.88
442.486	92.88
442.707	72.88
442.928	91.88
443.149	86.88
443.371	109.88
443.592	108.88
443.813	100.88
444.034	72.88
444.255	79.88
444.476	84.88
444.698	78.88
444.919	85.88
445.14	197.88
445.361	145.88
445.582	92.88
445.803	67.88
446.024	89.88
446.245	86.88
446.466	98.88
446.687	89.88
446.908	90.88
447.129	88.88
447.35	85.88
447.571	91.88
447.792	100.88
448.013	85.88
448.234	92.88
448.455	87.88
448.675	90.88
448.896	76.88
449.117	84.88
449.338	92.88
449.559	89.88
449.779	79.88
450	87.88
450.221	87.88
450.442	79.88
450.662	83.88
450.883	102.88
451.104	110.88
451.324	91.88
451.545	101.88
451.766	87.88
451.986	83.88
452.207	72.88
452.428	83.88
452.648	89.88
452.869	102.88
453.089	92.88
453.31	87.88
453.53	88.88
453.751	98.88
453.971	82.88
454.192	78.88
454.412	86.88
454.633	85.88
454.853	85.88
455.073	92.88
455.294	97.88
455.514	81.88
455.734	86.88
455.955	85.88
456.175	94.88
456.395	93.88
456.616	88.88
456.836	88.88
457.056	82.88
457.276	85.88
457.497	78.88
457.717	82.88
457.937	111.88
458.157	99.88
458.377	84.88
458.598	86.88
458.818	89.88
459.038	100.88
459.258	77.88
459.478	79.88
459.698	79.88
459.918	90.88
460.138	102.88
460.358	103.88
460.578	92.88
460.798	86.88
461.018	85.88
461.238	92.88
461.458	95.88
461.678	91.88
461.898	85.88
462.118	90.88
462.338	89.88
462.558	84.88
462.777	89.88
462.997	88.88
463.217	85.88
463.437	97.88
463.657	94.88
463.876	91.88
464.096	91.88
464.316	83.88
464.536	85.88
464.755	79.88
464.975	83.88
465.195	91.88
465.414	87.88
465.634	87.88
465.854	89.88
466.073	83.88
466.293	89.88
466.512	95.88
466.732	86.88
466.951	82.88
467.171	79.88
467.391	93.88
467.61	92.88
467.829	87.88
468.049	85.88
468.268	102.88
468.488	88.88
468.707	88.88
468.927	82.88
469.146	86.88
469.365	72.88
469.585	90.88
469.804	65.88
470.023	94.88
470.243	85.88
470.462	88.88
470.681	86.88
470.901	97.88
471.12	93.88
471.339	99.88
471.558	91.88
471.777	92.88
471.997	88.88
472.216	77.88
472.435	83.88
472.654	101.88
472.873	95.88
473.092	87.88
473.311	85.88
473.53	87.88
473.749	86.88
473.968	86.88
474.187	89.88
474.406	89.88
474.625	91.88
474.844	95.88
475.063	80.88
475.282	88.88
475.501	79.88
475.72	93.88
475.939	78.88
476.158	98.88
476.377	87.88
476.596	87.88
476.814	89.88
477.033	87.88
477.252	95.88
477.471	96.88
477.69	86.88
477.908	91.88
478.127	109.88
478.346	82.88
478.564	77.88
478.783	103.88
479.002	91.88
479.22	93.88
479.439	101.88
479.658	90.88
479.876	101.88
480.095	95.88
480.313	91.88
480.532	99.88
480.751	92.88
480.969	102.88
481.188	95.88
481.406	104.88
481.624	94.88
481.843	101.88
482.061	83.88
482.28	83.88
482.498	82.88
482.717	77.88
482.935	90.88
483.153	85.88
483.372	80.88
483.59	97.88
483.808	88.88
484.027	114.88
484.245	85.88
484.463	80.88
484.681	92.88
484.9	94.88
485.118	86.88
485.336	95.88
485.554	100.88
485.772	85.88
485.99	94.88
486.209	93.88
486.427	89.88
486.645	99.88
486.863	101.88
487.081	92.88
487.299	93.88
487.517	105.88
487.735	94.88
487.953	106.88
488.171	98.88
488.389	98.88
488.607	88.88
488.825	97.88
489.043	94.88
489.261	94.88
489.479	97.88
489.696	81.88
489.914	86.88
490.132	100.88
490.35	94.88
490.568	106.88
490.786	100.88
491.003	93.88
491.221	104.88
491.439	100.88
491.657	89.88
491.874	97.88
492.092	84.88
492.31	102.88
492.527	97.88
492.745	97.88
492.963	95.88
493.18	89.88
493.398	98.88
493.615	89.88
493.833	90.88
494.05	93.88
494.268	92.88
494.485	103.88
494.703	92.88
494.92	97.88
495.138	90.88
495.355	100.88
495.573	100.88
495.79	91.88
496.008	108.88
496.225	100.88
496.442	97.88
496.66	100.88
496.877	95.88
497.094	113.88
497.312	110.88
497.529	95.88
497.746	88.88
497.963	85.88
498.181	82.88
498.398	96.88
498.615	97.88
498.832	107.88
499.049	106.88
499.267	91.88
499.484	95.88
499.701	108.88
499.918	99.88
500.135	109.88
500.352	126.88
500.569	112.88
500.786	110.88
501.003	111.88
501.22	104.88
501.437	110.88
501.654	103.88
501.871	113.88
502.088	100.88
502.305	105.88
502.522	105.88
502.739	91.88
502.956	88.88
503.172	95.88
503.389	104.88
503.606	87.88
503.823	101.88
504.04	101.88
504.256	92.88
504.473	95.88
504.69	94.88
504.907	100.88
505.123	97.88
505.34	115.88
505.557	92.88
505.773	88.88
505.99	87.88
506.207	93.88
506.423	96.88
506.64	88.88
506.856	81.88
507.073	98.88
507.289	92.88
507.506	87.88
507.722	99.88
507.939	101.88
508.155	97.88
508.372	97.88
508.588	91.88
508.805	95.88
509.021	86.88
509.238	98.88
509.454	102.88
509.67	114.88
509.887	104.88
510.103	93.88
510.319	99.88
510.536	88.88
510.752	83.88
510.968	98.88
511.184	84.88
511.401	79.88
511.617	92.88
511.833	80.88
512.049	93.88
512.265	80.88
512.481	80.88
512.698	101.88
512.914	83.88
513.13	103.88
513.346	106.88
513.562	93.88
513.778	98.88
513.994	85.88
514.21	75.88
514.426	73.88
514.642	93.88
514.858	92.88
515.074	98.88
515.29	102.88
515.506	104.88
515.721	93.88
515.937	89.88
516.153	98.88
516.369	102.88
516.585	89.88
516.801	99.88
517.016	96.88
517.232	94.88
517.448	106.88
517.664	91.88
