Data from Ni(NO3)2@0.0625M.TitratingCurve.Agarose3%dH2O.NegLispCup.LampEnergy10.LIBS07252019_HRD10591_18-12-53-569.txt Node
Date: Thu Jul 25 18:12:53 EDT 2019
User: cochatt
Spectrometer: HR+D1059
Trigger mode: 1
Integration Time (sec): 1.000000E-1
Scans to average: 1
Electric dark correction enabled: true
Nonlinearity correction enabled: false
Boxcar width: 0
XAxis mode: Wavelengths
Number of Pixels in Spectrum: 2048
>>>>>Begin Spectral Data<<<<<
223.165	-6.56
223.4	-6.56
223.635	-6.56
223.869	-19.56
224.104	-16.56
224.338	-13.56
224.573	-22.56
224.808	-22.56
225.042	-11.56
225.277	-6.56
225.511	-1.56
225.746	4.44
225.98	4.44
226.215	11.44
226.449	22.44
226.683	28.44
226.918	29.44
227.152	20.44
227.387	34.44
227.621	54.44
227.856	37.44
228.09	34.44
228.324	34.44
228.559	46.44
228.793	77.44
229.027	115.44
229.262	107.44
229.496	116.44
229.73	95.44
229.964	125.44
230.199	127.44
230.433	123.44
230.667	125.44
230.901	104.44
231.136	125.44
231.37	127.44
231.604	126.44
231.838	143.44
232.072	144.44
232.306	146.44
232.541	146.44
232.775	126.44
233.009	138.44
233.243	151.44
233.477	142.44
233.711	141.44
233.945	121.44
234.179	142.44
234.413	144.44
234.647	139.44
234.881	141.44
235.115	155.44
235.349	137.44
235.583	125.44
235.817	147.44
236.051	141.44
236.285	143.44
236.519	139.44
236.753	153.44
236.987	134.44
237.221	133.44
237.455	146.44
237.689	155.44
237.922	157.44
238.156	163.44
238.39	148.44
238.624	147.44
238.858	161.44
239.091	169.44
239.325	158.44
239.559	163.44
239.793	164.44
240.027	177.44
240.26	164.44
240.494	172.44
240.728	165.44
240.961	157.44
241.195	167.44
241.429	150.44
241.662	173.44
241.896	181.44
242.13	180.44
242.363	168.44
242.597	185.44
242.83	178.44
243.064	179.44
243.298	175.44
243.531	187.44
243.765	162.44
243.998	184.44
244.232	179.44
244.465	189.44
244.699	197.44
244.932	204.44
245.166	210.44
245.399	203.44
245.633	206.44
245.866	190.44
246.099	200.44
246.333	205.44
246.566	195.44
246.8	219.44
247.033	183.44
247.266	201.44
247.5	208.44
247.733	205.44
247.966	209.44
248.2	226.44
248.433	213.44
248.666	221.44
248.899	223.44
249.133	217.44
249.366	224.44
249.599	203.44
249.832	210.44
250.066	229.44
250.299	229.44
250.532	233.44
250.765	220.44
250.998	213.44
251.231	242.44
251.465	230.44
251.698	216.44
251.931	235.44
252.164	228.44
252.397	224.44
252.63	250.44
252.863	233.44
253.096	234.44
253.329	230.44
253.562	251.44
253.795	246.44
254.028	244.44
254.261	266.44
254.494	239.44
254.727	255.44
254.96	255.44
255.193	248.44
255.426	241.44
255.659	252.44
255.892	264.44
256.124	249.44
256.357	263.44
256.59	259.44
256.823	254.44
257.056	266.44
257.289	267.44
257.521	268.44
257.754	261.44
257.987	258.44
258.22	261.44
258.452	278.44
258.685	292.44
258.918	282.44
259.151	281.44
259.383	294.44
259.616	275.44
259.849	276.44
260.081	286.44
260.314	277.44
260.547	277.44
260.779	296.44
261.012	282.44
261.244	297.44
261.477	285.44
261.71	273.44
261.942	291.44
262.175	296.44
262.407	298.44
262.64	305.44
262.872	292.44
263.105	294.44
263.337	306.44
263.57	306.44
263.802	307.44
264.035	301.44
264.267	311.44
264.499	307.44
264.732	308.44
264.964	330.44
265.197	304.44
265.429	321.44
265.661	318.44
265.894	316.44
266.126	310.44
266.358	307.44
266.591	326.44
266.823	335.44
267.055	336.44
267.287	321.44
267.52	323.44
267.752	310.44
267.984	344.44
268.216	311.44
268.448	333.44
268.681	331.44
268.913	326.44
269.145	326.44
269.377	335.44
269.609	329.44
269.841	348.44
270.073	331.44
270.306	343.44
270.538	330.44
270.77	335.44
271.002	344.44
271.234	342.44
271.466	334.44
271.698	335.44
271.93	340.44
272.162	361.44
272.394	359.44
272.626	342.44
272.858	354.44
273.09	355.44
273.322	336.44
273.553	350.44
273.785	350.44
274.017	342.44
274.249	356.44
274.481	363.44
274.713	350.44
274.945	366.44
275.176	367.44
275.408	374.44
275.64	365.44
275.872	357.44
276.104	381.44
276.335	379.44
276.567	382.44
276.799	397.44
277.031	365.44
277.262	373.44
277.494	364.44
277.726	383.44
277.957	374.44
278.189	389.44
278.421	371.44
278.652	402.44
278.884	400.44
279.115	395.44
279.347	391.44
279.579	406.44
279.81	380.44
280.042	398.44
280.273	398.44
280.505	389.44
280.736	401.44
280.968	385.44
281.199	409.44
281.431	408.44
281.662	400.44
281.894	414.44
282.125	400.44
282.356	424.44
282.588	405.44
282.819	404.44
283.051	413.44
283.282	405.44
283.513	405.44
283.745	394.44
283.976	397.44
284.207	457.44
284.439	435.44
284.67	422.44
284.901	437.44
285.132	433.44
285.364	427.44
285.595	429.44
285.826	444.44
286.057	427.44
286.288	445.44
286.52	447.44
286.751	445.44
286.982	441.44
287.213	414.44
287.444	432.44
287.675	426.44
287.906	440.44
288.138	445.44
288.369	431.44
288.6	443.44
288.831	472.44
289.062	451.44
289.293	436.44
289.524	440.44
289.755	457.44
289.986	467.44
290.217	434.44
290.448	461.44
290.679	448.44
290.91	456.44
291.141	458.44
291.371	464.44
291.602	497.44
291.833	470.44
292.064	463.44
292.295	468.44
292.526	459.44
292.757	481.44
292.987	468.44
293.218	460.44
293.449	515.44
293.68	486.44
293.91	466.44
294.141	451.44
294.372	449.44
294.603	474.44
294.833	461.44
295.064	463.44
295.295	465.44
295.525	470.44
295.756	501.44
295.987	477.44
296.217	471.44
296.448	468.44
296.679	478.44
296.909	480.44
297.14	489.44
297.37	495.44
297.601	502.44
297.831	498.44
298.062	475.44
298.292	494.44
298.523	513.44
298.753	531.44
298.984	527.44
299.214	492.44
299.445	523.44
299.675	511.44
299.905	502.44
300.136	507.44
300.366	522.44
300.597	528.44
300.827	541.44
301.057	525.44
301.288	521.44
301.518	541.44
301.748	553.44
301.979	535.44
302.209	524.44
302.439	535.44
302.669	494.44
302.9	520.44
303.13	522.44
303.36	525.44
303.59	519.44
303.82	514.44
304.051	549.44
304.281	524.44
304.511	517.44
304.741	514.44
304.971	520.44
305.201	531.44
305.431	523.44
305.661	521.44
305.891	531.44
306.121	529.44
306.352	514.44
306.582	518.44
306.812	510.44
307.042	500.44
307.272	492.44
307.502	513.44
307.731	506.44
307.961	494.44
308.191	515.44
308.421	525.44
308.651	507.44
308.881	531.44
309.111	531.44
309.341	508.44
309.571	516.44
309.8	507.44
310.03	494.44
310.26	533.44
310.49	537.44
310.72	524.44
310.949	517.44
311.179	513.44
311.409	514.44
311.639	512.44
311.868	533.44
312.098	521.44
312.328	537.44
312.557	533.44
312.787	536.44
313.017	510.44
313.246	567.44
313.476	551.44
313.706	554.44
313.935	573.44
314.165	565.44
314.394	556.44
314.624	527.44
314.853	540.44
315.083	558.44
315.312	553.44
315.542	548.44
315.771	545.44
316.001	540.44
316.23	542.44
316.46	548.44
316.689	537.44
316.919	533.44
317.148	533.44
317.377	550.44
317.607	535.44
317.836	529.44
318.065	562.44
318.295	574.44
318.524	553.44
318.753	535.44
318.983	519.44
319.212	545.44
319.441	533.44
319.67	543.44
319.9	526.44
320.129	559.44
320.358	553.44
320.587	532.44
320.816	540.44
321.046	558.44
321.275	563.44
321.504	531.44
321.733	557.44
321.962	565.44
322.191	536.44
322.42	542.44
322.649	561.44
322.878	568.44
323.108	538.44
323.337	551.44
323.566	564.44
323.795	566.44
324.024	573.44
324.253	537.44
324.482	559.44
324.71	570.44
324.939	567.44
325.168	568.44
325.397	579.44
325.626	562.44
325.855	570.44
326.084	597.44
326.313	596.44
326.542	614.44
326.77	607.44
326.999	606.44
327.228	595.44
327.457	583.44
327.686	590.44
327.914	610.44
328.143	593.44
328.372	592.44
328.6	584.44
328.829	611.44
329.058	599.44
329.287	609.44
329.515	614.44
329.744	597.44
329.972	597.44
330.201	605.44
330.43	603.44
330.658	606.44
330.887	611.44
331.115	614.44
331.344	634.44
331.572	629.44
331.801	654.44
332.03	679.44
332.258	677.44
332.486	665.44
332.715	723.44
332.943	754.44
333.172	775.44
333.4	806.44
333.629	821.44
333.857	826.44
334.085	802.44
334.314	806.44
334.542	765.44
334.771	756.44
334.999	742.44
335.227	745.44
335.455	748.44
335.684	778.44
335.912	764.44
336.14	755.44
336.369	703.44
336.597	722.44
336.825	731.44
337.053	725.44
337.281	717.44
337.51	691.44
337.738	702.44
337.966	695.44
338.194	654.44
338.422	652.44
338.65	659.44
338.878	657.44
339.106	665.44
339.334	651.44
339.562	661.44
339.79	635.44
340.018	633.44
340.246	610.44
340.474	614.44
340.702	644.44
340.93	649.44
341.158	636.44
341.386	636.44
341.614	648.44
341.842	636.44
342.07	645.44
342.298	624.44
342.526	619.44
342.754	633.44
342.981	641.44
343.209	636.44
343.437	686.44
343.665	733.44
343.893	778.44
344.12	774.44
344.348	779.44
344.576	708.44
344.804	697.44
345.031	672.44
345.259	633.44
345.487	645.44
345.714	647.44
345.942	621.44
346.17	648.44
346.397	650.44
346.625	616.44
346.853	627.44
347.08	629.44
347.308	619.44
347.535	627.44
347.763	655.44
347.99	617.44
348.218	615.44
348.445	645.44
348.673	609.44
348.9	627.44
349.128	623.44
349.355	599.44
349.583	633.44
349.81	610.44
350.037	604.44
350.265	586.44
350.492	601.44
350.72	606.44
350.947	590.44
351.174	617.44
351.402	593.44
351.629	605.44
351.856	596.44
352.083	619.44
352.311	600.44
352.538	593.44
352.765	596.44
352.992	591.44
353.22	591.44
353.447	589.44
353.674	552.44
353.901	614.44
354.128	611.44
354.355	600.44
354.583	617.44
354.81	589.44
355.037	593.44
355.264	605.44
355.491	614.44
355.718	606.44
355.945	578.44
356.172	595.44
356.399	590.44
356.626	609.44
356.853	626.44
357.08	572.44
357.307	613.44
357.534	590.44
357.761	599.44
357.988	582.44
358.215	602.44
358.441	595.44
358.668	615.44
358.895	612.44
359.122	589.44
359.349	606.44
359.576	589.44
359.802	597.44
360.029	615.44
360.256	614.44
360.483	586.44
360.709	603.44
360.936	594.44
361.163	581.44
361.39	606.44
361.616	615.44
361.843	600.44
362.07	617.44
362.296	606.44
362.523	579.44
362.749	607.44
362.976	588.44
363.203	579.44
363.429	578.44
363.656	598.44
363.882	559.44
364.109	584.44
364.335	571.44
364.562	584.44
364.788	591.44
365.015	611.44
365.241	579.44
365.468	586.44
365.694	563.44
365.92	597.44
366.147	583.44
366.373	595.44
366.599	601.44
366.826	596.44
367.052	602.44
367.278	593.44
367.505	603.44
367.731	591.44
367.957	601.44
368.184	580.44
368.41	587.44
368.636	603.44
368.862	622.44
369.089	603.44
369.315	617.44
369.541	615.44
369.767	629.44
369.993	609.44
370.219	609.44
370.445	623.44
370.672	614.44
370.898	636.44
371.124	639.44
371.35	652.44
371.576	641.44
371.802	620.44
372.028	635.44
372.254	657.44
372.48	641.44
372.706	684.44
372.932	681.44
373.158	691.44
373.384	661.44
373.61	661.44
373.835	671.44
374.061	639.44
374.287	651.44
374.513	653.44
374.739	682.44
374.965	729.44
375.191	722.44
375.416	728.44
375.642	690.44
375.868	693.44
376.094	682.44
376.319	661.44
376.545	661.44
376.771	655.44
376.997	670.44
377.222	654.44
377.448	652.44
377.674	642.44
377.899	654.44
378.125	639.44
378.35	629.44
378.576	615.44
378.802	628.44
379.027	665.44
379.253	632.44
379.478	640.44
379.704	625.44
379.929	621.44
380.155	649.44
380.38	653.44
380.606	649.44
380.831	635.44
381.057	633.44
381.282	634.44
381.507	643.44
381.733	641.44
381.958	643.44
382.184	658.44
382.409	665.44
382.634	681.44
382.86	664.44
383.085	693.44
383.31	711.44
383.535	714.44
383.761	723.44
383.986	706.44
384.211	745.44
384.436	742.44
384.662	754.44
384.887	760.44
385.112	750.44
385.337	780.44
385.562	761.44
385.787	771.44
386.013	776.44
386.238	784.44
386.463	794.44
386.688	795.44
386.913	777.44
387.138	782.44
387.363	753.44
387.588	758.44
387.813	783.44
388.038	786.44
388.263	759.44
388.488	769.44
388.713	790.44
388.938	743.44
389.163	741.44
389.387	757.44
389.612	754.44
389.837	723.44
390.062	723.44
390.287	731.44
390.512	745.44
390.736	782.44
390.961	774.44
391.186	785.44
391.411	798.44
391.636	836.44
391.86	845.44
392.085	852.44
392.31	868.44
392.534	856.44
392.759	834.44
392.984	828.44
393.208	805.44
393.433	826.44
393.658	794.44
393.882	806.44
394.107	815.44
394.331	812.44
394.556	805.44
394.78	828.44
395.005	843.44
395.229	823.44
395.454	873.44
395.678	877.44
395.903	879.44
396.127	835.44
396.352	820.44
396.576	842.44
396.801	806.44
397.025	812.44
397.249	845.44
397.474	861.44
397.698	852.44
397.922	863.44
398.147	853.44
398.371	868.44
398.595	897.44
398.82	951.44
399.044	985.44
399.268	1117.44
399.492	1300.44
399.717	1478.44
399.941	1485.44
400.165	1355.44
400.389	1209.44
400.613	1069.44
400.837	997.44
401.062	974.44
401.286	962.44
401.51	941.44
401.734	962.44
401.958	952.44
402.182	1000.44
402.406	987.44
402.63	999.44
402.854	1045.44
403.078	1036.44
403.302	1070.44
403.526	1095.44
403.75	1110.44
403.974	1161.44
404.198	1121.44
404.422	1140.44
404.645	1125.44
404.869	1116.44
405.093	1117.44
405.317	1092.44
405.541	1049.44
405.765	1047.44
405.988	1063.44
406.212	1050.44
406.436	1073.44
406.66	1065.44
406.883	1082.44
407.107	1176.44
407.331	1222.44
407.555	1262.44
407.778	1257.44
408.002	1219.44
408.226	1191.44
408.449	1169.44
408.673	1111.44
408.896	1101.44
409.12	1091.44
409.344	1104.44
409.567	1089.44
409.791	1132.44
410.014	1081.44
410.238	1132.44
410.461	1124.44
410.685	1094.44
410.908	1074.44
411.132	1024.44
411.355	1006.44
411.578	1033.44
411.802	993.44
412.025	974.44
412.249	1025.44
412.472	1009.44
412.695	998.44
412.919	972.44
413.142	961.44
413.365	955.44
413.589	973.44
413.812	961.44
414.035	952.44
414.258	984.44
414.482	978.44
414.705	961.44
414.928	992.44
415.151	988.44
415.374	974.44
415.597	965.44
415.821	959.44
416.044	971.44
416.267	947.44
416.49	930.44
416.713	912.44
416.936	955.44
417.159	933.44
417.382	965.44
417.605	942.44
417.828	945.44
418.051	940.44
418.274	975.44
418.497	950.44
418.72	979.44
418.943	970.44
419.166	1063.44
419.389	1168.44
419.611	1125.44
419.834	1094.44
420.057	1003.44
420.28	973.44
420.503	966.44
420.726	984.44
420.948	953.44
421.171	938.44
421.394	963.44
421.617	934.44
421.839	972.44
422.062	954.44
422.285	980.44
422.507	985.44
422.73	998.44
422.953	1011.44
423.175	1029.44
423.398	1052.44
423.621	1023.44
423.843	1040.44
424.066	1047.44
424.288	1022.44
424.511	1019.44
424.733	987.44
424.956	993.44
425.178	1004.44
425.401	988.44
425.623	966.44
425.846	957.44
426.068	919.44
426.291	919.44
426.513	909.44
426.735	909.44
426.958	880.44
427.18	873.44
427.402	912.44
427.625	886.44
427.847	868.44
428.069	870.44
428.292	863.44
428.514	845.44
428.736	842.44
428.958	859.44
429.181	859.44
429.403	848.44
429.625	838.44
429.847	868.44
430.069	851.44
430.292	869.44
430.514	853.44
430.736	842.44
430.958	835.44
431.18	836.44
431.402	855.44
431.624	850.44
431.846	885.44
432.068	884.44
432.29	897.44
432.512	844.44
432.734	894.44
432.956	857.44
433.178	872.44
433.4	846.44
433.622	878.44
433.844	866.44
434.066	917.44
434.287	927.44
434.509	937.44
434.731	964.44
434.953	1027.44
435.175	1009.44
435.397	967.44
435.618	929.44
435.84	901.44
436.062	886.44
436.284	861.44
436.505	875.44
436.727	879.44
436.949	881.44
437.17	877.44
437.392	860.44
437.614	816.44
437.835	843.44
438.057	860.44
438.278	850.44
438.5	845.44
438.721	833.44
438.943	830.44
439.165	846.44
439.386	868.44
439.608	882.44
439.829	874.44
440.05	854.44
440.272	872.44
440.493	892.44
440.715	903.44
440.936	906.44
441.158	886.44
441.379	959.44
441.6	982.44
441.822	1011.44
442.043	1029.44
442.264	994.44
442.486	978.44
442.707	948.44
442.928	968.44
443.149	955.44
443.371	971.44
443.592	1003.44
443.813	978.44
444.034	977.44
444.255	1042.44
444.476	1074.44
444.698	1142.44
444.919	1198.44
445.14	1271.44
445.361	1141.44
445.582	1046.44
445.803	973.44
446.024	938.44
446.245	931.44
446.466	897.44
446.687	870.44
446.908	889.44
447.129	851.44
447.35	831.44
447.571	858.44
447.792	830.44
448.013	846.44
448.234	809.44
448.455	816.44
448.675	796.44
448.896	791.44
449.117	787.44
449.338	804.44
449.559	805.44
449.779	817.44
450	779.44
450.221	802.44
450.442	814.44
450.662	826.44
450.883	825.44
451.104	827.44
451.324	841.44
451.545	820.44
451.766	817.44
451.986	808.44
452.207	817.44
452.428	799.44
452.648	826.44
452.869	814.44
453.089	797.44
453.31	785.44
453.53	779.44
453.751	782.44
453.971	771.44
454.192	782.44
454.412	773.44
454.633	769.44
454.853	789.44
455.073	749.44
455.294	756.44
455.514	742.44
455.734	748.44
455.955	719.44
456.175	732.44
456.395	748.44
456.616	765.44
456.836	773.44
457.056	758.44
457.276	731.44
457.497	753.44
457.717	739.44
457.937	777.44
458.157	748.44
458.377	758.44
458.598	803.44
458.818	809.44
459.038	835.44
459.258	854.44
459.478	910.44
459.698	941.44
459.918	947.44
460.138	1006.44
460.358	1048.44
460.578	1032.44
460.798	1070.44
461.018	1057.44
461.238	1069.44
461.458	1036.44
461.678	1034.44
461.898	1050.44
462.118	1046.44
462.338	1103.44
462.558	1146.44
462.777	1226.44
462.997	1291.44
463.217	1395.44
463.437	1427.44
463.657	1344.44
463.876	1267.44
464.096	1269.44
464.316	1199.44
464.536	1255.44
464.755	1209.44
464.975	1143.44
465.195	1086.44
465.414	1035.44
465.634	952.44
465.854	938.44
466.073	921.44
466.293	885.44
466.512	884.44
466.732	877.44
466.951	867.44
467.171	872.44
467.391	872.44
467.61	847.44
467.829	819.44
468.049	861.44
468.268	811.44
468.488	795.44
468.707	810.44
468.927	799.44
469.146	825.44
469.365	835.44
469.585	833.44
469.804	830.44
470.023	882.44
470.243	890.44
470.462	873.44
470.681	886.44
470.901	890.44
471.12	884.44
471.339	860.44
471.558	819.44
471.777	847.44
471.997	834.44
472.216	786.44
472.435	812.44
472.654	793.44
472.873	809.44
473.092	802.44
473.311	781.44
473.53	804.44
473.749	790.44
473.968	817.44
474.187	782.44
474.406	785.44
474.625	807.44
474.844	796.44
475.063	817.44
475.282	788.44
475.501	806.44
475.72	805.44
475.939	810.44
476.158	821.44
476.377	837.44
476.596	828.44
476.814	834.44
477.033	846.44
477.252	885.44
477.471	871.44
477.69	901.44
477.908	907.44
478.127	941.44
478.346	946.44
478.564	951.44
478.783	990.44
479.002	1006.44
479.22	1002.44
479.439	997.44
479.658	992.44
479.876	989.44
480.095	1006.44
480.313	1053.44
480.532	1073.44
480.751	1092.44
480.969	1029.44
481.188	984.44
481.406	970.44
481.624	955.44
481.843	919.44
482.061	900.44
482.28	903.44
482.498	900.44
482.717	899.44
482.935	892.44
483.153	901.44
483.372	900.44
483.59	910.44
483.808	914.44
484.027	927.44
484.245	903.44
484.463	968.44
484.681	939.44
484.9	933.44
485.118	964.44
485.336	966.44
485.554	961.44
485.772	953.44
485.99	981.44
486.209	985.44
486.427	995.44
486.645	970.44
486.863	955.44
487.081	949.44
487.299	975.44
487.517	989.44
487.735	966.44
487.953	992.44
488.171	948.44
488.389	977.44
488.607	963.44
488.825	979.44
489.043	942.44
489.261	975.44
489.479	955.44
489.696	963.44
489.914	962.44
490.132	951.44
490.35	984.44
490.568	978.44
490.786	959.44
491.003	958.44
491.221	977.44
491.439	955.44
491.657	959.44
491.874	973.44
492.092	964.44
492.31	972.44
492.527	962.44
492.745	974.44
492.963	985.44
493.18	958.44
493.398	985.44
493.615	1037.44
493.833	991.44
494.05	994.44
494.268	1038.44
494.485	1005.44
494.703	979.44
494.92	1022.44
495.138	1033.44
495.355	1025.44
495.573	1028.44
495.79	1046.44
496.008	1012.44
496.225	1033.44
496.442	1045.44
496.66	1051.44
496.877	1054.44
497.094	1074.44
497.312	1090.44
497.529	1098.44
497.746	1127.44
497.963	1175.44
498.181	1171.44
498.398	1269.44
498.615	1357.44
498.832	1415.44
499.049	1526.44
499.267	1638.44
499.484	1817.44
499.701	2005.44
