Data from Ni(NO3)2@0.125M.TitratingCurve.Agarose3%dH2O.NegLispCup.LampEnergy10.LIBS07252019_HRD10591_18-08-36-567.txt Node
Date: Thu Jul 25 18:08:36 EDT 2019
User: cochatt
Spectrometer: HR+D1059
Trigger mode: 1
Integration Time (sec): 1.000000E-1
Scans to average: 1
Electric dark correction enabled: true
Nonlinearity correction enabled: false
Boxcar width: 0
XAxis mode: Wavelengths
Number of Pixels in Spectrum: 2048
>>>>>Begin Spectral Data<<<<<
223.165	-20.31
223.4	-20.31
223.635	-20.31
223.869	-22.31
224.104	-24.31
224.338	-12.31
224.573	-11.31
224.808	-10.31
225.042	-6.31
225.277	-0.31
225.511	-0.31
225.746	1.69
225.98	16.69
226.215	1.69
226.449	13.69
226.683	9.69
226.918	24.69
227.152	39.69
227.387	34.69
227.621	39.69
227.856	43.69
228.09	44.69
228.324	62.69
228.559	62.69
228.793	75.69
229.027	111.69
229.262	122.69
229.496	135.69
229.73	118.69
229.964	149.69
230.199	175.69
230.433	153.69
230.667	166.69
230.901	150.69
231.136	144.69
231.37	150.69
231.604	163.69
231.838	180.69
232.072	178.69
232.306	182.69
232.541	176.69
232.775	183.69
233.009	170.69
233.243	174.69
233.477	160.69
233.711	168.69
233.945	187.69
234.179	170.69
234.413	171.69
234.647	171.69
234.881	179.69
235.115	176.69
235.349	181.69
235.583	176.69
235.817	186.69
236.051	191.69
236.285	177.69
236.519	177.69
236.753	187.69
236.987	193.69
237.221	168.69
237.455	197.69
237.689	197.69
237.922	199.69
238.156	186.69
238.39	194.69
238.624	215.69
238.858	210.69
239.091	224.69
239.325	201.69
239.559	201.69
239.793	217.69
240.027	231.69
240.26	204.69
240.494	203.69
240.728	205.69
240.961	202.69
241.195	216.69
241.429	230.69
241.662	218.69
241.896	229.69
242.13	240.69
242.363	231.69
242.597	234.69
242.83	256.69
243.064	226.69
243.298	242.69
243.531	250.69
243.765	239.69
243.998	242.69
244.232	274.69
244.465	262.69
244.699	257.69
244.932	252.69
245.166	272.69
245.399	280.69
245.633	269.69
245.866	289.69
246.099	264.69
246.333	273.69
246.566	265.69
246.8	270.69
247.033	295.69
247.266	276.69
247.5	276.69
247.733	293.69
247.966	270.69
248.2	292.69
248.433	283.69
248.666	308.69
248.899	320.69
249.133	292.69
249.366	332.69
249.599	302.69
249.832	295.69
250.066	284.69
250.299	300.69
250.532	305.69
250.765	310.69
250.998	323.69
251.231	331.69
251.465	348.69
251.698	335.69
251.931	340.69
252.164	343.69
252.397	362.69
252.63	327.69
252.863	342.69
253.096	347.69
253.329	340.69
253.562	351.69
253.795	348.69
254.028	349.69
254.261	349.69
254.494	350.69
254.727	369.69
254.96	386.69
255.193	382.69
255.426	353.69
255.659	362.69
255.892	385.69
256.124	364.69
256.357	392.69
256.59	383.69
256.823	396.69
257.056	373.69
257.289	367.69
257.521	361.69
257.754	392.69
257.987	392.69
258.22	380.69
258.452	378.69
258.685	395.69
258.918	390.69
259.151	408.69
259.383	409.69
259.616	388.69
259.849	420.69
260.081	417.69
260.314	398.69
260.547	427.69
260.779	414.69
261.012	417.69
261.244	421.69
261.477	414.69
261.71	424.69
261.942	419.69
262.175	423.69
262.407	439.69
262.64	419.69
262.872	416.69
263.105	441.69
263.337	462.69
263.57	463.69
263.802	463.69
264.035	442.69
264.267	445.69
264.499	443.69
264.732	457.69
264.964	454.69
265.197	465.69
265.429	449.69
265.661	454.69
265.894	464.69
266.126	458.69
266.358	487.69
266.591	477.69
266.823	463.69
267.055	466.69
267.287	477.69
267.52	452.69
267.752	485.69
267.984	489.69
268.216	479.69
268.448	506.69
268.681	476.69
268.913	499.69
269.145	491.69
269.377	481.69
269.609	487.69
269.841	488.69
270.073	481.69
270.306	509.69
270.538	501.69
270.77	497.69
271.002	500.69
271.234	518.69
271.466	512.69
271.698	500.69
271.93	508.69
272.162	523.69
272.394	506.69
272.626	500.69
272.858	527.69
273.09	564.69
273.322	535.69
273.553	547.69
273.785	542.69
274.017	536.69
274.249	543.69
274.481	526.69
274.713	545.69
274.945	540.69
275.176	544.69
275.408	565.69
275.64	553.69
275.872	556.69
276.104	565.69
276.335	567.69
276.567	534.69
276.799	564.69
277.031	547.69
277.262	560.69
277.494	574.69
277.726	580.69
277.957	579.69
278.189	561.69
278.421	567.69
278.652	575.69
278.884	574.69
279.115	569.69
279.347	578.69
279.579	570.69
279.81	572.69
280.042	585.69
280.273	579.69
280.505	584.69
280.736	595.69
280.968	582.69
281.199	603.69
281.431	620.69
281.662	602.69
281.894	617.69
282.125	608.69
282.356	634.69
282.588	613.69
282.819	628.69
283.051	623.69
283.282	643.69
283.513	600.69
283.745	625.69
283.976	626.69
284.207	618.69
284.439	631.69
284.67	633.69
284.901	637.69
285.132	670.69
285.364	638.69
285.595	643.69
285.826	632.69
286.057	658.69
286.288	624.69
286.52	650.69
286.751	679.69
286.982	661.69
287.213	660.69
287.444	680.69
287.675	659.69
287.906	647.69
288.138	675.69
288.369	677.69
288.6	662.69
288.831	684.69
289.062	673.69
289.293	688.69
289.524	669.69
289.755	704.69
289.986	660.69
290.217	688.69
290.448	697.69
290.679	671.69
290.91	678.69
291.141	697.69
291.371	690.69
291.602	715.69
291.833	698.69
292.064	681.69
292.295	693.69
292.526	680.69
292.757	664.69
292.987	682.69
293.218	682.69
293.449	671.69
293.68	684.69
293.91	667.69
294.141	684.69
294.372	702.69
294.603	690.69
294.833	693.69
295.064	705.69
295.295	694.69
295.525	706.69
295.756	698.69
295.987	706.69
296.217	729.69
296.448	718.69
296.679	725.69
296.909	730.69
297.14	756.69
297.37	735.69
297.601	744.69
297.831	741.69
298.062	744.69
298.292	743.69
298.523	762.69
298.753	758.69
298.984	741.69
299.214	737.69
299.445	754.69
299.675	743.69
299.905	733.69
300.136	737.69
300.366	766.69
300.597	784.69
300.827	788.69
301.057	764.69
301.288	788.69
301.518	783.69
301.748	800.69
301.979	765.69
302.209	806.69
302.439	793.69
302.669	770.69
302.9	801.69
303.13	767.69
303.36	787.69
303.59	791.69
303.82	798.69
304.051	785.69
304.281	799.69
304.511	802.69
304.741	756.69
304.971	768.69
305.201	778.69
305.431	763.69
305.661	784.69
305.891	779.69
306.121	756.69
306.352	788.69
306.582	784.69
306.812	755.69
307.042	768.69
307.272	756.69
307.502	740.69
307.731	767.69
307.961	770.69
308.191	766.69
308.421	776.69
308.651	784.69
308.881	759.69
309.111	769.69
309.341	756.69
309.571	796.69
309.8	771.69
310.03	774.69
310.26	781.69
310.49	780.69
310.72	764.69
310.949	765.69
311.179	773.69
311.409	792.69
311.639	775.69
311.868	786.69
312.098	802.69
312.328	812.69
312.557	806.69
312.787	784.69
313.017	818.69
313.246	809.69
313.476	809.69
313.706	836.69
313.935	868.69
314.165	816.69
314.394	827.69
314.624	834.69
314.853	839.69
315.083	818.69
315.312	818.69
315.542	820.69
315.771	820.69
316.001	800.69
316.23	823.69
316.46	812.69
316.689	815.69
316.919	817.69
317.148	807.69
317.377	825.69
317.607	835.69
317.836	807.69
318.065	807.69
318.295	787.69
318.524	799.69
318.753	820.69
318.983	810.69
319.212	798.69
319.441	805.69
319.67	816.69
319.9	808.69
320.129	829.69
320.358	820.69
320.587	819.69
320.816	827.69
321.046	843.69
321.275	828.69
321.504	806.69
321.733	853.69
321.962	830.69
322.191	838.69
322.42	844.69
322.649	844.69
322.878	855.69
323.108	842.69
323.337	833.69
323.566	860.69
323.795	857.69
324.024	885.69
324.253	862.69
324.482	850.69
324.71	875.69
324.939	886.69
325.168	896.69
325.397	861.69
325.626	884.69
325.855	916.69
326.084	897.69
326.313	918.69
326.542	928.69
326.77	933.69
326.999	919.69
327.228	892.69
327.457	900.69
327.686	908.69
327.914	907.69
328.143	909.69
328.372	931.69
328.6	947.69
328.829	922.69
329.058	922.69
329.287	922.69
329.515	944.69
329.744	929.69
329.972	961.69
330.201	947.69
330.43	961.69
330.658	941.69
330.887	957.69
331.115	962.69
331.344	988.69
331.572	1000.69
331.801	1025.69
332.03	1035.69
332.258	1055.69
332.486	1117.69
332.715	1139.69
332.943	1177.69
333.172	1215.69
333.4	1243.69
333.629	1320.69
333.857	1353.69
334.085	1302.69
334.314	1294.69
334.542	1255.69
334.771	1250.69
334.999	1183.69
335.227	1167.69
335.455	1182.69
335.684	1150.69
335.912	1171.69
336.14	1136.69
336.369	1128.69
336.597	1125.69
336.825	1140.69
337.053	1140.69
337.281	1131.69
337.51	1080.69
337.738	1091.69
337.966	1062.69
338.194	1074.69
338.422	1046.69
338.65	1080.69
338.878	1074.69
339.106	1030.69
339.334	1024.69
339.562	1014.69
339.79	995.69
340.018	970.69
340.246	976.69
340.474	965.69
340.702	998.69
340.93	990.69
341.158	978.69
341.386	964.69
341.614	998.69
341.842	981.69
342.07	987.69
342.298	1014.69
342.526	958.69
342.754	976.69
342.981	987.69
343.209	1017.69
343.437	1034.69
343.665	1098.69
343.893	1238.69
344.12	1273.69
344.348	1205.69
344.576	1103.69
344.804	1081.69
345.031	1070.69
345.259	987.69
345.487	1011.69
345.714	1012.69
345.942	986.69
346.17	1004.69
346.397	984.69
346.625	984.69
346.853	951.69
347.08	967.69
347.308	1007.69
347.535	968.69
347.763	977.69
347.99	987.69
348.218	978.69
348.445	963.69
348.673	968.69
348.9	956.69
349.128	972.69
349.355	959.69
349.583	955.69
349.81	969.69
350.037	922.69
350.265	933.69
350.492	950.69
350.72	903.69
350.947	932.69
351.174	929.69
351.402	927.69
351.629	958.69
351.856	926.69
352.083	912.69
352.311	894.69
352.538	921.69
352.765	926.69
352.992	938.69
353.22	896.69
353.447	901.69
353.674	905.69
353.901	916.69
354.128	904.69
354.355	896.69
354.583	914.69
354.81	908.69
355.037	905.69
355.264	929.69
355.491	919.69
355.718	910.69
355.945	921.69
356.172	922.69
356.399	904.69
356.626	948.69
356.853	934.69
357.08	949.69
357.307	916.69
357.534	893.69
357.761	919.69
357.988	923.69
358.215	913.69
358.441	921.69
358.668	917.69
358.895	907.69
359.122	911.69
359.349	895.69
359.576	901.69
359.802	919.69
360.029	895.69
360.256	897.69
360.483	931.69
360.709	901.69
360.936	915.69
361.163	914.69
361.39	917.69
361.616	909.69
361.843	906.69
362.07	929.69
362.296	923.69
362.523	907.69
362.749	928.69
362.976	923.69
363.203	881.69
363.429	894.69
363.656	907.69
363.882	890.69
364.109	903.69
364.335	891.69
364.562	911.69
364.788	922.69
365.015	907.69
365.241	928.69
365.468	915.69
365.694	884.69
365.92	889.69
366.147	902.69
366.373	921.69
366.599	908.69
366.826	883.69
367.052	893.69
367.278	904.69
367.505	903.69
367.731	919.69
367.957	908.69
368.184	910.69
368.41	926.69
368.636	906.69
368.862	930.69
369.089	930.69
369.315	920.69
369.541	947.69
369.767	938.69
369.993	924.69
370.219	934.69
370.445	963.69
370.672	952.69
370.898	956.69
371.124	963.69
371.35	1008.69
371.576	987.69
371.802	977.69
372.028	971.69
372.254	967.69
372.48	970.69
372.706	999.69
372.932	1048.69
373.158	1042.69
373.384	1009.69
373.61	971.69
373.835	984.69
374.061	964.69
374.287	970.69
374.513	995.69
374.739	1013.69
374.965	1054.69
375.191	1100.69
375.416	1085.69
375.642	1046.69
375.868	1078.69
376.094	1035.69
376.319	1028.69
376.545	999.69
376.771	1013.69
376.997	1006.69
377.222	998.69
377.448	986.69
377.674	975.69
377.899	1011.69
378.125	962.69
378.35	966.69
378.576	950.69
378.802	975.69
379.027	963.69
379.253	946.69
379.478	967.69
379.704	976.69
379.929	955.69
380.155	990.69
380.38	934.69
380.606	984.69
380.831	958.69
381.057	971.69
381.282	995.69
381.507	978.69
381.733	998.69
381.958	972.69
382.184	990.69
382.409	1016.69
382.634	1034.69
382.86	1027.69
383.085	1017.69
383.31	1062.69
383.535	1081.69
383.761	1078.69
383.986	1100.69
384.211	1119.69
384.436	1134.69
384.662	1147.69
384.887	1180.69
385.112	1175.69
385.337	1178.69
385.562	1178.69
385.787	1179.69
386.013	1199.69
386.238	1211.69
386.463	1223.69
386.688	1190.69
386.913	1150.69
387.138	1160.69
387.363	1157.69
387.588	1188.69
387.813	1152.69
388.038	1171.69
388.263	1153.69
388.488	1173.69
388.713	1161.69
388.938	1148.69
389.163	1116.69
389.387	1150.69
389.612	1152.69
389.837	1142.69
390.062	1135.69
390.287	1139.69
390.512	1137.69
390.736	1167.69
390.961	1172.69
391.186	1198.69
391.411	1233.69
391.636	1292.69
391.86	1291.69
392.085	1331.69
392.31	1356.69
392.534	1321.69
392.759	1312.69
392.984	1228.69
393.208	1243.69
393.433	1235.69
393.658	1245.69
393.882	1246.69
394.107	1229.69
394.331	1254.69
394.556	1221.69
394.78	1280.69
395.005	1284.69
395.229	1264.69
395.454	1303.69
395.678	1334.69
395.903	1347.69
396.127	1332.69
396.352	1246.69
396.576	1252.69
396.801	1226.69
397.025	1238.69
397.249	1300.69
397.474	1318.69
397.698	1319.69
397.922	1310.69
398.147	1305.69
398.371	1350.69
398.595	1388.69
398.82	1482.69
399.044	1530.69
399.268	1737.69
399.492	2046.69
399.717	2360.69
399.941	2377.69
400.165	2036.69
400.389	1824.69
400.613	1620.69
400.837	1552.69
401.062	1513.69
401.286	1499.69
401.51	1472.69
401.734	1449.69
401.958	1498.69
402.182	1539.69
402.406	1515.69
402.63	1584.69
402.854	1603.69
403.078	1635.69
403.302	1674.69
403.526	1705.69
403.75	1767.69
403.974	1756.69
404.198	1740.69
404.422	1747.69
404.645	1758.69
404.869	1696.69
405.093	1695.69
405.317	1674.69
405.541	1657.69
405.765	1660.69
405.988	1635.69
406.212	1647.69
406.436	1638.69
406.66	1696.69
406.883	1703.69
407.107	1820.69
407.331	1903.69
407.555	1938.69
407.778	1955.69
408.002	1883.69
408.226	1824.69
408.449	1792.69
408.673	1683.69
408.896	1662.69
409.12	1667.69
409.344	1723.69
409.567	1644.69
409.791	1704.69
410.014	1695.69
410.238	1668.69
410.461	1636.69
410.685	1658.69
410.908	1637.69
411.132	1557.69
411.355	1535.69
411.578	1540.69
411.802	1506.69
412.025	1562.69
412.249	1616.69
412.472	1574.69
412.695	1520.69
412.919	1482.69
413.142	1511.69
413.365	1479.69
413.589	1532.69
413.812	1499.69
414.035	1460.69
414.258	1441.69
414.482	1477.69
414.705	1566.69
414.928	1521.69
415.151	1539.69
415.374	1473.69
415.597	1488.69
415.821	1488.69
416.044	1452.69
416.267	1443.69
416.49	1446.69
416.713	1437.69
416.936	1455.69
417.159	1480.69
417.382	1456.69
417.605	1476.69
417.828	1472.69
418.051	1510.69
418.274	1525.69
418.497	1476.69
418.72	1544.69
418.943	1530.69
419.166	1630.69
419.389	1756.69
419.611	1666.69
419.834	1598.69
420.057	1605.69
420.28	1527.69
420.503	1499.69
420.726	1480.69
420.948	1464.69
421.171	1511.69
421.394	1491.69
421.617	1508.69
421.839	1487.69
422.062	1509.69
422.285	1475.69
422.507	1532.69
422.73	1539.69
422.953	1532.69
423.175	1530.69
423.398	1629.69
423.621	1609.69
423.843	1621.69
424.066	1620.69
424.288	1599.69
424.511	1597.69
424.733	1571.69
424.956	1566.69
425.178	1515.69
425.401	1534.69
425.623	1513.69
425.846	1467.69
426.068	1464.69
426.291	1405.69
426.513	1436.69
426.735	1370.69
426.958	1398.69
427.18	1319.69
427.402	1395.69
427.625	1356.69
427.847	1377.69
428.069	1348.69
428.292	1338.69
428.514	1309.69
428.736	1339.69
428.958	1336.69
429.181	1290.69
429.403	1285.69
429.625	1276.69
429.847	1273.69
430.069	1263.69
430.292	1319.69
430.514	1282.69
430.736	1286.69
430.958	1308.69
431.18	1305.69
431.402	1321.69
431.624	1300.69
431.846	1295.69
432.068	1305.69
432.29	1370.69
432.512	1323.69
432.734	1350.69
432.956	1322.69
433.178	1367.69
433.4	1330.69
433.622	1353.69
433.844	1354.69
434.066	1352.69
434.287	1332.69
434.509	1435.69
434.731	1470.69
434.953	1494.69
435.175	1536.69
435.397	1504.69
435.618	1441.69
435.84	1395.69
436.062	1370.69
436.284	1339.69
436.505	1345.69
436.727	1327.69
436.949	1337.69
437.17	1345.69
437.392	1310.69
437.614	1317.69
437.835	1250.69
438.057	1287.69
438.278	1278.69
438.5	1254.69
438.721	1268.69
438.943	1280.69
439.165	1301.69
439.386	1298.69
439.608	1318.69
439.829	1318.69
440.05	1318.69
440.272	1355.69
440.493	1340.69
440.715	1358.69
440.936	1390.69
441.158	1414.69
441.379	1450.69
441.6	1543.69
441.822	1538.69
442.043	1528.69
442.264	1531.69
442.486	1480.69
442.707	1482.69
442.928	1460.69
443.149	1497.69
443.371	1481.69
443.592	1524.69
443.813	1515.69
444.034	1534.69
444.255	1582.69
444.476	1651.69
444.698	1778.69
444.919	1859.69
445.14	1930.69
445.361	1742.69
445.582	1563.69
445.803	1480.69
446.024	1400.69
446.245	1428.69
446.466	1351.69
446.687	1352.69
446.908	1360.69
447.129	1323.69
447.35	1294.69
447.571	1288.69
447.792	1276.69
448.013	1266.69
448.234	1248.69
448.455	1223.69
448.675	1210.69
448.896	1248.69
449.117	1191.69
449.338	1219.69
449.559	1200.69
449.779	1200.69
450	1204.69
450.221	1213.69
450.442	1230.69
450.662	1228.69
450.883	1225.69
451.104	1292.69
451.324	1247.69
451.545	1246.69
451.766	1277.69
451.986	1218.69
452.207	1226.69
452.428	1226.69
452.648	1218.69
452.869	1189.69
453.089	1168.69
453.31	1219.69
453.53	1202.69
453.751	1193.69
453.971	1180.69
454.192	1184.69
454.412	1175.69
454.633	1168.69
454.853	1168.69
455.073	1147.69
455.294	1161.69
455.514	1168.69
455.734	1161.69
455.955	1137.69
456.175	1146.69
456.395	1140.69
456.616	1136.69
456.836	1161.69
457.056	1142.69
457.276	1094.69
457.497	1163.69
457.717	1108.69
457.937	1139.69
458.157	1184.69
458.377	1154.69
458.598	1212.69
458.818	1188.69
459.038	1262.69
459.258	1321.69
459.478	1380.69
459.698	1439.69
459.918	1442.69
460.138	1493.69
460.358	1592.69
460.578	1659.69
460.798	1617.69
461.018	1660.69
461.238	1626.69
461.458	1604.69
461.678	1576.69
461.898	1576.69
462.118	1622.69
462.338	1697.69
462.558	1734.69
462.777	1822.69
462.997	2010.69
463.217	2225.69
463.437	2243.69
463.657	2065.69
463.876	1878.69
464.096	1891.69
464.316	1872.69
464.536	1941.69
464.755	1840.69
464.975	1770.69
465.195	1673.69
465.414	1549.69
465.634	1460.69
465.854	1378.69
466.073	1384.69
466.293	1335.69
466.512	1328.69
466.732	1296.69
466.951	1316.69
467.171	1258.69
467.391	1313.69
467.61	1288.69
467.829	1306.69
468.049	1272.69
468.268	1218.69
468.488	1244.69
468.707	1218.69
468.927	1215.69
469.146	1243.69
469.365	1272.69
469.585	1251.69
469.804	1257.69
470.023	1318.69
470.243	1317.69
470.462	1340.69
470.681	1334.69
470.901	1344.69
471.12	1338.69
471.339	1286.69
471.558	1298.69
471.777	1260.69
471.997	1243.69
472.216	1218.69
472.435	1211.69
472.654	1235.69
472.873	1177.69
473.092	1211.69
473.311	1176.69
473.53	1177.69
473.749	1198.69
473.968	1186.69
474.187	1172.69
474.406	1170.69
474.625	1177.69
474.844	1201.69
475.063	1211.69
475.282	1242.69
475.501	1228.69
475.72	1242.69
475.939	1232.69
476.158	1226.69
476.377	1230.69
476.596	1222.69
476.814	1264.69
477.033	1262.69
477.252	1272.69
477.471	1307.69
477.69	1348.69
477.908	1390.69
478.127	1403.69
478.346	1421.69
478.564	1458.69
478.783	1466.69
479.002	1483.69
479.22	1548.69
479.439	1519.69
479.658	1494.69
479.876	1500.69
480.095	1532.69
480.313	1579.69
480.532	1714.69
480.751	1661.69
480.969	1564.69
481.188	1527.69
481.406	1435.69
481.624	1422.69
481.843	1374.69
482.061	1385.69
482.28	1384.69
482.498	1366.69
482.717	1359.69
482.935	1349.69
483.153	1364.69
483.372	1374.69
483.59	1379.69
483.808	1385.69
484.027	1347.69
484.245	1343.69
484.463	1395.69
484.681	1398.69
484.9	1413.69
485.118	1425.69
485.336	1426.69
485.554	1443.69
485.772	1466.69
485.99	1443.69
486.209	1461.69
486.427	1446.69
486.645	1419.69
486.863	1468.69
487.081	1435.69
487.299	1420.69
487.517	1438.69
487.735	1422.69
487.953	1416.69
488.171	1438.69
488.389	1433.69
488.607	1433.69
488.825	1438.69
489.043	1394.69
489.261	1411.69
489.479	1414.69
489.696	1441.69
489.914	1457.69
490.132	1458.69
490.35	1425.69
490.568	1450.69
490.786	1435.69
491.003	1468.69
491.221	1449.69
491.439	1450.69
491.657	1451.69
491.874	1476.69
492.092	1467.69
492.31	1473.69
492.527	1510.69
492.745	1481.69
492.963	1502.69
493.18	1491.69
493.398	1521.69
493.615	1500.69
493.833	1530.69
