Data from Ni(NO3)2@0.5M.TitratingCurve.Agarose3%dH2O.NegLispCup.LampEnergy10.LIBS07252019_HRD10591_17-59-56-564.txt Node
Date: Thu Jul 25 17:59:56 EDT 2019
User: cochatt
Spectrometer: HR+D1059
Trigger mode: 1
Integration Time (sec): 1.000000E-1
Scans to average: 1
Electric dark correction enabled: true
Nonlinearity correction enabled: false
Boxcar width: 0
XAxis mode: Wavelengths
Number of Pixels in Spectrum: 2048
>>>>>Begin Spectral Data<<<<<
223.165	-12.19
223.4	-12.19
223.635	-12.19
223.869	-13.19
224.104	-17.19
224.338	-15.19
224.573	-17.19
224.808	-11.19
225.042	-11.19
225.277	-10.19
225.511	-4.19
225.746	3.81
225.98	6.81
226.215	0.81
226.449	18.81
226.683	30.81
226.918	25.81
227.152	24.81
227.387	29.81
227.621	29.81
227.856	42.81
228.09	33.81
228.324	40.81
228.559	56.81
228.793	72.81
229.027	116.81
229.262	127.81
229.496	126.81
229.73	128.81
229.964	144.81
230.199	163.81
230.433	169.81
230.667	156.81
230.901	159.81
231.136	151.81
231.37	151.81
231.604	166.81
231.838	162.81
232.072	173.81
232.306	159.81
232.541	169.81
232.775	159.81
233.009	148.81
233.243	155.81
233.477	150.81
233.711	167.81
233.945	162.81
234.179	160.81
234.413	163.81
234.647	158.81
234.881	170.81
235.115	179.81
235.349	166.81
235.583	164.81
235.817	153.81
236.051	180.81
236.285	162.81
236.519	154.81
236.753	159.81
236.987	183.81
237.221	166.81
237.455	173.81
237.689	163.81
237.922	183.81
238.156	178.81
238.39	156.81
238.624	178.81
238.858	166.81
239.091	183.81
239.325	181.81
239.559	183.81
239.793	210.81
240.027	206.81
240.26	192.81
240.494	168.81
240.728	176.81
240.961	181.81
241.195	184.81
241.429	204.81
241.662	198.81
241.896	211.81
242.13	214.81
242.363	187.81
242.597	196.81
242.83	197.81
243.064	194.81
243.298	198.81
243.531	198.81
243.765	215.81
243.998	224.81
244.232	227.81
244.465	212.81
244.699	208.81
244.932	208.81
245.166	223.81
245.399	219.81
245.633	221.81
245.866	230.81
246.099	233.81
246.333	221.81
246.566	236.81
246.8	219.81
247.033	230.81
247.266	236.81
247.5	227.81
247.733	231.81
247.966	251.81
248.2	235.81
248.433	240.81
248.666	258.81
248.899	244.81
249.133	230.81
249.366	242.81
249.599	240.81
249.832	251.81
250.066	232.81
250.299	247.81
250.532	256.81
250.765	272.81
250.998	275.81
251.231	268.81
251.465	288.81
251.698	287.81
251.931	282.81
252.164	288.81
252.397	268.81
252.63	283.81
252.863	270.81
253.096	263.81
253.329	274.81
253.562	276.81
253.795	280.81
254.028	277.81
254.261	283.81
254.494	282.81
254.727	267.81
254.96	297.81
255.193	296.81
255.426	303.81
255.659	280.81
255.892	302.81
256.124	300.81
256.357	297.81
256.59	325.81
256.823	323.81
257.056	294.81
257.289	291.81
257.521	302.81
257.754	314.81
257.987	323.81
258.22	314.81
258.452	306.81
258.685	311.81
258.918	301.81
259.151	323.81
259.383	314.81
259.616	333.81
259.849	318.81
260.081	331.81
260.314	321.81
260.547	314.81
260.779	332.81
261.012	362.81
261.244	355.81
261.477	320.81
261.71	345.81
261.942	334.81
262.175	342.81
262.407	347.81
262.64	346.81
262.872	350.81
263.105	366.81
263.337	362.81
263.57	349.81
263.802	345.81
264.035	351.81
264.267	359.81
264.499	347.81
264.732	375.81
264.964	363.81
265.197	380.81
265.429	386.81
265.661	377.81
265.894	373.81
266.126	368.81
266.358	343.81
266.591	374.81
266.823	370.81
267.055	375.81
267.287	390.81
267.52	400.81
267.752	364.81
267.984	404.81
268.216	380.81
268.448	388.81
268.681	414.81
268.913	379.81
269.145	387.81
269.377	386.81
269.609	387.81
269.841	382.81
270.073	404.81
270.306	386.81
270.538	399.81
270.77	396.81
271.002	403.81
271.234	421.81
271.466	393.81
271.698	417.81
271.93	393.81
272.162	395.81
272.394	427.81
272.626	420.81
272.858	391.81
273.09	420.81
273.322	418.81
273.553	426.81
273.785	428.81
274.017	436.81
274.249	431.81
274.481	434.81
274.713	416.81
274.945	439.81
275.176	447.81
275.408	433.81
275.64	446.81
275.872	429.81
276.104	430.81
276.335	444.81
276.567	440.81
276.799	436.81
277.031	428.81
277.262	441.81
277.494	452.81
277.726	442.81
277.957	468.81
278.189	446.81
278.421	456.81
278.652	451.81
278.884	450.81
279.115	452.81
279.347	455.81
279.579	474.81
279.81	464.81
280.042	463.81
280.273	475.81
280.505	479.81
280.736	474.81
280.968	475.81
281.199	486.81
281.431	462.81
281.662	474.81
281.894	500.81
282.125	476.81
282.356	502.81
282.588	475.81
282.819	492.81
283.051	477.81
283.282	482.81
283.513	490.81
283.745	504.81
283.976	486.81
284.207	515.81
284.439	502.81
284.67	518.81
284.901	506.81
285.132	537.81
285.364	528.81
285.595	523.81
285.826	495.81
286.057	492.81
286.288	521.81
286.52	519.81
286.751	540.81
286.982	512.81
287.213	542.81
287.444	526.81
287.675	535.81
287.906	524.81
288.138	522.81
288.369	505.81
288.6	543.81
288.831	526.81
289.062	528.81
289.293	525.81
289.524	542.81
289.755	524.81
289.986	535.81
290.217	512.81
290.448	541.81
290.679	548.81
290.91	566.81
291.141	538.81
291.371	551.81
291.602	550.81
291.833	551.81
292.064	544.81
292.295	538.81
292.526	557.81
292.757	529.81
292.987	557.81
293.218	552.81
293.449	550.81
293.68	559.81
293.91	548.81
294.141	554.81
294.372	543.81
294.603	535.81
294.833	564.81
295.064	548.81
295.295	555.81
295.525	546.81
295.756	547.81
295.987	548.81
296.217	566.81
296.448	565.81
296.679	555.81
296.909	566.81
297.14	568.81
297.37	590.81
297.601	585.81
297.831	572.81
298.062	570.81
298.292	554.81
298.523	589.81
298.753	575.81
298.984	565.81
299.214	571.81
299.445	576.81
299.675	567.81
299.905	608.81
300.136	591.81
300.366	617.81
300.597	604.81
300.827	617.81
301.057	617.81
301.288	631.81
301.518	646.81
301.748	623.81
301.979	611.81
302.209	623.81
302.439	616.81
302.669	631.81
302.9	630.81
303.13	584.81
303.36	619.81
303.59	619.81
303.82	639.81
304.051	634.81
304.281	635.81
304.511	624.81
304.741	624.81
304.971	630.81
305.201	674.81
305.431	646.81
305.661	627.81
305.891	632.81
306.121	633.81
306.352	619.81
306.582	621.81
306.812	618.81
307.042	622.81
307.272	621.81
307.502	611.81
307.731	638.81
307.961	620.81
308.191	637.81
308.421	632.81
308.651	624.81
308.881	598.81
309.111	619.81
309.341	629.81
309.571	627.81
309.8	645.81
310.03	640.81
310.26	649.81
310.49	644.81
310.72	642.81
310.949	645.81
311.179	637.81
311.409	639.81
311.639	645.81
311.868	642.81
312.098	642.81
312.328	640.81
312.557	654.81
312.787	667.81
313.017	660.81
313.246	667.81
313.476	680.81
313.706	689.81
313.935	676.81
314.165	672.81
314.394	651.81
314.624	664.81
314.853	654.81
315.083	670.81
315.312	679.81
315.542	694.81
315.771	664.81
316.001	697.81
316.23	710.81
316.46	676.81
316.689	674.81
316.919	668.81
317.148	680.81
317.377	671.81
317.607	660.81
317.836	678.81
318.065	684.81
318.295	670.81
318.524	655.81
318.753	683.81
318.983	681.81
319.212	675.81
319.441	661.81
319.67	699.81
319.9	678.81
320.129	717.81
320.358	685.81
320.587	693.81
320.816	690.81
321.046	703.81
321.275	690.81
321.504	680.81
321.733	704.81
321.962	708.81
322.191	667.81
322.42	692.81
322.649	690.81
322.878	676.81
323.108	713.81
323.337	707.81
323.566	723.81
323.795	724.81
324.024	713.81
324.253	702.81
324.482	699.81
324.71	735.81
324.939	734.81
325.168	719.81
325.397	731.81
325.626	720.81
325.855	754.81
326.084	770.81
326.313	742.81
326.542	737.81
326.77	739.81
326.999	763.81
327.228	735.81
327.457	748.81
327.686	728.81
327.914	735.81
328.143	770.81
328.372	756.81
328.6	750.81
328.829	750.81
329.058	758.81
329.287	772.81
329.515	770.81
329.744	757.81
329.972	772.81
330.201	777.81
330.43	782.81
330.658	790.81
330.887	774.81
331.115	780.81
331.344	828.81
331.572	798.81
331.801	810.81
332.03	819.81
332.258	792.81
332.486	830.81
332.715	847.81
332.943	854.81
333.172	895.81
333.4	900.81
333.629	924.81
333.857	936.81
334.085	918.81
334.314	940.81
334.542	926.81
334.771	914.81
334.999	948.81
335.227	939.81
335.455	914.81
335.684	922.81
335.912	900.81
336.14	886.81
336.369	903.81
336.597	904.81
336.825	923.81
337.053	911.81
337.281	919.81
337.51	884.81
337.738	911.81
337.966	854.81
338.194	851.81
338.422	894.81
338.65	839.81
338.878	897.81
339.106	854.81
339.334	878.81
339.562	874.81
339.79	847.81
340.018	831.81
340.246	809.81
340.474	824.81
340.702	832.81
340.93	822.81
341.158	822.81
341.386	856.81
341.614	868.81
341.842	836.81
342.07	836.81
342.298	839.81
342.526	811.81
342.754	834.81
342.981	816.81
343.209	831.81
343.437	861.81
343.665	862.81
343.893	904.81
344.12	924.81
344.348	916.81
344.576	920.81
344.804	883.81
345.031	870.81
345.259	822.81
345.487	837.81
345.714	823.81
345.942	862.81
346.17	887.81
346.397	837.81
346.625	776.81
346.853	814.81
347.08	796.81
347.308	794.81
347.535	802.81
347.763	795.81
347.99	773.81
348.218	787.81
348.445	802.81
348.673	777.81
348.9	798.81
349.128	773.81
349.355	838.81
349.583	806.81
349.81	775.81
350.037	780.81
350.265	776.81
350.492	793.81
350.72	766.81
350.947	772.81
351.174	790.81
351.402	826.81
351.629	834.81
351.856	806.81
352.083	778.81
352.311	804.81
352.538	822.81
352.765	818.81
352.992	759.81
353.22	771.81
353.447	747.81
353.674	737.81
353.901	784.81
354.128	780.81
354.355	760.81
354.583	736.81
354.81	754.81
355.037	783.81
355.264	769.81
355.491	745.81
355.718	770.81
355.945	778.81
356.172	748.81
356.399	768.81
356.626	772.81
356.853	794.81
357.08	746.81
357.307	793.81
357.534	762.81
357.761	773.81
357.988	784.81
358.215	763.81
358.441	774.81
358.668	757.81
358.895	781.81
359.122	772.81
359.349	764.81
359.576	764.81
359.802	783.81
360.029	766.81
360.256	794.81
360.483	778.81
360.709	787.81
360.936	782.81
361.163	764.81
361.39	777.81
361.616	810.81
361.843	809.81
362.07	830.81
362.296	824.81
362.523	784.81
362.749	763.81
362.976	774.81
363.203	747.81
363.429	755.81
363.656	757.81
363.882	760.81
364.109	759.81
364.335	758.81
364.562	757.81
364.788	735.81
365.015	793.81
365.241	787.81
365.468	781.81
365.694	763.81
365.92	761.81
366.147	780.81
366.373	769.81
366.599	785.81
366.826	794.81
367.052	778.81
367.278	797.81
367.505	811.81
367.731	796.81
367.957	783.81
368.184	778.81
368.41	784.81
368.636	796.81
368.862	789.81
369.089	792.81
369.315	793.81
369.541	777.81
369.767	798.81
369.993	820.81
370.219	809.81
370.445	815.81
370.672	819.81
370.898	836.81
371.124	815.81
371.35	842.81
371.576	808.81
371.802	846.81
372.028	831.81
372.254	845.81
372.48	828.81
372.706	827.81
372.932	863.81
373.158	837.81
373.384	851.81
373.61	849.81
373.835	850.81
374.061	828.81
374.287	831.81
374.513	847.81
374.739	866.81
374.965	878.81
375.191	891.81
375.416	894.81
375.642	862.81
375.868	884.81
376.094	870.81
376.319	874.81
376.545	831.81
376.771	810.81
376.997	835.81
377.222	850.81
377.448	854.81
377.674	817.81
377.899	847.81
378.125	835.81
378.35	827.81
378.576	820.81
378.802	825.81
379.027	824.81
379.253	807.81
379.478	803.81
379.704	822.81
379.929	811.81
380.155	812.81
380.38	843.81
380.606	809.81
380.831	838.81
381.057	846.81
381.282	834.81
381.507	821.81
381.733	838.81
381.958	838.81
382.184	861.81
382.409	883.81
382.634	846.81
382.86	872.81
383.085	869.81
383.31	892.81
383.535	876.81
383.761	902.81
383.986	890.81
384.211	915.81
384.436	890.81
384.662	903.81
384.887	908.81
385.112	934.81
385.337	923.81
385.562	944.81
385.787	964.81
386.013	969.81
386.238	984.81
386.463	976.81
386.688	946.81
386.913	950.81
387.138	949.81
387.363	957.81
387.588	953.81
387.813	962.81
388.038	983.81
388.263	966.81
388.488	978.81
388.713	988.81
388.938	960.81
389.163	964.81
389.387	954.81
389.612	980.81
389.837	955.81
390.062	960.81
390.287	956.81
390.512	950.81
390.736	969.81
390.961	989.81
391.186	1007.81
391.411	1015.81
391.636	1030.81
391.86	1015.81
392.085	1031.81
392.31	1048.81
392.534	1060.81
392.759	1032.81
392.984	1022.81
393.208	1017.81
393.433	1012.81
393.658	1019.81
393.882	996.81
394.107	1042.81
394.331	1013.81
394.556	991.81
394.78	1002.81
395.005	999.81
395.229	1011.81
395.454	1041.81
395.678	1051.81
395.903	1063.81
396.127	1065.81
396.352	1064.81
396.576	1014.81
396.801	1037.81
397.025	1082.81
397.249	1062.81
397.474	1054.81
397.698	1046.81
397.922	1087.81
398.147	1078.81
398.371	1128.81
398.595	1149.81
398.82	1136.81
399.044	1234.81
399.268	1262.81
399.492	1379.81
399.717	1445.81
399.941	1471.81
400.165	1395.81
400.389	1358.81
400.613	1290.81
400.837	1224.81
401.062	1240.81
401.286	1214.81
401.51	1205.81
401.734	1157.81
401.958	1210.81
402.182	1190.81
402.406	1168.81
402.63	1166.81
402.854	1190.81
403.078	1183.81
403.302	1200.81
403.526	1219.81
403.75	1218.81
403.974	1209.81
404.198	1232.81
404.422	1242.81
404.645	1218.81
404.869	1219.81
405.093	1245.81
405.317	1230.81
405.541	1264.81
405.765	1233.81
405.988	1220.81
406.212	1225.81
406.436	1258.81
406.66	1288.81
406.883	1308.81
407.107	1359.81
407.331	1354.81
407.555	1402.81
407.778	1391.81
408.002	1380.81
408.226	1387.81
408.449	1375.81
408.673	1340.81
408.896	1315.81
409.12	1304.81
409.344	1288.81
409.567	1309.81
409.791	1271.81
410.014	1262.81
410.238	1231.81
410.461	1268.81
410.685	1229.81
410.908	1238.81
411.132	1261.81
411.355	1238.81
411.578	1219.81
411.802	1215.81
412.025	1242.81
412.249	1233.81
412.472	1226.81
412.695	1193.81
412.919	1205.81
413.142	1212.81
413.365	1182.81
413.589	1193.81
413.812	1187.81
414.035	1140.81
414.258	1152.81
414.482	1184.81
414.705	1201.81
414.928	1181.81
415.151	1182.81
415.374	1186.81
415.597	1175.81
415.821	1145.81
416.044	1144.81
416.267	1137.81
416.49	1122.81
416.713	1154.81
416.936	1160.81
417.159	1128.81
417.382	1138.81
417.605	1122.81
417.828	1162.81
418.051	1155.81
418.274	1132.81
418.497	1129.81
418.72	1128.81
418.943	1124.81
419.166	1206.81
419.389	1266.81
419.611	1258.81
419.834	1197.81
420.057	1176.81
420.28	1161.81
420.503	1147.81
420.726	1120.81
420.948	1106.81
421.171	1116.81
421.394	1135.81
421.617	1133.81
421.839	1132.81
422.062	1144.81
422.285	1070.81
422.507	1103.81
422.73	1115.81
422.953	1112.81
423.175	1151.81
423.398	1129.81
423.621	1133.81
423.843	1169.81
424.066	1134.81
424.288	1146.81
424.511	1138.81
424.733	1129.81
424.956	1110.81
425.178	1108.81
425.401	1138.81
425.623	1133.81
425.846	1129.81
426.068	1118.81
426.291	1086.81
426.513	1101.81
426.735	1080.81
426.958	1087.81
427.18	1076.81
427.402	1074.81
427.625	1077.81
427.847	1083.81
428.069	1091.81
428.292	1044.81
428.514	1037.81
428.736	1038.81
428.958	1091.81
429.181	1054.81
429.403	1030.81
429.625	1047.81
429.847	1051.81
430.069	1044.81
430.292	1052.81
430.514	1043.81
430.736	1047.81
430.958	1056.81
431.18	1056.81
431.402	1064.81
431.624	1062.81
431.846	1072.81
432.068	1065.81
432.29	1084.81
432.512	1068.81
432.734	1061.81
432.956	1051.81
433.178	1079.81
433.4	1086.81
433.622	1101.81
433.844	1106.81
434.066	1090.81
434.287	1083.81
434.509	1123.81
434.731	1128.81
434.953	1142.81
435.175	1131.81
435.397	1156.81
435.618	1121.81
435.84	1099.81
436.062	1073.81
436.284	1076.81
436.505	1084.81
436.727	1071.81
436.949	1063.81
437.17	1051.81
437.392	1069.81
437.614	1050.81
437.835	1016.81
438.057	1026.81
438.278	1025.81
438.5	1037.81
438.721	1039.81
438.943	1059.81
439.165	1002.81
439.386	1044.81
439.608	1075.81
439.829	1047.81
440.05	1021.81
440.272	1046.81
440.493	1053.81
440.715	1078.81
440.936	1085.81
441.158	1092.81
441.379	1101.81
441.6	1185.81
441.822	1118.81
442.043	1130.81
442.264	1083.81
442.486	1136.81
442.707	1104.81
442.928	1149.81
443.149	1128.81
443.371	1134.81
443.592	1166.81
443.813	1168.81
444.034	1135.81
444.255	1160.81
444.476	1178.81
444.698	1210.81
444.919	1226.81
445.14	1336.81
445.361	1226.81
445.582	1170.81
445.803	1138.81
446.024	1113.81
446.245	1074.81
446.466	1093.81
446.687	1065.81
446.908	1076.81
447.129	1036.81
447.35	1032.81
447.571	1042.81
447.792	1015.81
448.013	1018.81
448.234	954.81
448.455	998.81
448.675	995.81
448.896	981.81
449.117	955.81
449.338	970.81
449.559	952.81
449.779	981.81
450	949.81
450.221	937.81
450.442	973.81
450.662	942.81
450.883	964.81
451.104	983.81
451.324	988.81
451.545	978.81
451.766	978.81
451.986	957.81
452.207	950.81
452.428	946.81
452.648	960.81
452.869	929.81
453.089	918.81
453.31	941.81
453.53	924.81
453.751	911.81
453.971	920.81
454.192	912.81
454.412	932.81
454.633	920.81
454.853	940.81
455.073	923.81
455.294	916.81
455.514	920.81
455.734	935.81
455.955	942.81
456.175	939.81
456.395	920.81
456.616	898.81
456.836	908.81
457.056	905.81
457.276	913.81
457.497	945.81
457.717	919.81
457.937	958.81
458.157	948.81
458.377	932.81
458.598	953.81
458.818	981.81
459.038	1016.81
459.258	1040.81
459.478	1103.81
459.698	1124.81
459.918	1133.81
460.138	1165.81
460.358	1166.81
460.578	1142.81
460.798	1172.81
461.018	1199.81
461.238	1184.81
461.458	1164.81
461.678	1173.81
461.898	1182.81
462.118	1199.81
462.338	1242.81
462.558	1289.81
462.777	1311.81
462.997	1347.81
463.217	1420.81
463.437	1416.81
463.657	1407.81
463.876	1347.81
464.096	1335.81
464.316	1308.81
464.536	1306.81
464.755	1264.81
464.975	1209.81
465.195	1168.81
465.414	1163.81
465.634	1112.81
465.854	1096.81
466.073	1091.81
466.293	1065.81
466.512	1046.81
466.732	1018.81
466.951	1032.81
467.171	1029.81
467.391	1014.81
467.61	1017.81
467.829	1009.81
468.049	1015.81
468.268	985.81
468.488	997.81
468.707	954.81
468.927	979.81
469.146	986.81
469.365	1006.81
469.585	1021.81
469.804	991.81
470.023	989.81
470.243	1007.81
470.462	1008.81
470.681	1007.81
470.901	1010.81
471.12	990.81
471.339	1025.81
471.558	1013.81
471.777	997.81
471.997	1000.81
472.216	993.81
472.435	966.81
472.654	977.81
472.873	1000.81
473.092	960.81
473.311	969.81
473.53	987.81
473.749	997.81
473.968	986.81
474.187	950.81
474.406	963.81
474.625	1001.81
474.844	976.81
475.063	983.81
475.282	977.81
475.501	990.81
475.72	999.81
475.939	1006.81
476.158	984.81
476.377	1027.81
476.596	1012.81
476.814	1017.81
477.033	1034.81
477.252	1059.81
477.471	1089.81
477.69	1103.81
477.908	1110.81
478.127	1120.81
478.346	1138.81
478.564	1150.81
478.783	1161.81
479.002	1204.81
479.22	1214.81
479.439	1183.81
479.658	1187.81
479.876	1175.81
480.095	1173.81
480.313	1236.81
480.532	1224.81
480.751	1192.81
480.969	1188.81
481.188	1168.81
481.406	1144.81
481.624	1157.81
481.843	1157.81
482.061	1141.81
482.28	1146.81
482.498	1135.81
482.717	1122.81
482.935	1149.81
483.153	1169.81
483.372	1181.81
483.59	1169.81
483.808	1163.81
484.027	1152.81
484.245	1172.81
484.463	1164.81
484.681	1163.81
484.9	1194.81
485.118	1210.81
485.336	1166.81
485.554	1187.81
485.772	1182.81
485.99	1198.81
486.209	1183.81
486.427	1167.81
486.645	1173.81
486.863	1196.81
487.081	1186.81
487.299	1214.81
487.517	1168.81
487.735	1184.81
487.953	1228.81
488.171	1200.81
488.389	1159.81
488.607	1168.81
488.825	1174.81
489.043	1171.81
489.261	1158.81
489.479	1200.81
489.696	1193.81
489.914	1198.81
490.132	1183.81
490.35	1201.81
490.568	1206.81
490.786	1183.81
491.003	1183.81
491.221	1186.81
491.439	1206.81
491.657	1218.81
491.874	1244.81
492.092	1204.81
492.31	1240.81
492.527	1242.81
492.745	1224.81
492.963	1206.81
493.18	1205.81
493.398	1223.81
493.615	1216.81
493.833	1215.81
494.05	1231.81
494.268	1234.81
494.485	1263.81
494.703	1242.81
494.92	1234.81
495.138	1244.81
495.355	1239.81
495.573	1258.81
495.79	1289.81
496.008	1229.81
496.225	1276.81
