Data from Ni(NO3)2@0.5M.TitratingCurve.Agarose3%dH2O.NegLispCup.LampEnergy10.LIBS07252019_HRD10591_17-58-15-564.txt Node
Date: Thu Jul 25 17:58:15 EDT 2019
User: cochatt
Spectrometer: HR+D1059
Trigger mode: 1
Integration Time (sec): 1.000000E-1
Scans to average: 1
Electric dark correction enabled: true
Nonlinearity correction enabled: false
Boxcar width: 0
XAxis mode: Wavelengths
Number of Pixels in Spectrum: 2048
>>>>>Begin Spectral Data<<<<<
223.165	-16.62
223.4	-16.62
223.635	-16.62
223.869	-14.62
224.104	-19.62
224.338	-14.62
224.573	-16.62
224.808	-14.62
225.042	8.38
225.277	-1.62
225.511	1.38
225.746	-6.62
225.98	3.38
226.215	8.38
226.449	14.38
226.683	15.38
226.918	19.38
227.152	34.38
227.387	29.38
227.621	40.38
227.856	41.38
228.09	24.38
228.324	50.38
228.559	48.38
228.793	86.38
229.027	124.38
229.262	118.38
229.496	136.38
229.73	113.38
229.964	159.38
230.199	179.38
230.433	183.38
230.667	157.38
230.901	164.38
231.136	148.38
231.37	148.38
231.604	169.38
231.838	181.38
232.072	198.38
232.306	175.38
232.541	180.38
232.775	165.38
233.009	172.38
233.243	149.38
233.477	167.38
233.711	149.38
233.945	169.38
234.179	160.38
234.413	167.38
234.647	181.38
234.881	155.38
235.115	164.38
235.349	164.38
235.583	151.38
235.817	159.38
236.051	159.38
236.285	159.38
236.519	166.38
236.753	160.38
236.987	147.38
237.221	161.38
237.455	163.38
237.689	167.38
237.922	187.38
238.156	196.38
238.39	170.38
238.624	183.38
238.858	164.38
239.091	163.38
239.325	188.38
239.559	191.38
239.793	226.38
240.027	208.38
240.26	191.38
240.494	181.38
240.728	195.38
240.961	200.38
241.195	185.38
241.429	187.38
241.662	199.38
241.896	217.38
242.13	233.38
242.363	217.38
242.597	192.38
242.83	189.38
243.064	219.38
243.298	210.38
243.531	208.38
243.765	212.38
243.998	231.38
244.232	228.38
244.465	223.38
244.699	226.38
244.932	228.38
245.166	231.38
245.399	241.38
245.633	227.38
245.866	231.38
246.099	233.38
246.333	230.38
246.566	238.38
246.8	229.38
247.033	257.38
247.266	229.38
247.5	237.38
247.733	274.38
247.966	260.38
248.2	262.38
248.433	260.38
248.666	266.38
248.899	247.38
249.133	261.38
249.366	290.38
249.599	275.38
249.832	280.38
250.066	264.38
250.299	275.38
250.532	281.38
250.765	277.38
250.998	291.38
251.231	320.38
251.465	335.38
251.698	309.38
251.931	318.38
252.164	296.38
252.397	310.38
252.63	305.38
252.863	300.38
253.096	299.38
253.329	329.38
253.562	311.38
253.795	322.38
254.028	309.38
254.261	313.38
254.494	323.38
254.727	339.38
254.96	345.38
255.193	335.38
255.426	332.38
255.659	352.38
255.892	352.38
256.124	363.38
256.357	344.38
256.59	346.38
256.823	369.38
257.056	359.38
257.289	369.38
257.521	362.38
257.754	352.38
257.987	365.38
258.22	364.38
258.452	354.38
258.685	379.38
258.918	374.38
259.151	376.38
259.383	401.38
259.616	390.38
259.849	386.38
260.081	383.38
260.314	383.38
260.547	372.38
260.779	399.38
261.012	388.38
261.244	416.38
261.477	401.38
261.71	386.38
261.942	405.38
262.175	400.38
262.407	425.38
262.64	422.38
262.872	400.38
263.105	396.38
263.337	412.38
263.57	409.38
263.802	422.38
264.035	416.38
264.267	423.38
264.499	425.38
264.732	426.38
264.964	433.38
265.197	421.38
265.429	422.38
265.661	428.38
265.894	427.38
266.126	438.38
266.358	423.38
266.591	422.38
266.823	439.38
267.055	455.38
267.287	440.38
267.52	434.38
267.752	451.38
267.984	461.38
268.216	468.38
268.448	447.38
268.681	451.38
268.913	484.38
269.145	446.38
269.377	436.38
269.609	452.38
269.841	483.38
270.073	463.38
270.306	479.38
270.538	486.38
270.77	495.38
271.002	492.38
271.234	457.38
271.466	479.38
271.698	464.38
271.93	481.38
272.162	468.38
272.394	510.38
272.626	482.38
272.858	489.38
273.09	495.38
273.322	474.38
273.553	497.38
273.785	511.38
274.017	514.38
274.249	506.38
274.481	489.38
274.713	513.38
274.945	522.38
275.176	502.38
275.408	515.38
275.64	528.38
275.872	516.38
276.104	522.38
276.335	504.38
276.567	504.38
276.799	529.38
277.031	522.38
277.262	518.38
277.494	526.38
277.726	531.38
277.957	519.38
278.189	518.38
278.421	531.38
278.652	537.38
278.884	540.38
279.115	552.38
279.347	529.38
279.579	549.38
279.81	546.38
280.042	568.38
280.273	576.38
280.505	557.38
280.736	547.38
280.968	578.38
281.199	557.38
281.431	549.38
281.662	560.38
281.894	561.38
282.125	554.38
282.356	571.38
282.588	591.38
282.819	569.38
283.051	545.38
283.282	551.38
283.513	569.38
283.745	550.38
283.976	584.38
284.207	568.38
284.439	576.38
284.67	596.38
284.901	587.38
285.132	594.38
285.364	586.38
285.595	582.38
285.826	585.38
286.057	593.38
286.288	614.38
286.52	609.38
286.751	595.38
286.982	592.38
287.213	609.38
287.444	606.38
287.675	586.38
287.906	596.38
288.138	623.38
288.369	620.38
288.6	629.38
288.831	594.38
289.062	616.38
289.293	610.38
289.524	616.38
289.755	626.38
289.986	618.38
290.217	606.38
290.448	614.38
290.679	611.38
290.91	623.38
291.141	625.38
291.371	624.38
291.602	598.38
291.833	639.38
292.064	618.38
292.295	653.38
292.526	630.38
292.757	624.38
292.987	624.38
293.218	635.38
293.449	635.38
293.68	613.38
293.91	613.38
294.141	628.38
294.372	627.38
294.603	634.38
294.833	637.38
295.064	622.38
295.295	649.38
295.525	619.38
295.756	620.38
295.987	628.38
296.217	625.38
296.448	659.38
296.679	639.38
296.909	649.38
297.14	641.38
297.37	647.38
297.601	656.38
297.831	634.38
298.062	655.38
298.292	693.38
298.523	685.38
298.753	685.38
298.984	663.38
299.214	660.38
299.445	668.38
299.675	665.38
299.905	664.38
300.136	693.38
300.366	686.38
300.597	689.38
300.827	715.38
301.057	698.38
301.288	693.38
301.518	700.38
301.748	689.38
301.979	692.38
302.209	688.38
302.439	692.38
302.669	699.38
302.9	709.38
303.13	705.38
303.36	700.38
303.59	685.38
303.82	697.38
304.051	736.38
304.281	695.38
304.511	729.38
304.741	727.38
304.971	749.38
305.201	724.38
305.431	723.38
305.661	742.38
305.891	736.38
306.121	695.38
306.352	717.38
306.582	723.38
306.812	729.38
307.042	724.38
307.272	728.38
307.502	700.38
307.731	721.38
307.961	715.38
308.191	723.38
308.421	727.38
308.651	724.38
308.881	717.38
309.111	742.38
309.341	733.38
309.571	738.38
309.8	737.38
310.03	765.38
310.26	784.38
310.49	773.38
310.72	756.38
310.949	746.38
311.179	739.38
311.409	752.38
311.639	769.38
311.868	734.38
312.098	766.38
312.328	769.38
312.557	805.38
312.787	792.38
313.017	798.38
313.246	802.38
313.476	824.38
313.706	817.38
313.935	791.38
314.165	787.38
314.394	783.38
314.624	817.38
314.853	777.38
315.083	809.38
315.312	810.38
315.542	830.38
315.771	775.38
316.001	818.38
316.23	810.38
316.46	809.38
316.689	807.38
316.919	836.38
317.148	809.38
317.377	820.38
317.607	823.38
317.836	804.38
318.065	845.38
318.295	833.38
318.524	833.38
318.753	829.38
318.983	851.38
319.212	829.38
319.441	860.38
319.67	843.38
319.9	853.38
320.129	873.38
320.358	829.38
320.587	863.38
320.816	865.38
321.046	881.38
321.275	876.38
321.504	899.38
321.733	905.38
321.962	900.38
322.191	886.38
322.42	896.38
322.649	883.38
322.878	893.38
323.108	896.38
323.337	903.38
323.566	888.38
323.795	918.38
324.024	904.38
324.253	916.38
324.482	903.38
324.71	913.38
324.939	909.38
325.168	939.38
325.397	916.38
325.626	924.38
325.855	935.38
326.084	965.38
326.313	958.38
326.542	941.38
326.77	976.38
326.999	960.38
327.228	952.38
327.457	964.38
327.686	977.38
327.914	978.38
328.143	970.38
328.372	973.38
328.6	991.38
328.829	947.38
329.058	997.38
329.287	999.38
329.515	997.38
329.744	992.38
329.972	993.38
330.201	994.38
330.43	983.38
330.658	994.38
330.887	1023.38
331.115	1012.38
331.344	1001.38
331.572	1012.38
331.801	1042.38
332.03	1036.38
332.258	993.38
332.486	996.38
332.715	995.38
332.943	1023.38
333.172	1032.38
333.4	1064.38
333.629	1073.38
333.857	1061.38
334.085	1062.38
334.314	1068.38
334.542	1057.38
334.771	1075.38
334.999	1068.38
335.227	1057.38
335.455	1079.38
335.684	1077.38
335.912	1097.38
336.14	1101.38
336.369	1097.38
336.597	1087.38
336.825	1135.38
337.053	1097.38
337.281	1113.38
337.51	1105.38
337.738	1113.38
337.966	1055.38
338.194	1118.38
338.422	1118.38
338.65	1074.38
338.878	1060.38
339.106	1061.38
339.334	1110.38
339.562	1110.38
339.79	1076.38
340.018	1078.38
340.246	1032.38
340.474	1086.38
340.702	1077.38
340.93	1054.38
341.158	1052.38
341.386	1109.38
341.614	1150.38
341.842	1099.38
342.07	1056.38
342.298	1105.38
342.526	1091.38
342.754	1110.38
342.981	1032.38
343.209	1063.38
343.437	1117.38
343.665	1102.38
343.893	1092.38
344.12	1087.38
344.348	1090.38
344.576	1127.38
344.804	1137.38
345.031	1111.38
345.259	1093.38
345.487	1090.38
345.714	1088.38
345.942	1096.38
346.17	1134.38
346.397	1107.38
346.625	1011.38
346.853	1030.38
347.08	1018.38
347.308	1042.38
347.535	1050.38
347.763	1063.38
347.99	1035.38
348.218	1025.38
348.445	1043.38
348.673	1012.38
348.9	1030.38
349.128	1083.38
349.355	1081.38
349.583	1094.38
349.81	1025.38
350.037	1040.38
350.265	1048.38
350.492	1040.38
350.72	1012.38
350.947	1057.38
351.174	1051.38
351.402	1075.38
351.629	1062.38
351.856	1035.38
352.083	1046.38
352.311	1071.38
352.538	1055.38
352.765	1072.38
352.992	1047.38
353.22	1010.38
353.447	993.38
353.674	994.38
353.901	994.38
354.128	1002.38
354.355	1031.38
354.583	1011.38
354.81	1003.38
355.037	1039.38
355.264	999.38
355.491	1047.38
355.718	1014.38
355.945	992.38
356.172	1009.38
356.399	1035.38
356.626	1043.38
356.853	1089.38
357.08	1044.38
357.307	1028.38
357.534	1031.38
357.761	1052.38
357.988	1007.38
358.215	1040.38
358.441	1007.38
358.668	1016.38
358.895	1020.38
359.122	1008.38
359.349	1011.38
359.576	1019.38
359.802	1015.38
360.029	1031.38
360.256	1009.38
360.483	1003.38
360.709	1027.38
360.936	1002.38
361.163	1037.38
361.39	1021.38
361.616	1033.38
361.843	1088.38
362.07	1087.38
362.296	1063.38
362.523	1040.38
362.749	990.38
362.976	1061.38
363.203	1024.38
363.429	1011.38
363.656	1014.38
363.882	1058.38
364.109	1014.38
364.335	1028.38
364.562	1027.38
364.788	1023.38
365.015	1073.38
365.241	1009.38
365.468	1041.38
365.694	1024.38
365.92	1047.38
366.147	1041.38
366.373	1026.38
366.599	1063.38
366.826	1041.38
367.052	1071.38
367.278	1035.38
367.505	1043.38
367.731	1068.38
367.957	1054.38
368.184	1059.38
368.41	1056.38
368.636	1078.38
368.862	1085.38
369.089	1067.38
369.315	1023.38
369.541	1048.38
369.767	1073.38
369.993	1017.38
370.219	1062.38
370.445	1066.38
370.672	1049.38
370.898	1060.38
371.124	1055.38
371.35	1081.38
371.576	1080.38
371.802	1058.38
372.028	1084.38
372.254	1094.38
372.48	1056.38
372.706	1077.38
372.932	1063.38
373.158	1055.38
373.384	1074.38
373.61	1039.38
373.835	1059.38
374.061	1060.38
374.287	1115.38
374.513	1079.38
374.739	1118.38
374.965	1109.38
375.191	1079.38
375.416	1071.38
375.642	1095.38
375.868	1063.38
376.094	1082.38
376.319	1088.38
376.545	1041.38
376.771	1052.38
376.997	1054.38
377.222	1082.38
377.448	1059.38
377.674	1097.38
377.899	1073.38
378.125	1060.38
378.35	1051.38
378.576	1045.38
378.802	1063.38
379.027	1047.38
379.253	1043.38
379.478	1054.38
379.704	1090.38
379.929	1056.38
380.155	1031.38
380.38	1049.38
380.606	1076.38
380.831	1077.38
381.057	1067.38
381.282	1059.38
381.507	1056.38
381.733	1052.38
381.958	1079.38
382.184	1079.38
382.409	1079.38
382.634	1073.38
382.86	1075.38
383.085	1085.38
383.31	1088.38
383.535	1043.38
383.761	1093.38
383.986	1051.38
384.211	1060.38
384.436	1083.38
384.662	1114.38
384.887	1082.38
385.112	1105.38
385.337	1130.38
385.562	1075.38
385.787	1106.38
386.013	1143.38
386.238	1147.38
386.463	1143.38
386.688	1116.38
386.913	1104.38
387.138	1133.38
387.363	1133.38
387.588	1086.38
387.813	1147.38
388.038	1148.38
388.263	1131.38
388.488	1112.38
388.713	1148.38
388.938	1145.38
389.163	1139.38
389.387	1154.38
389.612	1126.38
389.837	1147.38
390.062	1122.38
390.287	1167.38
390.512	1153.38
390.736	1139.38
390.961	1156.38
391.186	1141.38
391.411	1130.38
391.636	1149.38
391.86	1183.38
392.085	1151.38
392.31	1133.38
392.534	1180.38
392.759	1191.38
392.984	1132.38
393.208	1183.38
393.433	1190.38
393.658	1169.38
393.882	1171.38
394.107	1172.38
394.331	1166.38
394.556	1172.38
394.78	1175.38
395.005	1169.38
395.229	1159.38
395.454	1184.38
395.678	1153.38
395.903	1168.38
396.127	1168.38
396.352	1203.38
396.576	1228.38
396.801	1199.38
397.025	1170.38
397.249	1195.38
397.474	1201.38
397.698	1225.38
397.922	1232.38
398.147	1196.38
398.371	1236.38
398.595	1233.38
398.82	1242.38
399.044	1251.38
399.268	1281.38
399.492	1322.38
399.717	1314.38
399.941	1362.38
400.165	1353.38
400.389	1324.38
400.613	1311.38
400.837	1253.38
401.062	1270.38
401.286	1279.38
401.51	1265.38
401.734	1250.38
401.958	1281.38
402.182	1252.38
402.406	1244.38
402.63	1244.38
402.854	1258.38
403.078	1259.38
403.302	1291.38
403.526	1260.38
403.75	1243.38
403.974	1280.38
404.198	1245.38
404.422	1288.38
404.645	1264.38
404.869	1273.38
405.093	1288.38
405.317	1282.38
405.541	1315.38
405.765	1261.38
405.988	1293.38
406.212	1331.38
406.436	1321.38
406.66	1322.38
406.883	1294.38
407.107	1344.38
407.331	1331.38
407.555	1411.38
407.778	1364.38
408.002	1347.38
408.226	1368.38
408.449	1355.38
408.673	1367.38
408.896	1340.38
409.12	1349.38
409.344	1352.38
409.567	1338.38
409.791	1316.38
410.014	1296.38
410.238	1329.38
410.461	1301.38
410.685	1309.38
410.908	1327.38
411.132	1340.38
411.355	1311.38
411.578	1281.38
411.802	1329.38
412.025	1301.38
412.249	1316.38
412.472	1282.38
412.695	1292.38
412.919	1294.38
413.142	1290.38
413.365	1310.38
413.589	1324.38
413.812	1279.38
414.035	1287.38
414.258	1266.38
414.482	1267.38
414.705	1238.38
414.928	1259.38
415.151	1265.38
415.374	1270.38
415.597	1248.38
415.821	1231.38
416.044	1251.38
416.267	1246.38
416.49	1251.38
416.713	1233.38
416.936	1256.38
417.159	1225.38
417.382	1205.38
417.605	1221.38
417.828	1242.38
418.051	1219.38
418.274	1216.38
418.497	1235.38
418.72	1220.38
418.943	1227.38
419.166	1309.38
419.389	1305.38
419.611	1303.38
419.834	1276.38
420.057	1249.38
420.28	1231.38
420.503	1190.38
420.726	1192.38
420.948	1219.38
421.171	1202.38
421.394	1233.38
421.617	1217.38
421.839	1237.38
422.062	1217.38
422.285	1194.38
422.507	1227.38
422.73	1189.38
422.953	1222.38
423.175	1227.38
423.398	1216.38
423.621	1200.38
423.843	1215.38
424.066	1233.38
424.288	1222.38
424.511	1229.38
424.733	1222.38
424.956	1238.38
425.178	1211.38
425.401	1200.38
425.623	1235.38
425.846	1217.38
426.068	1235.38
426.291	1242.38
426.513	1249.38
426.735	1191.38
426.958	1207.38
427.18	1195.38
427.402	1225.38
427.625	1217.38
427.847	1225.38
428.069	1231.38
428.292	1236.38
428.514	1210.38
428.736	1222.38
428.958	1241.38
429.181	1177.38
429.403	1192.38
429.625	1215.38
429.847	1220.38
430.069	1220.38
430.292	1215.38
430.514	1203.38
430.736	1228.38
430.958	1193.38
431.18	1211.38
431.402	1223.38
431.624	1184.38
431.846	1189.38
432.068	1184.38
432.29	1224.38
432.512	1171.38
432.734	1240.38
432.956	1232.38
433.178	1251.38
433.4	1232.38
433.622	1274.38
433.844	1264.38
434.066	1249.38
434.287	1229.38
434.509	1227.38
434.731	1209.38
434.953	1247.38
435.175	1265.38
435.397	1283.38
435.618	1239.38
435.84	1223.38
436.062	1237.38
436.284	1233.38
436.505	1211.38
436.727	1215.38
436.949	1204.38
437.17	1220.38
437.392	1213.38
437.614	1195.38
437.835	1199.38
438.057	1177.38
438.278	1194.38
438.5	1195.38
438.721	1172.38
438.943	1197.38
439.165	1177.38
439.386	1218.38
439.608	1205.38
439.829	1220.38
440.05	1221.38
440.272	1200.38
440.493	1247.38
440.715	1242.38
440.936	1209.38
441.158	1206.38
441.379	1244.38
441.6	1272.38
441.822	1212.38
442.043	1240.38
442.264	1223.38
442.486	1228.38
442.707	1243.38
442.928	1209.38
443.149	1252.38
443.371	1242.38
443.592	1293.38
443.813	1243.38
444.034	1273.38
444.255	1276.38
444.476	1275.38
444.698	1258.38
444.919	1308.38
445.14	1393.38
445.361	1364.38
445.582	1285.38
445.803	1264.38
446.024	1196.38
446.245	1224.38
446.466	1202.38
446.687	1190.38
446.908	1223.38
447.129	1174.38
447.35	1187.38
447.571	1192.38
447.792	1150.38
448.013	1147.38
448.234	1151.38
448.455	1116.38
448.675	1121.38
448.896	1133.38
449.117	1123.38
449.338	1148.38
449.559	1137.38
449.779	1084.38
450	1124.38
450.221	1117.38
450.442	1121.38
450.662	1111.38
450.883	1136.38
451.104	1146.38
451.324	1115.38
451.545	1130.38
451.766	1124.38
451.986	1102.38
452.207	1113.38
452.428	1091.38
452.648	1100.38
452.869	1119.38
453.089	1115.38
453.31	1149.38
453.53	1129.38
453.751	1097.38
453.971	1097.38
454.192	1136.38
454.412	1135.38
454.633	1131.38
454.853	1116.38
455.073	1115.38
455.294	1125.38
455.514	1141.38
455.734	1113.38
455.955	1128.38
456.175	1124.38
456.395	1084.38
456.616	1069.38
456.836	1082.38
457.056	1067.38
457.276	1055.38
457.497	1120.38
457.717	1143.38
457.937	1106.38
458.157	1132.38
458.377	1122.38
458.598	1119.38
458.818	1134.38
459.038	1141.38
459.258	1164.38
459.478	1185.38
459.698	1273.38
459.918	1246.38
460.138	1266.38
460.358	1229.38
460.578	1234.38
460.798	1243.38
461.018	1281.38
461.238	1244.38
461.458	1232.38
461.678	1233.38
461.898	1249.38
462.118	1250.38
462.338	1266.38
462.558	1271.38
462.777	1322.38
462.997	1334.38
463.217	1307.38
463.437	1372.38
463.657	1340.38
463.876	1311.38
464.096	1268.38
464.316	1284.38
464.536	1297.38
464.755	1286.38
464.975	1286.38
465.195	1238.38
465.414	1273.38
465.634	1189.38
465.854	1209.38
466.073	1209.38
466.293	1183.38
466.512	1162.38
466.732	1175.38
466.951	1166.38
467.171	1217.38
467.391	1172.38
467.61	1173.38
467.829	1189.38
468.049	1147.38
468.268	1183.38
468.488	1146.38
468.707	1167.38
468.927	1185.38
469.146	1184.38
469.365	1209.38
469.585	1171.38
469.804	1180.38
470.023	1188.38
470.243	1153.38
470.462	1189.38
470.681	1172.38
470.901	1164.38
471.12	1164.38
471.339	1170.38
471.558	1188.38
471.777	1180.38
471.997	1185.38
472.216	1163.38
472.435	1196.38
472.654	1179.38
472.873	1176.38
473.092	1192.38
473.311	1217.38
473.53	1193.38
473.749	1177.38
473.968	1222.38
474.187	1196.38
474.406	1195.38
474.625	1206.38
474.844	1216.38
475.063	1196.38
475.282	1234.38
475.501	1237.38
475.72	1247.38
475.939	1260.38
476.158	1232.38
476.377	1272.38
476.596	1265.38
476.814	1246.38
477.033	1229.38
477.252	1284.38
477.471	1292.38
477.69	1301.38
477.908	1317.38
478.127	1299.38
478.346	1349.38
478.564	1380.38
478.783	1353.38
479.002	1413.38
479.22	1420.38
479.439	1412.38
479.658	1389.38
479.876	1394.38
480.095	1383.38
480.313	1384.38
480.532	1412.38
480.751	1385.38
480.969	1353.38
481.188	1379.38
481.406	1364.38
481.624	1380.38
481.843	1398.38
482.061	1393.38
482.28	1374.38
482.498	1359.38
482.717	1375.38
482.935	1435.38
483.153	1439.38
483.372	1435.38
483.59	1466.38
483.808	1414.38
484.027	1412.38
484.245	1422.38
484.463	1427.38
484.681	1456.38
484.9	1404.38
485.118	1439.38
485.336	1401.38
485.554	1412.38
485.772	1416.38
485.99	1426.38
486.209	1401.38
486.427	1423.38
486.645	1447.38
486.863	1443.38
487.081	1451.38
487.299	1467.38
487.517	1464.38
487.735	1468.38
487.953	1513.38
488.171	1482.38
488.389	1469.38
488.607	1434.38
488.825	1468.38
489.043	1463.38
489.261	1469.38
489.479	1429.38
489.696	1453.38
489.914	1437.38
490.132	1445.38
490.35	1477.38
490.568	1473.38
490.786	1448.38
491.003	1467.38
491.221	1509.38
491.439	1478.38
491.657	1488.38
491.874	1530.38
