Data from Ni(NO3)2@0.5M.TitratingCurve.Agarose3%dH2O.NegLispCup.LampEnergy10.LIBS07252019_HRD10591_17-59-14-564.txt Node
Date: Thu Jul 25 17:59:14 EDT 2019
User: cochatt
Spectrometer: HR+D1059
Trigger mode: 1
Integration Time (sec): 1.000000E-1
Scans to average: 1
Electric dark correction enabled: true
Nonlinearity correction enabled: false
Boxcar width: 0
XAxis mode: Wavelengths
Number of Pixels in Spectrum: 2048
>>>>>Begin Spectral Data<<<<<
223.165	-11.75
223.4	-11.75
223.635	-11.75
223.869	-21.75
224.104	-11.75
224.338	-11.75
224.573	0.25
224.808	-14.75
225.042	-4.75
225.277	-7.75
225.511	-4.75
225.746	4.25
225.98	-4.75
226.215	15.25
226.449	19.25
226.683	12.25
226.918	21.25
227.152	21.25
227.387	27.25
227.621	39.25
227.856	49.25
228.09	52.25
228.324	39.25
228.559	56.25
228.793	78.25
229.027	134.25
229.262	132.25
229.496	119.25
229.73	143.25
229.964	170.25
230.199	192.25
230.433	181.25
230.667	176.25
230.901	192.25
231.136	141.25
231.37	164.25
231.604	170.25
231.838	186.25
232.072	195.25
232.306	196.25
232.541	169.25
232.775	157.25
233.009	151.25
233.243	154.25
233.477	169.25
233.711	159.25
233.945	160.25
234.179	165.25
234.413	158.25
234.647	165.25
234.881	157.25
235.115	169.25
235.349	146.25
235.583	152.25
235.817	147.25
236.051	152.25
236.285	160.25
236.519	158.25
236.753	154.25
236.987	151.25
237.221	152.25
237.455	161.25
237.689	149.25
237.922	176.25
238.156	164.25
238.39	161.25
238.624	164.25
238.858	159.25
239.091	178.25
239.325	183.25
239.559	195.25
239.793	220.25
240.027	216.25
240.26	186.25
240.494	170.25
240.728	177.25
240.961	183.25
241.195	166.25
241.429	184.25
241.662	199.25
241.896	213.25
242.13	216.25
242.363	191.25
242.597	190.25
242.83	188.25
243.064	187.25
243.298	190.25
243.531	205.25
243.765	206.25
243.998	209.25
244.232	208.25
244.465	203.25
244.699	208.25
244.932	190.25
245.166	203.25
245.399	224.25
245.633	210.25
245.866	220.25
246.099	200.25
246.333	209.25
246.566	209.25
246.8	216.25
247.033	202.25
247.266	216.25
247.5	220.25
247.733	212.25
247.966	232.25
248.2	214.25
248.433	224.25
248.666	219.25
248.899	224.25
249.133	222.25
249.366	230.25
249.599	238.25
249.832	236.25
250.066	251.25
250.299	239.25
250.532	247.25
250.765	261.25
250.998	258.25
251.231	277.25
251.465	269.25
251.698	259.25
251.931	256.25
252.164	252.25
252.397	274.25
252.63	245.25
252.863	254.25
253.096	265.25
253.329	257.25
253.562	268.25
253.795	262.25
254.028	272.25
254.261	268.25
254.494	276.25
254.727	266.25
254.96	283.25
255.193	256.25
255.426	267.25
255.659	291.25
255.892	280.25
256.124	281.25
256.357	293.25
256.59	282.25
256.823	272.25
257.056	290.25
257.289	275.25
257.521	285.25
257.754	292.25
257.987	290.25
258.22	282.25
258.452	301.25
258.685	312.25
258.918	285.25
259.151	290.25
259.383	307.25
259.616	299.25
259.849	295.25
260.081	308.25
260.314	326.25
260.547	302.25
260.779	319.25
261.012	333.25
261.244	305.25
261.477	323.25
261.71	309.25
261.942	324.25
262.175	334.25
262.407	320.25
262.64	302.25
262.872	332.25
263.105	335.25
263.337	333.25
263.57	335.25
263.802	326.25
264.035	342.25
264.267	340.25
264.499	348.25
264.732	350.25
264.964	353.25
265.197	342.25
265.429	340.25
265.661	340.25
265.894	329.25
266.126	359.25
266.358	342.25
266.591	345.25
266.823	357.25
267.055	350.25
267.287	361.25
267.52	339.25
267.752	340.25
267.984	356.25
268.216	374.25
268.448	357.25
268.681	362.25
268.913	364.25
269.145	347.25
269.377	378.25
269.609	344.25
269.841	353.25
270.073	371.25
270.306	386.25
270.538	369.25
270.77	347.25
271.002	364.25
271.234	356.25
271.466	376.25
271.698	372.25
271.93	391.25
272.162	388.25
272.394	396.25
272.626	379.25
272.858	395.25
273.09	402.25
273.322	388.25
273.553	377.25
273.785	377.25
274.017	402.25
274.249	419.25
274.481	418.25
274.713	398.25
274.945	400.25
275.176	420.25
275.408	406.25
275.64	404.25
275.872	408.25
276.104	409.25
276.335	423.25
276.567	414.25
276.799	406.25
277.031	404.25
277.262	389.25
277.494	434.25
277.726	412.25
277.957	416.25
278.189	409.25
278.421	420.25
278.652	414.25
278.884	426.25
279.115	427.25
279.347	444.25
279.579	445.25
279.81	430.25
280.042	402.25
280.273	447.25
280.505	444.25
280.736	441.25
280.968	436.25
281.199	481.25
281.431	422.25
281.662	451.25
281.894	438.25
282.125	456.25
282.356	460.25
282.588	451.25
282.819	452.25
283.051	456.25
283.282	465.25
283.513	473.25
283.745	466.25
283.976	444.25
284.207	459.25
284.439	468.25
284.67	472.25
284.901	464.25
285.132	461.25
285.364	454.25
285.595	475.25
285.826	447.25
286.057	464.25
286.288	467.25
286.52	490.25
286.751	488.25
286.982	468.25
287.213	458.25
287.444	477.25
287.675	466.25
287.906	496.25
288.138	476.25
288.369	483.25
288.6	499.25
288.831	501.25
289.062	489.25
289.293	495.25
289.524	490.25
289.755	482.25
289.986	472.25
290.217	508.25
290.448	493.25
290.679	498.25
290.91	498.25
291.141	490.25
291.371	500.25
291.602	514.25
291.833	487.25
292.064	483.25
292.295	485.25
292.526	486.25
292.757	494.25
292.987	520.25
293.218	484.25
293.449	503.25
293.68	498.25
293.91	496.25
294.141	499.25
294.372	486.25
294.603	476.25
294.833	495.25
295.064	473.25
295.295	500.25
295.525	504.25
295.756	494.25
295.987	497.25
296.217	505.25
296.448	514.25
296.679	525.25
296.909	526.25
297.14	514.25
297.37	526.25
297.601	527.25
297.831	562.25
298.062	542.25
298.292	565.25
298.523	566.25
298.753	539.25
298.984	555.25
299.214	523.25
299.445	546.25
299.675	550.25
299.905	539.25
300.136	542.25
300.366	598.25
300.597	600.25
300.827	572.25
301.057	570.25
301.288	571.25
301.518	593.25
301.748	566.25
301.979	560.25
302.209	553.25
302.439	546.25
302.669	581.25
302.9	570.25
303.13	532.25
303.36	568.25
303.59	571.25
303.82	589.25
304.051	584.25
304.281	561.25
304.511	562.25
304.741	595.25
304.971	590.25
305.201	608.25
305.431	612.25
305.661	627.25
305.891	592.25
306.121	580.25
306.352	590.25
306.582	588.25
306.812	560.25
307.042	570.25
307.272	574.25
307.502	566.25
307.731	595.25
307.961	578.25
308.191	570.25
308.421	586.25
308.651	572.25
308.881	571.25
309.111	580.25
309.341	584.25
309.571	617.25
309.8	609.25
310.03	612.25
310.26	622.25
310.49	612.25
310.72	624.25
310.949	598.25
311.179	592.25
311.409	603.25
311.639	632.25
311.868	602.25
312.098	587.25
312.328	613.25
312.557	610.25
312.787	618.25
313.017	616.25
313.246	618.25
313.476	635.25
313.706	662.25
313.935	628.25
314.165	645.25
314.394	643.25
314.624	635.25
314.853	610.25
315.083	636.25
315.312	632.25
315.542	626.25
315.771	626.25
316.001	628.25
316.23	652.25
316.46	635.25
316.689	645.25
316.919	620.25
317.148	638.25
317.377	658.25
317.607	628.25
317.836	620.25
318.065	642.25
318.295	640.25
318.524	631.25
318.753	639.25
318.983	636.25
319.212	626.25
319.441	630.25
319.67	630.25
319.9	663.25
320.129	624.25
320.358	660.25
320.587	678.25
320.816	635.25
321.046	660.25
321.275	653.25
321.504	648.25
321.733	665.25
321.962	669.25
322.191	678.25
322.42	659.25
322.649	656.25
322.878	650.25
323.108	684.25
323.337	686.25
323.566	684.25
323.795	692.25
324.024	690.25
324.253	674.25
324.482	689.25
324.71	688.25
324.939	693.25
325.168	697.25
325.397	674.25
325.626	680.25
325.855	690.25
326.084	696.25
326.313	718.25
326.542	700.25
326.77	689.25
326.999	731.25
327.228	681.25
327.457	693.25
327.686	711.25
327.914	689.25
328.143	696.25
328.372	680.25
328.6	697.25
328.829	724.25
329.058	702.25
329.287	713.25
329.515	700.25
329.744	736.25
329.972	753.25
330.201	744.25
330.43	751.25
330.658	738.25
330.887	733.25
331.115	743.25
331.344	748.25
331.572	740.25
331.801	742.25
332.03	779.25
332.258	780.25
332.486	774.25
332.715	781.25
332.943	788.25
333.172	789.25
333.4	803.25
333.629	800.25
333.857	819.25
334.085	836.25
334.314	822.25
334.542	824.25
334.771	834.25
334.999	821.25
335.227	851.25
335.455	834.25
335.684	843.25
335.912	821.25
336.14	828.25
336.369	820.25
336.597	840.25
336.825	830.25
337.053	861.25
337.281	877.25
337.51	849.25
337.738	839.25
337.966	877.25
338.194	851.25
338.422	852.25
338.65	790.25
338.878	790.25
339.106	814.25
339.334	837.25
339.562	808.25
339.79	809.25
340.018	778.25
340.246	786.25
340.474	739.25
340.702	757.25
340.93	801.25
341.158	818.25
341.386	830.25
341.614	864.25
341.842	846.25
342.07	811.25
342.298	801.25
342.526	794.25
342.754	775.25
342.981	786.25
343.209	816.25
343.437	838.25
343.665	842.25
343.893	844.25
344.12	845.25
344.348	843.25
344.576	830.25
344.804	846.25
345.031	808.25
345.259	809.25
345.487	803.25
345.714	831.25
345.942	850.25
346.17	846.25
346.397	843.25
346.625	785.25
346.853	748.25
347.08	781.25
347.308	772.25
347.535	767.25
347.763	759.25
347.99	740.25
348.218	758.25
348.445	752.25
348.673	738.25
348.9	742.25
349.128	761.25
349.355	802.25
349.583	800.25
349.81	747.25
350.037	726.25
350.265	752.25
350.492	756.25
350.72	746.25
350.947	771.25
351.174	782.25
351.402	790.25
351.629	794.25
351.856	768.25
352.083	768.25
352.311	790.25
352.538	845.25
352.765	806.25
352.992	760.25
353.22	734.25
353.447	698.25
353.674	722.25
353.901	716.25
354.128	737.25
354.355	729.25
354.583	731.25
354.81	718.25
355.037	747.25
355.264	729.25
355.491	735.25
355.718	712.25
355.945	732.25
356.172	736.25
356.399	721.25
356.626	770.25
356.853	794.25
357.08	753.25
357.307	747.25
357.534	743.25
357.761	732.25
357.988	725.25
358.215	724.25
358.441	716.25
358.668	720.25
358.895	742.25
359.122	727.25
359.349	728.25
359.576	729.25
359.802	732.25
360.029	740.25
360.256	743.25
360.483	760.25
360.709	764.25
360.936	745.25
361.163	741.25
361.39	731.25
361.616	767.25
361.843	805.25
362.07	821.25
362.296	796.25
362.523	748.25
362.749	756.25
362.976	749.25
363.203	747.25
363.429	749.25
363.656	774.25
363.882	738.25
364.109	735.25
364.335	725.25
364.562	721.25
364.788	730.25
365.015	732.25
365.241	732.25
365.468	738.25
365.694	763.25
365.92	728.25
366.147	715.25
366.373	742.25
366.599	748.25
366.826	739.25
367.052	752.25
367.278	743.25
367.505	770.25
367.731	759.25
367.957	729.25
368.184	770.25
368.41	772.25
368.636	739.25
368.862	796.25
369.089	755.25
369.315	732.25
369.541	736.25
369.767	776.25
369.993	764.25
370.219	734.25
370.445	768.25
370.672	795.25
370.898	772.25
371.124	796.25
371.35	779.25
371.576	770.25
371.802	784.25
372.028	768.25
372.254	783.25
372.48	792.25
372.706	813.25
372.932	796.25
373.158	787.25
373.384	799.25
373.61	817.25
373.835	790.25
374.061	788.25
374.287	822.25
374.513	796.25
374.739	813.25
374.965	825.25
375.191	842.25
375.416	844.25
375.642	815.25
375.868	821.25
376.094	813.25
376.319	800.25
376.545	792.25
376.771	781.25
376.997	794.25
377.222	782.25
377.448	785.25
377.674	780.25
377.899	772.25
378.125	776.25
378.35	786.25
378.576	793.25
378.802	772.25
379.027	776.25
379.253	764.25
379.478	775.25
379.704	785.25
379.929	790.25
380.155	790.25
380.38	777.25
380.606	785.25
380.831	764.25
381.057	782.25
381.282	792.25
381.507	752.25
381.733	804.25
381.958	797.25
382.184	794.25
382.409	795.25
382.634	811.25
382.86	817.25
383.085	812.25
383.31	848.25
383.535	790.25
383.761	828.25
383.986	858.25
384.211	844.25
384.436	816.25
384.662	839.25
384.887	880.25
385.112	838.25
385.337	886.25
385.562	873.25
385.787	899.25
386.013	904.25
386.238	909.25
386.463	887.25
386.688	900.25
386.913	878.25
387.138	887.25
387.363	898.25
387.588	885.25
387.813	890.25
388.038	910.25
388.263	907.25
388.488	898.25
388.713	887.25
388.938	904.25
389.163	877.25
389.387	880.25
389.612	905.25
389.837	878.25
390.062	900.25
390.287	866.25
390.512	900.25
390.736	915.25
390.961	900.25
391.186	915.25
391.411	897.25
391.636	937.25
391.86	957.25
392.085	944.25
392.31	946.25
392.534	957.25
392.759	928.25
392.984	972.25
393.208	928.25
393.433	968.25
393.658	935.25
393.882	933.25
394.107	935.25
394.331	908.25
394.556	917.25
394.78	958.25
395.005	960.25
395.229	916.25
395.454	970.25
395.678	973.25
395.903	952.25
396.127	974.25
396.352	934.25
396.576	977.25
396.801	947.25
397.025	976.25
397.249	980.25
397.474	979.25
397.698	988.25
397.922	1010.25
398.147	1037.25
398.371	1042.25
398.595	1036.25
398.82	1073.25
399.044	1114.25
399.268	1103.25
399.492	1171.25
399.717	1194.25
399.941	1236.25
400.165	1200.25
400.389	1158.25
400.613	1147.25
400.837	1137.25
401.062	1081.25
401.286	1079.25
401.51	1050.25
401.734	1065.25
401.958	1059.25
402.182	1033.25
402.406	1048.25
402.63	1062.25
402.854	1037.25
403.078	1068.25
403.302	1083.25
403.526	1070.25
403.75	1072.25
403.974	1069.25
404.198	1042.25
404.422	1078.25
404.645	1065.25
404.869	1067.25
405.093	1091.25
405.317	1083.25
405.541	1092.25
405.765	1088.25
405.988	1102.25
406.212	1117.25
406.436	1116.25
406.66	1170.25
406.883	1157.25
407.107	1200.25
407.331	1184.25
407.555	1210.25
407.778	1219.25
408.002	1192.25
408.226	1188.25
408.449	1200.25
408.673	1171.25
408.896	1196.25
409.12	1125.25
409.344	1198.25
409.567	1140.25
409.791	1129.25
410.014	1128.25
410.238	1127.25
410.461	1141.25
410.685	1112.25
410.908	1138.25
411.132	1120.25
411.355	1101.25
411.578	1132.25
411.802	1094.25
412.025	1108.25
412.249	1114.25
412.472	1115.25
412.695	1089.25
412.919	1068.25
413.142	1097.25
413.365	1113.25
413.589	1061.25
413.812	1044.25
414.035	1074.25
414.258	1077.25
414.482	1065.25
414.705	1051.25
414.928	1024.25
415.151	1052.25
415.374	1036.25
415.597	1045.25
415.821	1053.25
416.044	1050.25
416.267	1052.25
416.49	1017.25
416.713	1010.25
416.936	1026.25
417.159	1042.25
417.382	1020.25
417.605	1025.25
417.828	1018.25
418.051	1010.25
418.274	1027.25
418.497	1010.25
418.72	1051.25
418.943	1003.25
419.166	1072.25
419.389	1141.25
419.611	1097.25
419.834	1067.25
420.057	1048.25
420.28	1012.25
420.503	1005.25
420.726	1020.25
420.948	994.25
421.171	1011.25
421.394	983.25
421.617	1003.25
421.839	1033.25
422.062	1015.25
422.285	990.25
422.507	998.25
422.73	1009.25
422.953	1002.25
423.175	1010.25
423.398	1008.25
423.621	973.25
423.843	1012.25
424.066	1046.25
424.288	996.25
424.511	1038.25
424.733	999.25
424.956	999.25
425.178	1016.25
425.401	1008.25
425.623	984.25
425.846	994.25
426.068	990.25
426.291	996.25
426.513	999.25
426.735	1010.25
426.958	988.25
427.18	931.25
427.402	1011.25
427.625	995.25
427.847	967.25
428.069	992.25
428.292	1005.25
428.514	979.25
428.736	983.25
428.958	962.25
429.181	954.25
429.403	947.25
429.625	944.25
429.847	966.25
430.069	952.25
430.292	975.25
430.514	963.25
430.736	977.25
430.958	998.25
431.18	983.25
431.402	960.25
431.624	972.25
431.846	985.25
432.068	961.25
432.29	969.25
432.512	966.25
432.734	990.25
432.956	967.25
433.178	997.25
433.4	1038.25
433.622	1023.25
433.844	1019.25
434.066	1025.25
434.287	1012.25
434.509	996.25
434.731	1020.25
434.953	1014.25
435.175	1056.25
435.397	1097.25
435.618	1020.25
435.84	984.25
436.062	995.25
436.284	1001.25
436.505	999.25
436.727	957.25
436.949	972.25
437.17	988.25
437.392	959.25
437.614	938.25
437.835	956.25
438.057	970.25
438.278	948.25
438.5	955.25
438.721	946.25
438.943	980.25
439.165	932.25
439.386	971.25
439.608	958.25
439.829	958.25
440.05	946.25
440.272	1000.25
440.493	981.25
440.715	996.25
440.936	992.25
441.158	991.25
441.379	1000.25
441.6	1022.25
441.822	1036.25
442.043	1027.25
442.264	1031.25
442.486	1041.25
442.707	1024.25
442.928	1024.25
443.149	1032.25
443.371	1054.25
443.592	1113.25
443.813	1079.25
444.034	1026.25
444.255	1060.25
444.476	1074.25
444.698	1117.25
444.919	1109.25
445.14	1182.25
445.361	1146.25
445.582	1096.25
445.803	1010.25
446.024	983.25
446.245	1014.25
446.466	978.25
446.687	972.25
446.908	957.25
447.129	952.25
447.35	920.25
447.571	946.25
447.792	907.25
448.013	929.25
448.234	917.25
448.455	916.25
448.675	894.25
448.896	893.25
449.117	891.25
449.338	892.25
449.559	888.25
449.779	891.25
450	901.25
450.221	903.25
450.442	922.25
450.662	872.25
450.883	948.25
451.104	939.25
451.324	884.25
451.545	888.25
451.766	897.25
451.986	878.25
452.207	906.25
452.428	890.25
452.648	893.25
452.869	881.25
453.089	868.25
453.31	894.25
453.53	885.25
453.751	856.25
453.971	863.25
454.192	899.25
454.412	914.25
454.633	871.25
454.853	850.25
455.073	850.25
455.294	881.25
455.514	884.25
455.734	909.25
455.955	893.25
456.175	907.25
456.395	876.25
456.616	843.25
456.836	859.25
457.056	861.25
457.276	867.25
457.497	895.25
457.717	903.25
457.937	946.25
458.157	875.25
458.377	894.25
458.598	894.25
458.818	894.25
459.038	918.25
459.258	949.25
459.478	1042.25
459.698	1108.25
459.918	1123.25
460.138	1060.25
460.358	1079.25
460.578	1076.25
460.798	1137.25
461.018	1089.25
461.238	1093.25
461.458	1065.25
461.678	1007.25
461.898	1074.25
462.118	1088.25
462.338	1105.25
462.558	1143.25
462.777	1194.25
462.997	1190.25
463.217	1234.25
463.437	1264.25
463.657	1225.25
463.876	1164.25
464.096	1174.25
464.316	1157.25
464.536	1142.25
464.755	1124.25
464.975	1101.25
465.195	1095.25
465.414	1046.25
465.634	1042.25
465.854	1019.25
466.073	986.25
466.293	964.25
466.512	955.25
466.732	978.25
466.951	967.25
467.171	971.25
467.391	955.25
467.61	964.25
467.829	941.25
468.049	923.25
468.268	970.25
468.488	931.25
468.707	916.25
468.927	925.25
469.146	925.25
469.365	989.25
469.585	963.25
469.804	944.25
470.023	950.25
470.243	917.25
470.462	978.25
470.681	966.25
470.901	949.25
471.12	929.25
471.339	969.25
471.558	962.25
471.777	961.25
471.997	952.25
472.216	936.25
472.435	948.25
472.654	934.25
472.873	914.25
473.092	901.25
473.311	940.25
473.53	955.25
473.749	931.25
473.968	954.25
474.187	935.25
474.406	900.25
474.625	933.25
474.844	926.25
475.063	946.25
475.282	962.25
475.501	958.25
475.72	962.25
475.939	934.25
476.158	967.25
476.377	946.25
476.596	973.25
476.814	991.25
477.033	981.25
477.252	1000.25
477.471	1048.25
477.69	1030.25
477.908	1036.25
478.127	1030.25
478.346	1076.25
478.564	1078.25
478.783	1103.25
479.002	1127.25
479.22	1176.25
479.439	1147.25
479.658	1140.25
479.876	1109.25
480.095	1124.25
480.313	1119.25
480.532	1132.25
480.751	1155.25
480.969	1120.25
481.188	1132.25
481.406	1114.25
481.624	1105.25
481.843	1112.25
482.061	1092.25
482.28	1124.25
482.498	1098.25
482.717	1099.25
482.935	1110.25
483.153	1120.25
483.372	1144.25
483.59	1167.25
483.808	1145.25
484.027	1124.25
484.245	1121.25
484.463	1156.25
484.681	1106.25
484.9	1118.25
485.118	1118.25
485.336	1120.25
485.554	1130.25
485.772	1112.25
485.99	1153.25
486.209	1122.25
486.427	1112.25
486.645	1136.25
486.863	1120.25
487.081	1154.25
487.299	1172.25
487.517	1155.25
487.735	1177.25
487.953	1178.25
488.171	1150.25
488.389	1164.25
488.607	1164.25
488.825	1097.25
489.043	1125.25
489.261	1150.25
489.479	1145.25
489.696	1156.25
489.914	1162.25
490.132	1124.25
490.35	1129.25
490.568	1160.25
490.786	1167.25
491.003	1176.25
491.221	1155.25
491.439	1163.25
491.657	1179.25
491.874	1171.25
492.092	1163.25
492.31	1161.25
492.527	1166.25
492.745	1152.25
492.963	1155.25
493.18	1142.25
493.398	1190.25
493.615	1173.25
493.833	1196.25
494.05	1212.25
494.268	1200.25
494.485	1186.25
494.703	1186.25
494.92	1191.25
495.138	1227.25
495.355	1185.25
495.573	1202.25
495.79	1197.25
496.008	1236.25
496.225	1223.25
496.442	1222.25
496.66	1248.25
496.877	1244.25
497.094	1268.25
497.312	1285.25
497.529	1306.25
497.746	1333.25
