Data from Ni(NO3)2@0.0625M.TitratingCurve.Agarose3%dH2O.NegLispCup.LampEnergy10.LIBS07252019_HRD10591_18-12-54-569.txt Node
Date: Thu Jul 25 18:12:54 EDT 2019
User: cochatt
Spectrometer: HR+D1059
Trigger mode: 1
Integration Time (sec): 1.000000E-1
Scans to average: 1
Electric dark correction enabled: true
Nonlinearity correction enabled: false
Boxcar width: 0
XAxis mode: Wavelengths
Number of Pixels in Spectrum: 2048
>>>>>Begin Spectral Data<<<<<
223.165	-29.81
223.4	-29.81
223.635	-29.81
223.869	-16.81
224.104	-25.81
224.338	-13.81
224.573	-0.81
224.808	-8.81
225.042	-0.81
225.277	-10.81
225.511	4.19
225.746	0.19
225.98	7.19
226.215	11.19
226.449	1.19
226.683	21.19
226.918	27.19
227.152	35.19
227.387	29.19
227.621	56.19
227.856	42.19
228.09	39.19
228.324	52.19
228.559	56.19
228.793	75.19
229.027	111.19
229.262	132.19
229.496	101.19
229.73	116.19
229.964	132.19
230.199	134.19
230.433	144.19
230.667	136.19
230.901	137.19
231.136	128.19
231.37	129.19
231.604	151.19
231.838	147.19
232.072	152.19
232.306	157.19
232.541	156.19
232.775	143.19
233.009	149.19
233.243	155.19
233.477	159.19
233.711	160.19
233.945	151.19
234.179	146.19
234.413	142.19
234.647	155.19
234.881	159.19
235.115	162.19
235.349	152.19
235.583	172.19
235.817	151.19
236.051	160.19
236.285	155.19
236.519	157.19
236.753	159.19
236.987	155.19
237.221	161.19
237.455	160.19
237.689	163.19
237.922	159.19
238.156	165.19
238.39	176.19
238.624	157.19
238.858	167.19
239.091	165.19
239.325	177.19
239.559	184.19
239.793	183.19
240.027	187.19
240.26	188.19
240.494	174.19
240.728	170.19
240.961	175.19
241.195	183.19
241.429	208.19
241.662	195.19
241.896	200.19
242.13	206.19
242.363	175.19
242.597	219.19
242.83	201.19
243.064	206.19
243.298	205.19
243.531	213.19
243.765	205.19
243.998	209.19
244.232	218.19
244.465	213.19
244.699	208.19
244.932	225.19
245.166	210.19
245.399	236.19
245.633	216.19
245.866	219.19
246.099	209.19
246.333	225.19
246.566	222.19
246.8	232.19
247.033	231.19
247.266	230.19
247.5	245.19
247.733	237.19
247.966	221.19
248.2	237.19
248.433	231.19
248.666	234.19
248.899	235.19
249.133	232.19
249.366	246.19
249.599	236.19
249.832	246.19
250.066	261.19
250.299	265.19
250.532	263.19
250.765	269.19
250.998	272.19
251.231	269.19
251.465	277.19
251.698	279.19
251.931	281.19
252.164	272.19
252.397	294.19
252.63	279.19
252.863	279.19
253.096	282.19
253.329	278.19
253.562	285.19
253.795	279.19
254.028	294.19
254.261	304.19
254.494	311.19
254.727	274.19
254.96	287.19
255.193	298.19
255.426	277.19
255.659	292.19
255.892	281.19
256.124	282.19
256.357	292.19
256.59	296.19
256.823	292.19
257.056	297.19
257.289	295.19
257.521	302.19
257.754	296.19
257.987	321.19
258.22	319.19
258.452	302.19
258.685	314.19
258.918	301.19
259.151	311.19
259.383	319.19
259.616	323.19
259.849	326.19
260.081	312.19
260.314	324.19
260.547	309.19
260.779	337.19
261.012	318.19
261.244	330.19
261.477	342.19
261.71	339.19
261.942	345.19
262.175	327.19
262.407	313.19
262.64	332.19
262.872	361.19
263.105	344.19
263.337	328.19
263.57	353.19
263.802	349.19
264.035	364.19
264.267	344.19
264.499	345.19
264.732	359.19
264.964	356.19
265.197	358.19
265.429	361.19
265.661	366.19
265.894	364.19
266.126	363.19
266.358	362.19
266.591	373.19
266.823	382.19
267.055	355.19
267.287	387.19
267.52	372.19
267.752	355.19
267.984	366.19
268.216	369.19
268.448	378.19
268.681	376.19
268.913	402.19
269.145	384.19
269.377	398.19
269.609	388.19
269.841	396.19
270.073	393.19
270.306	383.19
270.538	399.19
270.77	401.19
271.002	375.19
271.234	403.19
271.466	389.19
271.698	367.19
271.93	398.19
272.162	407.19
272.394	392.19
272.626	395.19
272.858	413.19
273.09	420.19
273.322	399.19
273.553	387.19
273.785	405.19
274.017	423.19
274.249	407.19
274.481	407.19
274.713	422.19
274.945	423.19
275.176	421.19
275.408	411.19
275.64	417.19
275.872	444.19
276.104	408.19
276.335	418.19
276.567	438.19
276.799	433.19
277.031	435.19
277.262	444.19
277.494	427.19
277.726	444.19
277.957	439.19
278.189	427.19
278.421	445.19
278.652	438.19
278.884	429.19
279.115	445.19
279.347	459.19
279.579	480.19
279.81	454.19
280.042	435.19
280.273	460.19
280.505	459.19
280.736	465.19
280.968	467.19
281.199	486.19
281.431	448.19
281.662	447.19
281.894	475.19
282.125	466.19
282.356	480.19
282.588	489.19
282.819	479.19
283.051	459.19
283.282	468.19
283.513	477.19
283.745	486.19
283.976	462.19
284.207	481.19
284.439	497.19
284.67	486.19
284.901	513.19
285.132	519.19
285.364	491.19
285.595	500.19
285.826	465.19
286.057	507.19
286.288	515.19
286.52	507.19
286.751	493.19
286.982	502.19
287.213	505.19
287.444	514.19
287.675	528.19
287.906	524.19
288.138	533.19
288.369	521.19
288.6	515.19
288.831	519.19
289.062	520.19
289.293	510.19
289.524	524.19
289.755	529.19
289.986	491.19
290.217	529.19
290.448	524.19
290.679	527.19
290.91	535.19
291.141	541.19
291.371	520.19
291.602	556.19
291.833	548.19
292.064	540.19
292.295	547.19
292.526	528.19
292.757	537.19
292.987	522.19
293.218	533.19
293.449	540.19
293.68	530.19
293.91	542.19
294.141	537.19
294.372	536.19
294.603	535.19
294.833	549.19
295.064	547.19
295.295	528.19
295.525	535.19
295.756	557.19
295.987	541.19
296.217	558.19
296.448	524.19
296.679	566.19
296.909	555.19
297.14	568.19
297.37	567.19
297.601	568.19
297.831	573.19
298.062	573.19
298.292	580.19
298.523	604.19
298.753	596.19
298.984	584.19
299.214	593.19
299.445	574.19
299.675	600.19
299.905	578.19
300.136	601.19
300.366	581.19
300.597	593.19
300.827	588.19
301.057	635.19
301.288	629.19
301.518	631.19
301.748	605.19
301.979	651.19
302.209	613.19
302.439	621.19
302.669	603.19
302.9	601.19
303.13	599.19
303.36	625.19
303.59	613.19
303.82	591.19
304.051	598.19
304.281	590.19
304.511	599.19
304.741	575.19
304.971	599.19
305.201	614.19
305.431	603.19
305.661	606.19
305.891	591.19
306.121	579.19
306.352	578.19
306.582	579.19
306.812	584.19
307.042	599.19
307.272	585.19
307.502	573.19
307.731	618.19
307.961	601.19
308.191	586.19
308.421	586.19
308.651	587.19
308.881	603.19
309.111	575.19
309.341	579.19
309.571	577.19
309.8	578.19
310.03	563.19
310.26	585.19
310.49	590.19
310.72	592.19
310.949	579.19
311.179	604.19
311.409	611.19
311.639	593.19
311.868	608.19
312.098	604.19
312.328	611.19
312.557	612.19
312.787	620.19
313.017	622.19
313.246	638.19
313.476	628.19
313.706	654.19
313.935	638.19
314.165	632.19
314.394	627.19
314.624	645.19
314.853	632.19
315.083	638.19
315.312	637.19
315.542	621.19
315.771	635.19
316.001	643.19
316.23	615.19
316.46	612.19
316.689	609.19
316.919	613.19
317.148	617.19
317.377	632.19
317.607	629.19
317.836	620.19
318.065	617.19
318.295	613.19
318.524	628.19
318.753	615.19
318.983	617.19
319.212	607.19
319.441	621.19
319.67	627.19
319.9	605.19
320.129	610.19
320.358	617.19
320.587	596.19
320.816	620.19
321.046	629.19
321.275	633.19
321.504	603.19
321.733	603.19
321.962	617.19
322.191	629.19
322.42	605.19
322.649	620.19
322.878	640.19
323.108	648.19
323.337	635.19
323.566	634.19
323.795	645.19
324.024	626.19
324.253	631.19
324.482	660.19
324.71	647.19
324.939	645.19
325.168	652.19
325.397	619.19
325.626	635.19
325.855	647.19
326.084	649.19
326.313	674.19
326.542	663.19
326.77	679.19
326.999	688.19
327.228	676.19
327.457	678.19
327.686	669.19
327.914	675.19
328.143	653.19
328.372	655.19
328.6	686.19
328.829	676.19
329.058	704.19
329.287	699.19
329.515	670.19
329.744	673.19
329.972	686.19
330.201	684.19
330.43	681.19
330.658	667.19
330.887	707.19
331.115	695.19
331.344	727.19
331.572	735.19
331.801	752.19
332.03	751.19
332.258	773.19
332.486	784.19
332.715	835.19
332.943	859.19
333.172	893.19
333.4	920.19
333.629	963.19
333.857	957.19
334.085	938.19
334.314	921.19
334.542	865.19
334.771	849.19
334.999	865.19
335.227	864.19
335.455	871.19
335.684	844.19
335.912	847.19
336.14	808.19
336.369	814.19
336.597	843.19
336.825	846.19
337.053	839.19
337.281	806.19
337.51	804.19
337.738	807.19
337.966	766.19
338.194	761.19
338.422	767.19
338.65	745.19
338.878	729.19
339.106	761.19
339.334	759.19
339.562	739.19
339.79	724.19
340.018	732.19
340.246	693.19
340.474	729.19
340.702	694.19
340.93	705.19
341.158	746.19
341.386	711.19
341.614	733.19
341.842	700.19
342.07	695.19
342.298	704.19
342.526	709.19
342.754	701.19
342.981	719.19
343.209	762.19
343.437	758.19
343.665	807.19
343.893	883.19
344.12	907.19
344.348	885.19
344.576	808.19
344.804	756.19
345.031	750.19
345.259	736.19
345.487	724.19
345.714	735.19
345.942	711.19
346.17	727.19
346.397	704.19
346.625	716.19
346.853	707.19
347.08	698.19
347.308	708.19
347.535	727.19
347.763	736.19
347.99	741.19
348.218	722.19
348.445	729.19
348.673	713.19
348.9	700.19
349.128	707.19
349.355	689.19
349.583	711.19
349.81	691.19
350.037	689.19
350.265	697.19
350.492	695.19
350.72	681.19
350.947	675.19
351.174	678.19
351.402	671.19
351.629	675.19
351.856	670.19
352.083	635.19
352.311	648.19
352.538	677.19
352.765	663.19
352.992	648.19
353.22	671.19
353.447	653.19
353.674	655.19
353.901	675.19
354.128	668.19
354.355	681.19
354.583	687.19
354.81	676.19
355.037	668.19
355.264	688.19
355.491	679.19
355.718	667.19
355.945	656.19
356.172	659.19
356.399	677.19
356.626	680.19
356.853	673.19
357.08	696.19
357.307	650.19
357.534	673.19
357.761	651.19
357.988	676.19
358.215	686.19
358.441	653.19
358.668	667.19
358.895	673.19
359.122	671.19
359.349	687.19
359.576	678.19
359.802	674.19
360.029	671.19
360.256	691.19
360.483	685.19
360.709	689.19
360.936	668.19
361.163	659.19
361.39	683.19
361.616	658.19
361.843	669.19
362.07	680.19
362.296	675.19
362.523	670.19
362.749	658.19
362.976	664.19
363.203	663.19
363.429	640.19
363.656	678.19
363.882	665.19
364.109	688.19
364.335	669.19
364.562	675.19
364.788	667.19
365.015	673.19
365.241	684.19
365.468	672.19
365.694	688.19
365.92	670.19
366.147	636.19
366.373	643.19
366.599	661.19
366.826	671.19
367.052	674.19
367.278	675.19
367.505	676.19
367.731	668.19
367.957	675.19
368.184	678.19
368.41	663.19
368.636	695.19
368.862	683.19
369.089	664.19
369.315	679.19
369.541	677.19
369.767	696.19
369.993	685.19
370.219	685.19
370.445	710.19
370.672	693.19
370.898	692.19
371.124	741.19
371.35	731.19
371.576	736.19
371.802	715.19
372.028	739.19
372.254	729.19
372.48	748.19
372.706	762.19
372.932	763.19
373.158	779.19
373.384	745.19
373.61	744.19
373.835	720.19
374.061	724.19
374.287	715.19
374.513	752.19
374.739	758.19
374.965	785.19
375.191	833.19
375.416	819.19
375.642	805.19
375.868	789.19
376.094	756.19
376.319	770.19
376.545	764.19
376.771	727.19
376.997	726.19
377.222	719.19
377.448	764.19
377.674	735.19
377.899	707.19
378.125	732.19
378.35	725.19
378.576	715.19
378.802	715.19
379.027	727.19
379.253	736.19
379.478	717.19
379.704	711.19
379.929	740.19
380.155	733.19
380.38	734.19
380.606	724.19
380.831	717.19
381.057	731.19
381.282	711.19
381.507	716.19
381.733	744.19
381.958	746.19
382.184	764.19
382.409	747.19
382.634	761.19
382.86	771.19
383.085	779.19
383.31	775.19
383.535	829.19
383.761	821.19
383.986	813.19
384.211	843.19
384.436	870.19
384.662	891.19
384.887	894.19
385.112	901.19
385.337	905.19
385.562	875.19
385.787	896.19
386.013	905.19
386.238	900.19
386.463	873.19
386.688	899.19
386.913	877.19
387.138	835.19
387.363	838.19
387.588	863.19
387.813	849.19
388.038	850.19
388.263	847.19
388.488	879.19
388.713	856.19
388.938	868.19
389.163	875.19
389.387	860.19
389.612	860.19
389.837	855.19
390.062	844.19
390.287	844.19
390.512	863.19
390.736	841.19
390.961	867.19
391.186	847.19
391.411	931.19
391.636	951.19
391.86	962.19
392.085	989.19
392.31	987.19
392.534	972.19
392.759	939.19
392.984	960.19
393.208	910.19
393.433	928.19
393.658	917.19
393.882	927.19
394.107	942.19
394.331	936.19
394.556	960.19
394.78	930.19
395.005	915.19
395.229	937.19
395.454	1007.19
395.678	1001.19
395.903	1009.19
396.127	980.19
396.352	953.19
396.576	931.19
396.801	912.19
397.025	915.19
397.249	925.19
397.474	969.19
397.698	983.19
397.922	1011.19
398.147	951.19
398.371	981.19
398.595	1015.19
398.82	1055.19
399.044	1146.19
399.268	1263.19
399.492	1487.19
399.717	1758.19
399.941	1741.19
400.165	1471.19
400.389	1333.19
400.613	1222.19
400.837	1177.19
401.062	1139.19
401.286	1087.19
401.51	1071.19
401.734	1083.19
401.958	1125.19
402.182	1070.19
402.406	1094.19
402.63	1157.19
402.854	1173.19
403.078	1200.19
403.302	1232.19
403.526	1217.19
403.75	1268.19
403.974	1318.19
404.198	1325.19
404.422	1335.19
404.645	1260.19
404.869	1289.19
405.093	1257.19
405.317	1265.19
405.541	1203.19
405.765	1200.19
405.988	1213.19
406.212	1196.19
406.436	1206.19
406.66	1241.19
406.883	1229.19
407.107	1320.19
407.331	1439.19
407.555	1450.19
407.778	1442.19
408.002	1417.19
408.226	1352.19
408.449	1330.19
408.673	1292.19
408.896	1303.19
409.12	1261.19
409.344	1277.19
409.567	1250.19
409.791	1283.19
410.014	1254.19
410.238	1247.19
410.461	1271.19
410.685	1238.19
410.908	1215.19
411.132	1190.19
411.355	1152.19
411.578	1149.19
411.802	1155.19
412.025	1141.19
412.249	1166.19
412.472	1153.19
412.695	1139.19
412.919	1080.19
413.142	1075.19
413.365	1109.19
413.589	1112.19
413.812	1083.19
414.035	1068.19
414.258	1097.19
414.482	1073.19
414.705	1109.19
414.928	1118.19
415.151	1112.19
415.374	1120.19
415.597	1118.19
415.821	1082.19
416.044	1076.19
416.267	1047.19
416.49	1043.19
416.713	1060.19
416.936	1101.19
417.159	1091.19
417.382	1080.19
417.605	1089.19
417.828	1083.19
418.051	1097.19
418.274	1103.19
418.497	1097.19
418.72	1112.19
418.943	1139.19
419.166	1204.19
419.389	1283.19
419.611	1268.19
419.834	1196.19
420.057	1149.19
420.28	1136.19
420.503	1076.19
420.726	1084.19
420.948	1093.19
421.171	1087.19
421.394	1091.19
421.617	1091.19
421.839	1113.19
422.062	1087.19
422.285	1063.19
422.507	1126.19
422.73	1129.19
422.953	1121.19
423.175	1162.19
423.398	1194.19
423.621	1185.19
423.843	1190.19
424.066	1197.19
424.288	1186.19
424.511	1151.19
424.733	1160.19
424.956	1151.19
425.178	1116.19
425.401	1097.19
425.623	1089.19
425.846	1076.19
426.068	1060.19
426.291	1043.19
426.513	1017.19
426.735	1034.19
426.958	1029.19
427.18	982.19
427.402	1007.19
427.625	1007.19
427.847	1004.19
428.069	996.19
428.292	1011.19
428.514	940.19
428.736	950.19
428.958	983.19
429.181	973.19
429.403	957.19
429.625	947.19
429.847	935.19
430.069	921.19
430.292	957.19
430.514	925.19
430.736	948.19
430.958	936.19
431.18	942.19
431.402	948.19
431.624	960.19
431.846	979.19
432.068	992.19
432.29	966.19
432.512	958.19
432.734	957.19
432.956	953.19
433.178	971.19
433.4	1001.19
433.622	1001.19
433.844	1000.19
434.066	993.19
434.287	1004.19
434.509	1049.19
434.731	1094.19
434.953	1122.19
435.175	1163.19
435.397	1109.19
435.618	1060.19
435.84	1037.19
436.062	995.19
436.284	987.19
436.505	976.19
436.727	985.19
436.949	998.19
437.17	1000.19
437.392	989.19
437.614	952.19
437.835	933.19
438.057	973.19
438.278	939.19
438.5	975.19
438.721	967.19
438.943	965.19
439.165	921.19
439.386	949.19
439.608	998.19
439.829	991.19
440.05	1003.19
440.272	998.19
440.493	973.19
440.715	992.19
440.936	1019.19
441.158	1046.19
441.379	1058.19
441.6	1137.19
441.822	1141.19
442.043	1147.19
442.264	1079.19
442.486	1096.19
442.707	1111.19
442.928	1075.19
443.149	1100.19
443.371	1092.19
443.592	1136.19
443.813	1123.19
444.034	1126.19
444.255	1161.19
444.476	1237.19
444.698	1343.19
444.919	1411.19
445.14	1445.19
445.361	1256.19
445.582	1157.19
445.803	1090.19
446.024	1056.19
446.245	1029.19
446.466	1014.19
446.687	963.19
446.908	1005.19
447.129	994.19
447.35	972.19
447.571	939.19
447.792	965.19
448.013	926.19
448.234	921.19
448.455	899.19
448.675	892.19
448.896	917.19
449.117	893.19
449.338	880.19
449.559	901.19
449.779	899.19
450	893.19
450.221	923.19
450.442	919.19
450.662	899.19
450.883	944.19
451.104	943.19
451.324	951.19
451.545	933.19
451.766	929.19
451.986	904.19
452.207	939.19
452.428	927.19
452.648	937.19
452.869	924.19
453.089	905.19
453.31	905.19
453.53	891.19
453.751	924.19
453.971	893.19
454.192	867.19
454.412	871.19
454.633	911.19
454.853	864.19
455.073	845.19
455.294	837.19
455.514	850.19
455.734	849.19
455.955	851.19
456.175	861.19
456.395	867.19
456.616	833.19
456.836	847.19
457.056	868.19
457.276	823.19
457.497	829.19
457.717	833.19
457.937	878.19
458.157	877.19
458.377	868.19
458.598	876.19
458.818	897.19
459.038	936.19
459.258	985.19
459.478	1007.19
459.698	1055.19
459.918	1080.19
460.138	1091.19
460.358	1157.19
460.578	1167.19
460.798	1237.19
461.018	1211.19
461.238	1201.19
461.458	1158.19
461.678	1132.19
461.898	1164.19
462.118	1180.19
462.338	1271.19
462.558	1238.19
462.777	1330.19
462.997	1439.19
463.217	1651.19
463.437	1681.19
463.657	1491.19
463.876	1399.19
464.096	1395.19
464.316	1434.19
464.536	1394.19
464.755	1367.19
464.975	1303.19
465.195	1215.19
465.414	1187.19
465.634	1096.19
465.854	1062.19
466.073	1023.19
466.293	982.19
466.512	999.19
466.732	992.19
466.951	967.19
467.171	951.19
467.391	977.19
467.61	963.19
467.829	950.19
468.049	942.19
468.268	940.19
468.488	901.19
468.707	912.19
468.927	936.19
469.146	902.19
469.365	934.19
469.585	929.19
469.804	978.19
470.023	973.19
470.243	1008.19
470.462	997.19
470.681	987.19
470.901	1012.19
471.12	981.19
471.339	942.19
471.558	950.19
471.777	938.19
471.997	915.19
472.216	899.19
472.435	896.19
472.654	899.19
472.873	902.19
473.092	878.19
473.311	887.19
473.53	871.19
473.749	895.19
473.968	873.19
474.187	863.19
474.406	913.19
474.625	882.19
474.844	891.19
475.063	886.19
475.282	906.19
475.501	901.19
475.72	884.19
475.939	918.19
476.158	924.19
476.377	939.19
476.596	939.19
476.814	924.19
477.033	938.19
477.252	963.19
477.471	978.19
477.69	998.19
477.908	1038.19
478.127	1063.19
478.346	1092.19
478.564	1095.19
478.783	1120.19
479.002	1129.19
479.22	1118.19
479.439	1112.19
479.658	1111.19
479.876	1134.19
480.095	1117.19
480.313	1193.19
480.532	1217.19
480.751	1229.19
480.969	1149.19
481.188	1059.19
481.406	1061.19
481.624	1086.19
481.843	1052.19
482.061	1038.19
482.28	1042.19
482.498	1019.19
482.717	998.19
482.935	981.19
483.153	987.19
483.372	1001.19
483.59	1063.19
483.808	1027.19
484.027	1038.19
484.245	1006.19
484.463	1029.19
484.681	1059.19
484.9	1065.19
485.118	1055.19
485.336	1075.19
485.554	1070.19
485.772	1066.19
485.99	1120.19
486.209	1102.19
486.427	1088.19
486.645	1100.19
486.863	1072.19
487.081	1085.19
487.299	1081.19
487.517	1076.19
487.735	1079.19
487.953	1078.19
488.171	1106.19
488.389	1068.19
488.607	1056.19
488.825	1015.19
489.043	1033.19
489.261	1043.19
489.479	1046.19
489.696	1095.19
489.914	1088.19
490.132	1106.19
490.35	1080.19
490.568	1065.19
490.786	1102.19
491.003	1059.19
491.221	1101.19
491.439	1082.19
491.657	1088.19
491.874	1118.19
492.092	1114.19
492.31	1101.19
492.527	1079.19
492.745	1101.19
492.963	1122.19
493.18	1114.19
493.398	1121.19
493.615	1104.19
493.833	1128.19
494.05	1149.19
494.268	1143.19
494.485	1160.19
494.703	1157.19
494.92	1157.19
495.138	1130.19
495.355	1130.19
495.573	1129.19
495.79	1139.19
496.008	1175.19
496.225	1155.19
496.442	1147.19
496.66	1191.19
496.877	1212.19
497.094	1200.19
497.312	1231.19
497.529	1261.19
