Data from Ni(NO3)2Standard.Agarose3%.GreenCap.LampEnergy5.5.E.O_HRD10591_14-40-02-187.txt Node
Date: Mon Jul 22 14:40:02 EDT 2019
User: cochatt
Spectrometer: HR+D1059
Trigger mode: 1
Integration Time (sec): 1.000000E-1
Scans to average: 1
Electric dark correction enabled: true
Nonlinearity correction enabled: false
Boxcar width: 0
XAxis mode: Wavelengths
Number of Pixels in Spectrum: 2048
>>>>>Begin Spectral Data<<<<<
223.165	-14.62
223.4	-14.62
223.635	-14.62
223.869	-17.62
224.104	-11.62
224.338	-11.62
224.573	-8.62
224.808	-13.62
225.042	4.38
225.277	-11.62
225.511	5.38
225.746	-8.62
225.98	-1.62
226.215	8.38
226.449	11.38
226.683	17.38
226.918	20.38
227.152	32.38
227.387	39.38
227.621	43.38
227.856	50.38
228.09	49.38
228.324	46.38
228.559	63.38
228.793	60.38
229.027	90.38
229.262	71.38
229.496	80.38
229.73	61.38
229.964	65.38
230.199	85.38
230.433	88.38
230.667	76.38
230.901	81.38
231.136	93.38
231.37	80.38
231.604	73.38
231.838	86.38
232.072	78.38
232.306	83.38
232.541	96.38
232.775	81.38
233.009	77.38
233.243	80.38
233.477	80.38
233.711	80.38
233.945	77.38
234.179	80.38
234.413	91.38
234.647	86.38
234.881	79.38
235.115	84.38
235.349	78.38
235.583	84.38
235.817	74.38
236.051	77.38
236.285	70.38
236.519	77.38
236.753	76.38
236.987	92.38
237.221	75.38
237.455	70.38
237.689	77.38
237.922	76.38
238.156	79.38
238.39	78.38
238.624	85.38
238.858	76.38
239.091	79.38
239.325	66.38
239.559	75.38
239.793	71.38
240.027	73.38
240.26	74.38
240.494	88.38
240.728	87.38
240.961	83.38
241.195	78.38
241.429	71.38
241.662	95.38
241.896	89.38
242.13	86.38
242.363	74.38
242.597	85.38
242.83	73.38
243.064	80.38
243.298	75.38
243.531	79.38
243.765	79.38
243.998	90.38
244.232	81.38
244.465	84.38
244.699	101.38
244.932	87.38
245.166	96.38
245.399	98.38
245.633	76.38
245.866	81.38
246.099	83.38
246.333	83.38
246.566	81.38
246.8	78.38
247.033	78.38
247.266	84.38
247.5	87.38
247.733	94.38
247.966	92.38
248.2	91.38
248.433	77.38
248.666	79.38
248.899	87.38
249.133	84.38
249.366	83.38
249.599	78.38
249.832	78.38
250.066	85.38
250.299	88.38
250.532	95.38
250.765	84.38
250.998	97.38
251.231	89.38
251.465	92.38
251.698	72.38
251.931	78.38
252.164	81.38
252.397	63.38
252.63	77.38
252.863	79.38
253.096	98.38
253.329	96.38
253.562	88.38
253.795	93.38
254.028	95.38
254.261	81.38
254.494	88.38
254.727	100.38
254.96	82.38
255.193	88.38
255.426	81.38
255.659	90.38
255.892	87.38
256.124	92.38
256.357	76.38
256.59	87.38
256.823	68.38
257.056	86.38
257.289	91.38
257.521	82.38
257.754	89.38
257.987	84.38
258.22	76.38
258.452	79.38
258.685	87.38
258.918	97.38
259.151	92.38
259.383	101.38
259.616	79.38
259.849	78.38
260.081	92.38
260.314	108.38
260.547	87.38
260.779	96.38
261.012	81.38
261.244	91.38
261.477	103.38
261.71	96.38
261.942	88.38
262.175	95.38
262.407	85.38
262.64	76.38
262.872	90.38
263.105	81.38
263.337	98.38
263.57	101.38
263.802	83.38
264.035	74.38
264.267	84.38
264.499	94.38
264.732	96.38
264.964	82.38
265.197	94.38
265.429	75.38
265.661	85.38
265.894	92.38
266.126	83.38
266.358	82.38
266.591	94.38
266.823	78.38
267.055	72.38
267.287	82.38
267.52	87.38
267.752	79.38
267.984	89.38
268.216	81.38
268.448	87.38
268.681	87.38
268.913	82.38
269.145	89.38
269.377	98.38
269.609	81.38
269.841	87.38
270.073	75.38
270.306	100.38
270.538	95.38
270.77	96.38
271.002	88.38
271.234	111.38
271.466	97.38
271.698	93.38
271.93	87.38
272.162	83.38
272.394	88.38
272.626	88.38
272.858	84.38
273.09	78.38
273.322	89.38
273.553	80.38
273.785	87.38
274.017	93.38
274.249	89.38
274.481	79.38
274.713	77.38
274.945	92.38
275.176	84.38
275.408	86.38
275.64	96.38
275.872	88.38
276.104	78.38
276.335	82.38
276.567	69.38
276.799	82.38
277.031	95.38
277.262	96.38
277.494	95.38
277.726	81.38
277.957	78.38
278.189	78.38
278.421	80.38
278.652	85.38
278.884	86.38
279.115	83.38
279.347	98.38
279.579	84.38
279.81	74.38
280.042	85.38
280.273	86.38
280.505	86.38
280.736	85.38
280.968	94.38
281.199	88.38
281.431	103.38
281.662	92.38
281.894	81.38
282.125	100.38
282.356	80.38
282.588	86.38
282.819	84.38
283.051	77.38
283.282	83.38
283.513	99.38
283.745	87.38
283.976	86.38
284.207	79.38
284.439	93.38
284.67	91.38
284.901	81.38
285.132	89.38
285.364	97.38
285.595	98.38
285.826	98.38
286.057	85.38
286.288	84.38
286.52	92.38
286.751	88.38
286.982	95.38
287.213	82.38
287.444	82.38
287.675	88.38
287.906	101.38
288.138	101.38
288.369	90.38
288.6	82.38
288.831	91.38
289.062	92.38
289.293	78.38
289.524	95.38
289.755	88.38
289.986	78.38
290.217	88.38
290.448	92.38
290.679	92.38
290.91	84.38
291.141	101.38
291.371	89.38
291.602	84.38
291.833	88.38
292.064	96.38
292.295	88.38
292.526	84.38
292.757	92.38
292.987	81.38
293.218	89.38
293.449	102.38
293.68	94.38
293.91	89.38
294.141	76.38
294.372	91.38
294.603	81.38
294.833	86.38
295.064	104.38
295.295	98.38
295.525	94.38
295.756	104.38
295.987	81.38
296.217	99.38
296.448	90.38
296.679	108.38
296.909	97.38
297.14	92.38
297.37	89.38
297.601	85.38
297.831	105.38
298.062	97.38
298.292	100.38
298.523	86.38
298.753	99.38
298.984	90.38
299.214	87.38
299.445	88.38
299.675	79.38
299.905	93.38
300.136	83.38
300.366	93.38
300.597	88.38
300.827	98.38
301.057	89.38
301.288	86.38
301.518	96.38
301.748	84.38
301.979	88.38
302.209	84.38
302.439	80.38
302.669	74.38
302.9	91.38
303.13	100.38
303.36	81.38
303.59	98.38
303.82	89.38
304.051	90.38
304.281	107.38
304.511	91.38
304.741	80.38
304.971	75.38
305.201	98.38
305.431	95.38
305.661	82.38
305.891	81.38
306.121	100.38
306.352	88.38
306.582	91.38
306.812	92.38
307.042	93.38
307.272	78.38
307.502	74.38
307.731	84.38
307.961	88.38
308.191	100.38
308.421	82.38
308.651	86.38
308.881	102.38
309.111	85.38
309.341	102.38
309.571	92.38
309.8	90.38
310.03	94.38
310.26	87.38
310.49	85.38
310.72	102.38
310.949	83.38
311.179	77.38
311.409	67.38
311.639	82.38
311.868	86.38
312.098	76.38
312.328	94.38
312.557	97.38
312.787	78.38
313.017	99.38
313.246	98.38
313.476	85.38
313.706	93.38
313.935	84.38
314.165	87.38
314.394	86.38
314.624	88.38
314.853	93.38
315.083	98.38
315.312	92.38
315.542	98.38
315.771	85.38
316.001	98.38
316.23	72.38
316.46	78.38
316.689	92.38
316.919	83.38
317.148	85.38
317.377	94.38
317.607	88.38
317.836	86.38
318.065	79.38
318.295	101.38
318.524	77.38
318.753	82.38
318.983	84.38
319.212	96.38
319.441	75.38
319.67	89.38
319.9	90.38
320.129	81.38
320.358	86.38
320.587	85.38
320.816	86.38
321.046	94.38
321.275	96.38
321.504	93.38
321.733	82.38
321.962	95.38
322.191	103.38
322.42	94.38
322.649	94.38
322.878	96.38
323.108	85.38
323.337	89.38
323.566	100.38
323.795	105.38
324.024	91.38
324.253	90.38
324.482	89.38
324.71	97.38
324.939	84.38
325.168	95.38
325.397	93.38
325.626	83.38
325.855	97.38
326.084	89.38
326.313	81.38
326.542	79.38
326.77	97.38
326.999	82.38
327.228	89.38
327.457	94.38
327.686	97.38
327.914	91.38
328.143	97.38
328.372	86.38
328.6	104.38
328.829	93.38
329.058	97.38
329.287	95.38
329.515	90.38
329.744	93.38
329.972	82.38
330.201	93.38
330.43	80.38
330.658	94.38
330.887	107.38
331.115	87.38
331.344	82.38
331.572	81.38
331.801	86.38
332.03	75.38
332.258	89.38
332.486	82.38
332.715	81.38
332.943	84.38
333.172	82.38
333.4	103.38
333.629	91.38
333.857	101.38
334.085	102.38
334.314	104.38
334.542	108.38
334.771	86.38
334.999	85.38
335.227	94.38
335.455	87.38
335.684	91.38
335.912	87.38
336.14	79.38
336.369	83.38
336.597	98.38
336.825	91.38
337.053	85.38
337.281	101.38
337.51	83.38
337.738	89.38
337.966	82.38
338.194	83.38
338.422	87.38
338.65	85.38
338.878	87.38
339.106	84.38
339.334	105.38
339.562	97.38
339.79	101.38
340.018	96.38
340.246	102.38
340.474	82.38
340.702	101.38
340.93	92.38
341.158	95.38
341.386	84.38
341.614	79.38
341.842	92.38
342.07	96.38
342.298	98.38
342.526	105.38
342.754	89.38
342.981	94.38
343.209	88.38
343.437	94.38
343.665	96.38
343.893	78.38
344.12	106.38
344.348	92.38
344.576	105.38
344.804	86.38
345.031	89.38
345.259	100.38
345.487	95.38
345.714	87.38
345.942	93.38
346.17	96.38
346.397	76.38
346.625	87.38
346.853	82.38
347.08	70.38
347.308	81.38
347.535	90.38
347.763	96.38
347.99	82.38
348.218	87.38
348.445	84.38
348.673	95.38
348.9	89.38
349.128	90.38
349.355	88.38
349.583	95.38
349.81	96.38
350.037	91.38
350.265	90.38
350.492	85.38
350.72	86.38
350.947	73.38
351.174	94.38
351.402	84.38
351.629	89.38
351.856	86.38
352.083	84.38
352.311	89.38
352.538	90.38
352.765	73.38
352.992	89.38
353.22	83.38
353.447	79.38
353.674	97.38
353.901	87.38
354.128	92.38
354.355	73.38
354.583	89.38
354.81	89.38
355.037	93.38
355.264	85.38
355.491	90.38
355.718	93.38
355.945	90.38
356.172	92.38
356.399	100.38
356.626	91.38
356.853	79.38
357.08	86.38
357.307	83.38
357.534	92.38
357.761	101.38
357.988	92.38
358.215	100.38
358.441	88.38
358.668	96.38
358.895	85.38
359.122	87.38
359.349	88.38
359.576	74.38
359.802	88.38
360.029	76.38
360.256	82.38
360.483	89.38
360.709	86.38
360.936	77.38
361.163	82.38
361.39	102.38
361.616	103.38
361.843	104.38
362.07	80.38
362.296	101.38
362.523	96.38
362.749	88.38
362.976	99.38
363.203	90.38
363.429	86.38
363.656	86.38
363.882	88.38
364.109	92.38
364.335	79.38
364.562	87.38
364.788	86.38
365.015	81.38
365.241	84.38
365.468	81.38
365.694	83.38
365.92	92.38
366.147	84.38
366.373	77.38
366.599	96.38
366.826	92.38
367.052	91.38
367.278	88.38
367.505	86.38
367.731	85.38
367.957	93.38
368.184	99.38
368.41	84.38
368.636	79.38
368.862	77.38
369.089	69.38
369.315	82.38
369.541	82.38
369.767	96.38
369.993	86.38
370.219	84.38
370.445	89.38
370.672	74.38
370.898	78.38
371.124	90.38
371.35	93.38
371.576	97.38
371.802	90.38
372.028	72.38
372.254	79.38
372.48	79.38
372.706	72.38
372.932	90.38
373.158	77.38
373.384	82.38
373.61	93.38
373.835	101.38
374.061	82.38
374.287	83.38
374.513	78.38
374.739	91.38
374.965	88.38
375.191	82.38
375.416	84.38
375.642	86.38
375.868	89.38
376.094	78.38
376.319	88.38
376.545	78.38
376.771	92.38
376.997	90.38
377.222	95.38
377.448	92.38
377.674	86.38
377.899	90.38
378.125	102.38
378.35	85.38
378.576	73.38
378.802	81.38
379.027	73.38
379.253	86.38
379.478	81.38
379.704	84.38
379.929	83.38
380.155	87.38
380.38	77.38
380.606	89.38
380.831	97.38
381.057	85.38
381.282	90.38
381.507	100.38
381.733	82.38
381.958	65.38
382.184	104.38
382.409	93.38
382.634	89.38
382.86	90.38
383.085	87.38
383.31	77.38
383.535	88.38
383.761	90.38
383.986	83.38
384.211	94.38
384.436	97.38
384.662	88.38
384.887	93.38
385.112	90.38
385.337	96.38
385.562	85.38
385.787	79.38
386.013	96.38
386.238	74.38
386.463	97.38
386.688	87.38
386.913	82.38
387.138	91.38
387.363	89.38
387.588	89.38
387.813	99.38
388.038	83.38
388.263	88.38
388.488	81.38
388.713	77.38
388.938	82.38
389.163	87.38
389.387	87.38
389.612	87.38
389.837	101.38
390.062	86.38
390.287	93.38
390.512	101.38
390.736	95.38
390.961	71.38
391.186	85.38
391.411	85.38
391.636	85.38
391.86	89.38
392.085	98.38
392.31	73.38
392.534	76.38
392.759	98.38
392.984	91.38
393.208	92.38
393.433	80.38
393.658	89.38
393.882	101.38
394.107	87.38
394.331	82.38
394.556	78.38
394.78	92.38
395.005	92.38
395.229	87.38
395.454	86.38
395.678	79.38
395.903	91.38
396.127	101.38
396.352	92.38
396.576	83.38
396.801	86.38
397.025	95.38
397.249	90.38
397.474	106.38
397.698	97.38
397.922	89.38
398.147	86.38
398.371	80.38
398.595	92.38
398.82	86.38
399.044	68.38
399.268	100.38
399.492	99.38
399.717	97.38
399.941	92.38
400.165	100.38
400.389	85.38
400.613	102.38
400.837	83.38
401.062	86.38
401.286	88.38
401.51	96.38
401.734	79.38
401.958	73.38
402.182	96.38
402.406	99.38
402.63	87.38
402.854	100.38
403.078	93.38
403.302	101.38
403.526	94.38
403.75	101.38
403.974	89.38
404.198	93.38
404.422	93.38
404.645	105.38
404.869	88.38
405.093	81.38
405.317	85.38
405.541	77.38
405.765	95.38
405.988	81.38
406.212	83.38
406.436	98.38
406.66	80.38
406.883	91.38
407.107	87.38
407.331	93.38
407.555	72.38
407.778	97.38
408.002	94.38
408.226	95.38
408.449	93.38
408.673	93.38
408.896	90.38
409.12	87.38
409.344	93.38
409.567	82.38
409.791	89.38
410.014	84.38
410.238	80.38
410.461	88.38
410.685	78.38
410.908	83.38
411.132	87.38
411.355	89.38
411.578	90.38
411.802	88.38
412.025	86.38
412.249	85.38
412.472	98.38
412.695	101.38
412.919	87.38
413.142	83.38
413.365	86.38
413.589	91.38
413.812	90.38
414.035	94.38
414.258	81.38
414.482	90.38
414.705	78.38
414.928	87.38
415.151	87.38
415.374	91.38
415.597	101.38
415.821	83.38
416.044	81.38
416.267	103.38
416.49	91.38
416.713	78.38
416.936	95.38
417.159	98.38
417.382	72.38
417.605	90.38
417.828	108.38
418.051	74.38
418.274	87.38
418.497	90.38
418.72	92.38
418.943	74.38
419.166	90.38
419.389	86.38
419.611	89.38
419.834	94.38
420.057	86.38
420.28	78.38
420.503	78.38
420.726	82.38
420.948	78.38
421.171	93.38
421.394	81.38
421.617	73.38
421.839	85.38
422.062	102.38
422.285	91.38
422.507	93.38
422.73	98.38
422.953	87.38
423.175	106.38
423.398	86.38
423.621	101.38
423.843	94.38
424.066	93.38
424.288	91.38
424.511	82.38
424.733	85.38
424.956	105.38
425.178	85.38
425.401	96.38
425.623	87.38
425.846	82.38
426.068	92.38
426.291	80.38
426.513	84.38
426.735	79.38
426.958	82.38
427.18	91.38
427.402	114.38
427.625	96.38
427.847	105.38
428.069	85.38
428.292	82.38
428.514	89.38
428.736	81.38
428.958	78.38
429.181	73.38
429.403	94.38
429.625	95.38
429.847	83.38
430.069	94.38
430.292	81.38
430.514	88.38
430.736	94.38
430.958	80.38
431.18	89.38
431.402	91.38
431.624	86.38
431.846	84.38
432.068	80.38
432.29	94.38
432.512	96.38
432.734	90.38
432.956	90.38
433.178	97.38
433.4	81.38
433.622	100.38
433.844	85.38
434.066	95.38
434.287	96.38
434.509	85.38
434.731	85.38
434.953	104.38
435.175	93.38
435.397	81.38
435.618	83.38
435.84	86.38
436.062	81.38
436.284	97.38
436.505	85.38
436.727	87.38
436.949	89.38
437.17	91.38
437.392	96.38
437.614	88.38
437.835	90.38
438.057	83.38
438.278	94.38
438.5	86.38
438.721	101.38
438.943	102.38
439.165	82.38
439.386	87.38
439.608	94.38
439.829	91.38
440.05	90.38
440.272	87.38
440.493	80.38
440.715	79.38
440.936	92.38
441.158	86.38
441.379	94.38
441.6	88.38
441.822	84.38
442.043	81.38
442.264	78.38
442.486	102.38
442.707	92.38
442.928	86.38
443.149	84.38
443.371	79.38
443.592	80.38
443.813	93.38
444.034	95.38
444.255	90.38
444.476	96.38
444.698	97.38
444.919	108.38
445.14	210.38
445.361	148.38
445.582	96.38
445.803	86.38
446.024	87.38
446.245	89.38
446.466	89.38
446.687	101.38
446.908	96.38
447.129	84.38
447.35	93.38
447.571	83.38
447.792	84.38
448.013	93.38
448.234	86.38
448.455	78.38
448.675	94.38
448.896	93.38
449.117	85.38
449.338	94.38
449.559	98.38
449.779	88.38
450	110.38
450.221	92.38
450.442	89.38
450.662	103.38
450.883	88.38
451.104	89.38
451.324	95.38
451.545	81.38
451.766	99.38
451.986	90.38
452.207	82.38
452.428	93.38
452.648	76.38
452.869	97.38
453.089	83.38
453.31	93.38
453.53	95.38
453.751	96.38
453.971	93.38
454.192	75.38
454.412	81.38
454.633	85.38
454.853	78.38
455.073	96.38
455.294	89.38
455.514	73.38
455.734	94.38
455.955	91.38
456.175	82.38
456.395	82.38
456.616	83.38
456.836	88.38
457.056	89.38
457.276	88.38
457.497	89.38
457.717	92.38
457.937	91.38
458.157	89.38
458.377	90.38
458.598	96.38
458.818	81.38
459.038	88.38
459.258	73.38
459.478	72.38
459.698	81.38
459.918	92.38
460.138	83.38
460.358	74.38
460.578	90.38
460.798	96.38
461.018	105.38
461.238	94.38
461.458	91.38
461.678	92.38
461.898	87.38
462.118	78.38
462.338	100.38
462.558	89.38
462.777	77.38
462.997	80.38
463.217	87.38
463.437	97.38
463.657	96.38
463.876	77.38
464.096	101.38
464.316	89.38
464.536	96.38
464.755	93.38
464.975	88.38
465.195	103.38
465.414	91.38
465.634	85.38
465.854	94.38
466.073	73.38
466.293	96.38
466.512	90.38
466.732	81.38
466.951	95.38
467.171	88.38
467.391	106.38
467.61	82.38
467.829	90.38
468.049	90.38
468.268	96.38
468.488	97.38
468.707	79.38
468.927	84.38
469.146	100.38
469.365	89.38
469.585	89.38
469.804	97.38
470.023	82.38
470.243	86.38
470.462	87.38
470.681	92.38
470.901	99.38
471.12	97.38
471.339	81.38
471.558	95.38
471.777	96.38
471.997	93.38
472.216	101.38
472.435	97.38
472.654	94.38
472.873	94.38
473.092	87.38
473.311	92.38
473.53	90.38
473.749	109.38
473.968	79.38
474.187	87.38
474.406	92.38
474.625	91.38
474.844	81.38
475.063	92.38
475.282	97.38
475.501	102.38
475.72	92.38
475.939	107.38
476.158	81.38
476.377	86.38
476.596	96.38
476.814	108.38
477.033	103.38
477.252	87.38
477.471	79.38
477.69	94.38
477.908	92.38
478.127	107.38
478.346	98.38
478.564	88.38
478.783	93.38
479.002	95.38
479.22	89.38
479.439	80.38
479.658	84.38
479.876	84.38
480.095	95.38
480.313	98.38
480.532	82.38
480.751	101.38
480.969	88.38
481.188	93.38
481.406	79.38
481.624	92.38
481.843	77.38
482.061	84.38
482.28	91.38
482.498	113.38
482.717	101.38
482.935	96.38
483.153	102.38
483.372	92.38
483.59	101.38
483.808	77.38
484.027	86.38
484.245	95.38
484.463	95.38
484.681	109.38
484.9	91.38
485.118	102.38
485.336	97.38
485.554	95.38
485.772	83.38
485.99	99.38
486.209	106.38
486.427	98.38
486.645	90.38
486.863	93.38
487.081	89.38
487.299	104.38
487.517	94.38
487.735	91.38
487.953	90.38
488.171	107.38
488.389	101.38
488.607	85.38
488.825	90.38
489.043	83.38
489.261	90.38
489.479	108.38
489.696	94.38
489.914	101.38
490.132	102.38
490.35	92.38
490.568	100.38
490.786	93.38
491.003	91.38
491.221	80.38
491.439	91.38
491.657	96.38
491.874	96.38
492.092	97.38
492.31	93.38
492.527	93.38
492.745	101.38
492.963	97.38
493.18	98.38
493.398	103.38
493.615	93.38
493.833	97.38
494.05	89.38
494.268	109.38
494.485	103.38
494.703	111.38
494.92	97.38
495.138	80.38
495.355	95.38
495.573	93.38
495.79	100.38
496.008	103.38
496.225	105.38
496.442	110.38
496.66	103.38
496.877	99.38
497.094	101.38
497.312	106.38
497.529	95.38
497.746	104.38
497.963	101.38
498.181	104.38
498.398	98.38
498.615	88.38
498.832	96.38
499.049	100.38
499.267	97.38
499.484	98.38
499.701	105.38
499.918	115.38
500.135	118.38
500.352	107.38
500.569	122.38
500.786	103.38
501.003	119.38
501.22	110.38
501.437	104.38
501.654	102.38
501.871	100.38
502.088	102.38
502.305	107.38
502.522	102.38
502.739	105.38
502.956	108.38
503.172	114.38
503.389	82.38
503.606	98.38
503.823	104.38
504.04	98.38
504.256	93.38
504.473	98.38
504.69	112.38
504.907	97.38
505.123	90.38
505.34	100.38
505.557	97.38
505.773	100.38
505.99	92.38
506.207	103.38
506.423	96.38
506.64	101.38
506.856	97.38
507.073	95.38
507.289	80.38
507.506	88.38
507.722	105.38
507.939	86.38
508.155	90.38
508.372	102.38
508.588	100.38
508.805	97.38
509.021	100.38
509.238	105.38
509.454	97.38
509.67	99.38
509.887	98.38
510.103	82.38
510.319	94.38
510.536	88.38
510.752	95.38
510.968	99.38
511.184	92.38
511.401	95.38
511.617	93.38
511.833	89.38
512.049	86.38
512.265	92.38
512.481	93.38
512.698	91.38
512.914	100.38
513.13	88.38
513.346	93.38
513.562	84.38
513.778	105.38
513.994	94.38
514.21	96.38
514.426	106.38
514.642	97.38
514.858	94.38
515.074	104.38
515.29	87.38
515.506	106.38
515.721	101.38
515.937	94.38
516.153	96.38
516.369	96.38
516.585	89.38
516.801	116.38
517.016	97.38
