Data from Ni(NO3)2@0.25M.TitratingCurve.Agarose3%dH2O.NegLispCup.LampEnergy10.LIBS07252019_HRD10591_18-03-46-566.txt Node
Date: Thu Jul 25 18:03:46 EDT 2019
User: cochatt
Spectrometer: HR+D1059
Trigger mode: 1
Integration Time (sec): 1.000000E-1
Scans to average: 1
Electric dark correction enabled: true
Nonlinearity correction enabled: false
Boxcar width: 0
XAxis mode: Wavelengths
Number of Pixels in Spectrum: 2048
>>>>>Begin Spectral Data<<<<<
223.165	-19.38
223.4	-19.38
223.635	-19.38
223.869	-17.38
224.104	-17.38
224.338	-21.38
224.573	-7.38
224.808	1.62
225.042	-18.38
225.277	-7.38
225.511	-2.38
225.746	5.62
225.98	9.62
226.215	0.62
226.449	22.62
226.683	20.62
226.918	30.62
227.152	19.62
227.387	31.62
227.621	25.62
227.856	41.62
228.09	51.62
228.324	50.62
228.559	59.62
228.793	67.62
229.027	75.62
229.262	71.62
229.496	71.62
229.73	84.62
229.964	98.62
230.199	93.62
230.433	103.62
230.667	112.62
230.901	104.62
231.136	109.62
231.37	99.62
231.604	99.62
231.838	102.62
232.072	106.62
232.306	98.62
232.541	103.62
232.775	105.62
233.009	99.62
233.243	103.62
233.477	96.62
233.711	90.62
233.945	100.62
234.179	100.62
234.413	109.62
234.647	104.62
234.881	93.62
235.115	100.62
235.349	106.62
235.583	110.62
235.817	104.62
236.051	103.62
236.285	105.62
236.519	102.62
236.753	85.62
236.987	99.62
237.221	93.62
237.455	106.62
237.689	101.62
237.922	107.62
238.156	101.62
238.39	86.62
238.624	94.62
238.858	104.62
239.091	101.62
239.325	106.62
239.559	114.62
239.793	113.62
240.027	109.62
240.26	100.62
240.494	115.62
240.728	105.62
240.961	102.62
241.195	107.62
241.429	118.62
241.662	99.62
241.896	88.62
242.13	105.62
242.363	119.62
242.597	108.62
242.83	101.62
243.064	104.62
243.298	103.62
243.531	122.62
243.765	106.62
243.998	106.62
244.232	112.62
244.465	99.62
244.699	104.62
244.932	118.62
245.166	109.62
245.399	115.62
245.633	119.62
245.866	113.62
246.099	109.62
246.333	106.62
246.566	113.62
246.8	110.62
247.033	123.62
247.266	120.62
247.5	131.62
247.733	129.62
247.966	136.62
248.2	122.62
248.433	128.62
248.666	123.62
248.899	115.62
249.133	132.62
249.366	129.62
249.599	129.62
249.832	124.62
250.066	135.62
250.299	132.62
250.532	150.62
250.765	145.62
250.998	139.62
251.231	138.62
251.465	149.62
251.698	159.62
251.931	153.62
252.164	165.62
252.397	143.62
252.63	163.62
252.863	142.62
253.096	158.62
253.329	138.62
253.562	152.62
253.795	167.62
254.028	166.62
254.261	161.62
254.494	162.62
254.727	169.62
254.96	176.62
255.193	176.62
255.426	166.62
255.659	171.62
255.892	187.62
256.124	161.62
256.357	194.62
256.59	195.62
256.823	181.62
257.056	179.62
257.289	183.62
257.521	186.62
257.754	191.62
257.987	195.62
258.22	189.62
258.452	185.62
258.685	189.62
258.918	207.62
259.151	197.62
259.383	215.62
259.616	215.62
259.849	215.62
260.081	206.62
260.314	217.62
260.547	198.62
260.779	198.62
261.012	191.62
261.244	208.62
261.477	213.62
261.71	237.62
261.942	221.62
262.175	215.62
262.407	210.62
262.64	215.62
262.872	233.62
263.105	219.62
263.337	232.62
263.57	225.62
263.802	221.62
264.035	224.62
264.267	237.62
264.499	221.62
264.732	220.62
264.964	213.62
265.197	214.62
265.429	212.62
265.661	242.62
265.894	235.62
266.126	235.62
266.358	238.62
266.591	224.62
266.823	234.62
267.055	243.62
267.287	234.62
267.52	237.62
267.752	243.62
267.984	229.62
268.216	232.62
268.448	233.62
268.681	227.62
268.913	241.62
269.145	253.62
269.377	225.62
269.609	247.62
269.841	232.62
270.073	248.62
270.306	241.62
270.538	206.62
270.77	218.62
271.002	254.62
271.234	239.62
271.466	271.62
271.698	233.62
271.93	217.62
272.162	219.62
272.394	262.62
272.626	241.62
272.858	250.62
273.09	251.62
273.322	262.62
273.553	252.62
273.785	255.62
274.017	258.62
274.249	243.62
274.481	255.62
274.713	244.62
274.945	249.62
275.176	245.62
275.408	245.62
275.64	245.62
275.872	271.62
276.104	247.62
276.335	243.62
276.567	274.62
276.799	270.62
277.031	252.62
277.262	267.62
277.494	256.62
277.726	241.62
277.957	256.62
278.189	280.62
278.421	262.62
278.652	256.62
278.884	271.62
279.115	262.62
279.347	267.62
279.579	270.62
279.81	262.62
280.042	252.62
280.273	251.62
280.505	247.62
280.736	281.62
280.968	267.62
281.199	245.62
281.431	259.62
281.662	278.62
281.894	261.62
282.125	245.62
282.356	258.62
282.588	287.62
282.819	263.62
283.051	256.62
283.282	263.62
283.513	265.62
283.745	262.62
283.976	255.62
284.207	286.62
284.439	283.62
284.67	280.62
284.901	271.62
285.132	263.62
285.364	271.62
285.595	286.62
285.826	265.62
286.057	268.62
286.288	283.62
286.52	279.62
286.751	283.62
286.982	271.62
287.213	272.62
287.444	273.62
287.675	282.62
287.906	262.62
288.138	278.62
288.369	262.62
288.6	261.62
288.831	275.62
289.062	291.62
289.293	271.62
289.524	275.62
289.755	282.62
289.986	254.62
290.217	280.62
290.448	298.62
290.679	286.62
290.91	265.62
291.141	254.62
291.371	257.62
291.602	280.62
291.833	262.62
292.064	288.62
292.295	269.62
292.526	267.62
292.757	285.62
292.987	275.62
293.218	271.62
293.449	277.62
293.68	258.62
293.91	289.62
294.141	264.62
294.372	272.62
294.603	275.62
294.833	279.62
295.064	275.62
295.295	279.62
295.525	268.62
295.756	277.62
295.987	292.62
296.217	279.62
296.448	288.62
296.679	265.62
296.909	260.62
297.14	286.62
297.37	298.62
297.601	308.62
297.831	306.62
298.062	291.62
298.292	279.62
298.523	294.62
298.753	286.62
298.984	274.62
299.214	279.62
299.445	291.62
299.675	274.62
299.905	284.62
300.136	284.62
300.366	289.62
300.597	317.62
300.827	279.62
301.057	312.62
301.288	273.62
301.518	299.62
301.748	310.62
301.979	299.62
302.209	303.62
302.439	304.62
302.669	297.62
302.9	314.62
303.13	317.62
303.36	326.62
303.59	306.62
303.82	311.62
304.051	299.62
304.281	304.62
304.511	301.62
304.741	294.62
304.971	302.62
305.201	313.62
305.431	314.62
305.661	305.62
305.891	297.62
306.121	329.62
306.352	316.62
306.582	307.62
306.812	317.62
307.042	305.62
307.272	317.62
307.502	314.62
307.731	321.62
307.961	337.62
308.191	315.62
308.421	311.62
308.651	339.62
308.881	317.62
309.111	311.62
309.341	312.62
309.571	307.62
309.8	316.62
310.03	357.62
310.26	353.62
310.49	344.62
310.72	326.62
310.949	328.62
311.179	332.62
311.409	319.62
311.639	328.62
311.868	327.62
312.098	331.62
312.328	343.62
312.557	334.62
312.787	333.62
313.017	351.62
313.246	371.62
313.476	376.62
313.706	387.62
313.935	351.62
314.165	363.62
314.394	352.62
314.624	365.62
314.853	344.62
315.083	361.62
315.312	353.62
315.542	382.62
315.771	381.62
316.001	377.62
316.23	383.62
316.46	381.62
316.689	385.62
316.919	393.62
317.148	365.62
317.377	382.62
317.607	382.62
317.836	387.62
318.065	367.62
318.295	378.62
318.524	379.62
318.753	390.62
318.983	378.62
319.212	406.62
319.441	409.62
319.67	420.62
319.9	398.62
320.129	390.62
320.358	419.62
320.587	411.62
320.816	415.62
321.046	416.62
321.275	424.62
321.504	437.62
321.733	432.62
321.962	434.62
322.191	435.62
322.42	445.62
322.649	422.62
322.878	442.62
323.108	451.62
323.337	458.62
323.566	435.62
323.795	459.62
324.024	463.62
324.253	461.62
324.482	479.62
324.71	474.62
324.939	468.62
325.168	469.62
325.397	473.62
325.626	469.62
325.855	490.62
326.084	507.62
326.313	502.62
326.542	483.62
326.77	487.62
326.999	513.62
327.228	489.62
327.457	524.62
327.686	501.62
327.914	531.62
328.143	523.62
328.372	534.62
328.6	525.62
328.829	516.62
329.058	523.62
329.287	515.62
329.515	527.62
329.744	527.62
329.972	545.62
330.201	554.62
330.43	535.62
330.658	541.62
330.887	559.62
331.115	546.62
331.344	538.62
331.572	559.62
331.801	576.62
332.03	576.62
332.258	579.62
332.486	597.62
332.715	581.62
332.943	619.62
333.172	644.62
333.4	631.62
333.629	648.62
333.857	647.62
334.085	641.62
334.314	651.62
334.542	615.62
334.771	662.62
334.999	664.62
335.227	631.62
335.455	651.62
335.684	659.62
335.912	663.62
336.14	660.62
336.369	663.62
336.597	667.62
336.825	646.62
337.053	704.62
337.281	679.62
337.51	644.62
337.738	656.62
337.966	675.62
338.194	664.62
338.422	629.62
338.65	598.62
338.878	623.62
339.106	632.62
339.334	602.62
339.562	621.62
339.79	609.62
340.018	614.62
340.246	612.62
340.474	629.62
340.702	602.62
340.93	625.62
341.158	615.62
341.386	633.62
341.614	616.62
341.842	617.62
342.07	628.62
342.298	623.62
342.526	618.62
342.754	620.62
342.981	614.62
343.209	638.62
343.437	641.62
343.665	675.62
343.893	668.62
344.12	679.62
344.348	676.62
344.576	652.62
344.804	661.62
345.031	644.62
345.259	642.62
345.487	625.62
345.714	639.62
345.942	612.62
346.17	650.62
346.397	621.62
346.625	615.62
346.853	601.62
347.08	589.62
347.308	621.62
347.535	592.62
347.763	589.62
347.99	604.62
348.218	596.62
348.445	602.62
348.673	564.62
348.9	573.62
349.128	579.62
349.355	608.62
349.583	613.62
349.81	588.62
350.037	594.62
350.265	590.62
350.492	590.62
350.72	561.62
350.947	605.62
351.174	594.62
351.402	597.62
351.629	605.62
351.856	565.62
352.083	579.62
352.311	579.62
352.538	584.62
352.765	609.62
352.992	593.62
353.22	566.62
353.447	552.62
353.674	565.62
353.901	566.62
354.128	557.62
354.355	548.62
354.583	557.62
354.81	554.62
355.037	555.62
355.264	583.62
355.491	573.62
355.718	563.62
355.945	584.62
356.172	563.62
356.399	585.62
356.626	579.62
356.853	586.62
357.08	602.62
357.307	566.62
357.534	597.62
357.761	589.62
357.988	582.62
358.215	574.62
358.441	565.62
358.668	565.62
358.895	560.62
359.122	571.62
359.349	567.62
359.576	574.62
359.802	552.62
360.029	569.62
360.256	566.62
360.483	563.62
360.709	577.62
360.936	587.62
361.163	564.62
361.39	563.62
361.616	594.62
361.843	572.62
362.07	609.62
362.296	590.62
362.523	559.62
362.749	561.62
362.976	560.62
363.203	545.62
363.429	569.62
363.656	565.62
363.882	564.62
364.109	551.62
364.335	541.62
364.562	538.62
364.788	534.62
365.015	550.62
365.241	555.62
365.468	558.62
365.694	558.62
365.92	563.62
366.147	561.62
366.373	538.62
366.599	548.62
366.826	559.62
367.052	550.62
367.278	567.62
367.505	575.62
367.731	560.62
367.957	542.62
368.184	547.62
368.41	548.62
368.636	569.62
368.862	554.62
369.089	553.62
369.315	557.62
369.541	572.62
369.767	570.62
369.993	569.62
370.219	570.62
370.445	575.62
370.672	583.62
370.898	563.62
371.124	571.62
371.35	567.62
371.576	580.62
371.802	575.62
372.028	563.62
372.254	569.62
372.48	566.62
372.706	583.62
372.932	579.62
373.158	580.62
373.384	571.62
373.61	571.62
373.835	583.62
374.061	563.62
374.287	576.62
374.513	559.62
374.739	564.62
374.965	583.62
375.191	612.62
375.416	606.62
375.642	580.62
375.868	599.62
376.094	593.62
376.319	566.62
376.545	563.62
376.771	553.62
376.997	531.62
377.222	558.62
377.448	551.62
377.674	558.62
377.899	578.62
378.125	562.62
378.35	540.62
378.576	561.62
378.802	546.62
379.027	557.62
379.253	533.62
379.478	538.62
379.704	534.62
379.929	552.62
380.155	559.62
380.38	565.62
380.606	558.62
380.831	550.62
381.057	545.62
381.282	517.62
381.507	542.62
381.733	537.62
381.958	552.62
382.184	536.62
382.409	559.62
382.634	551.62
382.86	521.62
383.085	567.62
383.31	553.62
383.535	573.62
383.761	561.62
383.986	571.62
384.211	564.62
384.436	567.62
384.662	594.62
384.887	597.62
385.112	597.62
385.337	582.62
385.562	604.62
385.787	595.62
386.013	615.62
386.238	607.62
386.463	628.62
386.688	605.62
386.913	601.62
387.138	579.62
387.363	601.62
387.588	588.62
387.813	595.62
388.038	630.62
388.263	597.62
388.488	606.62
388.713	616.62
388.938	595.62
389.163	615.62
389.387	595.62
389.612	625.62
389.837	619.62
390.062	617.62
390.287	603.62
390.512	594.62
390.736	613.62
390.961	628.62
391.186	620.62
391.411	634.62
391.636	632.62
391.86	631.62
392.085	656.62
392.31	663.62
392.534	654.62
392.759	673.62
392.984	621.62
393.208	632.62
393.433	644.62
393.658	637.62
393.882	641.62
394.107	649.62
394.331	672.62
394.556	642.62
394.78	637.62
395.005	649.62
395.229	642.62
395.454	666.62
395.678	679.62
395.903	689.62
396.127	655.62
396.352	665.62
396.576	655.62
396.801	660.62
397.025	662.62
397.249	669.62
397.474	684.62
397.698	674.62
397.922	691.62
398.147	696.62
398.371	713.62
398.595	727.62
398.82	733.62
399.044	769.62
399.268	805.62
399.492	826.62
399.717	865.62
399.941	886.62
400.165	849.62
400.389	834.62
400.613	782.62
400.837	805.62
401.062	781.62
401.286	757.62
401.51	778.62
401.734	751.62
401.958	741.62
402.182	787.62
402.406	747.62
402.63	754.62
402.854	768.62
403.078	756.62
403.302	763.62
403.526	772.62
403.75	758.62
403.974	773.62
404.198	785.62
404.422	797.62
404.645	791.62
404.869	789.62
405.093	789.62
405.317	794.62
405.541	775.62
405.765	801.62
405.988	832.62
406.212	823.62
406.436	824.62
406.66	814.62
406.883	837.62
407.107	838.62
407.331	871.62
407.555	890.62
407.778	878.62
408.002	862.62
408.226	873.62
408.449	874.62
408.673	854.62
408.896	855.62
409.12	848.62
409.344	829.62
409.567	860.62
409.791	837.62
410.014	866.62
410.238	829.62
410.461	843.62
410.685	829.62
410.908	787.62
411.132	797.62
411.355	814.62
411.578	813.62
411.802	808.62
412.025	805.62
412.249	818.62
412.472	823.62
412.695	786.62
412.919	793.62
413.142	799.62
413.365	786.62
413.589	805.62
413.812	821.62
414.035	783.62
414.258	793.62
414.482	823.62
414.705	801.62
414.928	803.62
415.151	803.62
415.374	803.62
415.597	797.62
415.821	789.62
416.044	774.62
416.267	791.62
416.49	770.62
416.713	791.62
416.936	801.62
417.159	783.62
417.382	774.62
417.605	791.62
417.828	765.62
418.051	802.62
418.274	791.62
418.497	791.62
418.72	805.62
418.943	799.62
419.166	831.62
419.389	890.62
419.611	853.62
419.834	838.62
420.057	858.62
420.28	788.62
420.503	782.62
420.726	775.62
420.948	769.62
421.171	778.62
421.394	802.62
421.617	791.62
421.839	821.62
422.062	811.62
422.285	799.62
422.507	824.62
422.73	787.62
422.953	804.62
423.175	819.62
423.398	807.62
423.621	807.62
423.843	826.62
424.066	859.62
424.288	832.62
424.511	820.62
424.733	803.62
424.956	806.62
425.178	810.62
425.401	824.62
425.623	803.62
425.846	800.62
426.068	790.62
426.291	786.62
426.513	780.62
426.735	800.62
426.958	792.62
427.18	772.62
427.402	787.62
427.625	791.62
427.847	795.62
428.069	777.62
428.292	805.62
428.514	785.62
428.736	789.62
428.958	802.62
429.181	773.62
429.403	769.62
429.625	776.62
429.847	769.62
430.069	793.62
430.292	833.62
430.514	771.62
430.736	785.62
430.958	792.62
431.18	795.62
431.402	783.62
431.624	797.62
431.846	772.62
432.068	772.62
432.29	813.62
432.512	798.62
432.734	795.62
432.956	818.62
433.178	810.62
433.4	800.62
433.622	828.62
433.844	804.62
434.066	806.62
434.287	825.62
434.509	824.62
434.731	828.62
434.953	832.62
435.175	838.62
435.397	858.62
435.618	818.62
435.84	794.62
436.062	807.62
436.284	809.62
436.505	797.62
436.727	826.62
436.949	811.62
437.17	815.62
437.392	797.62
437.614	791.62
437.835	769.62
438.057	802.62
438.278	769.62
438.5	802.62
438.721	789.62
438.943	793.62
439.165	772.62
439.386	774.62
439.608	806.62
439.829	822.62
440.05	821.62
440.272	825.62
440.493	811.62
440.715	843.62
440.936	827.62
441.158	843.62
441.379	862.62
441.6	861.62
441.822	877.62
442.043	852.62
442.264	851.62
442.486	847.62
442.707	835.62
442.928	836.62
443.149	858.62
443.371	851.62
443.592	877.62
443.813	864.62
444.034	887.62
444.255	868.62
444.476	893.62
444.698	919.62
444.919	916.62
445.14	972.62
445.361	923.62
445.582	884.62
445.803	856.62
446.024	833.62
446.245	864.62
446.466	863.62
446.687	825.62
446.908	843.62
447.129	816.62
447.35	800.62
447.571	803.62
447.792	791.62
448.013	773.62
448.234	771.62
448.455	760.62
448.675	774.62
448.896	752.62
449.117	742.62
449.338	787.62
449.559	751.62
449.779	739.62
450	728.62
450.221	755.62
450.442	764.62
450.662	730.62
450.883	759.62
451.104	765.62
451.324	761.62
451.545	769.62
451.766	731.62
451.986	727.62
452.207	718.62
452.428	738.62
452.648	743.62
452.869	731.62
453.089	707.62
453.31	721.62
453.53	727.62
453.751	725.62
453.971	719.62
454.192	722.62
454.412	703.62
454.633	714.62
454.853	721.62
455.073	727.62
455.294	715.62
455.514	685.62
455.734	734.62
455.955	701.62
456.175	698.62
456.395	699.62
456.616	722.62
456.836	695.62
457.056	714.62
457.276	709.62
457.497	721.62
457.717	724.62
457.937	733.62
458.157	739.62
458.377	715.62
458.598	733.62
458.818	743.62
459.038	748.62
459.258	773.62
459.478	799.62
459.698	805.62
459.918	804.62
460.138	822.62
460.358	904.62
460.578	851.62
460.798	889.62
461.018	897.62
461.238	858.62
461.458	913.62
461.678	874.62
461.898	900.62
462.118	888.62
462.338	934.62
462.558	941.62
462.777	943.62
462.997	987.62
463.217	1018.62
463.437	1016.62
463.657	1025.62
463.876	980.62
464.096	1002.62
464.316	979.62
464.536	982.62
464.755	971.62
464.975	932.62
465.195	921.62
465.414	883.62
465.634	855.62
465.854	825.62
466.073	820.62
466.293	837.62
466.512	820.62
466.732	793.62
466.951	818.62
467.171	777.62
467.391	807.62
467.61	771.62
467.829	783.62
468.049	780.62
468.268	782.62
468.488	785.62
468.707	777.62
468.927	773.62
469.146	779.62
469.365	813.62
469.585	779.62
469.804	791.62
470.023	806.62
470.243	807.62
470.462	781.62
470.681	791.62
470.901	804.62
471.12	809.62
471.339	764.62
471.558	800.62
471.777	776.62
471.997	781.62
472.216	784.62
472.435	778.62
472.654	770.62
472.873	755.62
473.092	768.62
473.311	783.62
473.53	790.62
473.749	784.62
473.968	751.62
474.187	761.62
474.406	744.62
474.625	789.62
474.844	787.62
475.063	809.62
475.282	785.62
475.501	803.62
475.72	799.62
475.939	790.62
476.158	790.62
476.377	801.62
476.596	819.62
476.814	809.62
477.033	805.62
477.252	844.62
477.471	845.62
477.69	868.62
477.908	846.62
478.127	861.62
478.346	876.62
478.564	897.62
478.783	910.62
479.002	904.62
479.22	886.62
479.439	925.62
479.658	876.62
479.876	911.62
480.095	901.62
480.313	945.62
480.532	944.62
480.751	932.62
480.969	917.62
481.188	893.62
481.406	912.62
481.624	904.62
481.843	882.62
482.061	858.62
482.28	883.62
482.498	866.62
482.717	865.62
482.935	887.62
483.153	909.62
483.372	904.62
483.59	911.62
483.808	913.62
484.027	894.62
484.245	886.62
484.463	921.62
484.681	916.62
484.9	914.62
485.118	877.62
485.336	936.62
485.554	919.62
485.772	916.62
485.99	907.62
486.209	891.62
486.427	905.62
486.645	926.62
486.863	911.62
487.081	944.62
487.299	905.62
487.517	923.62
487.735	930.62
487.953	974.62
488.171	961.62
488.389	928.62
488.607	930.62
488.825	928.62
489.043	935.62
489.261	927.62
489.479	942.62
489.696	917.62
489.914	916.62
490.132	938.62
490.35	967.62
490.568	941.62
490.786	975.62
491.003	949.62
491.221	973.62
491.439	984.62
491.657	979.62
491.874	1018.62
492.092	996.62
492.31	991.62
492.527	1003.62
492.745	1022.62
492.963	986.62
493.18	996.62
493.398	976.62
493.615	997.62
493.833	999.62
494.05	998.62
494.268	1005.62
494.485	1017.62
494.703	1014.62
494.92	1026.62
495.138	1038.62
495.355	1020.62
495.573	1027.62
495.79	1044.62
496.008	1060.62
496.225	1037.62
496.442	1043.62
496.66	1033.62
496.877	1105.62
497.094	1115.62
497.312	1107.62
497.529	1128.62
497.746	1154.62
497.963	1154.62
498.181	1165.62
498.398	1220.62
498.615	1246.62
498.832	1311.62
499.049	1389.62
499.267	1439.62
499.484	1504.62
499.701	1577.62
499.918	1644.62
500.135	1723.62
500.352	1767.62
500.569	1867.62
500.786	1838.62
501.003	1782.62
501.22	1735.62
501.437	1655.62
