Data from Ni(NO3)2@0.5M.TitratingCurve.Agarose3%dH2O.NegLispCup.LampEnergy10.LIBS07252019_HRD10591_17-57-22-564.txt Node
Date: Thu Jul 25 17:57:22 EDT 2019
User: cochatt
Spectrometer: HR+D1059
Trigger mode: 1
Integration Time (sec): 1.000000E-1
Scans to average: 1
Electric dark correction enabled: true
Nonlinearity correction enabled: false
Boxcar width: 0
XAxis mode: Wavelengths
Number of Pixels in Spectrum: 2048
>>>>>Begin Spectral Data<<<<<
223.165	-21.69
223.4	-21.69
223.635	-21.69
223.869	-13.69
224.104	-25.69
224.338	-12.69
224.573	-27.69
224.808	1.31
225.042	-10.69
225.277	-3.69
225.511	-10.69
225.746	6.31
225.98	8.31
226.215	13.31
226.449	14.31
226.683	9.31
226.918	41.31
227.152	32.31
227.387	37.31
227.621	36.31
227.856	44.31
228.09	44.31
228.324	57.31
228.559	62.31
228.793	81.31
229.027	149.31
229.262	171.31
229.496	164.31
229.73	159.31
229.964	198.31
230.199	212.31
230.433	218.31
230.667	200.31
230.901	197.31
231.136	178.31
231.37	194.31
231.604	201.31
231.838	243.31
232.072	230.31
232.306	220.31
232.541	201.31
232.775	205.31
233.009	198.31
233.243	181.31
233.477	190.31
233.711	202.31
233.945	202.31
234.179	207.31
234.413	212.31
234.647	201.31
234.881	216.31
235.115	204.31
235.349	218.31
235.583	197.31
235.817	196.31
236.051	197.31
236.285	210.31
236.519	202.31
236.753	227.31
236.987	209.31
237.221	192.31
237.455	202.31
237.689	208.31
237.922	206.31
238.156	228.31
238.39	223.31
238.624	219.31
238.858	231.31
239.091	241.31
239.325	230.31
239.559	250.31
239.793	262.31
240.027	265.31
240.26	243.31
240.494	224.31
240.728	226.31
240.961	238.31
241.195	267.31
241.429	259.31
241.662	260.31
241.896	275.31
242.13	309.31
242.363	277.31
242.597	268.31
242.83	268.31
243.064	259.31
243.298	272.31
243.531	276.31
243.765	277.31
243.998	301.31
244.232	293.31
244.465	288.31
244.699	284.31
244.932	295.31
245.166	291.31
245.399	308.31
245.633	321.31
245.866	317.31
246.099	305.31
246.333	315.31
246.566	328.31
246.8	299.31
247.033	318.31
247.266	321.31
247.5	329.31
247.733	335.31
247.966	328.31
248.2	334.31
248.433	353.31
248.666	318.31
248.899	334.31
249.133	357.31
249.366	346.31
249.599	339.31
249.832	361.31
250.066	382.31
250.299	376.31
250.532	359.31
250.765	379.31
250.998	401.31
251.231	395.31
251.465	403.31
251.698	386.31
251.931	416.31
252.164	383.31
252.397	405.31
252.63	387.31
252.863	403.31
253.096	411.31
253.329	394.31
253.562	394.31
253.795	410.31
254.028	402.31
254.261	432.31
254.494	427.31
254.727	439.31
254.96	430.31
255.193	425.31
255.426	437.31
255.659	446.31
255.892	454.31
256.124	450.31
256.357	467.31
256.59	461.31
256.823	450.31
257.056	495.31
257.289	473.31
257.521	479.31
257.754	478.31
257.987	472.31
258.22	466.31
258.452	477.31
258.685	489.31
258.918	486.31
259.151	507.31
259.383	513.31
259.616	491.31
259.849	490.31
260.081	512.31
260.314	505.31
260.547	524.31
260.779	508.31
261.012	510.31
261.244	521.31
261.477	538.31
261.71	541.31
261.942	535.31
262.175	551.31
262.407	549.31
262.64	530.31
262.872	555.31
263.105	586.31
263.337	553.31
263.57	537.31
263.802	557.31
264.035	541.31
264.267	547.31
264.499	550.31
264.732	567.31
264.964	538.31
265.197	570.31
265.429	570.31
265.661	573.31
265.894	569.31
266.126	594.31
266.358	590.31
266.591	566.31
266.823	585.31
267.055	601.31
267.287	590.31
267.52	597.31
267.752	599.31
267.984	603.31
268.216	599.31
268.448	596.31
268.681	614.31
268.913	608.31
269.145	606.31
269.377	597.31
269.609	618.31
269.841	616.31
270.073	625.31
270.306	616.31
270.538	617.31
270.77	602.31
271.002	633.31
271.234	625.31
271.466	631.31
271.698	628.31
271.93	629.31
272.162	643.31
272.394	639.31
272.626	655.31
272.858	664.31
273.09	650.31
273.322	686.31
273.553	645.31
273.785	666.31
274.017	666.31
274.249	666.31
274.481	662.31
274.713	676.31
274.945	684.31
275.176	693.31
275.408	676.31
275.64	678.31
275.872	697.31
276.104	693.31
276.335	700.31
276.567	667.31
276.799	693.31
277.031	707.31
277.262	716.31
277.494	720.31
277.726	714.31
277.957	698.31
278.189	705.31
278.421	713.31
278.652	689.31
278.884	716.31
279.115	726.31
279.347	708.31
279.579	703.31
279.81	737.31
280.042	735.31
280.273	723.31
280.505	757.31
280.736	737.31
280.968	735.31
281.199	744.31
281.431	753.31
281.662	734.31
281.894	756.31
282.125	741.31
282.356	741.31
282.588	749.31
282.819	712.31
283.051	779.31
283.282	753.31
283.513	748.31
283.745	770.31
283.976	777.31
284.207	742.31
284.439	773.31
284.67	771.31
284.901	785.31
285.132	780.31
285.364	794.31
285.595	778.31
285.826	794.31
286.057	782.31
286.288	767.31
286.52	793.31
286.751	791.31
286.982	781.31
287.213	801.31
287.444	821.31
287.675	787.31
287.906	814.31
288.138	793.31
288.369	784.31
288.6	799.31
288.831	808.31
289.062	802.31
289.293	797.31
289.524	829.31
289.755	824.31
289.986	813.31
290.217	825.31
290.448	826.31
290.679	812.31
290.91	794.31
291.141	799.31
291.371	830.31
291.602	805.31
291.833	830.31
292.064	799.31
292.295	820.31
292.526	815.31
292.757	837.31
292.987	830.31
293.218	797.31
293.449	825.31
293.68	840.31
293.91	825.31
294.141	810.31
294.372	813.31
294.603	833.31
294.833	842.31
295.064	830.31
295.295	839.31
295.525	830.31
295.756	836.31
295.987	842.31
296.217	859.31
296.448	877.31
296.679	846.31
296.909	858.31
297.14	847.31
297.37	868.31
297.601	857.31
297.831	851.31
298.062	846.31
298.292	866.31
298.523	893.31
298.753	881.31
298.984	868.31
299.214	865.31
299.445	876.31
299.675	868.31
299.905	878.31
300.136	901.31
300.366	921.31
300.597	913.31
300.827	930.31
301.057	920.31
301.288	914.31
301.518	923.31
301.748	909.31
301.979	922.31
302.209	937.31
302.439	914.31
302.669	917.31
302.9	947.31
303.13	917.31
303.36	929.31
303.59	904.31
303.82	949.31
304.051	952.31
304.281	954.31
304.511	945.31
304.741	978.31
304.971	963.31
305.201	973.31
305.431	994.31
305.661	975.31
305.891	976.31
306.121	991.31
306.352	941.31
306.582	940.31
306.812	943.31
307.042	927.31
307.272	955.31
307.502	953.31
307.731	948.31
307.961	986.31
308.191	968.31
308.421	949.31
308.651	947.31
308.881	954.31
309.111	962.31
309.341	986.31
309.571	978.31
309.8	1012.31
310.03	1000.31
310.26	1019.31
310.49	1040.31
310.72	1009.31
310.949	1017.31
311.179	999.31
311.409	995.31
311.639	1028.31
311.868	1008.31
312.098	1019.31
312.328	1031.31
312.557	1061.31
312.787	1017.31
313.017	1031.31
313.246	1050.31
313.476	1032.31
313.706	1052.31
313.935	1061.31
314.165	1058.31
314.394	1039.31
314.624	1043.31
314.853	1047.31
315.083	1076.31
315.312	1084.31
315.542	1058.31
315.771	1057.31
316.001	1050.31
316.23	1057.31
316.46	1090.31
316.689	1089.31
316.919	1095.31
317.148	1107.31
317.377	1084.31
317.607	1091.31
317.836	1079.31
318.065	1127.31
318.295	1128.31
318.524	1116.31
318.753	1089.31
318.983	1108.31
319.212	1113.31
319.441	1129.31
319.67	1132.31
319.9	1145.31
320.129	1126.31
320.358	1132.31
320.587	1144.31
320.816	1145.31
321.046	1166.31
321.275	1173.31
321.504	1207.31
321.733	1170.31
321.962	1193.31
322.191	1141.31
322.42	1163.31
322.649	1189.31
322.878	1178.31
323.108	1195.31
323.337	1181.31
323.566	1185.31
323.795	1190.31
324.024	1220.31
324.253	1163.31
324.482	1226.31
324.71	1198.31
324.939	1213.31
325.168	1232.31
325.397	1221.31
325.626	1168.31
325.855	1238.31
326.084	1234.31
326.313	1221.31
326.542	1281.31
326.77	1266.31
326.999	1258.31
327.228	1259.31
327.457	1272.31
327.686	1265.31
327.914	1268.31
328.143	1257.31
328.372	1285.31
328.6	1262.31
328.829	1269.31
329.058	1288.31
329.287	1269.31
329.515	1283.31
329.744	1285.31
329.972	1320.31
330.201	1285.31
330.43	1290.31
330.658	1301.31
330.887	1324.31
331.115	1290.31
331.344	1291.31
331.572	1301.31
331.801	1341.31
332.03	1335.31
332.258	1332.31
332.486	1311.31
332.715	1333.31
332.943	1338.31
333.172	1342.31
333.4	1355.31
333.629	1379.31
333.857	1356.31
334.085	1369.31
334.314	1376.31
334.542	1385.31
334.771	1400.31
334.999	1366.31
335.227	1373.31
335.455	1369.31
335.684	1395.31
335.912	1427.31
336.14	1409.31
336.369	1401.31
336.597	1394.31
336.825	1405.31
337.053	1442.31
337.281	1448.31
337.51	1403.31
337.738	1417.31
337.966	1449.31
338.194	1419.31
338.422	1428.31
338.65	1395.31
338.878	1401.31
339.106	1388.31
339.334	1445.31
339.562	1416.31
339.79	1379.31
340.018	1402.31
340.246	1415.31
340.474	1369.31
340.702	1407.31
340.93	1412.31
341.158	1416.31
341.386	1424.31
341.614	1478.31
341.842	1450.31
342.07	1386.31
342.298	1383.31
342.526	1395.31
342.754	1420.31
342.981	1355.31
343.209	1362.31
343.437	1429.31
343.665	1461.31
343.893	1419.31
344.12	1435.31
344.348	1404.31
344.576	1441.31
344.804	1426.31
345.031	1394.31
345.259	1412.31
345.487	1401.31
345.714	1382.31
345.942	1415.31
346.17	1491.31
346.397	1417.31
346.625	1369.31
346.853	1369.31
347.08	1364.31
347.308	1329.31
347.535	1356.31
347.763	1346.31
347.99	1326.31
348.218	1346.31
348.445	1306.31
348.673	1345.31
348.9	1331.31
349.128	1373.31
349.355	1377.31
349.583	1401.31
349.81	1356.31
350.037	1361.31
350.265	1337.31
350.492	1321.31
350.72	1334.31
350.947	1345.31
351.174	1345.31
351.402	1368.31
351.629	1413.31
351.856	1397.31
352.083	1340.31
352.311	1357.31
352.538	1386.31
352.765	1390.31
352.992	1331.31
353.22	1307.31
353.447	1341.31
353.674	1334.31
353.901	1295.31
354.128	1304.31
354.355	1299.31
354.583	1304.31
354.81	1357.31
355.037	1298.31
355.264	1336.31
355.491	1287.31
355.718	1301.31
355.945	1275.31
356.172	1330.31
356.399	1340.31
356.626	1335.31
356.853	1371.31
357.08	1336.31
357.307	1313.31
357.534	1313.31
357.761	1311.31
357.988	1291.31
358.215	1300.31
358.441	1267.31
358.668	1329.31
358.895	1308.31
359.122	1331.31
359.349	1309.31
359.576	1315.31
359.802	1331.31
360.029	1311.31
360.256	1301.31
360.483	1311.31
360.709	1305.31
360.936	1330.31
361.163	1330.31
361.39	1327.31
361.616	1322.31
361.843	1373.31
362.07	1402.31
362.296	1411.31
362.523	1295.31
362.749	1331.31
362.976	1301.31
363.203	1325.31
363.429	1323.31
363.656	1329.31
363.882	1299.31
364.109	1324.31
364.335	1322.31
364.562	1310.31
364.788	1302.31
365.015	1342.31
365.241	1304.31
365.468	1296.31
365.694	1291.31
365.92	1312.31
366.147	1312.31
366.373	1319.31
366.599	1354.31
366.826	1326.31
367.052	1318.31
367.278	1317.31
367.505	1353.31
367.731	1349.31
367.957	1318.31
368.184	1338.31
368.41	1335.31
368.636	1335.31
368.862	1351.31
369.089	1348.31
369.315	1356.31
369.541	1332.31
369.767	1349.31
369.993	1349.31
370.219	1336.31
370.445	1326.31
370.672	1370.31
370.898	1333.31
371.124	1335.31
371.35	1374.31
371.576	1359.31
371.802	1385.31
372.028	1353.31
372.254	1394.31
372.48	1378.31
372.706	1347.31
372.932	1364.31
373.158	1331.31
373.384	1374.31
373.61	1346.31
373.835	1381.31
374.061	1347.31
374.287	1365.31
374.513	1376.31
374.739	1370.31
374.965	1372.31
375.191	1363.31
375.416	1370.31
375.642	1362.31
375.868	1360.31
376.094	1318.31
376.319	1329.31
376.545	1319.31
376.771	1326.31
376.997	1351.31
377.222	1317.31
377.448	1332.31
377.674	1323.31
377.899	1343.31
378.125	1301.31
378.35	1321.31
378.576	1348.31
378.802	1311.31
379.027	1307.31
379.253	1341.31
379.478	1312.31
379.704	1287.31
379.929	1342.31
380.155	1314.31
380.38	1358.31
380.606	1314.31
380.831	1321.31
381.057	1353.31
381.282	1309.31
381.507	1281.31
381.733	1351.31
381.958	1322.31
382.184	1304.31
382.409	1333.31
382.634	1347.31
382.86	1307.31
383.085	1305.31
383.31	1367.31
383.535	1381.31
383.761	1357.31
383.986	1371.31
384.211	1374.31
384.436	1377.31
384.662	1373.31
384.887	1399.31
385.112	1387.31
385.337	1398.31
385.562	1361.31
385.787	1395.31
386.013	1433.31
386.238	1402.31
386.463	1395.31
386.688	1407.31
386.913	1389.31
387.138	1374.31
387.363	1411.31
387.588	1435.31
387.813	1359.31
388.038	1425.31
388.263	1421.31
388.488	1397.31
388.713	1423.31
388.938	1415.31
389.163	1425.31
389.387	1393.31
389.612	1406.31
389.837	1412.31
390.062	1399.31
390.287	1423.31
390.512	1419.31
390.736	1422.31
390.961	1459.31
391.186	1435.31
391.411	1438.31
391.636	1426.31
391.86	1422.31
392.085	1431.31
392.31	1434.31
392.534	1417.31
392.759	1413.31
392.984	1457.31
393.208	1465.31
393.433	1458.31
393.658	1441.31
393.882	1437.31
394.107	1459.31
394.331	1430.31
394.556	1422.31
394.78	1433.31
395.005	1451.31
395.229	1436.31
395.454	1461.31
395.678	1437.31
395.903	1442.31
396.127	1444.31
396.352	1446.31
396.576	1407.31
396.801	1436.31
397.025	1467.31
397.249	1448.31
397.474	1452.31
397.698	1466.31
397.922	1500.31
398.147	1470.31
398.371	1472.31
398.595	1484.31
398.82	1517.31
399.044	1554.31
399.268	1583.31
399.492	1602.31
399.717	1582.31
399.941	1612.31
400.165	1605.31
400.389	1623.31
400.613	1570.31
400.837	1541.31
401.062	1571.31
401.286	1574.31
401.51	1551.31
401.734	1547.31
401.958	1567.31
402.182	1537.31
402.406	1558.31
402.63	1538.31
402.854	1537.31
403.078	1526.31
403.302	1512.31
403.526	1559.31
403.75	1534.31
403.974	1572.31
404.198	1543.31
404.422	1535.31
404.645	1548.31
404.869	1549.31
405.093	1542.31
405.317	1538.31
405.541	1561.31
405.765	1562.31
405.988	1535.31
406.212	1610.31
406.436	1599.31
406.66	1619.31
406.883	1601.31
407.107	1617.31
407.331	1630.31
407.555	1669.31
407.778	1649.31
408.002	1635.31
408.226	1625.31
408.449	1689.31
408.673	1637.31
408.896	1654.31
409.12	1617.31
409.344	1638.31
409.567	1622.31
409.791	1650.31
410.014	1613.31
410.238	1588.31
410.461	1621.31
410.685	1624.31
410.908	1581.31
411.132	1621.31
411.355	1579.31
411.578	1593.31
411.802	1606.31
412.025	1613.31
412.249	1579.31
412.472	1558.31
412.695	1558.31
412.919	1555.31
413.142	1544.31
413.365	1577.31
413.589	1580.31
413.812	1509.31
414.035	1563.31
414.258	1524.31
414.482	1523.31
414.705	1542.31
414.928	1545.31
415.151	1525.31
415.374	1528.31
415.597	1553.31
415.821	1521.31
416.044	1499.31
416.267	1520.31
416.49	1521.31
416.713	1500.31
416.936	1532.31
417.159	1500.31
417.382	1454.31
417.605	1471.31
417.828	1481.31
418.051	1518.31
418.274	1474.31
418.497	1450.31
418.72	1455.31
418.943	1484.31
419.166	1555.31
419.389	1587.31
419.611	1592.31
419.834	1570.31
420.057	1539.31
420.28	1504.31
420.503	1481.31
420.726	1467.31
420.948	1496.31
421.171	1476.31
421.394	1449.31
421.617	1477.31
421.839	1471.31
422.062	1508.31
422.285	1440.31
422.507	1473.31
422.73	1487.31
422.953	1465.31
423.175	1492.31
423.398	1507.31
423.621	1445.31
423.843	1496.31
424.066	1470.31
424.288	1460.31
424.511	1475.31
424.733	1450.31
424.956	1493.31
425.178	1475.31
425.401	1503.31
425.623	1491.31
425.846	1458.31
426.068	1486.31
426.291	1490.31
426.513	1490.31
426.735	1481.31
426.958	1508.31
427.18	1448.31
427.402	1510.31
427.625	1470.31
427.847	1457.31
428.069	1463.31
428.292	1504.31
428.514	1446.31
428.736	1453.31
428.958	1452.31
429.181	1476.31
429.403	1442.31
429.625	1463.31
429.847	1481.31
430.069	1464.31
430.292	1504.31
430.514	1478.31
430.736	1470.31
430.958	1478.31
431.18	1469.31
431.402	1481.31
431.624	1494.31
431.846	1423.31
432.068	1457.31
432.29	1482.31
432.512	1459.31
432.734	1504.31
432.956	1481.31
433.178	1507.31
433.4	1534.31
433.622	1512.31
433.844	1553.31
434.066	1528.31
434.287	1535.31
434.509	1494.31
434.731	1482.31
434.953	1493.31
435.175	1540.31
435.397	1569.31
435.618	1491.31
435.84	1489.31
436.062	1472.31
436.284	1489.31
436.505	1449.31
436.727	1486.31
436.949	1477.31
437.17	1485.31
437.392	1477.31
437.614	1450.31
437.835	1418.31
438.057	1453.31
438.278	1422.31
438.5	1409.31
438.721	1429.31
438.943	1471.31
439.165	1426.31
439.386	1449.31
439.608	1465.31
439.829	1464.31
440.05	1434.31
440.272	1466.31
440.493	1465.31
440.715	1497.31
440.936	1478.31
441.158	1460.31
441.379	1453.31
441.6	1535.31
441.822	1490.31
442.043	1480.31
442.264	1451.31
442.486	1484.31
442.707	1474.31
442.928	1477.31
443.149	1481.31
443.371	1551.31
443.592	1578.31
443.813	1526.31
444.034	1470.31
444.255	1507.31
444.476	1502.31
444.698	1544.31
444.919	1523.31
445.14	1635.31
445.361	1574.31
445.582	1539.31
445.803	1529.31
446.024	1468.31
446.245	1420.31
446.466	1433.31
446.687	1393.31
446.908	1438.31
447.129	1428.31
447.35	1398.31
447.571	1442.31
447.792	1369.31
448.013	1395.31
448.234	1359.31
448.455	1377.31
448.675	1398.31
448.896	1361.31
449.117	1349.31
449.338	1347.31
449.559	1367.31
449.779	1342.31
450	1364.31
450.221	1345.31
450.442	1370.31
450.662	1356.31
450.883	1369.31
451.104	1372.31
451.324	1354.31
451.545	1335.31
451.766	1356.31
451.986	1344.31
452.207	1333.31
452.428	1325.31
452.648	1326.31
452.869	1341.31
453.089	1355.31
453.31	1341.31
453.53	1322.31
453.751	1332.31
453.971	1322.31
454.192	1348.31
454.412	1345.31
454.633	1319.31
454.853	1340.31
455.073	1324.31
455.294	1333.31
455.514	1303.31
455.734	1321.31
455.955	1361.31
456.175	1338.31
456.395	1312.31
456.616	1289.31
456.836	1335.31
457.056	1314.31
457.276	1317.31
457.497	1325.31
457.717	1339.31
457.937	1313.31
458.157	1331.31
458.377	1323.31
458.598	1333.31
458.818	1342.31
459.038	1350.31
459.258	1386.31
459.478	1481.31
459.698	1488.31
459.918	1489.31
460.138	1462.31
460.358	1486.31
460.578	1457.31
460.798	1545.31
461.018	1521.31
461.238	1495.31
461.458	1455.31
461.678	1461.31
461.898	1452.31
462.118	1454.31
462.338	1497.31
462.558	1509.31
462.777	1559.31
462.997	1576.31
463.217	1557.31
463.437	1638.31
463.657	1599.31
463.876	1546.31
464.096	1521.31
464.316	1548.31
464.536	1511.31
464.755	1527.31
464.975	1527.31
465.195	1455.31
465.414	1495.31
465.634	1419.31
465.854	1450.31
466.073	1418.31
466.293	1434.31
466.512	1391.31
466.732	1417.31
466.951	1425.31
467.171	1397.31
467.391	1399.31
467.61	1437.31
467.829	1394.31
468.049	1401.31
468.268	1386.31
468.488	1361.31
468.707	1396.31
468.927	1409.31
469.146	1422.31
469.365	1427.31
469.585	1397.31
469.804	1415.31
470.023	1418.31
470.243	1453.31
470.462	1414.31
470.681	1417.31
470.901	1426.31
471.12	1409.31
471.339	1394.31
471.558	1433.31
471.777	1422.31
471.997	1430.31
472.216	1426.31
472.435	1417.31
472.654	1409.31
472.873	1424.31
473.092	1433.31
473.311	1446.31
473.53	1434.31
473.749	1457.31
473.968	1442.31
474.187	1464.31
474.406	1461.31
474.625	1478.31
474.844	1453.31
475.063	1492.31
475.282	1475.31
475.501	1504.31
475.72	1514.31
475.939	1510.31
476.158	1528.31
476.377	1527.31
476.596	1534.31
476.814	1548.31
477.033	1537.31
477.252	1582.31
477.471	1557.31
477.69	1553.31
477.908	1598.31
478.127	1585.31
478.346	1638.31
478.564	1631.31
478.783	1669.31
479.002	1658.31
479.22	1708.31
479.439	1713.31
479.658	1683.31
479.876	1665.31
480.095	1659.31
480.313	1675.31
480.532	1670.31
480.751	1654.31
480.969	1671.31
481.188	1674.31
481.406	1732.31
481.624	1678.31
481.843	1696.31
482.061	1702.31
482.28	1709.31
482.498	1690.31
482.717	1709.31
482.935	1750.31
483.153	1762.31
483.372	1782.31
483.59	1801.31
483.808	1766.31
484.027	1773.31
484.245	1765.31
484.463	1799.31
484.681	1751.31
484.9	1805.31
485.118	1791.31
485.336	1791.31
485.554	1777.31
485.772	1812.31
485.99	1772.31
486.209	1802.31
486.427	1758.31
486.645	1801.31
486.863	1813.31
487.081	1773.31
487.299	1801.31
487.517	1806.31
487.735	1859.31
487.953	1854.31
488.171	1878.31
488.389	1790.31
488.607	1783.31
488.825	1809.31
489.043	1814.31
489.261	1807.31
489.479	1818.31
489.696	1837.31
489.914	1786.31
490.132	1820.31
490.35	1825.31
490.568	1830.31
