Data from Ni(NO3)2@0.0625M.TitratingCurve.Agarose3%dH2O.NegLispCup.LampEnergy10.LIBS07252019_HRD10591_18-14-54-569.txt Node
Date: Thu Jul 25 18:14:54 EDT 2019
User: cochatt
Spectrometer: HR+D1059
Trigger mode: 1
Integration Time (sec): 1.000000E-1
Scans to average: 1
Electric dark correction enabled: true
Nonlinearity correction enabled: false
Boxcar width: 0
XAxis mode: Wavelengths
Number of Pixels in Spectrum: 2048
>>>>>Begin Spectral Data<<<<<
223.165	-17.19
223.4	-17.19
223.635	-17.19
223.869	-3.19
224.104	-13.19
224.338	-11.19
224.573	-19.19
224.808	-15.19
225.042	-10.19
225.277	-10.19
225.511	-9.19
225.746	1.81
225.98	2.81
226.215	2.81
226.449	16.81
226.683	22.81
226.918	20.81
227.152	40.81
227.387	31.81
227.621	31.81
227.856	38.81
228.09	49.81
228.324	47.81
228.559	55.81
228.793	63.81
229.027	92.81
229.262	94.81
229.496	85.81
229.73	102.81
229.964	117.81
230.199	120.81
230.433	129.81
230.667	118.81
230.901	120.81
231.136	99.81
231.37	122.81
231.604	127.81
231.838	115.81
232.072	130.81
232.306	124.81
232.541	147.81
232.775	123.81
233.009	120.81
233.243	138.81
233.477	132.81
233.711	121.81
233.945	106.81
234.179	125.81
234.413	106.81
234.647	135.81
234.881	121.81
235.115	129.81
235.349	129.81
235.583	120.81
235.817	131.81
236.051	129.81
236.285	123.81
236.519	139.81
236.753	130.81
236.987	134.81
237.221	141.81
237.455	121.81
237.689	134.81
237.922	142.81
238.156	132.81
238.39	134.81
238.624	125.81
238.858	123.81
239.091	140.81
239.325	131.81
239.559	128.81
239.793	149.81
240.027	142.81
240.26	132.81
240.494	131.81
240.728	151.81
240.961	157.81
241.195	128.81
241.429	141.81
241.662	145.81
241.896	159.81
242.13	141.81
242.363	153.81
242.597	140.81
242.83	148.81
243.064	164.81
243.298	166.81
243.531	149.81
243.765	154.81
243.998	151.81
244.232	161.81
244.465	156.81
244.699	171.81
244.932	167.81
245.166	156.81
245.399	166.81
245.633	189.81
245.866	162.81
246.099	177.81
246.333	158.81
246.566	148.81
246.8	159.81
247.033	167.81
247.266	168.81
247.5	183.81
247.733	169.81
247.966	162.81
248.2	180.81
248.433	155.81
248.666	170.81
248.899	175.81
249.133	187.81
249.366	187.81
249.599	173.81
249.832	198.81
250.066	193.81
250.299	185.81
250.532	189.81
250.765	187.81
250.998	177.81
251.231	198.81
251.465	202.81
251.698	198.81
251.931	200.81
252.164	211.81
252.397	196.81
252.63	207.81
252.863	199.81
253.096	211.81
253.329	193.81
253.562	198.81
253.795	208.81
254.028	200.81
254.261	204.81
254.494	191.81
254.727	209.81
254.96	206.81
255.193	197.81
255.426	205.81
255.659	205.81
255.892	209.81
256.124	216.81
256.357	196.81
256.59	229.81
256.823	218.81
257.056	212.81
257.289	218.81
257.521	213.81
257.754	226.81
257.987	224.81
258.22	221.81
258.452	217.81
258.685	233.81
258.918	237.81
259.151	214.81
259.383	215.81
259.616	225.81
259.849	229.81
260.081	231.81
260.314	227.81
260.547	235.81
260.779	222.81
261.012	218.81
261.244	223.81
261.477	247.81
261.71	221.81
261.942	207.81
262.175	236.81
262.407	234.81
262.64	221.81
262.872	227.81
263.105	240.81
263.337	235.81
263.57	259.81
263.802	232.81
264.035	243.81
264.267	247.81
264.499	255.81
264.732	251.81
264.964	245.81
265.197	261.81
265.429	250.81
265.661	243.81
265.894	254.81
266.126	257.81
266.358	260.81
266.591	249.81
266.823	246.81
267.055	252.81
267.287	251.81
267.52	261.81
267.752	287.81
267.984	250.81
268.216	259.81
268.448	267.81
268.681	276.81
268.913	267.81
269.145	255.81
269.377	260.81
269.609	261.81
269.841	268.81
270.073	241.81
270.306	274.81
270.538	275.81
270.77	264.81
271.002	259.81
271.234	275.81
271.466	279.81
271.698	269.81
271.93	283.81
272.162	276.81
272.394	305.81
272.626	282.81
272.858	273.81
273.09	273.81
273.322	266.81
273.553	265.81
273.785	279.81
274.017	278.81
274.249	267.81
274.481	277.81
274.713	273.81
274.945	296.81
275.176	290.81
275.408	297.81
275.64	305.81
275.872	317.81
276.104	313.81
276.335	310.81
276.567	309.81
276.799	275.81
277.031	314.81
277.262	302.81
277.494	314.81
277.726	291.81
277.957	318.81
278.189	301.81
278.421	303.81
278.652	319.81
278.884	316.81
279.115	306.81
279.347	305.81
279.579	310.81
279.81	317.81
280.042	300.81
280.273	319.81
280.505	313.81
280.736	331.81
280.968	314.81
281.199	321.81
281.431	319.81
281.662	320.81
281.894	329.81
282.125	324.81
282.356	315.81
282.588	328.81
282.819	320.81
283.051	331.81
283.282	327.81
283.513	337.81
283.745	337.81
283.976	297.81
284.207	325.81
284.439	342.81
284.67	335.81
284.901	330.81
285.132	317.81
285.364	339.81
285.595	324.81
285.826	328.81
286.057	364.81
286.288	344.81
286.52	342.81
286.751	336.81
286.982	355.81
287.213	337.81
287.444	357.81
287.675	367.81
287.906	355.81
288.138	371.81
288.369	340.81
288.6	356.81
288.831	358.81
289.062	356.81
289.293	380.81
289.524	360.81
289.755	362.81
289.986	359.81
290.217	360.81
290.448	351.81
290.679	369.81
290.91	362.81
291.141	362.81
291.371	374.81
291.602	367.81
291.833	381.81
292.064	374.81
292.295	351.81
292.526	363.81
292.757	363.81
292.987	358.81
293.218	352.81
293.449	370.81
293.68	369.81
293.91	386.81
294.141	394.81
294.372	363.81
294.603	358.81
294.833	379.81
295.064	383.81
295.295	367.81
295.525	378.81
295.756	363.81
295.987	398.81
296.217	395.81
296.448	391.81
296.679	395.81
296.909	381.81
297.14	392.81
297.37	394.81
297.601	410.81
297.831	400.81
298.062	407.81
298.292	400.81
298.523	427.81
298.753	409.81
298.984	397.81
299.214	403.81
299.445	424.81
299.675	390.81
299.905	418.81
300.136	410.81
300.366	412.81
300.597	432.81
300.827	429.81
301.057	427.81
301.288	440.81
301.518	424.81
301.748	416.81
301.979	417.81
302.209	430.81
302.439	405.81
302.669	426.81
302.9	412.81
303.13	396.81
303.36	402.81
303.59	417.81
303.82	422.81
304.051	413.81
304.281	432.81
304.511	418.81
304.741	415.81
304.971	420.81
305.201	428.81
305.431	416.81
305.661	409.81
305.891	435.81
306.121	417.81
306.352	414.81
306.582	390.81
306.812	407.81
307.042	406.81
307.272	422.81
307.502	401.81
307.731	416.81
307.961	419.81
308.191	410.81
308.421	416.81
308.651	419.81
308.881	402.81
309.111	419.81
309.341	402.81
309.571	411.81
309.8	387.81
310.03	416.81
310.26	431.81
310.49	444.81
310.72	416.81
310.949	435.81
311.179	405.81
311.409	422.81
311.639	434.81
311.868	417.81
312.098	403.81
312.328	429.81
312.557	419.81
312.787	422.81
313.017	422.81
313.246	447.81
313.476	442.81
313.706	448.81
313.935	437.81
314.165	435.81
314.394	453.81
314.624	427.81
314.853	439.81
315.083	449.81
315.312	431.81
315.542	433.81
315.771	435.81
316.001	411.81
316.23	444.81
316.46	407.81
316.689	418.81
316.919	427.81
317.148	439.81
317.377	439.81
317.607	418.81
317.836	431.81
318.065	404.81
318.295	430.81
318.524	435.81
318.753	424.81
318.983	411.81
319.212	406.81
319.441	405.81
319.67	425.81
319.9	435.81
320.129	425.81
320.358	425.81
320.587	425.81
320.816	429.81
321.046	442.81
321.275	437.81
321.504	430.81
321.733	422.81
321.962	457.81
322.191	434.81
322.42	415.81
322.649	443.81
322.878	438.81
323.108	445.81
323.337	478.81
323.566	415.81
323.795	454.81
324.024	440.81
324.253	441.81
324.482	418.81
324.71	467.81
324.939	465.81
325.168	441.81
325.397	464.81
325.626	463.81
325.855	454.81
326.084	471.81
326.313	478.81
326.542	462.81
326.77	471.81
326.999	504.81
327.228	468.81
327.457	482.81
327.686	468.81
327.914	476.81
328.143	479.81
328.372	460.81
328.6	473.81
328.829	451.81
329.058	484.81
329.287	466.81
329.515	479.81
329.744	461.81
329.972	478.81
330.201	475.81
330.43	496.81
330.658	485.81
330.887	487.81
331.115	485.81
331.344	498.81
331.572	471.81
331.801	518.81
332.03	529.81
332.258	534.81
332.486	546.81
332.715	552.81
332.943	584.81
333.172	615.81
333.4	618.81
333.629	660.81
333.857	647.81
334.085	659.81
334.314	614.81
334.542	608.81
334.771	589.81
334.999	592.81
335.227	603.81
335.455	576.81
335.684	573.81
335.912	580.81
336.14	577.81
336.369	559.81
336.597	573.81
336.825	579.81
337.053	563.81
337.281	552.81
337.51	571.81
337.738	544.81
337.966	563.81
338.194	546.81
338.422	529.81
338.65	503.81
338.878	528.81
339.106	527.81
339.334	546.81
339.562	526.81
339.79	498.81
340.018	488.81
340.246	490.81
340.474	485.81
340.702	494.81
340.93	504.81
341.158	519.81
341.386	532.81
341.614	538.81
341.842	519.81
342.07	492.81
342.298	489.81
342.526	499.81
342.754	493.81
342.981	514.81
343.209	507.81
343.437	535.81
343.665	579.81
343.893	615.81
344.12	600.81
344.348	584.81
344.576	557.81
344.804	552.81
345.031	532.81
345.259	499.81
345.487	515.81
345.714	512.81
345.942	497.81
346.17	540.81
346.397	525.81
346.625	487.81
346.853	487.81
347.08	474.81
347.308	494.81
347.535	507.81
347.763	494.81
347.99	507.81
348.218	522.81
348.445	501.81
348.673	504.81
348.9	497.81
349.128	485.81
349.355	482.81
349.583	489.81
349.81	511.81
350.037	477.81
350.265	498.81
350.492	455.81
350.72	458.81
350.947	462.81
351.174	463.81
351.402	483.81
351.629	476.81
351.856	470.81
352.083	475.81
352.311	465.81
352.538	491.81
352.765	501.81
352.992	473.81
353.22	443.81
353.447	468.81
353.674	436.81
353.901	456.81
354.128	459.81
354.355	445.81
354.583	467.81
354.81	472.81
355.037	492.81
355.264	469.81
355.491	466.81
355.718	462.81
355.945	469.81
356.172	479.81
356.399	468.81
356.626	481.81
356.853	473.81
357.08	478.81
357.307	468.81
357.534	473.81
357.761	450.81
357.988	501.81
358.215	474.81
358.441	451.81
358.668	465.81
358.895	466.81
359.122	459.81
359.349	474.81
359.576	465.81
359.802	479.81
360.029	485.81
360.256	461.81
360.483	477.81
360.709	464.81
360.936	475.81
361.163	482.81
361.39	469.81
361.616	477.81
361.843	460.81
362.07	492.81
362.296	501.81
362.523	460.81
362.749	457.81
362.976	475.81
363.203	442.81
363.429	475.81
363.656	483.81
363.882	445.81
364.109	493.81
364.335	495.81
364.562	472.81
364.788	466.81
365.015	455.81
365.241	457.81
365.468	476.81
365.694	470.81
365.92	467.81
366.147	463.81
366.373	491.81
366.599	477.81
366.826	478.81
367.052	469.81
367.278	464.81
367.505	465.81
367.731	472.81
367.957	451.81
368.184	465.81
368.41	480.81
368.636	499.81
368.862	481.81
369.089	480.81
369.315	475.81
369.541	484.81
369.767	497.81
369.993	488.81
370.219	498.81
370.445	499.81
370.672	502.81
370.898	487.81
371.124	503.81
371.35	489.81
371.576	522.81
371.802	504.81
372.028	499.81
372.254	517.81
372.48	507.81
372.706	511.81
372.932	520.81
373.158	519.81
373.384	515.81
373.61	513.81
373.835	500.81
374.061	499.81
374.287	490.81
374.513	506.81
374.739	531.81
374.965	573.81
375.191	566.81
375.416	564.81
375.642	564.81
375.868	549.81
376.094	542.81
376.319	522.81
376.545	516.81
376.771	510.81
376.997	525.81
377.222	499.81
377.448	533.81
377.674	517.81
377.899	526.81
378.125	487.81
378.35	501.81
378.576	514.81
378.802	498.81
379.027	499.81
379.253	511.81
379.478	497.81
379.704	480.81
379.929	482.81
380.155	500.81
380.38	481.81
380.606	479.81
380.831	501.81
381.057	483.81
381.282	503.81
381.507	512.81
381.733	515.81
381.958	499.81
382.184	502.81
382.409	514.81
382.634	548.81
382.86	532.81
383.085	531.81
383.31	547.81
383.535	565.81
383.761	575.81
383.986	590.81
384.211	588.81
384.436	579.81
384.662	611.81
384.887	621.81
385.112	605.81
385.337	609.81
385.562	589.81
385.787	608.81
386.013	618.81
386.238	613.81
386.463	615.81
386.688	620.81
386.913	577.81
387.138	607.81
387.363	609.81
387.588	609.81
387.813	593.81
388.038	575.81
388.263	597.81
388.488	612.81
388.713	597.81
388.938	594.81
389.163	584.81
389.387	588.81
389.612	599.81
389.837	581.81
390.062	585.81
390.287	603.81
390.512	586.81
390.736	610.81
390.961	607.81
391.186	641.81
391.411	633.81
391.636	656.81
391.86	668.81
392.085	688.81
392.31	705.81
392.534	665.81
392.759	631.81
392.984	607.81
393.208	632.81
393.433	631.81
393.658	640.81
393.882	659.81
394.107	649.81
394.331	655.81
394.556	653.81
394.78	641.81
395.005	671.81
395.229	655.81
395.454	673.81
395.678	694.81
395.903	680.81
396.127	677.81
396.352	634.81
396.576	646.81
396.801	600.81
397.025	615.81
397.249	646.81
397.474	643.81
397.698	679.81
397.922	667.81
398.147	669.81
398.371	698.81
398.595	692.81
398.82	707.81
399.044	807.81
399.268	891.81
399.492	1021.81
399.717	1151.81
399.941	1160.81
400.165	973.81
400.389	913.81
400.613	849.81
400.837	764.81
401.062	743.81
401.286	749.81
401.51	738.81
401.734	738.81
401.958	764.81
402.182	764.81
402.406	770.81
402.63	784.81
402.854	806.81
403.078	810.81
403.302	824.81
403.526	858.81
403.75	881.81
403.974	891.81
404.198	883.81
404.422	922.81
404.645	893.81
404.869	894.81
405.093	839.81
405.317	825.81
405.541	835.81
405.765	808.81
405.988	807.81
406.212	852.81
406.436	830.81
406.66	843.81
406.883	825.81
407.107	907.81
407.331	929.81
407.555	996.81
407.778	991.81
408.002	969.81
408.226	934.81
408.449	882.81
408.673	845.81
408.896	843.81
409.12	855.81
409.344	890.81
409.567	883.81
409.791	883.81
410.014	875.81
410.238	838.81
410.461	845.81
410.685	856.81
410.908	820.81
411.132	808.81
411.355	791.81
411.578	803.81
411.802	786.81
412.025	764.81
412.249	810.81
412.472	792.81
412.695	793.81
412.919	724.81
413.142	740.81
413.365	731.81
413.589	739.81
413.812	774.81
414.035	742.81
414.258	754.81
414.482	765.81
414.705	790.81
414.928	777.81
415.151	767.81
415.374	744.81
415.597	758.81
415.821	742.81
416.044	749.81
416.267	715.81
416.49	717.81
416.713	757.81
416.936	765.81
417.159	733.81
417.382	745.81
417.605	747.81
417.828	736.81
418.051	744.81
418.274	748.81
418.497	739.81
418.72	785.81
418.943	787.81
419.166	843.81
419.389	870.81
419.611	851.81
419.834	818.81
420.057	812.81
420.28	760.81
420.503	717.81
420.726	738.81
420.948	741.81
421.171	716.81
421.394	728.81
421.617	723.81
421.839	762.81
422.062	741.81
422.285	724.81
422.507	769.81
422.73	783.81
422.953	764.81
423.175	815.81
423.398	822.81
423.621	831.81
423.843	810.81
424.066	823.81
424.288	803.81
424.511	780.81
424.733	808.81
424.956	775.81
425.178	756.81
425.401	771.81
425.623	757.81
425.846	728.81
426.068	709.81
426.291	709.81
426.513	717.81
426.735	693.81
426.958	682.81
427.18	676.81
427.402	693.81
427.625	697.81
427.847	676.81
428.069	657.81
428.292	661.81
428.514	647.81
428.736	649.81
428.958	675.81
429.181	641.81
429.403	657.81
429.625	647.81
429.847	652.81
430.069	661.81
430.292	662.81
430.514	648.81
430.736	660.81
430.958	663.81
431.18	637.81
431.402	657.81
431.624	647.81
431.846	663.81
432.068	696.81
432.29	715.81
432.512	678.81
432.734	708.81
432.956	668.81
433.178	708.81
433.4	679.81
433.622	689.81
433.844	683.81
434.066	687.81
434.287	689.81
434.509	709.81
434.731	746.81
434.953	765.81
435.175	777.81
435.397	754.81
435.618	721.81
435.84	693.81
436.062	688.81
436.284	676.81
436.505	692.81
436.727	681.81
436.949	688.81
437.17	671.81
437.392	676.81
437.614	667.81
437.835	653.81
438.057	654.81
438.278	653.81
438.5	651.81
438.721	665.81
438.943	669.81
439.165	669.81
439.386	669.81
439.608	665.81
439.829	667.81
440.05	674.81
440.272	684.81
440.493	699.81
440.715	683.81
440.936	712.81
441.158	735.81
441.379	746.81
441.6	772.81
441.822	804.81
442.043	778.81
442.264	752.81
442.486	747.81
442.707	761.81
442.928	737.81
443.149	756.81
443.371	769.81
443.592	748.81
443.813	771.81
444.034	781.81
444.255	832.81
444.476	807.81
444.698	881.81
444.919	949.81
445.14	967.81
445.361	866.81
445.582	797.81
445.803	729.81
446.024	724.81
446.245	714.81
446.466	711.81
446.687	690.81
446.908	703.81
447.129	672.81
447.35	663.81
447.571	639.81
447.792	634.81
448.013	636.81
448.234	650.81
448.455	637.81
448.675	620.81
448.896	625.81
449.117	585.81
449.338	605.81
449.559	598.81
449.779	604.81
450	623.81
450.221	626.81
450.442	629.81
450.662	632.81
450.883	649.81
451.104	670.81
451.324	681.81
451.545	650.81
451.766	640.81
451.986	633.81
452.207	628.81
452.428	638.81
452.648	645.81
452.869	647.81
453.089	642.81
453.31	641.81
453.53	625.81
453.751	604.81
453.971	610.81
454.192	619.81
454.412	597.81
454.633	594.81
454.853	633.81
455.073	611.81
455.294	601.81
455.514	599.81
455.734	587.81
455.955	597.81
456.175	583.81
456.395	597.81
456.616	581.81
456.836	593.81
457.056	574.81
457.276	577.81
457.497	584.81
457.717	600.81
457.937	595.81
458.157	602.81
458.377	559.81
458.598	646.81
458.818	631.81
459.038	633.81
459.258	674.81
459.478	712.81
459.698	731.81
459.918	753.81
460.138	770.81
460.358	821.81
460.578	837.81
460.798	808.81
461.018	832.81
461.238	819.81
461.458	806.81
461.678	783.81
461.898	820.81
462.118	820.81
462.338	862.81
462.558	884.81
462.777	899.81
462.997	995.81
463.217	1115.81
463.437	1136.81
463.657	1023.81
463.876	981.81
464.096	940.81
464.316	936.81
464.536	986.81
464.755	924.81
464.975	879.81
465.195	831.81
465.414	794.81
465.634	749.81
465.854	740.81
466.073	701.81
466.293	705.81
466.512	667.81
466.732	650.81
466.951	660.81
467.171	663.81
467.391	658.81
467.61	654.81
467.829	669.81
468.049	656.81
468.268	623.81
468.488	632.81
468.707	610.81
468.927	641.81
469.146	633.81
469.365	655.81
469.585	637.81
469.804	663.81
470.023	675.81
470.243	677.81
470.462	705.81
470.681	705.81
470.901	683.81
471.12	694.81
471.339	645.81
471.558	677.81
471.777	667.81
471.997	632.81
472.216	649.81
472.435	618.81
472.654	611.81
472.873	609.81
473.092	601.81
473.311	617.81
473.53	628.81
473.749	609.81
473.968	620.81
474.187	588.81
474.406	617.81
474.625	636.81
474.844	608.81
475.063	620.81
475.282	605.81
475.501	626.81
475.72	614.81
475.939	651.81
476.158	639.81
476.377	648.81
476.596	636.81
476.814	657.81
477.033	663.81
477.252	664.81
477.471	667.81
477.69	691.81
477.908	700.81
478.127	748.81
478.346	741.81
478.564	748.81
478.783	731.81
479.002	792.81
479.22	818.81
479.439	777.81
479.658	782.81
479.876	757.81
480.095	778.81
480.313	822.81
480.532	835.81
480.751	863.81
480.969	805.81
481.188	768.81
481.406	761.81
481.624	733.81
481.843	711.81
482.061	709.81
482.28	706.81
482.498	690.81
482.717	706.81
482.935	728.81
483.153	712.81
483.372	748.81
483.59	733.81
483.808	720.81
484.027	739.81
484.245	740.81
484.463	730.81
484.681	752.81
484.9	732.81
485.118	759.81
485.336	753.81
485.554	737.81
485.772	787.81
485.99	787.81
486.209	801.81
486.427	771.81
486.645	772.81
486.863	734.81
487.081	758.81
487.299	755.81
487.517	766.81
487.735	747.81
487.953	761.81
488.171	738.81
488.389	744.81
488.607	751.81
488.825	739.81
489.043	721.81
489.261	742.81
489.479	743.81
489.696	727.81
489.914	761.81
490.132	744.81
490.35	759.81
490.568	742.81
490.786	755.81
491.003	747.81
491.221	754.81
491.439	743.81
491.657	751.81
491.874	750.81
492.092	750.81
492.31	765.81
492.527	794.81
492.745	760.81
492.963	767.81
493.18	780.81
493.398	779.81
493.615	764.81
493.833	798.81
494.05	755.81
494.268	780.81
494.485	788.81
494.703	779.81
494.92	816.81
495.138	774.81
495.355	786.81
495.573	787.81
495.79	786.81
496.008	812.81
496.225	797.81
496.442	818.81
496.66	789.81
496.877	821.81
497.094	835.81
497.312	840.81
497.529	825.81
497.746	855.81
497.963	866.81
498.181	905.81
498.398	969.81
498.615	1021.81
498.832	1064.81
499.049	1162.81
499.267	1275.81
499.484	1417.81
499.701	1555.81
499.918	1729.81
500.135	1998.81
500.352	2291.81
500.569	2443.81
500.786	2425.81
501.003	2201.81
501.22	1901.81
