Data from Ni(NO3)2@0.5M.TitratingCurve.Agarose3%dH2O.NegLispCup.LampEnergy10.LIBS07252019_HRD10591_17-59-39-565.txt Node
Date: Thu Jul 25 17:59:39 EDT 2019
User: cochatt
Spectrometer: HR+D1059
Trigger mode: 1
Integration Time (sec): 1.000000E-1
Scans to average: 1
Electric dark correction enabled: true
Nonlinearity correction enabled: false
Boxcar width: 0
XAxis mode: Wavelengths
Number of Pixels in Spectrum: 2048
>>>>>Begin Spectral Data<<<<<
223.165	-11.19
223.4	-11.19
223.635	-11.19
223.869	-27.19
224.104	-21.19
224.338	-2.19
224.573	-27.19
224.808	-18.19
225.042	-1.19
225.277	1.81
225.511	-13.19
225.746	-3.19
225.98	9.81
226.215	13.81
226.449	19.81
226.683	20.81
226.918	27.81
227.152	30.81
227.387	31.81
227.621	43.81
227.856	44.81
228.09	53.81
228.324	59.81
228.559	39.81
228.793	69.81
229.027	83.81
229.262	97.81
229.496	108.81
229.73	106.81
229.964	124.81
230.199	140.81
230.433	141.81
230.667	138.81
230.901	144.81
231.136	135.81
231.37	142.81
231.604	128.81
231.838	142.81
232.072	155.81
232.306	139.81
232.541	139.81
232.775	124.81
233.009	126.81
233.243	123.81
233.477	128.81
233.711	114.81
233.945	105.81
234.179	114.81
234.413	134.81
234.647	144.81
234.881	138.81
235.115	139.81
235.349	124.81
235.583	126.81
235.817	120.81
236.051	135.81
236.285	127.81
236.519	127.81
236.753	121.81
236.987	127.81
237.221	128.81
237.455	131.81
237.689	110.81
237.922	130.81
238.156	133.81
238.39	137.81
238.624	129.81
238.858	133.81
239.091	132.81
239.325	141.81
239.559	136.81
239.793	156.81
240.027	151.81
240.26	127.81
240.494	144.81
240.728	136.81
240.961	145.81
241.195	158.81
241.429	136.81
241.662	154.81
241.896	159.81
242.13	160.81
242.363	142.81
242.597	133.81
242.83	141.81
243.064	137.81
243.298	140.81
243.531	150.81
243.765	155.81
243.998	168.81
244.232	155.81
244.465	166.81
244.699	162.81
244.932	153.81
245.166	160.81
245.399	164.81
245.633	169.81
245.866	158.81
246.099	155.81
246.333	165.81
246.566	154.81
246.8	157.81
247.033	170.81
247.266	166.81
247.5	181.81
247.733	172.81
247.966	171.81
248.2	179.81
248.433	190.81
248.666	173.81
248.899	162.81
249.133	185.81
249.366	165.81
249.599	182.81
249.832	178.81
250.066	184.81
250.299	170.81
250.532	173.81
250.765	184.81
250.998	203.81
251.231	188.81
251.465	183.81
251.698	180.81
251.931	190.81
252.164	184.81
252.397	187.81
252.63	198.81
252.863	202.81
253.096	203.81
253.329	196.81
253.562	197.81
253.795	194.81
254.028	193.81
254.261	196.81
254.494	187.81
254.727	192.81
254.96	190.81
255.193	192.81
255.426	192.81
255.659	200.81
255.892	193.81
256.124	212.81
256.357	197.81
256.59	209.81
256.823	213.81
257.056	204.81
257.289	204.81
257.521	216.81
257.754	226.81
257.987	238.81
258.22	213.81
258.452	199.81
258.685	223.81
258.918	212.81
259.151	219.81
259.383	216.81
259.616	203.81
259.849	220.81
260.081	221.81
260.314	222.81
260.547	237.81
260.779	223.81
261.012	244.81
261.244	218.81
261.477	260.81
261.71	245.81
261.942	242.81
262.175	227.81
262.407	203.81
262.64	224.81
262.872	235.81
263.105	243.81
263.337	230.81
263.57	245.81
263.802	248.81
264.035	234.81
264.267	234.81
264.499	247.81
264.732	239.81
264.964	250.81
265.197	242.81
265.429	240.81
265.661	270.81
265.894	236.81
266.126	260.81
266.358	258.81
266.591	260.81
266.823	250.81
267.055	254.81
267.287	243.81
267.52	242.81
267.752	250.81
267.984	255.81
268.216	247.81
268.448	270.81
268.681	260.81
268.913	256.81
269.145	275.81
269.377	273.81
269.609	278.81
269.841	260.81
270.073	259.81
270.306	270.81
270.538	272.81
270.77	271.81
271.002	262.81
271.234	272.81
271.466	280.81
271.698	266.81
271.93	278.81
272.162	278.81
272.394	275.81
272.626	304.81
272.858	276.81
273.09	291.81
273.322	286.81
273.553	271.81
273.785	283.81
274.017	295.81
274.249	277.81
274.481	307.81
274.713	282.81
274.945	283.81
275.176	282.81
275.408	294.81
275.64	269.81
275.872	291.81
276.104	301.81
276.335	292.81
276.567	295.81
276.799	280.81
277.031	293.81
277.262	302.81
277.494	294.81
277.726	314.81
277.957	307.81
278.189	292.81
278.421	311.81
278.652	307.81
278.884	319.81
279.115	317.81
279.347	312.81
279.579	310.81
279.81	323.81
280.042	310.81
280.273	307.81
280.505	301.81
280.736	315.81
280.968	309.81
281.199	315.81
281.431	306.81
281.662	318.81
281.894	311.81
282.125	307.81
282.356	316.81
282.588	304.81
282.819	332.81
283.051	328.81
283.282	315.81
283.513	316.81
283.745	329.81
283.976	330.81
284.207	332.81
284.439	306.81
284.67	328.81
284.901	328.81
285.132	333.81
285.364	335.81
285.595	337.81
285.826	316.81
286.057	339.81
286.288	329.81
286.52	334.81
286.751	342.81
286.982	344.81
287.213	328.81
287.444	326.81
287.675	343.81
287.906	338.81
288.138	348.81
288.369	344.81
288.6	330.81
288.831	364.81
289.062	348.81
289.293	341.81
289.524	343.81
289.755	347.81
289.986	348.81
290.217	350.81
290.448	354.81
290.679	341.81
290.91	330.81
291.141	354.81
291.371	348.81
291.602	339.81
291.833	344.81
292.064	360.81
292.295	348.81
292.526	354.81
292.757	362.81
292.987	347.81
293.218	344.81
293.449	374.81
293.68	372.81
293.91	351.81
294.141	363.81
294.372	367.81
294.603	362.81
294.833	362.81
295.064	357.81
295.295	355.81
295.525	362.81
295.756	352.81
295.987	338.81
296.217	370.81
296.448	357.81
296.679	360.81
296.909	367.81
297.14	375.81
297.37	382.81
297.601	351.81
297.831	358.81
298.062	354.81
298.292	384.81
298.523	404.81
298.753	370.81
298.984	389.81
299.214	372.81
299.445	383.81
299.675	400.81
299.905	386.81
300.136	399.81
300.366	428.81
300.597	418.81
300.827	396.81
301.057	396.81
301.288	415.81
301.518	422.81
301.748	402.81
301.979	399.81
302.209	411.81
302.439	389.81
302.669	400.81
302.9	394.81
303.13	411.81
303.36	400.81
303.59	391.81
303.82	426.81
304.051	430.81
304.281	415.81
304.511	386.81
304.741	405.81
304.971	419.81
305.201	427.81
305.431	429.81
305.661	411.81
305.891	408.81
306.121	410.81
306.352	399.81
306.582	398.81
306.812	406.81
307.042	413.81
307.272	387.81
307.502	394.81
307.731	404.81
307.961	393.81
308.191	413.81
308.421	404.81
308.651	410.81
308.881	387.81
309.111	396.81
309.341	409.81
309.571	434.81
309.8	406.81
310.03	404.81
310.26	435.81
310.49	454.81
310.72	420.81
310.949	414.81
311.179	399.81
311.409	431.81
311.639	410.81
311.868	449.81
312.098	430.81
312.328	420.81
312.557	415.81
312.787	418.81
313.017	430.81
313.246	452.81
313.476	444.81
313.706	448.81
313.935	431.81
314.165	444.81
314.394	419.81
314.624	440.81
314.853	450.81
315.083	422.81
315.312	446.81
315.542	449.81
315.771	448.81
316.001	435.81
316.23	457.81
316.46	444.81
316.689	453.81
316.919	432.81
317.148	452.81
317.377	443.81
317.607	435.81
317.836	435.81
318.065	441.81
318.295	452.81
318.524	445.81
318.753	442.81
318.983	441.81
319.212	451.81
319.441	435.81
319.67	454.81
319.9	456.81
320.129	453.81
320.358	444.81
320.587	459.81
320.816	456.81
321.046	455.81
321.275	459.81
321.504	454.81
321.733	462.81
321.962	455.81
322.191	468.81
322.42	460.81
322.649	476.81
322.878	465.81
323.108	466.81
323.337	476.81
323.566	456.81
323.795	476.81
324.024	477.81
324.253	504.81
324.482	468.81
324.71	476.81
324.939	475.81
325.168	482.81
325.397	485.81
325.626	489.81
325.855	488.81
326.084	477.81
326.313	496.81
326.542	477.81
326.77	483.81
326.999	494.81
327.228	499.81
327.457	491.81
327.686	485.81
327.914	486.81
328.143	487.81
328.372	481.81
328.6	508.81
328.829	499.81
329.058	487.81
329.287	490.81
329.515	509.81
329.744	511.81
329.972	496.81
330.201	485.81
330.43	513.81
330.658	517.81
330.887	515.81
331.115	496.81
331.344	524.81
331.572	526.81
331.801	541.81
332.03	544.81
332.258	532.81
332.486	545.81
332.715	542.81
332.943	544.81
333.172	549.81
333.4	549.81
333.629	582.81
333.857	583.81
334.085	605.81
334.314	578.81
334.542	589.81
334.771	581.81
334.999	591.81
335.227	594.81
335.455	592.81
335.684	582.81
335.912	596.81
336.14	590.81
336.369	589.81
336.597	576.81
336.825	580.81
337.053	575.81
337.281	575.81
337.51	583.81
337.738	563.81
337.966	594.81
338.194	584.81
338.422	546.81
338.65	535.81
338.878	535.81
339.106	546.81
339.334	572.81
339.562	567.81
339.79	553.81
340.018	541.81
340.246	540.81
340.474	523.81
340.702	536.81
340.93	544.81
341.158	550.81
341.386	541.81
341.614	580.81
341.842	573.81
342.07	542.81
342.298	546.81
342.526	545.81
342.754	542.81
342.981	567.81
343.209	555.81
343.437	574.81
343.665	578.81
343.893	580.81
344.12	609.81
344.348	598.81
344.576	593.81
344.804	600.81
345.031	554.81
345.259	526.81
345.487	560.81
345.714	585.81
345.942	554.81
346.17	575.81
346.397	556.81
346.625	556.81
346.853	535.81
347.08	549.81
347.308	557.81
347.535	526.81
347.763	535.81
347.99	529.81
348.218	536.81
348.445	527.81
348.673	507.81
348.9	504.81
349.128	538.81
349.355	538.81
349.583	541.81
349.81	521.81
350.037	524.81
350.265	495.81
350.492	523.81
350.72	509.81
350.947	518.81
351.174	525.81
351.402	536.81
351.629	551.81
351.856	540.81
352.083	532.81
352.311	527.81
352.538	538.81
352.765	528.81
352.992	522.81
353.22	509.81
353.447	471.81
353.674	525.81
353.901	504.81
354.128	487.81
354.355	508.81
354.583	494.81
354.81	498.81
355.037	502.81
355.264	508.81
355.491	510.81
355.718	476.81
355.945	487.81
356.172	510.81
356.399	508.81
356.626	518.81
356.853	528.81
357.08	511.81
357.307	489.81
357.534	481.81
357.761	514.81
357.988	514.81
358.215	497.81
358.441	489.81
358.668	502.81
358.895	498.81
359.122	495.81
359.349	516.81
359.576	508.81
359.802	498.81
360.029	491.81
360.256	517.81
360.483	490.81
360.709	520.81
360.936	518.81
361.163	520.81
361.39	505.81
361.616	551.81
361.843	528.81
362.07	556.81
362.296	530.81
362.523	530.81
362.749	513.81
362.976	522.81
363.203	509.81
363.429	481.81
363.656	502.81
363.882	511.81
364.109	517.81
364.335	509.81
364.562	513.81
364.788	525.81
365.015	507.81
365.241	536.81
365.468	508.81
365.694	503.81
365.92	525.81
366.147	526.81
366.373	532.81
366.599	511.81
366.826	506.81
367.052	504.81
367.278	533.81
367.505	516.81
367.731	520.81
367.957	514.81
368.184	516.81
368.41	519.81
368.636	518.81
368.862	547.81
369.089	535.81
369.315	535.81
369.541	526.81
369.767	516.81
369.993	532.81
370.219	531.81
370.445	536.81
370.672	516.81
370.898	543.81
371.124	546.81
371.35	550.81
371.576	553.81
371.802	558.81
372.028	533.81
372.254	538.81
372.48	562.81
372.706	551.81
372.932	551.81
373.158	543.81
373.384	565.81
373.61	548.81
373.835	551.81
374.061	560.81
374.287	563.81
374.513	577.81
374.739	569.81
374.965	571.81
375.191	583.81
375.416	582.81
375.642	563.81
375.868	564.81
376.094	573.81
376.319	534.81
376.545	557.81
376.771	555.81
376.997	550.81
377.222	540.81
377.448	536.81
377.674	563.81
377.899	527.81
378.125	524.81
378.35	536.81
378.576	540.81
378.802	550.81
379.027	534.81
379.253	543.81
379.478	560.81
379.704	555.81
379.929	528.81
380.155	548.81
380.38	541.81
380.606	539.81
380.831	536.81
381.057	552.81
381.282	540.81
381.507	550.81
381.733	544.81
381.958	560.81
382.184	554.81
382.409	564.81
382.634	559.81
382.86	552.81
383.085	549.81
383.31	546.81
383.535	586.81
383.761	564.81
383.986	580.81
384.211	583.81
384.436	580.81
384.662	597.81
384.887	594.81
385.112	589.81
385.337	582.81
385.562	588.81
385.787	636.81
386.013	628.81
386.238	653.81
386.463	611.81
386.688	610.81
386.913	605.81
387.138	617.81
387.363	611.81
387.588	607.81
387.813	627.81
388.038	630.81
388.263	618.81
388.488	635.81
388.713	611.81
388.938	636.81
389.163	613.81
389.387	633.81
389.612	609.81
389.837	635.81
390.062	623.81
390.287	620.81
390.512	624.81
390.736	656.81
390.961	663.81
391.186	642.81
391.411	640.81
391.636	635.81
391.86	662.81
392.085	660.81
392.31	660.81
392.534	647.81
392.759	659.81
392.984	646.81
393.208	654.81
393.433	692.81
393.658	656.81
393.882	644.81
394.107	639.81
394.331	653.81
394.556	681.81
394.78	648.81
395.005	638.81
395.229	650.81
395.454	653.81
395.678	657.81
395.903	686.81
396.127	694.81
396.352	662.81
396.576	674.81
396.801	672.81
397.025	685.81
397.249	685.81
397.474	718.81
397.698	681.81
397.922	686.81
398.147	713.81
398.371	709.81
398.595	738.81
398.82	736.81
399.044	774.81
399.268	792.81
399.492	852.81
399.717	866.81
399.941	906.81
400.165	850.81
400.389	817.81
400.613	793.81
400.837	790.81
401.062	755.81
401.286	743.81
401.51	745.81
401.734	746.81
401.958	728.81
402.182	740.81
402.406	741.81
402.63	737.81
402.854	757.81
403.078	750.81
403.302	759.81
403.526	731.81
403.75	728.81
403.974	751.81
404.198	749.81
404.422	717.81
404.645	754.81
404.869	758.81
405.093	729.81
405.317	758.81
405.541	766.81
405.765	763.81
405.988	765.81
406.212	797.81
406.436	785.81
406.66	801.81
406.883	806.81
407.107	808.81
407.331	850.81
407.555	864.81
407.778	834.81
408.002	853.81
408.226	835.81
408.449	828.81
408.673	803.81
408.896	831.81
409.12	815.81
409.344	822.81
409.567	778.81
409.791	796.81
410.014	787.81
410.238	764.81
410.461	805.81
410.685	799.81
410.908	781.81
411.132	765.81
411.355	774.81
411.578	775.81
411.802	778.81
412.025	746.81
412.249	757.81
412.472	750.81
412.695	747.81
412.919	766.81
413.142	740.81
413.365	738.81
413.589	752.81
413.812	739.81
414.035	748.81
414.258	750.81
414.482	749.81
414.705	760.81
414.928	736.81
415.151	770.81
415.374	728.81
415.597	760.81
415.821	732.81
416.044	727.81
416.267	719.81
416.49	711.81
416.713	706.81
416.936	731.81
417.159	718.81
417.382	718.81
417.605	709.81
417.828	708.81
418.051	711.81
418.274	701.81
418.497	704.81
418.72	729.81
418.943	732.81
419.166	775.81
419.389	788.81
419.611	767.81
419.834	783.81
420.057	723.81
420.28	686.81
420.503	718.81
420.726	724.81
420.948	718.81
421.171	702.81
421.394	715.81
421.617	692.81
421.839	712.81
422.062	744.81
422.285	692.81
422.507	715.81
422.73	697.81
422.953	708.81
423.175	713.81
423.398	732.81
423.621	701.81
423.843	730.81
424.066	720.81
424.288	722.81
424.511	724.81
424.733	711.81
424.956	688.81
425.178	719.81
425.401	714.81
425.623	734.81
425.846	699.81
426.068	687.81
426.291	683.81
426.513	714.81
426.735	696.81
426.958	703.81
427.18	681.81
427.402	695.81
427.625	670.81
427.847	684.81
428.069	675.81
428.292	685.81
428.514	692.81
428.736	682.81
428.958	692.81
429.181	662.81
429.403	686.81
429.625	678.81
429.847	676.81
430.069	663.81
430.292	670.81
430.514	657.81
430.736	676.81
430.958	669.81
431.18	692.81
431.402	691.81
431.624	684.81
431.846	693.81
432.068	673.81
432.29	698.81
432.512	687.81
432.734	669.81
432.956	680.81
433.178	721.81
433.4	736.81
433.622	714.81
433.844	709.81
434.066	707.81
434.287	696.81
434.509	719.81
434.731	732.81
434.953	731.81
435.175	734.81
435.397	754.81
435.618	714.81
435.84	702.81
436.062	688.81
436.284	687.81
436.505	684.81
436.727	675.81
436.949	701.81
437.17	704.81
437.392	693.81
437.614	669.81
437.835	681.81
438.057	655.81
438.278	658.81
438.5	650.81
438.721	671.81
438.943	671.81
439.165	679.81
439.386	669.81
439.608	689.81
439.829	698.81
440.05	692.81
440.272	678.81
440.493	696.81
440.715	710.81
440.936	691.81
441.158	692.81
441.379	708.81
441.6	744.81
441.822	740.81
442.043	726.81
442.264	712.81
442.486	695.81
442.707	707.81
442.928	704.81
443.149	726.81
443.371	713.81
443.592	803.81
443.813	741.81
444.034	728.81
444.255	731.81
444.476	761.81
444.698	790.81
444.919	777.81
445.14	854.81
445.361	808.81
445.582	713.81
445.803	728.81
446.024	692.81
446.245	720.81
446.466	712.81
446.687	693.81
446.908	710.81
447.129	668.81
447.35	686.81
447.571	674.81
447.792	650.81
448.013	664.81
448.234	651.81
448.455	630.81
448.675	655.81
448.896	669.81
449.117	655.81
449.338	622.81
449.559	620.81
449.779	631.81
450	638.81
450.221	621.81
450.442	631.81
450.662	642.81
450.883	646.81
451.104	664.81
451.324	639.81
451.545	631.81
451.766	620.81
451.986	614.81
452.207	634.81
452.428	623.81
452.648	630.81
452.869	623.81
453.089	600.81
453.31	637.81
453.53	616.81
453.751	594.81
453.971	611.81
454.192	594.81
454.412	616.81
454.633	620.81
454.853	592.81
455.073	599.81
455.294	624.81
455.514	608.81
455.734	578.81
455.955	606.81
456.175	621.81
456.395	597.81
456.616	603.81
456.836	602.81
457.056	604.81
457.276	602.81
457.497	604.81
457.717	583.81
457.937	616.81
458.157	622.81
458.377	616.81
458.598	638.81
458.818	638.81
459.038	643.81
459.258	645.81
459.478	669.81
459.698	754.81
459.918	760.81
460.138	723.81
460.358	724.81
460.578	739.81
460.798	761.81
461.018	768.81
461.238	759.81
461.458	727.81
461.678	752.81
461.898	758.81
462.118	754.81
462.338	777.81
462.558	797.81
462.777	811.81
462.997	862.81
463.217	882.81
463.437	896.81
463.657	867.81
463.876	810.81
464.096	776.81
464.316	820.81
464.536	814.81
464.755	805.81
464.975	769.81
465.195	746.81
465.414	733.81
465.634	734.81
465.854	711.81
466.073	674.81
466.293	679.81
466.512	667.81
466.732	660.81
466.951	679.81
467.171	680.81
467.391	650.81
467.61	661.81
467.829	636.81
468.049	663.81
468.268	653.81
468.488	648.81
468.707	656.81
468.927	648.81
469.146	660.81
469.365	666.81
469.585	637.81
469.804	687.81
470.023	655.81
470.243	654.81
470.462	676.81
470.681	670.81
470.901	651.81
471.12	670.81
471.339	652.81
471.558	652.81
471.777	647.81
471.997	635.81
472.216	659.81
472.435	631.81
472.654	642.81
472.873	657.81
473.092	653.81
473.311	641.81
473.53	648.81
473.749	659.81
473.968	643.81
474.187	640.81
474.406	635.81
474.625	657.81
474.844	638.81
475.063	660.81
475.282	664.81
475.501	656.81
475.72	632.81
475.939	673.81
476.158	660.81
476.377	660.81
476.596	675.81
476.814	679.81
477.033	679.81
477.252	693.81
477.471	694.81
477.69	716.81
477.908	721.81
478.127	732.81
478.346	741.81
478.564	750.81
478.783	735.81
479.002	782.81
479.22	820.81
479.439	790.81
479.658	766.81
479.876	778.81
480.095	753.81
480.313	794.81
480.532	764.81
480.751	772.81
480.969	781.81
481.188	790.81
481.406	768.81
481.624	761.81
481.843	781.81
482.061	745.81
482.28	773.81
482.498	773.81
482.717	749.81
482.935	746.81
483.153	779.81
483.372	782.81
483.59	822.81
483.808	760.81
484.027	766.81
484.245	760.81
484.463	785.81
484.681	762.81
484.9	776.81
485.118	785.81
485.336	787.81
485.554	760.81
485.772	790.81
485.99	789.81
486.209	791.81
486.427	762.81
486.645	782.81
486.863	808.81
487.081	790.81
487.299	793.81
487.517	817.81
487.735	820.81
487.953	821.81
488.171	800.81
488.389	797.81
488.607	779.81
488.825	792.81
489.043	792.81
489.261	797.81
489.479	788.81
489.696	805.81
489.914	784.81
490.132	780.81
490.35	823.81
490.568	795.81
490.786	804.81
491.003	807.81
491.221	821.81
491.439	801.81
491.657	782.81
491.874	804.81
492.092	805.81
492.31	798.81
492.527	819.81
492.745	814.81
492.963	824.81
493.18	775.81
493.398	793.81
493.615	803.81
493.833	792.81
494.05	807.81
494.268	823.81
494.485	837.81
494.703	843.81
494.92	829.81
495.138	808.81
495.355	831.81
495.573	811.81
495.79	851.81
496.008	847.81
496.225	870.81
496.442	850.81
496.66	845.81
496.877	851.81
497.094	872.81
497.312	899.81
497.529	886.81
497.746	924.81
497.963	894.81
498.181	953.81
498.398	972.81
498.615	995.81
498.832	1051.81
499.049	1078.81
499.267	1141.81
499.484	1178.81
499.701	1254.81
499.918	1286.81
500.135	1406.81
500.352	1416.81
500.569	1489.81
500.786	1485.81
501.003	1433.81
501.22	1391.81
501.437	1322.81
