Data from Ni(NO3)2@0.0625M.TitratingCurve.Agarose3%dH2O.NegLispCup.LampEnergy10.LIBS07252019_HRD10591_18-14-32-569.txt Node
Date: Thu Jul 25 18:14:32 EDT 2019
User: cochatt
Spectrometer: HR+D1059
Trigger mode: 1
Integration Time (sec): 1.000000E-1
Scans to average: 1
Electric dark correction enabled: true
Nonlinearity correction enabled: false
Boxcar width: 0
XAxis mode: Wavelengths
Number of Pixels in Spectrum: 2048
>>>>>Begin Spectral Data<<<<<
223.165	-24.44
223.4	-24.44
223.635	-24.44
223.869	-24.44
224.104	-0.44
224.338	3.56
224.573	-8.44
224.808	-23.44
225.042	-19.44
225.277	-13.44
225.511	5.56
225.746	-0.44
225.98	0.56
226.215	19.56
226.449	21.56
226.683	8.56
226.918	29.56
227.152	25.56
227.387	17.56
227.621	18.56
227.856	43.56
228.09	66.56
228.324	56.56
228.559	67.56
228.793	73.56
229.027	96.56
229.262	95.56
229.496	92.56
229.73	106.56
229.964	104.56
230.199	123.56
230.433	113.56
230.667	117.56
230.901	112.56
231.136	108.56
231.37	107.56
231.604	97.56
231.838	123.56
232.072	112.56
232.306	129.56
232.541	138.56
232.775	109.56
233.009	124.56
233.243	123.56
233.477	129.56
233.711	124.56
233.945	127.56
234.179	116.56
234.413	134.56
234.647	138.56
234.881	124.56
235.115	129.56
235.349	135.56
235.583	122.56
235.817	127.56
236.051	123.56
236.285	125.56
236.519	120.56
236.753	119.56
236.987	132.56
237.221	125.56
237.455	139.56
237.689	123.56
237.922	119.56
238.156	130.56
238.39	121.56
238.624	137.56
238.858	133.56
239.091	139.56
239.325	141.56
239.559	127.56
239.793	154.56
240.027	133.56
240.26	131.56
240.494	137.56
240.728	145.56
240.961	139.56
241.195	156.56
241.429	136.56
241.662	133.56
241.896	138.56
242.13	146.56
242.363	153.56
242.597	135.56
242.83	138.56
243.064	133.56
243.298	151.56
243.531	171.56
243.765	156.56
243.998	152.56
244.232	152.56
244.465	146.56
244.699	161.56
244.932	159.56
245.166	157.56
245.399	179.56
245.633	156.56
245.866	147.56
246.099	159.56
246.333	167.56
246.566	170.56
246.8	170.56
247.033	167.56
247.266	162.56
247.5	169.56
247.733	158.56
247.966	175.56
248.2	162.56
248.433	175.56
248.666	166.56
248.899	183.56
249.133	196.56
249.366	181.56
249.599	182.56
249.832	168.56
250.066	191.56
250.299	197.56
250.532	191.56
250.765	207.56
250.998	180.56
251.231	204.56
251.465	210.56
251.698	200.56
251.931	182.56
252.164	196.56
252.397	201.56
252.63	189.56
252.863	208.56
253.096	220.56
253.329	193.56
253.562	189.56
253.795	218.56
254.028	194.56
254.261	202.56
254.494	193.56
254.727	204.56
254.96	190.56
255.193	188.56
255.426	195.56
255.659	206.56
255.892	213.56
256.124	215.56
256.357	194.56
256.59	226.56
256.823	207.56
257.056	207.56
257.289	213.56
257.521	212.56
257.754	209.56
257.987	201.56
258.22	225.56
258.452	209.56
258.685	207.56
258.918	210.56
259.151	211.56
259.383	228.56
259.616	220.56
259.849	238.56
260.081	231.56
260.314	226.56
260.547	214.56
260.779	225.56
261.012	228.56
261.244	213.56
261.477	239.56
261.71	237.56
261.942	229.56
262.175	235.56
262.407	235.56
262.64	223.56
262.872	240.56
263.105	224.56
263.337	224.56
263.57	230.56
263.802	228.56
264.035	245.56
264.267	247.56
264.499	241.56
264.732	235.56
264.964	261.56
265.197	259.56
265.429	249.56
265.661	248.56
265.894	258.56
266.126	256.56
266.358	245.56
266.591	254.56
266.823	251.56
267.055	263.56
267.287	260.56
267.52	243.56
267.752	263.56
267.984	251.56
268.216	256.56
268.448	263.56
268.681	255.56
268.913	278.56
269.145	253.56
269.377	246.56
269.609	269.56
269.841	271.56
270.073	251.56
270.306	259.56
270.538	257.56
270.77	264.56
271.002	275.56
271.234	247.56
271.466	268.56
271.698	275.56
271.93	283.56
272.162	270.56
272.394	263.56
272.626	263.56
272.858	279.56
273.09	273.56
273.322	277.56
273.553	294.56
273.785	258.56
274.017	279.56
274.249	295.56
274.481	282.56
274.713	260.56
274.945	291.56
275.176	290.56
275.408	295.56
275.64	283.56
275.872	286.56
276.104	283.56
276.335	302.56
276.567	284.56
276.799	314.56
277.031	301.56
277.262	284.56
277.494	294.56
277.726	295.56
277.957	271.56
278.189	294.56
278.421	303.56
278.652	306.56
278.884	313.56
279.115	314.56
279.347	306.56
279.579	316.56
279.81	308.56
280.042	315.56
280.273	316.56
280.505	316.56
280.736	306.56
280.968	309.56
281.199	300.56
281.431	321.56
281.662	305.56
281.894	319.56
282.125	309.56
282.356	292.56
282.588	327.56
282.819	312.56
283.051	343.56
283.282	323.56
283.513	350.56
283.745	345.56
283.976	339.56
284.207	331.56
284.439	329.56
284.67	333.56
284.901	350.56
285.132	354.56
285.364	311.56
285.595	333.56
285.826	333.56
286.057	331.56
286.288	344.56
286.52	356.56
286.751	347.56
286.982	351.56
287.213	346.56
287.444	343.56
287.675	335.56
287.906	328.56
288.138	347.56
288.369	351.56
288.6	362.56
288.831	344.56
289.062	363.56
289.293	343.56
289.524	349.56
289.755	342.56
289.986	337.56
290.217	348.56
290.448	368.56
290.679	340.56
290.91	364.56
291.141	369.56
291.371	347.56
291.602	364.56
291.833	367.56
292.064	372.56
292.295	377.56
292.526	347.56
292.757	377.56
292.987	356.56
293.218	372.56
293.449	351.56
293.68	363.56
293.91	353.56
294.141	368.56
294.372	381.56
294.603	358.56
294.833	361.56
295.064	373.56
295.295	377.56
295.525	377.56
295.756	363.56
295.987	391.56
296.217	377.56
296.448	394.56
296.679	374.56
296.909	371.56
297.14	391.56
297.37	370.56
297.601	386.56
297.831	383.56
298.062	385.56
298.292	376.56
298.523	419.56
298.753	398.56
298.984	397.56
299.214	407.56
299.445	391.56
299.675	375.56
299.905	407.56
300.136	389.56
300.366	402.56
300.597	401.56
300.827	417.56
301.057	416.56
301.288	415.56
301.518	421.56
301.748	418.56
301.979	446.56
302.209	420.56
302.439	425.56
302.669	391.56
302.9	402.56
303.13	388.56
303.36	435.56
303.59	412.56
303.82	409.56
304.051	405.56
304.281	422.56
304.511	439.56
304.741	411.56
304.971	409.56
305.201	413.56
305.431	411.56
305.661	417.56
305.891	405.56
306.121	405.56
306.352	401.56
306.582	426.56
306.812	417.56
307.042	391.56
307.272	411.56
307.502	401.56
307.731	396.56
307.961	400.56
308.191	402.56
308.421	424.56
308.651	398.56
308.881	385.56
309.111	389.56
309.341	391.56
309.571	395.56
309.8	428.56
310.03	385.56
310.26	422.56
310.49	435.56
310.72	405.56
310.949	419.56
311.179	391.56
311.409	393.56
311.639	394.56
311.868	427.56
312.098	423.56
312.328	425.56
312.557	403.56
312.787	426.56
313.017	422.56
313.246	448.56
313.476	451.56
313.706	432.56
313.935	439.56
314.165	435.56
314.394	417.56
314.624	428.56
314.853	428.56
315.083	432.56
315.312	411.56
315.542	443.56
315.771	417.56
316.001	417.56
316.23	420.56
316.46	432.56
316.689	410.56
316.919	424.56
317.148	421.56
317.377	404.56
317.607	418.56
317.836	419.56
318.065	424.56
318.295	423.56
318.524	425.56
318.753	416.56
318.983	408.56
319.212	423.56
319.441	421.56
319.67	439.56
319.9	419.56
320.129	447.56
320.358	409.56
320.587	445.56
320.816	410.56
321.046	417.56
321.275	437.56
321.504	439.56
321.733	433.56
321.962	437.56
322.191	436.56
322.42	425.56
322.649	435.56
322.878	434.56
323.108	441.56
323.337	440.56
323.566	438.56
323.795	428.56
324.024	433.56
324.253	426.56
324.482	427.56
324.71	425.56
324.939	433.56
325.168	435.56
325.397	427.56
325.626	461.56
325.855	457.56
326.084	463.56
326.313	473.56
326.542	470.56
326.77	481.56
326.999	456.56
327.228	469.56
327.457	466.56
327.686	458.56
327.914	459.56
328.143	441.56
328.372	455.56
328.6	457.56
328.829	469.56
329.058	470.56
329.287	474.56
329.515	489.56
329.744	474.56
329.972	466.56
330.201	469.56
330.43	477.56
330.658	478.56
330.887	499.56
331.115	492.56
331.344	499.56
331.572	496.56
331.801	495.56
332.03	515.56
332.258	530.56
332.486	555.56
332.715	563.56
332.943	569.56
333.172	595.56
333.4	623.56
333.629	627.56
333.857	631.56
334.085	623.56
334.314	603.56
334.542	586.56
334.771	594.56
334.999	560.56
335.227	593.56
335.455	600.56
335.684	578.56
335.912	573.56
336.14	570.56
336.369	560.56
336.597	561.56
336.825	584.56
337.053	572.56
337.281	563.56
337.51	555.56
337.738	512.56
337.966	515.56
338.194	547.56
338.422	529.56
338.65	513.56
338.878	500.56
339.106	486.56
339.334	500.56
339.562	499.56
339.79	487.56
340.018	463.56
340.246	492.56
340.474	482.56
340.702	479.56
340.93	501.56
341.158	517.56
341.386	522.56
341.614	531.56
341.842	489.56
342.07	464.56
342.298	483.56
342.526	477.56
342.754	498.56
342.981	482.56
343.209	502.56
343.437	535.56
343.665	552.56
343.893	616.56
344.12	609.56
344.348	582.56
344.576	566.56
344.804	552.56
345.031	519.56
345.259	527.56
345.487	492.56
345.714	481.56
345.942	505.56
346.17	503.56
346.397	507.56
346.625	495.56
346.853	477.56
347.08	483.56
347.308	515.56
347.535	496.56
347.763	491.56
347.99	485.56
348.218	508.56
348.445	516.56
348.673	490.56
348.9	495.56
349.128	486.56
349.355	497.56
349.583	493.56
349.81	473.56
350.037	475.56
350.265	468.56
350.492	471.56
350.72	461.56
350.947	457.56
351.174	467.56
351.402	491.56
351.629	460.56
351.856	467.56
352.083	486.56
352.311	465.56
352.538	483.56
352.765	473.56
352.992	476.56
353.22	473.56
353.447	464.56
353.674	460.56
353.901	467.56
354.128	451.56
354.355	473.56
354.583	474.56
354.81	457.56
355.037	442.56
355.264	460.56
355.491	467.56
355.718	466.56
355.945	484.56
356.172	475.56
356.399	456.56
356.626	465.56
356.853	470.56
357.08	467.56
357.307	460.56
357.534	464.56
357.761	469.56
357.988	481.56
358.215	468.56
358.441	458.56
358.668	495.56
358.895	463.56
359.122	465.56
359.349	477.56
359.576	472.56
359.802	487.56
360.029	459.56
360.256	458.56
360.483	485.56
360.709	437.56
360.936	451.56
361.163	490.56
361.39	479.56
361.616	486.56
361.843	477.56
362.07	472.56
362.296	496.56
362.523	455.56
362.749	447.56
362.976	467.56
363.203	456.56
363.429	471.56
363.656	465.56
363.882	457.56
364.109	452.56
364.335	470.56
364.562	451.56
364.788	462.56
365.015	478.56
365.241	458.56
365.468	455.56
365.694	485.56
365.92	467.56
366.147	452.56
366.373	457.56
366.599	452.56
366.826	438.56
367.052	457.56
367.278	479.56
367.505	455.56
367.731	472.56
367.957	477.56
368.184	462.56
368.41	489.56
368.636	469.56
368.862	478.56
369.089	488.56
369.315	477.56
369.541	467.56
369.767	482.56
369.993	486.56
370.219	489.56
370.445	479.56
370.672	487.56
370.898	512.56
371.124	502.56
371.35	495.56
371.576	512.56
371.802	520.56
372.028	504.56
372.254	508.56
372.48	507.56
372.706	499.56
372.932	520.56
373.158	529.56
373.384	512.56
373.61	516.56
373.835	519.56
374.061	482.56
374.287	503.56
374.513	489.56
374.739	514.56
374.965	561.56
375.191	567.56
375.416	565.56
375.642	555.56
375.868	519.56
376.094	540.56
376.319	532.56
376.545	496.56
376.771	516.56
376.997	499.56
377.222	516.56
377.448	522.56
377.674	504.56
377.899	497.56
378.125	497.56
378.35	514.56
378.576	490.56
378.802	474.56
379.027	502.56
379.253	504.56
379.478	492.56
379.704	506.56
379.929	522.56
380.155	495.56
380.38	490.56
380.606	517.56
380.831	498.56
381.057	506.56
381.282	495.56
381.507	506.56
381.733	502.56
381.958	511.56
382.184	543.56
382.409	534.56
382.634	531.56
382.86	529.56
383.085	521.56
383.31	545.56
383.535	556.56
383.761	544.56
383.986	584.56
384.211	585.56
384.436	565.56
384.662	605.56
384.887	602.56
385.112	625.56
385.337	632.56
385.562	604.56
385.787	603.56
386.013	633.56
386.238	606.56
386.463	625.56
386.688	614.56
386.913	601.56
387.138	598.56
387.363	594.56
387.588	598.56
387.813	609.56
388.038	591.56
388.263	591.56
388.488	628.56
388.713	596.56
388.938	570.56
389.163	575.56
389.387	611.56
389.612	561.56
389.837	584.56
390.062	586.56
390.287	594.56
390.512	592.56
390.736	593.56
390.961	601.56
391.186	632.56
391.411	650.56
391.636	628.56
391.86	660.56
392.085	674.56
392.31	664.56
392.534	661.56
392.759	636.56
392.984	654.56
393.208	595.56
393.433	615.56
393.658	620.56
393.882	635.56
394.107	637.56
394.331	643.56
394.556	661.56
394.78	636.56
395.005	643.56
395.229	649.56
395.454	666.56
395.678	699.56
395.903	677.56
396.127	664.56
396.352	638.56
396.576	637.56
396.801	607.56
397.025	634.56
397.249	651.56
397.474	652.56
397.698	681.56
397.922	691.56
398.147	664.56
398.371	673.56
398.595	678.56
398.82	740.56
399.044	795.56
399.268	871.56
399.492	980.56
399.717	1145.56
399.941	1137.56
400.165	979.56
400.389	899.56
400.613	820.56
400.837	807.56
401.062	771.56
401.286	754.56
401.51	729.56
401.734	723.56
401.958	747.56
402.182	766.56
402.406	763.56
402.63	789.56
402.854	817.56
403.078	771.56
403.302	826.56
403.526	861.56
403.75	848.56
403.974	913.56
404.198	875.56
404.422	898.56
404.645	859.56
404.869	844.56
405.093	865.56
405.317	827.56
405.541	827.56
405.765	835.56
405.988	832.56
406.212	803.56
406.436	816.56
406.66	849.56
406.883	858.56
407.107	907.56
407.331	943.56
407.555	985.56
407.778	953.56
408.002	948.56
408.226	893.56
408.449	865.56
408.673	830.56
408.896	851.56
409.12	850.56
409.344	855.56
409.567	880.56
409.791	887.56
410.014	864.56
410.238	834.56
410.461	849.56
410.685	835.56
410.908	804.56
411.132	782.56
411.355	770.56
411.578	776.56
411.802	767.56
412.025	787.56
412.249	783.56
412.472	798.56
412.695	769.56
412.919	760.56
413.142	767.56
413.365	747.56
413.589	747.56
413.812	744.56
414.035	731.56
414.258	716.56
414.482	743.56
414.705	767.56
414.928	766.56
415.151	749.56
415.374	759.56
415.597	765.56
415.821	752.56
416.044	724.56
416.267	739.56
416.49	723.56
416.713	732.56
416.936	729.56
417.159	753.56
417.382	710.56
417.605	735.56
417.828	755.56
418.051	742.56
418.274	740.56
418.497	744.56
418.72	773.56
418.943	786.56
419.166	815.56
419.389	848.56
419.611	816.56
419.834	800.56
420.057	773.56
420.28	771.56
420.503	726.56
420.726	760.56
420.948	737.56
421.171	726.56
421.394	731.56
421.617	721.56
421.839	729.56
422.062	758.56
422.285	747.56
422.507	775.56
422.73	759.56
422.953	777.56
423.175	780.56
423.398	774.56
423.621	780.56
423.843	802.56
424.066	805.56
424.288	770.56
424.511	772.56
424.733	786.56
424.956	761.56
425.178	733.56
425.401	765.56
425.623	765.56
425.846	709.56
426.068	710.56
426.291	711.56
426.513	706.56
426.735	698.56
426.958	716.56
427.18	677.56
427.402	673.56
427.625	687.56
427.847	677.56
428.069	672.56
428.292	649.56
428.514	695.56
428.736	658.56
428.958	651.56
429.181	643.56
429.403	633.56
429.625	661.56
429.847	650.56
430.069	653.56
430.292	643.56
430.514	633.56
430.736	643.56
430.958	655.56
431.18	645.56
431.402	663.56
431.624	655.56
431.846	659.56
432.068	691.56
432.29	672.56
432.512	680.56
432.734	659.56
432.956	667.56
433.178	681.56
433.4	683.56
433.622	672.56
433.844	687.56
434.066	677.56
434.287	691.56
434.509	705.56
434.731	723.56
434.953	752.56
435.175	752.56
435.397	761.56
435.618	706.56
435.84	686.56
436.062	684.56
436.284	677.56
436.505	671.56
436.727	684.56
436.949	683.56
437.17	674.56
437.392	666.56
437.614	641.56
437.835	656.56
438.057	657.56
438.278	652.56
438.5	635.56
438.721	645.56
438.943	641.56
439.165	665.56
439.386	665.56
439.608	672.56
439.829	667.56
440.05	687.56
440.272	676.56
440.493	679.56
440.715	680.56
440.936	674.56
441.158	717.56
441.379	712.56
441.6	767.56
441.822	749.56
442.043	771.56
442.264	719.56
442.486	729.56
442.707	737.56
442.928	753.56
443.149	746.56
443.371	731.56
443.592	749.56
443.813	746.56
444.034	755.56
444.255	787.56
444.476	809.56
444.698	876.56
444.919	882.56
445.14	964.56
445.361	862.56
445.582	776.56
445.803	721.56
446.024	713.56
446.245	712.56
446.466	696.56
446.687	651.56
446.908	691.56
447.129	679.56
447.35	653.56
447.571	654.56
447.792	647.56
448.013	639.56
448.234	644.56
448.455	632.56
448.675	613.56
448.896	602.56
449.117	610.56
449.338	620.56
449.559	602.56
449.779	636.56
450	632.56
450.221	624.56
450.442	627.56
450.662	637.56
450.883	625.56
451.104	672.56
451.324	654.56
451.545	650.56
451.766	644.56
451.986	653.56
452.207	619.56
452.428	625.56
452.648	633.56
452.869	612.56
453.089	596.56
453.31	630.56
453.53	620.56
453.751	597.56
453.971	616.56
454.192	643.56
454.412	605.56
454.633	601.56
454.853	599.56
455.073	571.56
455.294	597.56
455.514	589.56
455.734	581.56
455.955	566.56
456.175	583.56
456.395	573.56
456.616	569.56
456.836	594.56
457.056	588.56
457.276	560.56
457.497	584.56
457.717	595.56
457.937	604.56
458.157	617.56
458.377	588.56
458.598	615.56
458.818	625.56
459.038	671.56
459.258	655.56
459.478	682.56
459.698	731.56
459.918	708.56
460.138	749.56
460.358	787.56
460.578	793.56
460.798	831.56
461.018	807.56
461.238	781.56
461.458	784.56
461.678	785.56
461.898	798.56
462.118	807.56
462.338	829.56
462.558	879.56
462.777	882.56
462.997	1008.56
463.217	1079.56
463.437	1104.56
463.657	983.56
463.876	946.56
464.096	934.56
464.316	964.56
464.536	943.56
464.755	921.56
464.975	886.56
465.195	806.56
465.414	794.56
465.634	730.56
465.854	697.56
466.073	716.56
466.293	660.56
466.512	685.56
466.732	659.56
466.951	671.56
467.171	663.56
467.391	659.56
467.61	657.56
467.829	658.56
468.049	646.56
468.268	627.56
468.488	611.56
468.707	604.56
468.927	633.56
469.146	639.56
469.365	645.56
469.585	617.56
469.804	667.56
470.023	655.56
470.243	659.56
470.462	672.56
470.681	694.56
470.901	701.56
471.12	672.56
471.339	642.56
471.558	659.56
471.777	659.56
471.997	625.56
472.216	638.56
472.435	622.56
472.654	595.56
472.873	595.56
473.092	616.56
473.311	620.56
473.53	626.56
473.749	609.56
473.968	603.56
474.187	607.56
474.406	606.56
474.625	603.56
474.844	617.56
475.063	625.56
475.282	619.56
475.501	645.56
475.72	641.56
475.939	609.56
476.158	628.56
476.377	655.56
476.596	637.56
476.814	629.56
477.033	643.56
477.252	653.56
477.471	672.56
477.69	679.56
477.908	688.56
478.127	741.56
478.346	742.56
478.564	771.56
478.783	775.56
479.002	751.56
479.22	781.56
479.439	772.56
479.658	757.56
479.876	753.56
480.095	772.56
480.313	806.56
480.532	864.56
480.751	834.56
480.969	767.56
481.188	770.56
481.406	763.56
481.624	716.56
481.843	716.56
482.061	726.56
482.28	724.56
482.498	707.56
482.717	721.56
482.935	703.56
483.153	695.56
483.372	713.56
483.59	711.56
483.808	716.56
484.027	752.56
484.245	730.56
484.463	733.56
484.681	715.56
484.9	744.56
485.118	746.56
485.336	742.56
485.554	801.56
485.772	746.56
485.99	764.56
486.209	744.56
486.427	751.56
486.645	738.56
486.863	773.56
487.081	755.56
487.299	776.56
487.517	767.56
487.735	763.56
487.953	746.56
488.171	766.56
488.389	735.56
488.607	732.56
488.825	713.56
489.043	717.56
489.261	733.56
489.479	744.56
489.696	733.56
489.914	727.56
490.132	751.56
490.35	751.56
490.568	759.56
490.786	772.56
491.003	724.56
491.221	730.56
491.439	753.56
491.657	751.56
491.874	761.56
492.092	763.56
492.31	775.56
492.527	771.56
492.745	742.56
492.963	754.56
493.18	740.56
493.398	752.56
493.615	787.56
493.833	795.56
494.05	747.56
494.268	795.56
494.485	791.56
494.703	792.56
494.92	781.56
495.138	788.56
495.355	787.56
495.573	792.56
495.79	758.56
496.008	807.56
496.225	792.56
496.442	780.56
496.66	798.56
496.877	801.56
497.094	837.56
497.312	849.56
497.529	863.56
497.746	880.56
497.963	913.56
498.181	927.56
498.398	968.56
498.615	1002.56
498.832	1083.56
499.049	1145.56
499.267	1237.56
499.484	1379.56
499.701	1505.56
499.918	1720.56
500.135	1976.56
500.352	2280.56
500.569	2357.56
500.786	2352.56
501.003	2163.56
501.22	1900.56
501.437	1691.56
