Data from Ni(NO3)2Standard.Agarose3%.GreenCap.LampEnergy5.5.E.O_HRD10591_14-42-24-188.txt Node
Date: Mon Jul 22 14:42:24 EDT 2019
User: cochatt
Spectrometer: HR+D1059
Trigger mode: 1
Integration Time (sec): 1.000000E-1
Scans to average: 1
Electric dark correction enabled: true
Nonlinearity correction enabled: false
Boxcar width: 0
XAxis mode: Wavelengths
Number of Pixels in Spectrum: 2048
>>>>>Begin Spectral Data<<<<<
223.165	-18.19
223.4	-18.19
223.635	-18.19
223.869	-16.19
224.104	-24.19
224.338	-8.19
224.573	-3.19
224.808	-13.19
225.042	-10.19
225.277	-15.19
225.511	-8.19
225.746	1.81
225.98	14.81
226.215	7.81
226.449	14.81
226.683	13.81
226.918	23.81
227.152	39.81
227.387	33.81
227.621	36.81
227.856	32.81
228.09	45.81
228.324	38.81
228.559	49.81
228.793	61.81
229.027	64.81
229.262	74.81
229.496	58.81
229.73	68.81
229.964	80.81
230.199	77.81
230.433	67.81
230.667	73.81
230.901	86.81
231.136	87.81
231.37	74.81
231.604	74.81
231.838	96.81
232.072	72.81
232.306	89.81
232.541	86.81
232.775	77.81
233.009	81.81
233.243	91.81
233.477	81.81
233.711	86.81
233.945	75.81
234.179	71.81
234.413	84.81
234.647	69.81
234.881	80.81
235.115	87.81
235.349	69.81
235.583	90.81
235.817	85.81
236.051	61.81
236.285	90.81
236.519	86.81
236.753	86.81
236.987	75.81
237.221	80.81
237.455	80.81
237.689	81.81
237.922	87.81
238.156	77.81
238.39	70.81
238.624	68.81
238.858	84.81
239.091	95.81
239.325	79.81
239.559	77.81
239.793	80.81
240.027	75.81
240.26	67.81
240.494	71.81
240.728	65.81
240.961	71.81
241.195	82.81
241.429	83.81
241.662	97.81
241.896	77.81
242.13	83.81
242.363	71.81
242.597	87.81
242.83	78.81
243.064	73.81
243.298	82.81
243.531	67.81
243.765	87.81
243.998	79.81
244.232	79.81
244.465	68.81
244.699	66.81
244.932	65.81
245.166	78.81
245.399	70.81
245.633	82.81
245.866	76.81
246.099	81.81
246.333	80.81
246.566	76.81
246.8	80.81
247.033	80.81
247.266	69.81
247.5	78.81
247.733	86.81
247.966	80.81
248.2	79.81
248.433	77.81
248.666	80.81
248.899	76.81
249.133	82.81
249.366	86.81
249.599	76.81
249.832	73.81
250.066	74.81
250.299	67.81
250.532	91.81
250.765	87.81
250.998	83.81
251.231	85.81
251.465	76.81
251.698	85.81
251.931	83.81
252.164	74.81
252.397	81.81
252.63	77.81
252.863	63.81
253.096	88.81
253.329	74.81
253.562	74.81
253.795	79.81
254.028	85.81
254.261	94.81
254.494	86.81
254.727	82.81
254.96	80.81
255.193	81.81
255.426	70.81
255.659	79.81
255.892	83.81
256.124	71.81
256.357	87.81
256.59	82.81
256.823	96.81
257.056	65.81
257.289	84.81
257.521	87.81
257.754	81.81
257.987	67.81
258.22	79.81
258.452	73.81
258.685	95.81
258.918	84.81
259.151	88.81
259.383	85.81
259.616	82.81
259.849	62.81
260.081	74.81
260.314	92.81
260.547	84.81
260.779	84.81
261.012	86.81
261.244	66.81
261.477	95.81
261.71	83.81
261.942	76.81
262.175	74.81
262.407	96.81
262.64	93.81
262.872	79.81
263.105	84.81
263.337	83.81
263.57	65.81
263.802	84.81
264.035	64.81
264.267	77.81
264.499	84.81
264.732	83.81
264.964	83.81
265.197	98.81
265.429	75.81
265.661	80.81
265.894	88.81
266.126	78.81
266.358	82.81
266.591	98.81
266.823	75.81
267.055	83.81
267.287	79.81
267.52	81.81
267.752	76.81
267.984	79.81
268.216	73.81
268.448	65.81
268.681	73.81
268.913	75.81
269.145	89.81
269.377	85.81
269.609	65.81
269.841	71.81
270.073	84.81
270.306	85.81
270.538	90.81
270.77	78.81
271.002	77.81
271.234	97.81
271.466	88.81
271.698	88.81
271.93	99.81
272.162	92.81
272.394	83.81
272.626	68.81
272.858	83.81
273.09	93.81
273.322	87.81
273.553	92.81
273.785	67.81
274.017	72.81
274.249	85.81
274.481	81.81
274.713	94.81
274.945	94.81
275.176	87.81
275.408	81.81
275.64	77.81
275.872	92.81
276.104	73.81
276.335	82.81
276.567	74.81
276.799	83.81
277.031	75.81
277.262	76.81
277.494	80.81
277.726	91.81
277.957	83.81
278.189	94.81
278.421	81.81
278.652	83.81
278.884	87.81
279.115	70.81
279.347	83.81
279.579	79.81
279.81	85.81
280.042	72.81
280.273	82.81
280.505	84.81
280.736	78.81
280.968	67.81
281.199	80.81
281.431	76.81
281.662	72.81
281.894	89.81
282.125	89.81
282.356	75.81
282.588	87.81
282.819	73.81
283.051	85.81
283.282	83.81
283.513	88.81
283.745	79.81
283.976	79.81
284.207	89.81
284.439	92.81
284.67	94.81
284.901	81.81
285.132	87.81
285.364	83.81
285.595	79.81
285.826	86.81
286.057	78.81
286.288	88.81
286.52	91.81
286.751	88.81
286.982	88.81
287.213	89.81
287.444	91.81
287.675	84.81
287.906	86.81
288.138	90.81
288.369	84.81
288.6	76.81
288.831	68.81
289.062	77.81
289.293	75.81
289.524	74.81
289.755	94.81
289.986	89.81
290.217	99.81
290.448	83.81
290.679	73.81
290.91	88.81
291.141	79.81
291.371	84.81
291.602	93.81
291.833	91.81
292.064	89.81
292.295	85.81
292.526	96.81
292.757	98.81
292.987	89.81
293.218	93.81
293.449	84.81
293.68	88.81
293.91	84.81
294.141	76.81
294.372	76.81
294.603	88.81
294.833	91.81
295.064	87.81
295.295	87.81
295.525	92.81
295.756	86.81
295.987	89.81
296.217	83.81
296.448	83.81
296.679	83.81
296.909	78.81
297.14	96.81
297.37	85.81
297.601	79.81
297.831	87.81
298.062	99.81
298.292	97.81
298.523	85.81
298.753	87.81
298.984	85.81
299.214	96.81
299.445	85.81
299.675	80.81
299.905	91.81
300.136	83.81
300.366	75.81
300.597	87.81
300.827	92.81
301.057	85.81
301.288	90.81
301.518	111.81
301.748	84.81
301.979	89.81
302.209	98.81
302.439	76.81
302.669	90.81
302.9	83.81
303.13	84.81
303.36	81.81
303.59	75.81
303.82	76.81
304.051	87.81
304.281	84.81
304.511	89.81
304.741	85.81
304.971	99.81
305.201	95.81
305.431	86.81
305.661	98.81
305.891	82.81
306.121	86.81
306.352	86.81
306.582	88.81
306.812	81.81
307.042	88.81
307.272	79.81
307.502	98.81
307.731	93.81
307.961	83.81
308.191	83.81
308.421	68.81
308.651	82.81
308.881	92.81
309.111	82.81
309.341	93.81
309.571	91.81
309.8	83.81
310.03	84.81
310.26	84.81
310.49	82.81
310.72	80.81
310.949	98.81
311.179	93.81
311.409	94.81
311.639	95.81
311.868	94.81
312.098	92.81
312.328	90.81
312.557	90.81
312.787	81.81
313.017	72.81
313.246	82.81
313.476	77.81
313.706	92.81
313.935	77.81
314.165	77.81
314.394	90.81
314.624	82.81
314.853	74.81
315.083	68.81
315.312	86.81
315.542	91.81
315.771	84.81
316.001	82.81
316.23	96.81
316.46	90.81
316.689	96.81
316.919	83.81
317.148	89.81
317.377	78.81
317.607	91.81
317.836	95.81
318.065	75.81
318.295	95.81
318.524	81.81
318.753	108.81
318.983	89.81
319.212	90.81
319.441	81.81
319.67	75.81
319.9	83.81
320.129	79.81
320.358	88.81
320.587	98.81
320.816	94.81
321.046	96.81
321.275	89.81
321.504	82.81
321.733	81.81
321.962	82.81
322.191	91.81
322.42	90.81
322.649	87.81
322.878	93.81
323.108	76.81
323.337	99.81
323.566	88.81
323.795	80.81
324.024	77.81
324.253	85.81
324.482	93.81
324.71	83.81
324.939	83.81
325.168	88.81
325.397	87.81
325.626	79.81
325.855	88.81
326.084	81.81
326.313	98.81
326.542	87.81
326.77	83.81
326.999	86.81
327.228	93.81
327.457	91.81
327.686	83.81
327.914	84.81
328.143	72.81
328.372	89.81
328.6	83.81
328.829	93.81
329.058	90.81
329.287	92.81
329.515	65.81
329.744	85.81
329.972	85.81
330.201	83.81
330.43	85.81
330.658	87.81
330.887	92.81
331.115	98.81
331.344	88.81
331.572	80.81
331.801	97.81
332.03	88.81
332.258	85.81
332.486	99.81
332.715	88.81
332.943	87.81
333.172	89.81
333.4	71.81
333.629	87.81
333.857	88.81
334.085	94.81
334.314	81.81
334.542	82.81
334.771	94.81
334.999	91.81
335.227	72.81
335.455	83.81
335.684	77.81
335.912	91.81
336.14	74.81
336.369	79.81
336.597	92.81
336.825	79.81
337.053	83.81
337.281	82.81
337.51	86.81
337.738	74.81
337.966	84.81
338.194	74.81
338.422	91.81
338.65	93.81
338.878	92.81
339.106	76.81
339.334	95.81
339.562	86.81
339.79	87.81
340.018	75.81
340.246	81.81
340.474	76.81
340.702	81.81
340.93	84.81
341.158	83.81
341.386	85.81
341.614	84.81
341.842	87.81
342.07	90.81
342.298	87.81
342.526	91.81
342.754	86.81
342.981	92.81
343.209	98.81
343.437	85.81
343.665	105.81
343.893	87.81
344.12	71.81
344.348	94.81
344.576	83.81
344.804	68.81
345.031	91.81
345.259	75.81
345.487	91.81
345.714	84.81
345.942	83.81
346.17	73.81
346.397	89.81
346.625	86.81
346.853	82.81
347.08	77.81
347.308	83.81
347.535	82.81
347.763	78.81
347.99	80.81
348.218	79.81
348.445	96.81
348.673	95.81
348.9	92.81
349.128	94.81
349.355	98.81
349.583	88.81
349.81	77.81
350.037	76.81
350.265	95.81
350.492	72.81
350.72	90.81
350.947	81.81
351.174	83.81
351.402	68.81
351.629	76.81
351.856	68.81
352.083	80.81
352.311	81.81
352.538	86.81
352.765	83.81
352.992	83.81
353.22	93.81
353.447	89.81
353.674	87.81
353.901	85.81
354.128	94.81
354.355	90.81
354.583	75.81
354.81	100.81
355.037	97.81
355.264	85.81
355.491	66.81
355.718	79.81
355.945	69.81
356.172	83.81
356.399	81.81
356.626	95.81
356.853	76.81
357.08	94.81
357.307	81.81
357.534	86.81
357.761	86.81
357.988	99.81
358.215	83.81
358.441	94.81
358.668	89.81
358.895	106.81
359.122	76.81
359.349	88.81
359.576	90.81
359.802	91.81
360.029	98.81
360.256	88.81
360.483	87.81
360.709	97.81
360.936	92.81
361.163	90.81
361.39	78.81
361.616	95.81
361.843	86.81
362.07	90.81
362.296	91.81
362.523	91.81
362.749	86.81
362.976	83.81
363.203	82.81
363.429	89.81
363.656	97.81
363.882	83.81
364.109	89.81
364.335	92.81
364.562	93.81
364.788	81.81
365.015	78.81
365.241	74.81
365.468	86.81
365.694	85.81
365.92	86.81
366.147	85.81
366.373	81.81
366.599	75.81
366.826	76.81
367.052	95.81
367.278	83.81
367.505	76.81
367.731	90.81
367.957	81.81
368.184	84.81
368.41	77.81
368.636	74.81
368.862	77.81
369.089	75.81
369.315	78.81
369.541	83.81
369.767	77.81
369.993	71.81
370.219	79.81
370.445	81.81
370.672	77.81
370.898	79.81
371.124	86.81
371.35	86.81
371.576	86.81
371.802	91.81
372.028	80.81
372.254	88.81
372.48	80.81
372.706	82.81
372.932	79.81
373.158	89.81
373.384	85.81
373.61	74.81
373.835	78.81
374.061	92.81
374.287	77.81
374.513	97.81
374.739	87.81
374.965	98.81
375.191	80.81
375.416	94.81
375.642	91.81
375.868	90.81
376.094	77.81
376.319	89.81
376.545	72.81
376.771	83.81
376.997	95.81
377.222	91.81
377.448	81.81
377.674	82.81
377.899	73.81
378.125	81.81
378.35	83.81
378.576	87.81
378.802	95.81
379.027	92.81
379.253	90.81
379.478	95.81
379.704	69.81
379.929	82.81
380.155	78.81
380.38	71.81
380.606	96.81
380.831	87.81
381.057	89.81
381.282	75.81
381.507	81.81
381.733	86.81
381.958	77.81
382.184	88.81
382.409	85.81
382.634	82.81
382.86	92.81
383.085	75.81
383.31	91.81
383.535	90.81
383.761	84.81
383.986	94.81
384.211	81.81
384.436	69.81
384.662	76.81
384.887	91.81
385.112	68.81
385.337	84.81
385.562	84.81
385.787	81.81
386.013	94.81
386.238	94.81
386.463	83.81
386.688	88.81
386.913	80.81
387.138	81.81
387.363	89.81
387.588	87.81
387.813	76.81
388.038	91.81
388.263	85.81
388.488	84.81
388.713	84.81
388.938	92.81
389.163	75.81
389.387	83.81
389.612	85.81
389.837	77.81
390.062	86.81
390.287	85.81
390.512	83.81
390.736	76.81
390.961	69.81
391.186	75.81
391.411	93.81
391.636	77.81
391.86	76.81
392.085	89.81
392.31	89.81
392.534	91.81
392.759	89.81
392.984	82.81
393.208	100.81
393.433	89.81
393.658	77.81
393.882	75.81
394.107	73.81
394.331	94.81
394.556	97.81
394.78	92.81
395.005	72.81
395.229	85.81
395.454	86.81
395.678	84.81
395.903	94.81
396.127	74.81
396.352	96.81
396.576	77.81
396.801	77.81
397.025	83.81
397.249	103.81
397.474	98.81
397.698	89.81
397.922	76.81
398.147	92.81
398.371	90.81
398.595	83.81
398.82	72.81
399.044	72.81
399.268	87.81
399.492	72.81
399.717	74.81
399.941	90.81
400.165	97.81
400.389	76.81
400.613	89.81
400.837	80.81
401.062	98.81
401.286	87.81
401.51	78.81
401.734	75.81
401.958	85.81
402.182	76.81
402.406	76.81
402.63	92.81
402.854	94.81
403.078	85.81
403.302	76.81
403.526	72.81
403.75	92.81
403.974	80.81
404.198	80.81
404.422	90.81
404.645	92.81
404.869	92.81
405.093	84.81
405.317	83.81
405.541	88.81
405.765	74.81
405.988	77.81
406.212	83.81
406.436	88.81
406.66	75.81
406.883	96.81
407.107	88.81
407.331	76.81
407.555	98.81
407.778	87.81
408.002	92.81
408.226	89.81
408.449	98.81
408.673	89.81
408.896	83.81
409.12	85.81
409.344	85.81
409.567	82.81
409.791	90.81
410.014	85.81
410.238	92.81
410.461	85.81
410.685	86.81
410.908	88.81
411.132	80.81
411.355	80.81
411.578	74.81
411.802	99.81
412.025	84.81
412.249	91.81
412.472	86.81
412.695	73.81
412.919	78.81
413.142	76.81
413.365	80.81
413.589	86.81
413.812	99.81
414.035	71.81
414.258	100.81
414.482	84.81
414.705	91.81
414.928	85.81
415.151	78.81
415.374	81.81
415.597	80.81
415.821	85.81
416.044	75.81
416.267	79.81
416.49	96.81
416.713	88.81
416.936	89.81
417.159	82.81
417.382	96.81
417.605	83.81
417.828	77.81
418.051	91.81
418.274	95.81
418.497	84.81
418.72	81.81
418.943	84.81
419.166	82.81
419.389	84.81
419.611	89.81
419.834	84.81
420.057	73.81
420.28	79.81
420.503	89.81
420.726	93.81
420.948	83.81
421.171	96.81
421.394	91.81
421.617	92.81
421.839	81.81
422.062	91.81
422.285	93.81
422.507	103.81
422.73	91.81
422.953	75.81
423.175	80.81
423.398	86.81
423.621	71.81
423.843	91.81
424.066	81.81
424.288	85.81
424.511	81.81
424.733	83.81
424.956	89.81
425.178	96.81
425.401	80.81
425.623	81.81
425.846	88.81
426.068	80.81
426.291	83.81
426.513	92.81
426.735	90.81
426.958	92.81
427.18	88.81
427.402	81.81
427.625	73.81
427.847	97.81
428.069	71.81
428.292	76.81
428.514	96.81
428.736	92.81
428.958	85.81
429.181	105.81
429.403	81.81
429.625	79.81
429.847	88.81
430.069	86.81
430.292	80.81
430.514	93.81
430.736	86.81
430.958	76.81
431.18	90.81
431.402	69.81
431.624	55.81
431.846	91.81
432.068	90.81
432.29	84.81
432.512	83.81
432.734	87.81
432.956	79.81
433.178	93.81
433.4	87.81
433.622	84.81
433.844	82.81
434.066	76.81
434.287	81.81
434.509	92.81
434.731	91.81
434.953	80.81
435.175	76.81
435.397	85.81
435.618	76.81
435.84	91.81
436.062	77.81
436.284	75.81
436.505	83.81
436.727	83.81
436.949	80.81
437.17	82.81
437.392	78.81
437.614	86.81
437.835	85.81
438.057	98.81
438.278	87.81
438.5	89.81
438.721	79.81
438.943	99.81
439.165	94.81
439.386	88.81
439.608	77.81
439.829	81.81
440.05	75.81
440.272	77.81
440.493	87.81
440.715	77.81
440.936	87.81
441.158	92.81
441.379	84.81
441.6	80.81
441.822	76.81
442.043	93.81
442.264	87.81
442.486	76.81
442.707	80.81
442.928	87.81
443.149	68.81
443.371	73.81
443.592	72.81
443.813	79.81
444.034	89.81
444.255	95.81
444.476	84.81
444.698	83.81
444.919	83.81
445.14	214.81
445.361	151.81
445.582	84.81
445.803	86.81
446.024	104.81
446.245	89.81
446.466	81.81
446.687	87.81
446.908	85.81
447.129	72.81
447.35	95.81
447.571	86.81
447.792	93.81
448.013	83.81
448.234	95.81
448.455	82.81
448.675	84.81
448.896	88.81
449.117	81.81
449.338	73.81
449.559	83.81
449.779	90.81
450	82.81
450.221	92.81
450.442	82.81
450.662	82.81
450.883	78.81
451.104	91.81
451.324	96.81
451.545	83.81
451.766	80.81
451.986	85.81
452.207	97.81
452.428	86.81
452.648	96.81
452.869	89.81
453.089	91.81
453.31	77.81
453.53	87.81
453.751	74.81
453.971	82.81
454.192	87.81
454.412	100.81
454.633	86.81
454.853	75.81
455.073	80.81
455.294	89.81
455.514	86.81
455.734	76.81
455.955	77.81
456.175	86.81
456.395	86.81
456.616	74.81
456.836	86.81
457.056	83.81
457.276	86.81
457.497	74.81
457.717	65.81
457.937	87.81
458.157	88.81
458.377	80.81
458.598	85.81
458.818	74.81
459.038	66.81
459.258	87.81
459.478	73.81
459.698	83.81
459.918	81.81
460.138	87.81
460.358	77.81
460.578	82.81
460.798	71.81
461.018	88.81
461.238	92.81
461.458	79.81
461.678	92.81
461.898	104.81
462.118	71.81
462.338	88.81
462.558	93.81
462.777	96.81
462.997	86.81
463.217	88.81
463.437	86.81
463.657	76.81
463.876	89.81
464.096	92.81
464.316	81.81
464.536	95.81
464.755	100.81
464.975	75.81
465.195	89.81
465.414	84.81
465.634	77.81
465.854	94.81
466.073	79.81
466.293	77.81
466.512	79.81
466.732	87.81
466.951	81.81
467.171	74.81
467.391	81.81
467.61	79.81
467.829	76.81
468.049	78.81
468.268	97.81
468.488	76.81
468.707	89.81
468.927	88.81
469.146	84.81
469.365	86.81
469.585	78.81
469.804	90.81
470.023	89.81
470.243	70.81
470.462	89.81
470.681	93.81
470.901	80.81
471.12	75.81
471.339	92.81
471.558	77.81
471.777	92.81
471.997	89.81
472.216	93.81
472.435	88.81
472.654	83.81
472.873	70.81
473.092	96.81
473.311	95.81
473.53	94.81
473.749	89.81
473.968	91.81
474.187	73.81
474.406	72.81
474.625	91.81
474.844	98.81
475.063	82.81
475.282	87.81
475.501	90.81
475.72	94.81
475.939	75.81
476.158	89.81
476.377	91.81
476.596	86.81
476.814	79.81
477.033	82.81
477.252	81.81
477.471	87.81
477.69	80.81
477.908	87.81
478.127	96.81
478.346	83.81
478.564	93.81
478.783	77.81
479.002	90.81
479.22	90.81
479.439	92.81
479.658	92.81
479.876	83.81
480.095	91.81
480.313	92.81
480.532	87.81
480.751	103.81
480.969	101.81
481.188	86.81
481.406	100.81
481.624	94.81
481.843	87.81
482.061	76.81
482.28	82.81
482.498	87.81
482.717	83.81
482.935	91.81
483.153	95.81
483.372	99.81
483.59	90.81
483.808	82.81
484.027	86.81
484.245	90.81
484.463	84.81
484.681	100.81
484.9	91.81
485.118	78.81
485.336	92.81
485.554	96.81
485.772	86.81
485.99	88.81
486.209	90.81
486.427	83.81
486.645	91.81
486.863	100.81
487.081	108.81
487.299	79.81
487.517	96.81
487.735	90.81
487.953	82.81
488.171	93.81
488.389	98.81
488.607	97.81
488.825	91.81
489.043	106.81
489.261	94.81
489.479	80.81
489.696	96.81
489.914	93.81
490.132	87.81
490.35	90.81
490.568	97.81
490.786	104.81
491.003	92.81
491.221	91.81
491.439	81.81
491.657	105.81
491.874	97.81
492.092	81.81
492.31	108.81
492.527	103.81
492.745	91.81
492.963	90.81
493.18	96.81
493.398	103.81
493.615	100.81
493.833	111.81
494.05	81.81
494.268	80.81
494.485	95.81
494.703	93.81
494.92	87.81
495.138	105.81
495.355	90.81
495.573	90.81
495.79	80.81
496.008	92.81
496.225	80.81
496.442	104.81
496.66	90.81
496.877	89.81
497.094	93.81
497.312	78.81
497.529	96.81
497.746	93.81
497.963	99.81
498.181	91.81
498.398	98.81
498.615	93.81
498.832	99.81
499.049	100.81
499.267	103.81
499.484	105.81
499.701	102.81
499.918	98.81
500.135	105.81
500.352	93.81
500.569	89.81
500.786	115.81
501.003	99.81
501.22	97.81
501.437	88.81
501.654	96.81
501.871	85.81
502.088	94.81
502.305	116.81
502.522	111.81
502.739	86.81
502.956	80.81
503.172	88.81
503.389	86.81
503.606	93.81
503.823	112.81
504.04	95.81
504.256	98.81
504.473	76.81
504.69	79.81
504.907	114.81
505.123	107.81
505.34	98.81
505.557	100.81
505.773	91.81
505.99	81.81
506.207	80.81
506.423	98.81
506.64	108.81
506.856	92.81
507.073	91.81
507.289	98.81
507.506	98.81
507.722	92.81
507.939	97.81
508.155	93.81
508.372	98.81
508.588	92.81
508.805	99.81
509.021	97.81
509.238	82.81
509.454	96.81
509.67	81.81
509.887	95.81
510.103	83.81
510.319	90.81
510.536	87.81
510.752	93.81
510.968	91.81
511.184	89.81
511.401	83.81
511.617	97.81
511.833	94.81
512.049	77.81
512.265	80.81
512.481	81.81
512.698	83.81
512.914	91.81
513.13	105.81
513.346	83.81
513.562	80.81
513.778	105.81
513.994	83.81
514.21	103.81
514.426	95.81
514.642	97.81
514.858	90.81
515.074	92.81
515.29	98.81
515.506	83.81
515.721	96.81
515.937	97.81
516.153	90.81
516.369	87.81
516.585	91.81
516.801	91.81
517.016	80.81
517.232	103.81
517.448	92.81
517.664	84.81
517.879	104.81
518.095	80.81
518.311	90.81
518.527	92.81
518.742	93.81
