Data from Ni(NO3)2@0.5M.TitratingCurve.Agarose3%dH2O.NegLispCup.LampEnergy10.LIBS07252019_HRD10591_17-57-56-564.txt Node
Date: Thu Jul 25 17:57:56 EDT 2019
User: cochatt
Spectrometer: HR+D1059
Trigger mode: 1
Integration Time (sec): 1.000000E-1
Scans to average: 1
Electric dark correction enabled: true
Nonlinearity correction enabled: false
Boxcar width: 0
XAxis mode: Wavelengths
Number of Pixels in Spectrum: 2048
>>>>>Begin Spectral Data<<<<<
223.165	-21.81
223.4	-21.81
223.635	-21.81
223.869	-20.81
224.104	-12.81
224.338	-4.81
224.573	-16.81
224.808	-6.81
225.042	2.19
225.277	-8.81
225.511	-6.81
225.746	7.19
225.98	7.19
226.215	12.19
226.449	13.19
226.683	7.19
226.918	18.19
227.152	32.19
227.387	34.19
227.621	33.19
227.856	40.19
228.09	41.19
228.324	39.19
228.559	54.19
228.793	92.19
229.027	136.19
229.262	167.19
229.496	170.19
229.73	180.19
229.964	194.19
230.199	231.19
230.433	253.19
230.667	226.19
230.901	220.19
231.136	208.19
231.37	192.19
231.604	210.19
231.838	241.19
232.072	247.19
232.306	241.19
232.541	223.19
232.775	214.19
233.009	195.19
233.243	197.19
233.477	201.19
233.711	193.19
233.945	201.19
234.179	206.19
234.413	216.19
234.647	229.19
234.881	222.19
235.115	218.19
235.349	187.19
235.583	198.19
235.817	198.19
236.051	193.19
236.285	198.19
236.519	192.19
236.753	199.19
236.987	218.19
237.221	204.19
237.455	195.19
237.689	209.19
237.922	217.19
238.156	222.19
238.39	209.19
238.624	233.19
238.858	215.19
239.091	234.19
239.325	229.19
239.559	238.19
239.793	265.19
240.027	273.19
240.26	241.19
240.494	235.19
240.728	229.19
240.961	232.19
241.195	248.19
241.429	271.19
241.662	273.19
241.896	293.19
242.13	301.19
242.363	267.19
242.597	277.19
242.83	271.19
243.064	257.19
243.298	263.19
243.531	272.19
243.765	288.19
243.998	287.19
244.232	305.19
244.465	298.19
244.699	291.19
244.932	292.19
245.166	309.19
245.399	313.19
245.633	293.19
245.866	288.19
246.099	295.19
246.333	292.19
246.566	289.19
246.8	305.19
247.033	320.19
247.266	309.19
247.5	317.19
247.733	309.19
247.966	317.19
248.2	318.19
248.433	318.19
248.666	329.19
248.899	345.19
249.133	341.19
249.366	339.19
249.599	336.19
249.832	339.19
250.066	344.19
250.299	328.19
250.532	361.19
250.765	373.19
250.998	377.19
251.231	393.19
251.465	437.19
251.698	403.19
251.931	383.19
252.164	371.19
252.397	375.19
252.63	399.19
252.863	398.19
253.096	383.19
253.329	391.19
253.562	406.19
253.795	413.19
254.028	411.19
254.261	414.19
254.494	434.19
254.727	437.19
254.96	441.19
255.193	427.19
255.426	432.19
255.659	437.19
255.892	438.19
256.124	447.19
256.357	439.19
256.59	452.19
256.823	442.19
257.056	452.19
257.289	441.19
257.521	469.19
257.754	467.19
257.987	472.19
258.22	471.19
258.452	486.19
258.685	473.19
258.918	493.19
259.151	482.19
259.383	502.19
259.616	487.19
259.849	503.19
260.081	505.19
260.314	490.19
260.547	490.19
260.779	500.19
261.012	527.19
261.244	509.19
261.477	506.19
261.71	531.19
261.942	534.19
262.175	545.19
262.407	511.19
262.64	533.19
262.872	536.19
263.105	547.19
263.337	565.19
263.57	536.19
263.802	544.19
264.035	533.19
264.267	547.19
264.499	557.19
264.732	543.19
264.964	561.19
265.197	553.19
265.429	556.19
265.661	566.19
265.894	572.19
266.126	570.19
266.358	563.19
266.591	564.19
266.823	607.19
267.055	557.19
267.287	581.19
267.52	590.19
267.752	595.19
267.984	613.19
268.216	612.19
268.448	611.19
268.681	593.19
268.913	603.19
269.145	610.19
269.377	617.19
269.609	628.19
269.841	629.19
270.073	633.19
270.306	619.19
270.538	594.19
270.77	590.19
271.002	634.19
271.234	617.19
271.466	595.19
271.698	647.19
271.93	651.19
272.162	624.19
272.394	626.19
272.626	645.19
272.858	639.19
273.09	628.19
273.322	648.19
273.553	645.19
273.785	660.19
274.017	645.19
274.249	662.19
274.481	662.19
274.713	658.19
274.945	657.19
275.176	685.19
275.408	691.19
275.64	690.19
275.872	687.19
276.104	674.19
276.335	669.19
276.567	695.19
276.799	693.19
277.031	707.19
277.262	683.19
277.494	693.19
277.726	692.19
277.957	705.19
278.189	722.19
278.421	709.19
278.652	719.19
278.884	726.19
279.115	711.19
279.347	725.19
279.579	725.19
279.81	696.19
280.042	711.19
280.273	710.19
280.505	705.19
280.736	746.19
280.968	725.19
281.199	746.19
281.431	728.19
281.662	755.19
281.894	730.19
282.125	737.19
282.356	746.19
282.588	740.19
282.819	744.19
283.051	750.19
283.282	750.19
283.513	761.19
283.745	747.19
283.976	760.19
284.207	750.19
284.439	780.19
284.67	755.19
284.901	784.19
285.132	794.19
285.364	789.19
285.595	765.19
285.826	774.19
286.057	784.19
286.288	775.19
286.52	812.19
286.751	769.19
286.982	804.19
287.213	800.19
287.444	779.19
287.675	774.19
287.906	821.19
288.138	793.19
288.369	785.19
288.6	790.19
288.831	786.19
289.062	798.19
289.293	805.19
289.524	803.19
289.755	806.19
289.986	842.19
290.217	792.19
290.448	798.19
290.679	831.19
290.91	810.19
291.141	790.19
291.371	820.19
291.602	817.19
291.833	802.19
292.064	799.19
292.295	816.19
292.526	806.19
292.757	827.19
292.987	833.19
293.218	808.19
293.449	821.19
293.68	818.19
293.91	829.19
294.141	801.19
294.372	796.19
294.603	821.19
294.833	849.19
295.064	827.19
295.295	834.19
295.525	818.19
295.756	818.19
295.987	827.19
296.217	815.19
296.448	817.19
296.679	825.19
296.909	810.19
297.14	849.19
297.37	822.19
297.601	862.19
297.831	867.19
298.062	843.19
298.292	882.19
298.523	865.19
298.753	870.19
298.984	853.19
299.214	885.19
299.445	885.19
299.675	862.19
299.905	861.19
300.136	902.19
300.366	950.19
300.597	967.19
300.827	936.19
301.057	918.19
301.288	913.19
301.518	914.19
301.748	914.19
301.979	938.19
302.209	914.19
302.439	888.19
302.669	911.19
302.9	927.19
303.13	918.19
303.36	930.19
303.59	915.19
303.82	941.19
304.051	950.19
304.281	938.19
304.511	923.19
304.741	933.19
304.971	966.19
305.201	986.19
305.431	983.19
305.661	952.19
305.891	978.19
306.121	988.19
306.352	928.19
306.582	926.19
306.812	946.19
307.042	914.19
307.272	921.19
307.502	926.19
307.731	950.19
307.961	943.19
308.191	954.19
308.421	957.19
308.651	983.19
308.881	964.19
309.111	985.19
309.341	929.19
309.571	946.19
309.8	978.19
310.03	1032.19
310.26	1030.19
310.49	1022.19
310.72	985.19
310.949	979.19
311.179	983.19
311.409	996.19
311.639	991.19
311.868	985.19
312.098	1015.19
312.328	1032.19
312.557	977.19
312.787	1031.19
313.017	1020.19
313.246	1054.19
313.476	1058.19
313.706	1097.19
313.935	1040.19
314.165	1041.19
314.394	1049.19
314.624	1046.19
314.853	1050.19
315.083	1056.19
315.312	1071.19
315.542	1062.19
315.771	1071.19
316.001	1064.19
316.23	1086.19
316.46	1088.19
316.689	1081.19
316.919	1075.19
317.148	1101.19
317.377	1115.19
317.607	1091.19
317.836	1073.19
318.065	1113.19
318.295	1106.19
318.524	1126.19
318.753	1101.19
318.983	1091.19
319.212	1126.19
319.441	1126.19
319.67	1102.19
319.9	1151.19
320.129	1110.19
320.358	1151.19
320.587	1161.19
320.816	1154.19
321.046	1153.19
321.275	1199.19
321.504	1179.19
321.733	1181.19
321.962	1177.19
322.191	1163.19
322.42	1185.19
322.649	1176.19
322.878	1191.19
323.108	1186.19
323.337	1195.19
323.566	1184.19
323.795	1177.19
324.024	1205.19
324.253	1223.19
324.482	1229.19
324.71	1218.19
324.939	1231.19
325.168	1245.19
325.397	1238.19
325.626	1209.19
325.855	1213.19
326.084	1263.19
326.313	1243.19
326.542	1222.19
326.77	1285.19
326.999	1239.19
327.228	1267.19
327.457	1231.19
327.686	1257.19
327.914	1277.19
328.143	1290.19
328.372	1274.19
328.6	1267.19
328.829	1283.19
329.058	1310.19
329.287	1288.19
329.515	1273.19
329.744	1322.19
329.972	1275.19
330.201	1258.19
330.43	1315.19
330.658	1287.19
330.887	1292.19
331.115	1268.19
331.344	1319.19
331.572	1327.19
331.801	1348.19
332.03	1386.19
332.258	1354.19
332.486	1340.19
332.715	1328.19
332.943	1345.19
333.172	1343.19
333.4	1354.19
333.629	1386.19
333.857	1371.19
334.085	1401.19
334.314	1374.19
334.542	1397.19
334.771	1430.19
334.999	1398.19
335.227	1392.19
335.455	1423.19
335.684	1412.19
335.912	1439.19
336.14	1431.19
336.369	1418.19
336.597	1459.19
336.825	1464.19
337.053	1482.19
337.281	1451.19
337.51	1427.19
337.738	1428.19
337.966	1439.19
338.194	1451.19
338.422	1486.19
338.65	1437.19
338.878	1399.19
339.106	1453.19
339.334	1414.19
339.562	1447.19
339.79	1430.19
340.018	1403.19
340.246	1444.19
340.474	1391.19
340.702	1393.19
340.93	1423.19
341.158	1381.19
341.386	1453.19
341.614	1490.19
341.842	1434.19
342.07	1420.19
342.298	1395.19
342.526	1379.19
342.754	1410.19
342.981	1377.19
343.209	1424.19
343.437	1450.19
343.665	1445.19
343.893	1409.19
344.12	1430.19
344.348	1439.19
344.576	1457.19
344.804	1475.19
345.031	1462.19
345.259	1454.19
345.487	1424.19
345.714	1404.19
345.942	1482.19
346.17	1483.19
346.397	1439.19
346.625	1405.19
346.853	1387.19
347.08	1355.19
347.308	1374.19
347.535	1358.19
347.763	1382.19
347.99	1370.19
348.218	1358.19
348.445	1355.19
348.673	1371.19
348.9	1390.19
349.128	1363.19
349.355	1407.19
349.583	1375.19
349.81	1321.19
350.037	1322.19
350.265	1347.19
350.492	1352.19
350.72	1327.19
350.947	1343.19
351.174	1395.19
351.402	1429.19
351.629	1426.19
351.856	1415.19
352.083	1335.19
352.311	1395.19
352.538	1409.19
352.765	1441.19
352.992	1353.19
353.22	1283.19
353.447	1307.19
353.674	1322.19
353.901	1323.19
354.128	1329.19
354.355	1303.19
354.583	1326.19
354.81	1326.19
355.037	1313.19
355.264	1317.19
355.491	1296.19
355.718	1309.19
355.945	1311.19
356.172	1322.19
356.399	1317.19
356.626	1349.19
356.853	1387.19
357.08	1357.19
357.307	1353.19
357.534	1301.19
357.761	1331.19
357.988	1320.19
358.215	1313.19
358.441	1317.19
358.668	1334.19
358.895	1290.19
359.122	1317.19
359.349	1329.19
359.576	1346.19
359.802	1314.19
360.029	1339.19
360.256	1345.19
360.483	1318.19
360.709	1320.19
360.936	1367.19
361.163	1360.19
361.39	1368.19
361.616	1355.19
361.843	1370.19
362.07	1460.19
362.296	1367.19
362.523	1359.19
362.749	1336.19
362.976	1302.19
363.203	1346.19
363.429	1359.19
363.656	1299.19
363.882	1365.19
364.109	1365.19
364.335	1357.19
364.562	1328.19
364.788	1359.19
365.015	1326.19
365.241	1332.19
365.468	1328.19
365.694	1337.19
365.92	1319.19
366.147	1344.19
366.373	1325.19
366.599	1363.19
366.826	1318.19
367.052	1362.19
367.278	1362.19
367.505	1346.19
367.731	1342.19
367.957	1346.19
368.184	1320.19
368.41	1349.19
368.636	1391.19
368.862	1365.19
369.089	1373.19
369.315	1367.19
369.541	1349.19
369.767	1367.19
369.993	1378.19
370.219	1376.19
370.445	1397.19
370.672	1392.19
370.898	1371.19
371.124	1389.19
371.35	1379.19
371.576	1389.19
371.802	1359.19
372.028	1381.19
372.254	1387.19
372.48	1403.19
372.706	1384.19
372.932	1397.19
373.158	1403.19
373.384	1398.19
373.61	1393.19
373.835	1382.19
374.061	1391.19
374.287	1371.19
374.513	1376.19
374.739	1384.19
374.965	1379.19
375.191	1392.19
375.416	1401.19
375.642	1354.19
375.868	1405.19
376.094	1361.19
376.319	1391.19
376.545	1396.19
376.771	1389.19
376.997	1352.19
377.222	1354.19
377.448	1349.19
377.674	1375.19
377.899	1352.19
378.125	1329.19
378.35	1357.19
378.576	1366.19
378.802	1345.19
379.027	1303.19
379.253	1334.19
379.478	1352.19
379.704	1355.19
379.929	1322.19
380.155	1346.19
380.38	1330.19
380.606	1349.19
380.831	1329.19
381.057	1368.19
381.282	1348.19
381.507	1369.19
381.733	1373.19
381.958	1353.19
382.184	1368.19
382.409	1362.19
382.634	1392.19
382.86	1362.19
383.085	1362.19
383.31	1354.19
383.535	1389.19
383.761	1408.19
383.986	1378.19
384.211	1379.19
384.436	1432.19
384.662	1392.19
384.887	1433.19
385.112	1411.19
385.337	1407.19
385.562	1407.19
385.787	1464.19
386.013	1481.19
386.238	1432.19
386.463	1422.19
386.688	1454.19
386.913	1413.19
387.138	1455.19
387.363	1485.19
387.588	1459.19
387.813	1462.19
388.038	1451.19
388.263	1469.19
388.488	1463.19
388.713	1486.19
388.938	1463.19
389.163	1453.19
389.387	1468.19
389.612	1457.19
389.837	1433.19
390.062	1457.19
390.287	1494.19
390.512	1481.19
390.736	1507.19
390.961	1497.19
391.186	1467.19
391.411	1495.19
391.636	1467.19
391.86	1480.19
392.085	1470.19
392.31	1474.19
392.534	1496.19
392.759	1474.19
392.984	1472.19
393.208	1476.19
393.433	1524.19
393.658	1481.19
393.882	1510.19
394.107	1504.19
394.331	1505.19
394.556	1479.19
394.78	1465.19
395.005	1497.19
395.229	1493.19
395.454	1515.19
395.678	1515.19
395.903	1511.19
396.127	1495.19
396.352	1513.19
396.576	1491.19
396.801	1504.19
397.025	1545.19
397.249	1536.19
397.474	1562.19
397.698	1539.19
397.922	1558.19
398.147	1573.19
398.371	1594.19
398.595	1573.19
398.82	1607.19
399.044	1578.19
399.268	1612.19
399.492	1676.19
399.717	1678.19
399.941	1710.19
400.165	1673.19
400.389	1670.19
400.613	1693.19
400.837	1639.19
401.062	1639.19
401.286	1645.19
401.51	1641.19
401.734	1619.19
401.958	1612.19
402.182	1610.19
402.406	1627.19
402.63	1610.19
402.854	1608.19
403.078	1571.19
403.302	1604.19
403.526	1605.19
403.75	1578.19
403.974	1577.19
404.198	1589.19
404.422	1576.19
404.645	1609.19
404.869	1570.19
405.093	1628.19
405.317	1641.19
405.541	1655.19
405.765	1593.19
405.988	1656.19
406.212	1652.19
406.436	1634.19
406.66	1698.19
406.883	1679.19
407.107	1691.19
407.331	1681.19
407.555	1791.19
407.778	1739.19
408.002	1643.19
408.226	1697.19
408.449	1721.19
408.673	1672.19
408.896	1687.19
409.12	1710.19
409.344	1697.19
409.567	1662.19
409.791	1694.19
410.014	1707.19
410.238	1693.19
410.461	1648.19
410.685	1682.19
410.908	1642.19
411.132	1666.19
411.355	1599.19
411.578	1689.19
411.802	1654.19
412.025	1639.19
412.249	1641.19
412.472	1656.19
412.695	1636.19
412.919	1631.19
413.142	1599.19
413.365	1626.19
413.589	1639.19
413.812	1595.19
414.035	1616.19
414.258	1616.19
414.482	1575.19
414.705	1593.19
414.928	1616.19
415.151	1602.19
415.374	1591.19
415.597	1554.19
415.821	1562.19
416.044	1572.19
416.267	1566.19
416.49	1584.19
416.713	1570.19
416.936	1591.19
417.159	1538.19
417.382	1537.19
417.605	1546.19
417.828	1558.19
418.051	1530.19
418.274	1543.19
418.497	1523.19
418.72	1538.19
418.943	1537.19
419.166	1647.19
419.389	1717.19
419.611	1629.19
419.834	1616.19
420.057	1573.19
420.28	1579.19
420.503	1505.19
420.726	1517.19
420.948	1497.19
421.171	1524.19
421.394	1523.19
421.617	1539.19
421.839	1541.19
422.062	1536.19
422.285	1512.19
422.507	1551.19
422.73	1507.19
422.953	1543.19
423.175	1535.19
423.398	1592.19
423.621	1537.19
423.843	1526.19
424.066	1516.19
424.288	1557.19
424.511	1503.19
424.733	1510.19
424.956	1555.19
425.178	1539.19
425.401	1534.19
425.623	1552.19
425.846	1551.19
426.068	1535.19
426.291	1558.19
426.513	1565.19
426.735	1533.19
426.958	1515.19
427.18	1537.19
427.402	1558.19
427.625	1528.19
427.847	1522.19
428.069	1528.19
428.292	1537.19
428.514	1526.19
428.736	1535.19
428.958	1540.19
429.181	1515.19
429.403	1543.19
429.625	1544.19
429.847	1538.19
430.069	1521.19
430.292	1535.19
430.514	1519.19
430.736	1528.19
430.958	1522.19
431.18	1505.19
431.402	1522.19
431.624	1521.19
431.846	1491.19
432.068	1498.19
432.29	1530.19
432.512	1556.19
432.734	1538.19
432.956	1518.19
433.178	1551.19
433.4	1608.19
433.622	1598.19
433.844	1601.19
434.066	1581.19
434.287	1575.19
434.509	1563.19
434.731	1554.19
434.953	1526.19
435.175	1640.19
435.397	1636.19
435.618	1577.19
435.84	1535.19
436.062	1532.19
436.284	1560.19
436.505	1570.19
436.727	1560.19
436.949	1525.19
437.17	1560.19
437.392	1550.19
437.614	1523.19
437.835	1498.19
438.057	1519.19
438.278	1482.19
438.5	1501.19
438.721	1500.19
438.943	1501.19
439.165	1513.19
439.386	1525.19
439.608	1520.19
439.829	1509.19
440.05	1522.19
440.272	1542.19
440.493	1561.19
440.715	1553.19
440.936	1520.19
441.158	1538.19
441.379	1519.19
441.6	1602.19
441.822	1559.19
442.043	1559.19
442.264	1567.19
442.486	1559.19
442.707	1559.19
442.928	1536.19
443.149	1597.19
443.371	1586.19
443.592	1647.19
443.813	1623.19
444.034	1580.19
444.255	1553.19
444.476	1613.19
444.698	1647.19
444.919	1576.19
445.14	1737.19
445.361	1638.19
445.582	1616.19
445.803	1578.19
446.024	1516.19
446.245	1558.19
446.466	1545.19
446.687	1477.19
446.908	1502.19
447.129	1499.19
447.35	1478.19
447.571	1456.19
447.792	1435.19
448.013	1449.19
448.234	1443.19
448.455	1437.19
448.675	1446.19
448.896	1407.19
449.117	1391.19
449.338	1430.19
449.559	1386.19
449.779	1416.19
450	1405.19
450.221	1427.19
450.442	1389.19
450.662	1424.19
450.883	1409.19
451.104	1434.19
451.324	1443.19
451.545	1413.19
451.766	1399.19
451.986	1380.19
452.207	1338.19
452.428	1373.19
452.648	1394.19
452.869	1395.19
453.089	1381.19
453.31	1423.19
453.53	1360.19
453.751	1384.19
453.971	1402.19
454.192	1401.19
454.412	1396.19
454.633	1354.19
454.853	1396.19
455.073	1360.19
455.294	1380.19
455.514	1380.19
455.734	1430.19
455.955	1413.19
456.175	1422.19
456.395	1399.19
456.616	1360.19
456.836	1368.19
457.056	1385.19
457.276	1368.19
457.497	1426.19
457.717	1461.19
457.937	1413.19
458.157	1401.19
458.377	1409.19
458.598	1393.19
458.818	1406.19
459.038	1446.19
459.258	1453.19
459.478	1519.19
459.698	1617.19
459.918	1607.19
460.138	1590.19
460.358	1566.19
460.578	1605.19
460.798	1605.19
461.018	1603.19
461.238	1570.19
461.458	1552.19
461.678	1540.19
461.898	1586.19
462.118	1559.19
462.338	1591.19
462.558	1622.19
462.777	1651.19
462.997	1717.19
463.217	1708.19
463.437	1756.19
463.657	1727.19
463.876	1688.19
464.096	1643.19
464.316	1647.19
464.536	1617.19
464.755	1605.19
464.975	1586.19
465.195	1542.19
465.414	1532.19
465.634	1541.19
465.854	1552.19
466.073	1523.19
466.293	1496.19
466.512	1490.19
466.732	1452.19
466.951	1485.19
467.171	1468.19
467.391	1472.19
467.61	1487.19
467.829	1410.19
468.049	1469.19
468.268	1473.19
468.488	1493.19
468.707	1443.19
468.927	1501.19
469.146	1485.19
469.365	1499.19
469.585	1517.19
469.804	1462.19
470.023	1455.19
470.243	1473.19
470.462	1432.19
470.681	1453.19
470.901	1467.19
471.12	1477.19
471.339	1471.19
471.558	1478.19
471.777	1527.19
471.997	1512.19
472.216	1488.19
472.435	1484.19
472.654	1457.19
472.873	1475.19
473.092	1487.19
473.311	1485.19
473.53	1483.19
473.749	1496.19
473.968	1533.19
474.187	1522.19
474.406	1522.19
474.625	1476.19
474.844	1496.19
475.063	1518.19
475.282	1562.19
475.501	1551.19
475.72	1535.19
475.939	1555.19
476.158	1561.19
476.377	1592.19
476.596	1570.19
476.814	1572.19
477.033	1578.19
477.252	1645.19
477.471	1630.19
477.69	1601.19
477.908	1647.19
478.127	1669.19
478.346	1626.19
478.564	1727.19
478.783	1725.19
479.002	1792.19
479.22	1801.19
479.439	1775.19
479.658	1747.19
479.876	1720.19
480.095	1737.19
480.313	1750.19
480.532	1721.19
480.751	1728.19
480.969	1776.19
481.188	1730.19
481.406	1691.19
481.624	1737.19
481.843	1730.19
482.061	1758.19
482.28	1758.19
482.498	1795.19
482.717	1748.19
482.935	1769.19
483.153	1831.19
483.372	1838.19
483.59	1866.19
483.808	1837.19
484.027	1785.19
484.245	1840.19
484.463	1787.19
484.681	1807.19
484.9	1775.19
485.118	1790.19
485.336	1778.19
485.554	1795.19
485.772	1781.19
485.99	1823.19
486.209	1791.19
486.427	1790.19
486.645	1775.19
486.863	1833.19
487.081	1857.19
487.299	1837.19
487.517	1879.19
487.735	1822.19
487.953	1925.19
488.171	1890.19
488.389	1866.19
488.607	1845.19
488.825	1854.19
489.043	1828.19
489.261	1834.19
489.479	1799.19
489.696	1794.19
489.914	1826.19
490.132	1855.19
490.35	1829.19
490.568	1857.19
