Data from Ni(NO3)2@0.5M.TitratingCurve.Agarose3%dH2O.NegLispCup.LampEnergy10.LIBS07252019_HRD10591_18-00-10-565.txt Node
Date: Thu Jul 25 18:00:10 EDT 2019
User: cochatt
Spectrometer: HR+D1059
Trigger mode: 1
Integration Time (sec): 1.000000E-1
Scans to average: 1
Electric dark correction enabled: true
Nonlinearity correction enabled: false
Boxcar width: 0
XAxis mode: Wavelengths
Number of Pixels in Spectrum: 2048
>>>>>Begin Spectral Data<<<<<
223.165	-23.19
223.4	-23.19
223.635	-23.19
223.869	-19.19
224.104	-24.19
224.338	-11.19
224.573	-10.19
224.808	-0.19
225.042	-15.19
225.277	-19.19
225.511	5.81
225.746	0.81
225.98	12.81
226.215	16.81
226.449	17.81
226.683	24.81
226.918	15.81
227.152	27.81
227.387	40.81
227.621	33.81
227.856	46.81
228.09	43.81
228.324	53.81
228.559	59.81
228.793	68.81
229.027	81.81
229.262	98.81
229.496	99.81
229.73	96.81
229.964	104.81
230.199	121.81
230.433	122.81
230.667	119.81
230.901	113.81
231.136	120.81
231.37	110.81
231.604	127.81
231.838	129.81
232.072	144.81
232.306	121.81
232.541	141.81
232.775	116.81
233.009	133.81
233.243	125.81
233.477	119.81
233.711	128.81
233.945	124.81
234.179	121.81
234.413	107.81
234.647	129.81
234.881	134.81
235.115	114.81
235.349	123.81
235.583	121.81
235.817	133.81
236.051	117.81
236.285	132.81
236.519	136.81
236.753	120.81
236.987	131.81
237.221	133.81
237.455	136.81
237.689	120.81
237.922	132.81
238.156	127.81
238.39	119.81
238.624	120.81
238.858	135.81
239.091	119.81
239.325	128.81
239.559	133.81
239.793	131.81
240.027	144.81
240.26	139.81
240.494	111.81
240.728	128.81
240.961	146.81
241.195	151.81
241.429	133.81
241.662	139.81
241.896	143.81
242.13	151.81
242.363	143.81
242.597	149.81
242.83	142.81
243.064	132.81
243.298	138.81
243.531	152.81
243.765	145.81
243.998	160.81
244.232	157.81
244.465	151.81
244.699	145.81
244.932	145.81
245.166	144.81
245.399	159.81
245.633	146.81
245.866	153.81
246.099	137.81
246.333	144.81
246.566	140.81
246.8	150.81
247.033	165.81
247.266	168.81
247.5	166.81
247.733	150.81
247.966	152.81
248.2	175.81
248.433	148.81
248.666	175.81
248.899	171.81
249.133	160.81
249.366	190.81
249.599	163.81
249.832	173.81
250.066	189.81
250.299	178.81
250.532	168.81
250.765	169.81
250.998	171.81
251.231	187.81
251.465	187.81
251.698	178.81
251.931	190.81
252.164	193.81
252.397	192.81
252.63	197.81
252.863	193.81
253.096	199.81
253.329	195.81
253.562	180.81
253.795	199.81
254.028	196.81
254.261	189.81
254.494	192.81
254.727	200.81
254.96	201.81
255.193	200.81
255.426	178.81
255.659	193.81
255.892	208.81
256.124	191.81
256.357	185.81
256.59	213.81
256.823	199.81
257.056	212.81
257.289	201.81
257.521	206.81
257.754	215.81
257.987	227.81
258.22	207.81
258.452	213.81
258.685	225.81
258.918	213.81
259.151	226.81
259.383	219.81
259.616	206.81
259.849	207.81
260.081	228.81
260.314	210.81
260.547	212.81
260.779	213.81
261.012	223.81
261.244	215.81
261.477	231.81
261.71	231.81
261.942	229.81
262.175	226.81
262.407	225.81
262.64	225.81
262.872	212.81
263.105	235.81
263.337	209.81
263.57	231.81
263.802	228.81
264.035	231.81
264.267	207.81
264.499	241.81
264.732	237.81
264.964	234.81
265.197	238.81
265.429	251.81
265.661	248.81
265.894	232.81
266.126	243.81
266.358	244.81
266.591	257.81
266.823	249.81
267.055	253.81
267.287	254.81
267.52	255.81
267.752	262.81
267.984	257.81
268.216	247.81
268.448	253.81
268.681	259.81
268.913	255.81
269.145	263.81
269.377	250.81
269.609	261.81
269.841	249.81
270.073	259.81
270.306	266.81
270.538	266.81
270.77	253.81
271.002	249.81
271.234	267.81
271.466	264.81
271.698	263.81
271.93	271.81
272.162	269.81
272.394	263.81
272.626	273.81
272.858	253.81
273.09	259.81
273.322	268.81
273.553	271.81
273.785	287.81
274.017	273.81
274.249	286.81
274.481	262.81
274.713	267.81
274.945	270.81
275.176	289.81
275.408	268.81
275.64	288.81
275.872	279.81
276.104	276.81
276.335	277.81
276.567	280.81
276.799	292.81
277.031	290.81
277.262	280.81
277.494	291.81
277.726	298.81
277.957	295.81
278.189	291.81
278.421	279.81
278.652	304.81
278.884	319.81
279.115	293.81
279.347	290.81
279.579	296.81
279.81	287.81
280.042	269.81
280.273	316.81
280.505	309.81
280.736	293.81
280.968	304.81
281.199	319.81
281.431	302.81
281.662	297.81
281.894	320.81
282.125	320.81
282.356	322.81
282.588	324.81
282.819	309.81
283.051	320.81
283.282	305.81
283.513	323.81
283.745	315.81
283.976	323.81
284.207	310.81
284.439	321.81
284.67	313.81
284.901	329.81
285.132	323.81
285.364	317.81
285.595	316.81
285.826	314.81
286.057	334.81
286.288	315.81
286.52	323.81
286.751	336.81
286.982	329.81
287.213	343.81
287.444	330.81
287.675	327.81
287.906	340.81
288.138	330.81
288.369	349.81
288.6	348.81
288.831	321.81
289.062	324.81
289.293	325.81
289.524	340.81
289.755	335.81
289.986	344.81
290.217	346.81
290.448	333.81
290.679	339.81
290.91	335.81
291.141	350.81
291.371	351.81
291.602	355.81
291.833	339.81
292.064	335.81
292.295	347.81
292.526	349.81
292.757	336.81
292.987	331.81
293.218	347.81
293.449	368.81
293.68	354.81
293.91	337.81
294.141	352.81
294.372	346.81
294.603	341.81
294.833	359.81
295.064	368.81
295.295	358.81
295.525	351.81
295.756	343.81
295.987	365.81
296.217	372.81
296.448	362.81
296.679	358.81
296.909	361.81
297.14	361.81
297.37	359.81
297.601	351.81
297.831	352.81
298.062	354.81
298.292	347.81
298.523	359.81
298.753	378.81
298.984	359.81
299.214	387.81
299.445	379.81
299.675	365.81
299.905	371.81
300.136	382.81
300.366	391.81
300.597	383.81
300.827	383.81
301.057	381.81
301.288	387.81
301.518	409.81
301.748	395.81
301.979	367.81
302.209	395.81
302.439	389.81
302.669	392.81
302.9	379.81
303.13	374.81
303.36	410.81
303.59	396.81
303.82	404.81
304.051	405.81
304.281	389.81
304.511	383.81
304.741	399.81
304.971	395.81
305.201	418.81
305.431	400.81
305.661	395.81
305.891	391.81
306.121	397.81
306.352	397.81
306.582	397.81
306.812	383.81
307.042	391.81
307.272	383.81
307.502	380.81
307.731	378.81
307.961	394.81
308.191	381.81
308.421	386.81
308.651	395.81
308.881	368.81
309.111	375.81
309.341	379.81
309.571	407.81
309.8	387.81
310.03	388.81
310.26	431.81
310.49	403.81
310.72	383.81
310.949	399.81
311.179	402.81
311.409	416.81
311.639	406.81
311.868	413.81
312.098	411.81
312.328	408.81
312.557	416.81
312.787	435.81
313.017	415.81
313.246	424.81
313.476	420.81
313.706	439.81
313.935	419.81
314.165	415.81
314.394	422.81
314.624	433.81
314.853	425.81
315.083	430.81
315.312	419.81
315.542	410.81
315.771	425.81
316.001	439.81
316.23	415.81
316.46	442.81
316.689	430.81
316.919	433.81
317.148	392.81
317.377	432.81
317.607	441.81
317.836	405.81
318.065	430.81
318.295	423.81
318.524	432.81
318.753	417.81
318.983	407.81
319.212	408.81
319.441	442.81
319.67	416.81
319.9	432.81
320.129	422.81
320.358	416.81
320.587	460.81
320.816	436.81
321.046	443.81
321.275	421.81
321.504	432.81
321.733	427.81
321.962	424.81
322.191	416.81
322.42	455.81
322.649	435.81
322.878	416.81
323.108	421.81
323.337	437.81
323.566	440.81
323.795	457.81
324.024	462.81
324.253	466.81
324.482	445.81
324.71	477.81
324.939	447.81
325.168	443.81
325.397	461.81
325.626	440.81
325.855	443.81
326.084	469.81
326.313	418.81
326.542	479.81
326.77	472.81
326.999	475.81
327.228	476.81
327.457	455.81
327.686	471.81
327.914	469.81
328.143	485.81
328.372	460.81
328.6	478.81
328.829	467.81
329.058	473.81
329.287	477.81
329.515	476.81
329.744	460.81
329.972	472.81
330.201	467.81
330.43	488.81
330.658	491.81
330.887	487.81
331.115	494.81
331.344	480.81
331.572	493.81
331.801	492.81
332.03	517.81
332.258	529.81
332.486	536.81
332.715	522.81
332.943	527.81
333.172	560.81
333.4	582.81
333.629	583.81
333.857	581.81
334.085	583.81
334.314	593.81
334.542	580.81
334.771	577.81
334.999	588.81
335.227	589.81
335.455	559.81
335.684	545.81
335.912	575.81
336.14	596.81
336.369	560.81
336.597	589.81
336.825	561.81
337.053	572.81
337.281	551.81
337.51	565.81
337.738	565.81
337.966	554.81
338.194	540.81
338.422	519.81
338.65	539.81
338.878	525.81
339.106	535.81
339.334	523.81
339.562	504.81
339.79	487.81
340.018	493.81
340.246	519.81
340.474	495.81
340.702	489.81
340.93	511.81
341.158	505.81
341.386	537.81
341.614	534.81
341.842	523.81
342.07	509.81
342.298	519.81
342.526	503.81
342.754	520.81
342.981	503.81
343.209	525.81
343.437	541.81
343.665	548.81
343.893	560.81
344.12	593.81
344.348	568.81
344.576	540.81
344.804	553.81
345.031	575.81
345.259	521.81
345.487	512.81
345.714	510.81
345.942	518.81
346.17	530.81
346.397	523.81
346.625	483.81
346.853	481.81
347.08	489.81
347.308	511.81
347.535	503.81
347.763	504.81
347.99	461.81
348.218	486.81
348.445	490.81
348.673	482.81
348.9	476.81
349.128	479.81
349.355	483.81
349.583	487.81
349.81	483.81
350.037	474.81
350.265	472.81
350.492	478.81
350.72	463.81
350.947	487.81
351.174	491.81
351.402	484.81
351.629	492.81
351.856	497.81
352.083	460.81
352.311	484.81
352.538	504.81
352.765	494.81
352.992	484.81
353.22	454.81
353.447	447.81
353.674	464.81
353.901	480.81
354.128	469.81
354.355	459.81
354.583	463.81
354.81	463.81
355.037	456.81
355.264	476.81
355.491	472.81
355.718	492.81
355.945	485.81
356.172	467.81
356.399	476.81
356.626	492.81
356.853	486.81
357.08	479.81
357.307	479.81
357.534	485.81
357.761	486.81
357.988	487.81
358.215	472.81
358.441	462.81
358.668	490.81
358.895	471.81
359.122	454.81
359.349	485.81
359.576	475.81
359.802	490.81
360.029	485.81
360.256	462.81
360.483	473.81
360.709	482.81
360.936	470.81
361.163	468.81
361.39	489.81
361.616	468.81
361.843	484.81
362.07	503.81
362.296	496.81
362.523	459.81
362.749	473.81
362.976	471.81
363.203	487.81
363.429	489.81
363.656	477.81
363.882	502.81
364.109	469.81
364.335	479.81
364.562	492.81
364.788	463.81
365.015	487.81
365.241	475.81
365.468	486.81
365.694	462.81
365.92	460.81
366.147	488.81
366.373	485.81
366.599	483.81
366.826	476.81
367.052	472.81
367.278	463.81
367.505	508.81
367.731	496.81
367.957	470.81
368.184	481.81
368.41	481.81
368.636	490.81
368.862	486.81
369.089	496.81
369.315	495.81
369.541	507.81
369.767	500.81
369.993	495.81
370.219	474.81
370.445	529.81
370.672	499.81
370.898	503.81
371.124	506.81
371.35	509.81
371.576	543.81
371.802	504.81
372.028	519.81
372.254	513.81
372.48	518.81
372.706	527.81
372.932	529.81
373.158	530.81
373.384	527.81
373.61	500.81
373.835	507.81
374.061	520.81
374.287	523.81
374.513	533.81
374.739	533.81
374.965	538.81
375.191	573.81
375.416	543.81
375.642	523.81
375.868	549.81
376.094	522.81
376.319	539.81
376.545	537.81
376.771	523.81
376.997	521.81
377.222	507.81
377.448	533.81
377.674	512.81
377.899	497.81
378.125	484.81
378.35	523.81
378.576	515.81
378.802	512.81
379.027	513.81
379.253	518.81
379.478	496.81
379.704	516.81
379.929	513.81
380.155	490.81
380.38	503.81
380.606	517.81
380.831	511.81
381.057	512.81
381.282	530.81
381.507	520.81
381.733	519.81
381.958	520.81
382.184	511.81
382.409	531.81
382.634	549.81
382.86	567.81
383.085	561.81
383.31	528.81
383.535	576.81
383.761	556.81
383.986	553.81
384.211	575.81
384.436	595.81
384.662	571.81
384.887	584.81
385.112	592.81
385.337	600.81
385.562	580.81
385.787	613.81
386.013	620.81
386.238	595.81
386.463	587.81
386.688	606.81
386.913	576.81
387.138	605.81
387.363	597.81
387.588	600.81
387.813	619.81
388.038	601.81
388.263	612.81
388.488	605.81
388.713	616.81
388.938	598.81
389.163	607.81
389.387	613.81
389.612	614.81
389.837	603.81
390.062	603.81
390.287	576.81
390.512	624.81
390.736	597.81
390.961	624.81
391.186	611.81
391.411	664.81
391.636	655.81
391.86	657.81
392.085	676.81
392.31	673.81
392.534	648.81
392.759	653.81
392.984	631.81
393.208	645.81
393.433	619.81
393.658	621.81
393.882	625.81
394.107	639.81
394.331	615.81
394.556	620.81
394.78	659.81
395.005	673.81
395.229	675.81
395.454	640.81
395.678	667.81
395.903	677.81
396.127	657.81
396.352	648.81
396.576	666.81
396.801	679.81
397.025	685.81
397.249	660.81
397.474	669.81
397.698	665.81
397.922	672.81
398.147	672.81
398.371	713.81
398.595	729.81
398.82	739.81
399.044	781.81
399.268	818.81
399.492	911.81
399.717	981.81
399.941	973.81
400.165	935.81
400.389	873.81
400.613	826.81
400.837	789.81
401.062	761.81
401.286	751.81
401.51	725.81
401.734	731.81
401.958	718.81
402.182	756.81
402.406	764.81
402.63	736.81
402.854	761.81
403.078	743.81
403.302	777.81
403.526	822.81
403.75	789.81
403.974	803.81
404.198	796.81
404.422	793.81
404.645	780.81
404.869	781.81
405.093	815.81
405.317	803.81
405.541	779.81
405.765	760.81
405.988	827.81
406.212	806.81
406.436	780.81
406.66	805.81
406.883	816.81
407.107	865.81
407.331	867.81
407.555	916.81
407.778	896.81
408.002	876.81
408.226	870.81
408.449	877.81
408.673	865.81
408.896	828.81
409.12	825.81
409.344	806.81
409.567	805.81
409.791	819.81
410.014	819.81
410.238	780.81
410.461	782.81
410.685	785.81
410.908	777.81
411.132	780.81
411.355	769.81
411.578	781.81
411.802	776.81
412.025	775.81
412.249	797.81
412.472	791.81
412.695	765.81
412.919	767.81
413.142	726.81
413.365	756.81
413.589	760.81
413.812	750.81
414.035	735.81
414.258	737.81
414.482	736.81
414.705	732.81
414.928	751.81
415.151	764.81
415.374	725.81
415.597	764.81
415.821	728.81
416.044	731.81
416.267	717.81
416.49	720.81
416.713	706.81
416.936	726.81
417.159	717.81
417.382	740.81
417.605	713.81
417.828	727.81
418.051	724.81
418.274	754.81
418.497	719.81
418.72	712.81
418.943	725.81
419.166	776.81
419.389	835.81
419.611	793.81
419.834	783.81
420.057	789.81
420.28	751.81
420.503	726.81
420.726	715.81
420.948	712.81
421.171	723.81
421.394	718.81
421.617	704.81
421.839	728.81
422.062	729.81
422.285	743.81
422.507	732.81
422.73	731.81
422.953	714.81
423.175	744.81
423.398	739.81
423.621	736.81
423.843	737.81
424.066	732.81
424.288	741.81
424.511	737.81
424.733	735.81
424.956	721.81
425.178	740.81
425.401	717.81
425.623	718.81
425.846	693.81
426.068	693.81
426.291	705.81
426.513	723.81
426.735	729.81
426.958	718.81
427.18	703.81
427.402	681.81
427.625	716.81
427.847	672.81
428.069	662.81
428.292	668.81
428.514	683.81
428.736	667.81
428.958	668.81
429.181	672.81
429.403	664.81
429.625	653.81
429.847	645.81
430.069	682.81
430.292	656.81
430.514	633.81
430.736	673.81
430.958	658.81
431.18	656.81
431.402	663.81
431.624	673.81
431.846	672.81
432.068	648.81
432.29	660.81
432.512	686.81
432.734	671.81
432.956	659.81
433.178	686.81
433.4	682.81
433.622	701.81
433.844	695.81
434.066	696.81
434.287	686.81
434.509	708.81
434.731	714.81
434.953	737.81
435.175	725.81
435.397	720.81
435.618	696.81
435.84	682.81
436.062	671.81
436.284	698.81
436.505	687.81
436.727	682.81
436.949	683.81
437.17	685.81
437.392	667.81
437.614	660.81
437.835	655.81
438.057	659.81
438.278	633.81
438.5	652.81
438.721	654.81
438.943	663.81
439.165	667.81
439.386	652.81
439.608	675.81
439.829	671.81
440.05	650.81
440.272	697.81
440.493	685.81
440.715	687.81
440.936	696.81
441.158	682.81
441.379	706.81
441.6	740.81
441.822	764.81
442.043	720.81
442.264	692.81
442.486	721.81
442.707	715.81
442.928	720.81
443.149	722.81
443.371	715.81
443.592	730.81
443.813	756.81
444.034	756.81
444.255	760.81
444.476	792.81
444.698	802.81
444.919	819.81
445.14	883.81
445.361	824.81
445.582	766.81
445.803	729.81
446.024	701.81
446.245	713.81
446.466	693.81
446.687	659.81
446.908	680.81
447.129	669.81
447.35	654.81
447.571	661.81
447.792	633.81
448.013	644.81
448.234	647.81
448.455	647.81
448.675	649.81
448.896	613.81
449.117	615.81
449.338	621.81
449.559	616.81
449.779	601.81
450	627.81
450.221	605.81
450.442	613.81
450.662	639.81
450.883	605.81
451.104	642.81
451.324	609.81
451.545	600.81
451.766	620.81
451.986	604.81
452.207	608.81
452.428	602.81
452.648	596.81
452.869	624.81
453.089	598.81
453.31	591.81
453.53	600.81
453.751	567.81
453.971	617.81
454.192	605.81
454.412	600.81
454.633	597.81
454.853	616.81
455.073	579.81
455.294	599.81
455.514	573.81
455.734	584.81
455.955	586.81
456.175	597.81
456.395	604.81
456.616	571.81
456.836	583.81
457.056	583.81
457.276	563.81
457.497	593.81
457.717	565.81
457.937	609.81
458.157	611.81
458.377	585.81
458.598	604.81
458.818	639.81
459.038	637.81
459.258	679.81
459.478	661.81
459.698	709.81
459.918	705.81
460.138	705.81
460.358	731.81
460.578	735.81
460.798	753.81
461.018	760.81
461.238	775.81
461.458	760.81
461.678	738.81
461.898	755.81
462.118	765.81
462.338	812.81
462.558	829.81
462.777	852.81
462.997	899.81
463.217	919.81
463.437	931.81
463.657	889.81
463.876	850.81
464.096	829.81
464.316	855.81
464.536	848.81
464.755	812.81
464.975	810.81
465.195	769.81
465.414	742.81
465.634	697.81
465.854	684.81
466.073	681.81
466.293	676.81
466.512	647.81
466.732	659.81
466.951	667.81
467.171	657.81
467.391	649.81
467.61	648.81
467.829	642.81
468.049	634.81
468.268	610.81
468.488	627.81
468.707	627.81
468.927	631.81
469.146	619.81
469.365	661.81
469.585	624.81
469.804	631.81
470.023	665.81
470.243	650.81
470.462	653.81
470.681	668.81
470.901	647.81
471.12	645.81
471.339	631.81
471.558	641.81
471.777	628.81
471.997	632.81
472.216	620.81
472.435	614.81
472.654	617.81
472.873	628.81
473.092	604.81
473.311	609.81
473.53	623.81
473.749	622.81
473.968	608.81
474.187	606.81
474.406	604.81
474.625	600.81
474.844	636.81
475.063	632.81
475.282	620.81
475.501	621.81
475.72	640.81
475.939	649.81
476.158	612.81
476.377	632.81
476.596	617.81
476.814	629.81
477.033	661.81
477.252	644.81
477.471	687.81
477.69	682.81
477.908	701.81
478.127	720.81
478.346	711.81
478.564	741.81
478.783	726.81
479.002	753.81
479.22	747.81
479.439	771.81
479.658	728.81
479.876	727.81
480.095	739.81
480.313	767.81
480.532	791.81
480.751	775.81
480.969	727.81
481.188	720.81
481.406	689.81
481.624	693.81
481.843	726.81
482.061	706.81
482.28	701.81
482.498	689.81
482.717	694.81
482.935	716.81
483.153	684.81
483.372	720.81
483.59	727.81
483.808	726.81
484.027	685.81
484.245	706.81
484.463	708.81
484.681	718.81
484.9	735.81
485.118	735.81
485.336	717.81
485.554	720.81
485.772	735.81
485.99	712.81
486.209	725.81
486.427	742.81
486.645	701.81
486.863	717.81
487.081	736.81
487.299	745.81
487.517	729.81
487.735	716.81
487.953	733.81
488.171	723.81
488.389	726.81
488.607	731.81
488.825	718.81
489.043	690.81
489.261	719.81
489.479	705.81
489.696	725.81
489.914	701.81
490.132	721.81
490.35	728.81
490.568	731.81
490.786	748.81
491.003	715.81
491.221	741.81
491.439	740.81
491.657	739.81
491.874	721.81
492.092	768.81
492.31	757.81
492.527	736.81
492.745	763.81
492.963	775.81
493.18	760.81
493.398	749.81
493.615	787.81
493.833	771.81
494.05	764.81
494.268	759.81
494.485	763.81
494.703	760.81
494.92	738.81
495.138	772.81
495.355	783.81
495.573	790.81
495.79	791.81
496.008	792.81
496.225	805.81
496.442	785.81
496.66	828.81
496.877	825.81
497.094	848.81
497.312	864.81
497.529	867.81
497.746	877.81
497.963	935.81
498.181	956.81
498.398	975.81
498.615	972.81
498.832	1070.81
499.049	1109.81
499.267	1166.81
499.484	1246.81
499.701	1360.81
499.918	1482.81
500.135	1605.81
500.352	1682.81
500.569	1749.81
500.786	1697.81
501.003	1640.81
501.22	1545.81
501.437	1428.81
