Data from Ni(NO3)2Standard.Agarose3%.GreenCap.LampEnergy5.5.E.O_HRD10591_14-39-55-187.txt Node
Date: Mon Jul 22 14:39:55 EDT 2019
User: cochatt
Spectrometer: HR+D1059
Trigger mode: 1
Integration Time (sec): 1.000000E-1
Scans to average: 1
Electric dark correction enabled: true
Nonlinearity correction enabled: false
Boxcar width: 0
XAxis mode: Wavelengths
Number of Pixels in Spectrum: 2048
>>>>>Begin Spectral Data<<<<<
223.165	-25.25
223.4	-25.25
223.635	-25.25
223.869	-21.25
224.104	-16.25
224.338	-15.25
224.573	-12.25
224.808	1.75
225.042	-1.25
225.277	6.75
225.511	5.75
225.746	-3.25
225.98	-0.25
226.215	4.75
226.449	6.75
226.683	20.75
226.918	23.75
227.152	24.75
227.387	28.75
227.621	31.75
227.856	42.75
228.09	30.75
228.324	51.75
228.559	47.75
228.793	54.75
229.027	56.75
229.262	67.75
229.496	64.75
229.73	69.75
229.964	88.75
230.199	66.75
230.433	72.75
230.667	73.75
230.901	88.75
231.136	80.75
231.37	77.75
231.604	70.75
231.838	67.75
232.072	77.75
232.306	74.75
232.541	75.75
232.775	76.75
233.009	93.75
233.243	67.75
233.477	83.75
233.711	71.75
233.945	88.75
234.179	78.75
234.413	83.75
234.647	70.75
234.881	77.75
235.115	76.75
235.349	70.75
235.583	81.75
235.817	71.75
236.051	64.75
236.285	78.75
236.519	73.75
236.753	69.75
236.987	85.75
237.221	75.75
237.455	70.75
237.689	92.75
237.922	81.75
238.156	89.75
238.39	68.75
238.624	65.75
238.858	76.75
239.091	88.75
239.325	78.75
239.559	69.75
239.793	81.75
240.027	78.75
240.26	63.75
240.494	69.75
240.728	66.75
240.961	83.75
241.195	72.75
241.429	77.75
241.662	69.75
241.896	78.75
242.13	78.75
242.363	70.75
242.597	74.75
242.83	67.75
243.064	71.75
243.298	74.75
243.531	74.75
243.765	65.75
243.998	82.75
244.232	69.75
244.465	66.75
244.699	74.75
244.932	71.75
245.166	84.75
245.399	81.75
245.633	68.75
245.866	83.75
246.099	84.75
246.333	85.75
246.566	80.75
246.8	76.75
247.033	52.75
247.266	80.75
247.5	85.75
247.733	70.75
247.966	78.75
248.2	63.75
248.433	75.75
248.666	78.75
248.899	80.75
249.133	64.75
249.366	67.75
249.599	62.75
249.832	66.75
250.066	70.75
250.299	57.75
250.532	83.75
250.765	69.75
250.998	81.75
251.231	62.75
251.465	79.75
251.698	80.75
251.931	87.75
252.164	84.75
252.397	81.75
252.63	73.75
252.863	81.75
253.096	80.75
253.329	85.75
253.562	78.75
253.795	77.75
254.028	71.75
254.261	72.75
254.494	82.75
254.727	63.75
254.96	82.75
255.193	75.75
255.426	78.75
255.659	80.75
255.892	80.75
256.124	66.75
256.357	80.75
256.59	89.75
256.823	69.75
257.056	69.75
257.289	79.75
257.521	79.75
257.754	79.75
257.987	68.75
258.22	71.75
258.452	76.75
258.685	73.75
258.918	79.75
259.151	75.75
259.383	87.75
259.616	69.75
259.849	77.75
260.081	78.75
260.314	82.75
260.547	84.75
260.779	67.75
261.012	82.75
261.244	79.75
261.477	83.75
261.71	80.75
261.942	82.75
262.175	70.75
262.407	76.75
262.64	71.75
262.872	78.75
263.105	78.75
263.337	80.75
263.57	86.75
263.802	76.75
264.035	81.75
264.267	75.75
264.499	86.75
264.732	79.75
264.964	74.75
265.197	64.75
265.429	78.75
265.661	79.75
265.894	69.75
266.126	93.75
266.358	78.75
266.591	81.75
266.823	78.75
267.055	89.75
267.287	80.75
267.52	80.75
267.752	96.75
267.984	81.75
268.216	84.75
268.448	77.75
268.681	72.75
268.913	75.75
269.145	72.75
269.377	74.75
269.609	92.75
269.841	83.75
270.073	83.75
270.306	78.75
270.538	87.75
270.77	78.75
271.002	79.75
271.234	80.75
271.466	77.75
271.698	76.75
271.93	94.75
272.162	79.75
272.394	78.75
272.626	80.75
272.858	72.75
273.09	69.75
273.322	75.75
273.553	86.75
273.785	77.75
274.017	82.75
274.249	70.75
274.481	83.75
274.713	80.75
274.945	84.75
275.176	79.75
275.408	95.75
275.64	78.75
275.872	81.75
276.104	72.75
276.335	83.75
276.567	81.75
276.799	76.75
277.031	87.75
277.262	97.75
277.494	104.75
277.726	82.75
277.957	81.75
278.189	75.75
278.421	87.75
278.652	74.75
278.884	86.75
279.115	71.75
279.347	76.75
279.579	93.75
279.81	95.75
280.042	70.75
280.273	71.75
280.505	102.75
280.736	87.75
280.968	78.75
281.199	67.75
281.431	86.75
281.662	80.75
281.894	90.75
282.125	77.75
282.356	63.75
282.588	85.75
282.819	86.75
283.051	80.75
283.282	79.75
283.513	75.75
283.745	85.75
283.976	74.75
284.207	68.75
284.439	86.75
284.67	88.75
284.901	78.75
285.132	73.75
285.364	76.75
285.595	86.75
285.826	68.75
286.057	83.75
286.288	52.75
286.52	75.75
286.751	78.75
286.982	79.75
287.213	70.75
287.444	85.75
287.675	70.75
287.906	86.75
288.138	79.75
288.369	74.75
288.6	77.75
288.831	87.75
289.062	81.75
289.293	72.75
289.524	80.75
289.755	68.75
289.986	83.75
290.217	79.75
290.448	83.75
290.679	88.75
290.91	85.75
291.141	89.75
291.371	88.75
291.602	86.75
291.833	75.75
292.064	85.75
292.295	83.75
292.526	72.75
292.757	94.75
292.987	80.75
293.218	77.75
293.449	80.75
293.68	89.75
293.91	84.75
294.141	82.75
294.372	63.75
294.603	88.75
294.833	85.75
295.064	92.75
295.295	88.75
295.525	78.75
295.756	84.75
295.987	79.75
296.217	73.75
296.448	72.75
296.679	83.75
296.909	92.75
297.14	92.75
297.37	101.75
297.601	81.75
297.831	81.75
298.062	89.75
298.292	70.75
298.523	74.75
298.753	83.75
298.984	78.75
299.214	78.75
299.445	80.75
299.675	72.75
299.905	86.75
300.136	78.75
300.366	86.75
300.597	85.75
300.827	89.75
301.057	85.75
301.288	88.75
301.518	73.75
301.748	82.75
301.979	82.75
302.209	84.75
302.439	69.75
302.669	74.75
302.9	76.75
303.13	70.75
303.36	89.75
303.59	78.75
303.82	84.75
304.051	92.75
304.281	75.75
304.511	75.75
304.741	98.75
304.971	81.75
305.201	85.75
305.431	94.75
305.661	83.75
305.891	75.75
306.121	86.75
306.352	95.75
306.582	86.75
306.812	82.75
307.042	89.75
307.272	79.75
307.502	80.75
307.731	87.75
307.961	90.75
308.191	84.75
308.421	84.75
308.651	95.75
308.881	90.75
309.111	83.75
309.341	85.75
309.571	82.75
309.8	84.75
310.03	77.75
310.26	82.75
310.49	83.75
310.72	82.75
310.949	72.75
311.179	73.75
311.409	77.75
311.639	103.75
311.868	97.75
312.098	78.75
312.328	80.75
312.557	90.75
312.787	77.75
313.017	71.75
313.246	93.75
313.476	90.75
313.706	89.75
313.935	96.75
314.165	76.75
314.394	95.75
314.624	82.75
314.853	85.75
315.083	78.75
315.312	80.75
315.542	82.75
315.771	77.75
316.001	79.75
316.23	100.75
316.46	83.75
316.689	92.75
316.919	85.75
317.148	93.75
317.377	85.75
317.607	95.75
317.836	78.75
318.065	85.75
318.295	89.75
318.524	86.75
318.753	74.75
318.983	73.75
319.212	85.75
319.441	83.75
319.67	90.75
319.9	72.75
320.129	67.75
320.358	96.75
320.587	81.75
320.816	93.75
321.046	82.75
321.275	77.75
321.504	76.75
321.733	79.75
321.962	80.75
322.191	89.75
322.42	88.75
322.649	83.75
322.878	84.75
323.108	77.75
323.337	93.75
323.566	71.75
323.795	85.75
324.024	82.75
324.253	83.75
324.482	87.75
324.71	69.75
324.939	81.75
325.168	71.75
325.397	79.75
325.626	77.75
325.855	73.75
326.084	92.75
326.313	76.75
326.542	85.75
326.77	78.75
326.999	75.75
327.228	89.75
327.457	89.75
327.686	97.75
327.914	79.75
328.143	77.75
328.372	83.75
328.6	64.75
328.829	88.75
329.058	80.75
329.287	72.75
329.515	82.75
329.744	71.75
329.972	92.75
330.201	80.75
330.43	84.75
330.658	71.75
330.887	81.75
331.115	80.75
331.344	82.75
331.572	85.75
331.801	85.75
332.03	85.75
332.258	79.75
332.486	80.75
332.715	83.75
332.943	82.75
333.172	96.75
333.4	79.75
333.629	89.75
333.857	84.75
334.085	79.75
334.314	86.75
334.542	89.75
334.771	89.75
334.999	80.75
335.227	90.75
335.455	89.75
335.684	78.75
335.912	89.75
336.14	85.75
336.369	87.75
336.597	94.75
336.825	89.75
337.053	81.75
337.281	78.75
337.51	81.75
337.738	76.75
337.966	73.75
338.194	81.75
338.422	87.75
338.65	87.75
338.878	109.75
339.106	82.75
339.334	70.75
339.562	72.75
339.79	95.75
340.018	90.75
340.246	84.75
340.474	74.75
340.702	77.75
340.93	95.75
341.158	71.75
341.386	87.75
341.614	86.75
341.842	80.75
342.07	95.75
342.298	92.75
342.526	84.75
342.754	77.75
342.981	88.75
343.209	65.75
343.437	87.75
343.665	69.75
343.893	76.75
344.12	93.75
344.348	80.75
344.576	82.75
344.804	87.75
345.031	81.75
345.259	88.75
345.487	96.75
345.714	79.75
345.942	82.75
346.17	89.75
346.397	85.75
346.625	81.75
346.853	89.75
347.08	78.75
347.308	76.75
347.535	76.75
347.763	84.75
347.99	93.75
348.218	94.75
348.445	85.75
348.673	84.75
348.9	81.75
349.128	87.75
349.355	81.75
349.583	81.75
349.81	86.75
350.037	83.75
350.265	82.75
350.492	74.75
350.72	89.75
350.947	79.75
351.174	89.75
351.402	83.75
351.629	84.75
351.856	85.75
352.083	93.75
352.311	92.75
352.538	78.75
352.765	83.75
352.992	92.75
353.22	84.75
353.447	58.75
353.674	81.75
353.901	76.75
354.128	79.75
354.355	92.75
354.583	89.75
354.81	78.75
355.037	73.75
355.264	77.75
355.491	72.75
355.718	94.75
355.945	89.75
356.172	95.75
356.399	87.75
356.626	81.75
356.853	90.75
357.08	78.75
357.307	93.75
357.534	86.75
357.761	70.75
357.988	75.75
358.215	80.75
358.441	81.75
358.668	87.75
358.895	71.75
359.122	89.75
359.349	86.75
359.576	80.75
359.802	73.75
360.029	85.75
360.256	84.75
360.483	81.75
360.709	79.75
360.936	92.75
361.163	73.75
361.39	80.75
361.616	74.75
361.843	80.75
362.07	87.75
362.296	68.75
362.523	89.75
362.749	78.75
362.976	78.75
363.203	87.75
363.429	78.75
363.656	94.75
363.882	75.75
364.109	84.75
364.335	93.75
364.562	84.75
364.788	84.75
365.015	68.75
365.241	84.75
365.468	84.75
365.694	80.75
365.92	78.75
366.147	77.75
366.373	82.75
366.599	82.75
366.826	86.75
367.052	77.75
367.278	64.75
367.505	78.75
367.731	97.75
367.957	79.75
368.184	81.75
368.41	79.75
368.636	90.75
368.862	93.75
369.089	77.75
369.315	87.75
369.541	82.75
369.767	84.75
369.993	77.75
370.219	77.75
370.445	84.75
370.672	77.75
370.898	75.75
371.124	88.75
371.35	78.75
371.576	81.75
371.802	82.75
372.028	87.75
372.254	79.75
372.48	79.75
372.706	84.75
372.932	76.75
373.158	82.75
373.384	77.75
373.61	73.75
373.835	74.75
374.061	95.75
374.287	86.75
374.513	72.75
374.739	86.75
374.965	85.75
375.191	88.75
375.416	99.75
375.642	86.75
375.868	95.75
376.094	89.75
376.319	78.75
376.545	79.75
376.771	93.75
376.997	80.75
377.222	82.75
377.448	85.75
377.674	83.75
377.899	83.75
378.125	93.75
378.35	86.75
378.576	73.75
378.802	77.75
379.027	86.75
379.253	87.75
379.478	92.75
379.704	86.75
379.929	91.75
380.155	81.75
380.38	78.75
380.606	75.75
380.831	84.75
381.057	105.75
381.282	86.75
381.507	77.75
381.733	67.75
381.958	92.75
382.184	84.75
382.409	85.75
382.634	82.75
382.86	69.75
383.085	86.75
383.31	81.75
383.535	81.75
383.761	85.75
383.986	99.75
384.211	86.75
384.436	92.75
384.662	85.75
384.887	95.75
385.112	89.75
385.337	87.75
385.562	76.75
385.787	90.75
386.013	91.75
386.238	78.75
386.463	90.75
386.688	74.75
386.913	89.75
387.138	85.75
387.363	85.75
387.588	85.75
387.813	82.75
388.038	92.75
388.263	81.75
388.488	83.75
388.713	85.75
388.938	77.75
389.163	77.75
389.387	84.75
389.612	76.75
389.837	78.75
390.062	98.75
390.287	88.75
390.512	95.75
390.736	70.75
390.961	67.75
391.186	80.75
391.411	60.75
391.636	74.75
391.86	88.75
392.085	89.75
392.31	83.75
392.534	79.75
392.759	90.75
392.984	93.75
393.208	72.75
393.433	71.75
393.658	82.75
393.882	78.75
394.107	93.75
394.331	85.75
394.556	86.75
394.78	93.75
395.005	81.75
395.229	90.75
395.454	74.75
395.678	80.75
395.903	84.75
396.127	80.75
396.352	95.75
396.576	80.75
396.801	78.75
397.025	74.75
397.249	79.75
397.474	73.75
397.698	72.75
397.922	76.75
398.147	67.75
398.371	94.75
398.595	84.75
398.82	78.75
399.044	94.75
399.268	84.75
399.492	85.75
399.717	81.75
399.941	95.75
400.165	85.75
400.389	69.75
400.613	72.75
400.837	88.75
401.062	79.75
401.286	86.75
401.51	84.75
401.734	78.75
401.958	88.75
402.182	97.75
402.406	76.75
402.63	93.75
402.854	78.75
403.078	80.75
403.302	71.75
403.526	88.75
403.75	71.75
403.974	75.75
404.198	86.75
404.422	88.75
404.645	78.75
404.869	81.75
405.093	71.75
405.317	92.75
405.541	70.75
405.765	81.75
405.988	75.75
406.212	101.75
406.436	94.75
406.66	91.75
406.883	80.75
407.107	83.75
407.331	83.75
407.555	89.75
407.778	81.75
408.002	85.75
408.226	82.75
408.449	81.75
408.673	92.75
408.896	85.75
409.12	81.75
409.344	88.75
409.567	77.75
409.791	77.75
410.014	87.75
410.238	92.75
410.461	88.75
410.685	87.75
410.908	81.75
411.132	82.75
411.355	68.75
411.578	86.75
411.802	78.75
412.025	83.75
412.249	95.75
412.472	80.75
412.695	86.75
412.919	70.75
413.142	87.75
413.365	73.75
413.589	81.75
413.812	81.75
414.035	77.75
414.258	87.75
414.482	89.75
414.705	87.75
414.928	89.75
415.151	83.75
415.374	76.75
415.597	84.75
415.821	76.75
416.044	80.75
416.267	79.75
416.49	92.75
416.713	74.75
416.936	92.75
417.159	89.75
417.382	76.75
417.605	72.75
417.828	80.75
418.051	92.75
418.274	75.75
418.497	81.75
418.72	72.75
418.943	72.75
419.166	93.75
419.389	87.75
419.611	98.75
419.834	84.75
420.057	73.75
420.28	88.75
420.503	77.75
420.726	70.75
420.948	66.75
421.171	82.75
421.394	95.75
421.617	83.75
421.839	68.75
422.062	88.75
422.285	82.75
422.507	72.75
422.73	84.75
422.953	88.75
423.175	71.75
423.398	77.75
423.621	85.75
423.843	81.75
424.066	84.75
424.288	84.75
424.511	97.75
424.733	90.75
424.956	88.75
425.178	81.75
425.401	100.75
425.623	94.75
425.846	89.75
426.068	87.75
426.291	72.75
426.513	89.75
426.735	82.75
426.958	85.75
427.18	62.75
427.402	77.75
427.625	79.75
427.847	74.75
428.069	78.75
428.292	75.75
428.514	88.75
428.736	86.75
428.958	84.75
429.181	86.75
429.403	74.75
429.625	85.75
429.847	85.75
430.069	81.75
430.292	83.75
430.514	79.75
430.736	81.75
430.958	82.75
431.18	99.75
431.402	88.75
431.624	87.75
431.846	64.75
432.068	91.75
432.29	84.75
432.512	77.75
432.734	74.75
432.956	97.75
433.178	83.75
433.4	80.75
433.622	73.75
433.844	86.75
434.066	74.75
434.287	91.75
434.509	97.75
434.731	77.75
434.953	77.75
435.175	68.75
435.397	73.75
435.618	81.75
435.84	85.75
436.062	86.75
436.284	85.75
436.505	82.75
436.727	75.75
436.949	80.75
437.17	90.75
437.392	94.75
437.614	76.75
437.835	79.75
438.057	83.75
438.278	73.75
438.5	83.75
438.721	86.75
438.943	75.75
439.165	80.75
439.386	86.75
439.608	89.75
439.829	89.75
440.05	96.75
440.272	85.75
440.493	83.75
440.715	79.75
440.936	80.75
441.158	81.75
441.379	71.75
441.6	85.75
441.822	94.75
442.043	89.75
442.264	78.75
442.486	81.75
442.707	94.75
442.928	92.75
443.149	92.75
443.371	86.75
443.592	87.75
443.813	85.75
444.034	100.75
444.255	91.75
444.476	80.75
444.698	75.75
444.919	88.75
445.14	193.75
445.361	130.75
445.582	96.75
445.803	96.75
446.024	86.75
446.245	78.75
446.466	92.75
446.687	81.75
446.908	93.75
447.129	78.75
447.35	84.75
447.571	70.75
447.792	89.75
448.013	72.75
448.234	81.75
448.455	84.75
448.675	87.75
448.896	93.75
449.117	71.75
449.338	85.75
449.559	79.75
449.779	86.75
450	72.75
450.221	71.75
450.442	80.75
450.662	80.75
450.883	81.75
451.104	72.75
451.324	71.75
451.545	80.75
451.766	99.75
451.986	99.75
452.207	90.75
452.428	84.75
452.648	86.75
452.869	64.75
453.089	79.75
453.31	85.75
453.53	81.75
453.751	73.75
453.971	68.75
454.192	78.75
454.412	88.75
454.633	88.75
454.853	70.75
455.073	74.75
455.294	77.75
455.514	82.75
455.734	82.75
455.955	99.75
456.175	68.75
456.395	82.75
456.616	80.75
456.836	66.75
457.056	88.75
457.276	89.75
457.497	84.75
457.717	90.75
457.937	66.75
458.157	77.75
458.377	76.75
458.598	81.75
458.818	90.75
459.038	83.75
459.258	87.75
459.478	79.75
459.698	96.75
459.918	76.75
460.138	83.75
460.358	90.75
460.578	85.75
460.798	78.75
461.018	82.75
461.238	87.75
461.458	93.75
461.678	76.75
461.898	80.75
462.118	93.75
462.338	87.75
462.558	100.75
462.777	89.75
462.997	80.75
463.217	84.75
463.437	90.75
463.657	96.75
463.876	85.75
464.096	86.75
464.316	77.75
464.536	101.75
464.755	81.75
464.975	78.75
465.195	92.75
465.414	87.75
465.634	85.75
465.854	92.75
466.073	85.75
466.293	73.75
466.512	85.75
466.732	74.75
466.951	78.75
467.171	82.75
467.391	72.75
467.61	82.75
467.829	77.75
468.049	93.75
468.268	80.75
468.488	87.75
468.707	60.75
468.927	94.75
469.146	83.75
469.365	87.75
469.585	84.75
469.804	83.75
470.023	78.75
470.243	94.75
470.462	75.75
470.681	72.75
470.901	83.75
471.12	82.75
471.339	74.75
471.558	76.75
471.777	84.75
471.997	93.75
472.216	86.75
472.435	69.75
472.654	77.75
472.873	89.75
473.092	90.75
473.311	88.75
473.53	91.75
473.749	85.75
473.968	66.75
474.187	81.75
474.406	88.75
474.625	85.75
474.844	89.75
475.063	90.75
475.282	85.75
475.501	87.75
475.72	91.75
475.939	90.75
476.158	80.75
476.377	65.75
476.596	93.75
476.814	66.75
477.033	105.75
477.252	90.75
477.471	84.75
477.69	89.75
477.908	87.75
478.127	86.75
478.346	86.75
478.564	87.75
478.783	82.75
479.002	80.75
479.22	89.75
479.439	89.75
479.658	82.75
479.876	86.75
480.095	88.75
480.313	78.75
480.532	93.75
480.751	88.75
480.969	96.75
481.188	91.75
481.406	87.75
481.624	87.75
481.843	85.75
482.061	75.75
482.28	72.75
482.498	83.75
482.717	89.75
482.935	75.75
483.153	86.75
483.372	97.75
483.59	101.75
483.808	76.75
484.027	85.75
484.245	89.75
484.463	82.75
484.681	98.75
484.9	90.75
485.118	94.75
485.336	94.75
485.554	82.75
485.772	82.75
485.99	84.75
486.209	83.75
486.427	84.75
486.645	92.75
486.863	95.75
487.081	86.75
487.299	82.75
487.517	82.75
487.735	92.75
487.953	86.75
488.171	99.75
488.389	84.75
488.607	87.75
488.825	85.75
489.043	84.75
489.261	88.75
489.479	87.75
489.696	99.75
489.914	100.75
490.132	101.75
490.35	92.75
490.568	84.75
490.786	102.75
491.003	99.75
491.221	98.75
491.439	90.75
491.657	96.75
491.874	93.75
492.092	93.75
492.31	102.75
492.527	92.75
492.745	83.75
492.963	92.75
493.18	89.75
493.398	108.75
493.615	89.75
493.833	91.75
494.05	85.75
494.268	99.75
494.485	87.75
494.703	103.75
494.92	89.75
495.138	88.75
495.355	102.75
495.573	96.75
495.79	91.75
496.008	99.75
496.225	85.75
496.442	90.75
496.66	95.75
496.877	99.75
497.094	103.75
497.312	98.75
497.529	100.75
497.746	94.75
497.963	86.75
498.181	97.75
498.398	91.75
498.615	97.75
498.832	91.75
499.049	92.75
499.267	102.75
499.484	103.75
499.701	89.75
499.918	103.75
500.135	95.75
500.352	106.75
500.569	101.75
500.786	102.75
501.003	110.75
501.22	108.75
501.437	90.75
501.654	97.75
501.871	93.75
502.088	102.75
502.305	105.75
502.522	94.75
502.739	92.75
502.956	98.75
503.172	103.75
503.389	82.75
503.606	98.75
503.823	96.75
504.04	88.75
504.256	84.75
504.473	94.75
504.69	103.75
504.907	96.75
505.123	92.75
505.34	83.75
505.557	86.75
505.773	84.75
505.99	91.75
506.207	111.75
506.423	105.75
506.64	97.75
506.856	92.75
507.073	89.75
507.289	87.75
507.506	74.75
507.722	71.75
507.939	85.75
508.155	94.75
508.372	86.75
508.588	87.75
508.805	96.75
509.021	97.75
509.238	92.75
509.454	89.75
509.67	91.75
509.887	92.75
510.103	95.75
510.319	86.75
510.536	89.75
510.752	78.75
510.968	80.75
511.184	84.75
511.401	76.75
511.617	84.75
511.833	96.75
512.049	84.75
512.265	93.75
512.481	101.75
512.698	98.75
512.914	80.75
513.13	104.75
513.346	94.75
513.562	84.75
513.778	85.75
513.994	92.75
514.21	90.75
514.426	94.75
514.642	88.75
514.858	78.75
515.074	94.75
515.29	87.75
515.506	109.75
515.721	103.75
515.937	101.75
516.153	83.75
516.369	82.75
516.585	89.75
516.801	83.75
517.016	95.75
517.232	90.75
517.448	99.75
517.664	99.75
517.879	90.75
518.095	94.75
518.311	96.75
518.527	96.75
518.742	88.75
518.958	84.75
