Data from Ni(NO3)2@0.5M.TitratingCurve.Agarose3%dH2O.NegLispCup.LampEnergy10.LIBS07252019_HRD10591_17-57-12-564.txt Node
Date: Thu Jul 25 17:57:12 EDT 2019
User: cochatt
Spectrometer: HR+D1059
Trigger mode: 1
Integration Time (sec): 1.000000E-1
Scans to average: 1
Electric dark correction enabled: true
Nonlinearity correction enabled: false
Boxcar width: 0
XAxis mode: Wavelengths
Number of Pixels in Spectrum: 2048
>>>>>Begin Spectral Data<<<<<
223.165	-19.81
223.4	-19.81
223.635	-19.81
223.869	-12.81
224.104	-13.81
224.338	-22.81
224.573	-11.81
224.808	-15.81
225.042	-25.81
225.277	-4.81
225.511	-0.81
225.746	-5.81
225.98	14.19
226.215	5.19
226.449	21.19
226.683	31.19
226.918	30.19
227.152	32.19
227.387	24.19
227.621	44.19
227.856	36.19
228.09	30.19
228.324	58.19
228.559	61.19
228.793	60.19
229.027	105.19
229.262	114.19
229.496	105.19
229.73	110.19
229.964	122.19
230.199	148.19
230.433	141.19
230.667	130.19
230.901	152.19
231.136	146.19
231.37	134.19
231.604	124.19
231.838	142.19
232.072	130.19
232.306	147.19
232.541	136.19
232.775	132.19
233.009	126.19
233.243	127.19
233.477	141.19
233.711	132.19
233.945	139.19
234.179	146.19
234.413	132.19
234.647	138.19
234.881	140.19
235.115	118.19
235.349	120.19
235.583	130.19
235.817	129.19
236.051	138.19
236.285	130.19
236.519	126.19
236.753	134.19
236.987	142.19
237.221	140.19
237.455	141.19
237.689	139.19
237.922	131.19
238.156	147.19
238.39	140.19
238.624	146.19
238.858	134.19
239.091	143.19
239.325	141.19
239.559	157.19
239.793	161.19
240.027	156.19
240.26	153.19
240.494	138.19
240.728	149.19
240.961	156.19
241.195	154.19
241.429	147.19
241.662	160.19
241.896	184.19
242.13	160.19
242.363	158.19
242.597	169.19
242.83	153.19
243.064	165.19
243.298	163.19
243.531	166.19
243.765	170.19
243.998	154.19
244.232	162.19
244.465	166.19
244.699	169.19
244.932	183.19
245.166	174.19
245.399	168.19
245.633	181.19
245.866	182.19
246.099	172.19
246.333	171.19
246.566	188.19
246.8	185.19
247.033	181.19
247.266	174.19
247.5	188.19
247.733	193.19
247.966	191.19
248.2	189.19
248.433	180.19
248.666	192.19
248.899	192.19
249.133	204.19
249.366	193.19
249.599	212.19
249.832	213.19
250.066	207.19
250.299	182.19
250.532	201.19
250.765	214.19
250.998	211.19
251.231	206.19
251.465	237.19
251.698	207.19
251.931	217.19
252.164	225.19
252.397	232.19
252.63	206.19
252.863	208.19
253.096	220.19
253.329	219.19
253.562	232.19
253.795	233.19
254.028	218.19
254.261	220.19
254.494	226.19
254.727	218.19
254.96	233.19
255.193	244.19
255.426	248.19
255.659	225.19
255.892	235.19
256.124	258.19
256.357	242.19
256.59	250.19
256.823	243.19
257.056	258.19
257.289	263.19
257.521	263.19
257.754	272.19
257.987	247.19
258.22	260.19
258.452	258.19
258.685	268.19
258.918	256.19
259.151	242.19
259.383	269.19
259.616	269.19
259.849	293.19
260.081	272.19
260.314	271.19
260.547	272.19
260.779	286.19
261.012	287.19
261.244	278.19
261.477	281.19
261.71	287.19
261.942	274.19
262.175	292.19
262.407	279.19
262.64	297.19
262.872	278.19
263.105	284.19
263.337	278.19
263.57	301.19
263.802	292.19
264.035	295.19
264.267	296.19
264.499	291.19
264.732	308.19
264.964	288.19
265.197	302.19
265.429	304.19
265.661	279.19
265.894	305.19
266.126	306.19
266.358	318.19
266.591	301.19
266.823	314.19
267.055	310.19
267.287	307.19
267.52	308.19
267.752	307.19
267.984	315.19
268.216	325.19
268.448	319.19
268.681	323.19
268.913	329.19
269.145	325.19
269.377	313.19
269.609	331.19
269.841	301.19
270.073	327.19
270.306	331.19
270.538	329.19
270.77	318.19
271.002	345.19
271.234	340.19
271.466	326.19
271.698	307.19
271.93	332.19
272.162	335.19
272.394	338.19
272.626	338.19
272.858	352.19
273.09	356.19
273.322	345.19
273.553	322.19
273.785	340.19
274.017	346.19
274.249	331.19
274.481	352.19
274.713	349.19
274.945	351.19
275.176	343.19
275.408	365.19
275.64	334.19
275.872	349.19
276.104	349.19
276.335	353.19
276.567	343.19
276.799	366.19
277.031	356.19
277.262	360.19
277.494	363.19
277.726	345.19
277.957	361.19
278.189	361.19
278.421	363.19
278.652	359.19
278.884	361.19
279.115	377.19
279.347	372.19
279.579	386.19
279.81	361.19
280.042	360.19
280.273	350.19
280.505	376.19
280.736	377.19
280.968	388.19
281.199	363.19
281.431	377.19
281.662	384.19
281.894	370.19
282.125	385.19
282.356	392.19
282.588	389.19
282.819	378.19
283.051	380.19
283.282	372.19
283.513	383.19
283.745	376.19
283.976	374.19
284.207	404.19
284.439	378.19
284.67	399.19
284.901	404.19
285.132	399.19
285.364	393.19
285.595	402.19
285.826	393.19
286.057	404.19
286.288	399.19
286.52	381.19
286.751	426.19
286.982	401.19
287.213	410.19
287.444	398.19
287.675	412.19
287.906	421.19
288.138	407.19
288.369	388.19
288.6	396.19
288.831	417.19
289.062	395.19
289.293	397.19
289.524	394.19
289.755	396.19
289.986	400.19
290.217	401.19
290.448	398.19
290.679	420.19
290.91	430.19
291.141	395.19
291.371	428.19
291.602	411.19
291.833	413.19
292.064	416.19
292.295	410.19
292.526	426.19
292.757	414.19
292.987	412.19
293.218	438.19
293.449	410.19
293.68	432.19
293.91	414.19
294.141	409.19
294.372	407.19
294.603	423.19
294.833	426.19
295.064	416.19
295.295	421.19
295.525	421.19
295.756	417.19
295.987	410.19
296.217	407.19
296.448	424.19
296.679	427.19
296.909	417.19
297.14	438.19
297.37	436.19
297.601	435.19
297.831	410.19
298.062	415.19
298.292	443.19
298.523	454.19
298.753	445.19
298.984	445.19
299.214	466.19
299.445	462.19
299.675	443.19
299.905	442.19
300.136	468.19
300.366	468.19
300.597	473.19
300.827	470.19
301.057	478.19
301.288	474.19
301.518	484.19
301.748	452.19
301.979	484.19
302.209	454.19
302.439	477.19
302.669	460.19
302.9	467.19
303.13	449.19
303.36	479.19
303.59	488.19
303.82	478.19
304.051	490.19
304.281	489.19
304.511	481.19
304.741	477.19
304.971	482.19
305.201	491.19
305.431	494.19
305.661	484.19
305.891	471.19
306.121	487.19
306.352	477.19
306.582	488.19
306.812	454.19
307.042	487.19
307.272	479.19
307.502	466.19
307.731	489.19
307.961	478.19
308.191	479.19
308.421	478.19
308.651	509.19
308.881	504.19
309.111	489.19
309.341	476.19
309.571	480.19
309.8	482.19
310.03	505.19
310.26	516.19
310.49	501.19
310.72	517.19
310.949	485.19
311.179	500.19
311.409	511.19
311.639	517.19
311.868	503.19
312.098	502.19
312.328	528.19
312.557	525.19
312.787	503.19
313.017	516.19
313.246	531.19
313.476	539.19
313.706	550.19
313.935	521.19
314.165	524.19
314.394	532.19
314.624	528.19
314.853	515.19
315.083	519.19
315.312	537.19
315.542	525.19
315.771	541.19
316.001	545.19
316.23	536.19
316.46	550.19
316.689	547.19
316.919	555.19
317.148	549.19
317.377	558.19
317.607	542.19
317.836	542.19
318.065	542.19
318.295	538.19
318.524	558.19
318.753	533.19
318.983	553.19
319.212	550.19
319.441	563.19
319.67	563.19
319.9	551.19
320.129	540.19
320.358	578.19
320.587	550.19
320.816	569.19
321.046	575.19
321.275	579.19
321.504	572.19
321.733	600.19
321.962	593.19
322.191	584.19
322.42	584.19
322.649	610.19
322.878	587.19
323.108	588.19
323.337	611.19
323.566	585.19
323.795	610.19
324.024	609.19
324.253	575.19
324.482	604.19
324.71	596.19
324.939	603.19
325.168	619.19
325.397	611.19
325.626	624.19
325.855	622.19
326.084	621.19
326.313	624.19
326.542	624.19
326.77	621.19
326.999	644.19
327.228	600.19
327.457	626.19
327.686	634.19
327.914	646.19
328.143	636.19
328.372	628.19
328.6	614.19
328.829	638.19
329.058	614.19
329.287	622.19
329.515	672.19
329.744	644.19
329.972	648.19
330.201	631.19
330.43	656.19
330.658	640.19
330.887	662.19
331.115	656.19
331.344	674.19
331.572	647.19
331.801	677.19
332.03	655.19
332.258	657.19
332.486	658.19
332.715	672.19
332.943	694.19
333.172	682.19
333.4	668.19
333.629	716.19
333.857	704.19
334.085	707.19
334.314	698.19
334.542	694.19
334.771	711.19
334.999	700.19
335.227	703.19
335.455	704.19
335.684	742.19
335.912	724.19
336.14	706.19
336.369	716.19
336.597	705.19
336.825	709.19
337.053	719.19
337.281	726.19
337.51	717.19
337.738	747.19
337.966	741.19
338.194	737.19
338.422	730.19
338.65	709.19
338.878	701.19
339.106	713.19
339.334	722.19
339.562	736.19
339.79	686.19
340.018	693.19
340.246	701.19
340.474	700.19
340.702	726.19
340.93	700.19
341.158	695.19
341.386	696.19
341.614	743.19
341.842	733.19
342.07	678.19
342.298	696.19
342.526	705.19
342.754	728.19
342.981	674.19
343.209	708.19
343.437	716.19
343.665	723.19
343.893	727.19
344.12	744.19
344.348	729.19
344.576	719.19
344.804	740.19
345.031	688.19
345.259	680.19
345.487	717.19
345.714	710.19
345.942	719.19
346.17	749.19
346.397	700.19
346.625	690.19
346.853	698.19
347.08	677.19
347.308	669.19
347.535	671.19
347.763	687.19
347.99	685.19
348.218	692.19
348.445	669.19
348.673	680.19
348.9	692.19
349.128	664.19
349.355	719.19
349.583	718.19
349.81	685.19
350.037	655.19
350.265	696.19
350.492	701.19
350.72	672.19
350.947	696.19
351.174	715.19
351.402	710.19
351.629	698.19
351.856	701.19
352.083	698.19
352.311	691.19
352.538	713.19
352.765	722.19
352.992	680.19
353.22	649.19
353.447	673.19
353.674	650.19
353.901	638.19
354.128	667.19
354.355	655.19
354.583	677.19
354.81	656.19
355.037	670.19
355.264	667.19
355.491	655.19
355.718	668.19
355.945	679.19
356.172	674.19
356.399	666.19
356.626	673.19
356.853	695.19
357.08	662.19
357.307	692.19
357.534	669.19
357.761	650.19
357.988	674.19
358.215	662.19
358.441	659.19
358.668	657.19
358.895	646.19
359.122	640.19
359.349	662.19
359.576	669.19
359.802	651.19
360.029	666.19
360.256	672.19
360.483	669.19
360.709	670.19
360.936	692.19
361.163	688.19
361.39	698.19
361.616	678.19
361.843	707.19
362.07	701.19
362.296	720.19
362.523	666.19
362.749	686.19
362.976	677.19
363.203	661.19
363.429	658.19
363.656	657.19
363.882	670.19
364.109	663.19
364.335	654.19
364.562	674.19
364.788	667.19
365.015	646.19
365.241	670.19
365.468	654.19
365.694	660.19
365.92	696.19
366.147	679.19
366.373	647.19
366.599	675.19
366.826	671.19
367.052	652.19
367.278	693.19
367.505	645.19
367.731	686.19
367.957	657.19
368.184	676.19
368.41	671.19
368.636	674.19
368.862	692.19
369.089	688.19
369.315	695.19
369.541	689.19
369.767	692.19
369.993	684.19
370.219	689.19
370.445	688.19
370.672	714.19
370.898	684.19
371.124	674.19
371.35	681.19
371.576	670.19
371.802	677.19
372.028	681.19
372.254	706.19
372.48	703.19
372.706	711.19
372.932	704.19
373.158	697.19
373.384	708.19
373.61	694.19
373.835	688.19
374.061	653.19
374.287	696.19
374.513	701.19
374.739	726.19
374.965	671.19
375.191	698.19
375.416	700.19
375.642	697.19
375.868	686.19
376.094	698.19
376.319	660.19
376.545	686.19
376.771	674.19
376.997	673.19
377.222	666.19
377.448	685.19
377.674	683.19
377.899	681.19
378.125	668.19
378.35	675.19
378.576	669.19
378.802	667.19
379.027	683.19
379.253	684.19
379.478	695.19
379.704	693.19
379.929	670.19
380.155	694.19
380.38	676.19
380.606	667.19
380.831	665.19
381.057	699.19
381.282	664.19
381.507	656.19
381.733	677.19
381.958	695.19
382.184	669.19
382.409	692.19
382.634	708.19
382.86	684.19
383.085	703.19
383.31	698.19
383.535	687.19
383.761	701.19
383.986	699.19
384.211	700.19
384.436	716.19
384.662	709.19
384.887	727.19
385.112	725.19
385.337	749.19
385.562	706.19
385.787	737.19
386.013	730.19
386.238	733.19
386.463	740.19
386.688	753.19
386.913	735.19
387.138	725.19
387.363	752.19
387.588	724.19
387.813	748.19
388.038	746.19
388.263	749.19
388.488	710.19
388.713	740.19
388.938	732.19
389.163	733.19
389.387	725.19
389.612	730.19
389.837	735.19
390.062	736.19
390.287	745.19
390.512	734.19
390.736	735.19
390.961	727.19
391.186	744.19
391.411	768.19
391.636	756.19
391.86	766.19
392.085	763.19
392.31	789.19
392.534	747.19
392.759	760.19
392.984	754.19
393.208	741.19
393.433	752.19
393.658	752.19
393.882	739.19
394.107	750.19
394.331	723.19
394.556	745.19
394.78	773.19
395.005	757.19
395.229	756.19
395.454	774.19
395.678	756.19
395.903	772.19
396.127	790.19
396.352	782.19
396.576	794.19
396.801	774.19
397.025	784.19
397.249	788.19
397.474	782.19
397.698	769.19
397.922	807.19
398.147	797.19
398.371	816.19
398.595	828.19
398.82	810.19
399.044	841.19
399.268	829.19
399.492	871.19
399.717	888.19
399.941	870.19
400.165	855.19
400.389	856.19
400.613	856.19
400.837	867.19
401.062	832.19
401.286	799.19
401.51	842.19
401.734	828.19
401.958	847.19
402.182	827.19
402.406	825.19
402.63	832.19
402.854	845.19
403.078	836.19
403.302	847.19
403.526	832.19
403.75	844.19
403.974	832.19
404.198	817.19
404.422	825.19
404.645	842.19
404.869	831.19
405.093	832.19
405.317	822.19
405.541	813.19
405.765	837.19
405.988	859.19
406.212	883.19
406.436	830.19
406.66	829.19
406.883	872.19
407.107	841.19
407.331	882.19
407.555	869.19
407.778	900.19
408.002	920.19
408.226	886.19
408.449	908.19
408.673	877.19
408.896	890.19
409.12	882.19
409.344	888.19
409.567	834.19
409.791	901.19
410.014	857.19
410.238	863.19
410.461	885.19
410.685	869.19
410.908	844.19
411.132	856.19
411.355	858.19
411.578	865.19
411.802	869.19
412.025	881.19
412.249	861.19
412.472	856.19
412.695	841.19
412.919	842.19
413.142	837.19
413.365	844.19
413.589	876.19
413.812	830.19
414.035	858.19
414.258	846.19
414.482	850.19
414.705	809.19
414.928	864.19
415.151	880.19
415.374	861.19
415.597	826.19
415.821	809.19
416.044	816.19
416.267	804.19
416.49	813.19
416.713	820.19
416.936	813.19
417.159	825.19
417.382	796.19
417.605	810.19
417.828	842.19
418.051	821.19
418.274	835.19
418.497	824.19
418.72	812.19
418.943	816.19
419.166	855.19
419.389	880.19
419.611	877.19
419.834	853.19
420.057	856.19
420.28	818.19
420.503	776.19
420.726	829.19
420.948	802.19
421.171	808.19
421.394	816.19
421.617	834.19
421.839	845.19
422.062	798.19
422.285	822.19
422.507	808.19
422.73	820.19
422.953	829.19
423.175	820.19
423.398	826.19
423.621	845.19
423.843	829.19
424.066	793.19
424.288	828.19
424.511	818.19
424.733	820.19
424.956	808.19
425.178	804.19
425.401	794.19
425.623	836.19
425.846	828.19
426.068	837.19
426.291	823.19
426.513	805.19
426.735	829.19
426.958	812.19
427.18	809.19
427.402	817.19
427.625	813.19
427.847	800.19
428.069	801.19
428.292	801.19
428.514	793.19
428.736	803.19
428.958	820.19
429.181	796.19
429.403	810.19
429.625	819.19
429.847	798.19
430.069	796.19
430.292	811.19
430.514	784.19
430.736	809.19
430.958	799.19
431.18	805.19
431.402	838.19
431.624	796.19
431.846	763.19
432.068	778.19
432.29	805.19
432.512	800.19
432.734	796.19
432.956	801.19
433.178	835.19
433.4	801.19
433.622	838.19
433.844	837.19
434.066	828.19
434.287	833.19
434.509	830.19
434.731	816.19
434.953	828.19
435.175	867.19
435.397	871.19
435.618	860.19
435.84	824.19
436.062	816.19
436.284	828.19
436.505	795.19
436.727	802.19
436.949	804.19
437.17	811.19
437.392	812.19
437.614	823.19
437.835	791.19
438.057	776.19
438.278	753.19
438.5	761.19
438.721	782.19
438.943	783.19
439.165	790.19
439.386	821.19
439.608	834.19
439.829	831.19
440.05	829.19
440.272	803.19
440.493	820.19
440.715	820.19
440.936	854.19
441.158	840.19
441.379	845.19
441.6	854.19
441.822	852.19
442.043	857.19
442.264	819.19
442.486	826.19
442.707	835.19
442.928	830.19
443.149	842.19
443.371	847.19
443.592	884.19
443.813	847.19
444.034	832.19
444.255	840.19
444.476	856.19
444.698	837.19
444.919	856.19
445.14	944.19
445.361	881.19
445.582	873.19
445.803	802.19
446.024	808.19
446.245	820.19
446.466	816.19
446.687	824.19
446.908	832.19
447.129	806.19
447.35	807.19
447.571	806.19
447.792	782.19
448.013	773.19
448.234	793.19
448.455	775.19
448.675	762.19
448.896	774.19
449.117	755.19
449.338	770.19
449.559	768.19
449.779	775.19
450	761.19
450.221	757.19
450.442	749.19
450.662	741.19
450.883	747.19
451.104	745.19
451.324	753.19
451.545	766.19
451.766	750.19
451.986	747.19
452.207	745.19
452.428	740.19
452.648	772.19
452.869	740.19
453.089	728.19
453.31	741.19
453.53	703.19
453.751	724.19
453.971	710.19
454.192	735.19
454.412	739.19
454.633	727.19
454.853	730.19
455.073	738.19
455.294	737.19
455.514	752.19
455.734	727.19
455.955	744.19
456.175	754.19
456.395	727.19
456.616	709.19
456.836	704.19
457.056	723.19
457.276	710.19
457.497	723.19
457.717	752.19
457.937	748.19
458.157	729.19
458.377	734.19
458.598	740.19
458.818	754.19
459.038	758.19
459.258	770.19
459.478	789.19
459.698	830.19
459.918	832.19
460.138	828.19
460.358	809.19
460.578	811.19
460.798	861.19
461.018	853.19
461.238	851.19
461.458	817.19
461.678	792.19
461.898	822.19
462.118	834.19
462.338	863.19
462.558	873.19
462.777	892.19
462.997	936.19
463.217	900.19
463.437	924.19
463.657	900.19
463.876	900.19
464.096	867.19
464.316	880.19
464.536	846.19
464.755	871.19
464.975	842.19
465.195	787.19
465.414	839.19
465.634	807.19
465.854	825.19
466.073	813.19
466.293	783.19
466.512	778.19
466.732	797.19
466.951	787.19
467.171	804.19
467.391	792.19
467.61	772.19
467.829	771.19
468.049	801.19
468.268	774.19
468.488	785.19
468.707	776.19
468.927	812.19
469.146	773.19
469.365	794.19
469.585	778.19
469.804	792.19
470.023	793.19
470.243	796.19
470.462	811.19
470.681	764.19
470.901	807.19
471.12	788.19
471.339	794.19
471.558	789.19
471.777	819.19
471.997	780.19
472.216	761.19
472.435	788.19
472.654	784.19
472.873	811.19
473.092	779.19
473.311	816.19
473.53	790.19
473.749	788.19
473.968	763.19
474.187	780.19
474.406	798.19
474.625	799.19
474.844	808.19
475.063	813.19
475.282	803.19
475.501	803.19
475.72	798.19
475.939	808.19
476.158	812.19
476.377	845.19
476.596	834.19
476.814	848.19
477.033	842.19
477.252	831.19
477.471	855.19
477.69	875.19
477.908	874.19
478.127	873.19
478.346	870.19
478.564	892.19
478.783	888.19
479.002	914.19
479.22	953.19
479.439	922.19
479.658	892.19
479.876	914.19
480.095	880.19
480.313	924.19
480.532	918.19
480.751	915.19
480.969	897.19
481.188	884.19
481.406	884.19
481.624	917.19
481.843	855.19
482.061	888.19
482.28	900.19
482.498	902.19
482.717	885.19
482.935	913.19
483.153	939.19
483.372	955.19
483.59	990.19
483.808	955.19
484.027	931.19
484.245	940.19
484.463	934.19
484.681	966.19
484.9	961.19
485.118	936.19
485.336	927.19
485.554	937.19
485.772	934.19
485.99	928.19
486.209	924.19
486.427	943.19
486.645	921.19
486.863	957.19
487.081	976.19
487.299	988.19
487.517	973.19
487.735	964.19
487.953	1001.19
488.171	1005.19
488.389	973.19
488.607	956.19
488.825	965.19
489.043	955.19
489.261	950.19
489.479	935.19
489.696	954.19
489.914	955.19
490.132	978.19
490.35	972.19
490.568	996.19
490.786	989.19
491.003	1008.19
491.221	1005.19
491.439	993.19
491.657	985.19
491.874	1035.19
492.092	1035.19
492.31	1031.19
492.527	1030.19
492.745	1000.19
492.963	995.19
493.18	985.19
493.398	981.19
493.615	993.19
493.833	1028.19
494.05	999.19
494.268	1009.19
494.485	1003.19
494.703	1013.19
494.92	1010.19
495.138	1054.19
495.355	1043.19
495.573	1016.19
495.79	1010.19
496.008	1026.19
496.225	1062.19
496.442	1042.19
496.66	1036.19
496.877	1053.19
497.094	1044.19
497.312	1069.19
497.529	1064.19
497.746	1059.19
497.963	1090.19
498.181	1118.19
498.398	1128.19
498.615	1141.19
498.832	1156.19
499.049	1178.19
499.267	1202.19
499.484	1218.19
499.701	1254.19
499.918	1297.19
500.135	1326.19
500.352	1371.19
500.569	1373.19
500.786	1365.19
501.003	1353.19
