Data from Ni(NO3)2@0.125M.TitratingCurve.Agarose3%dH2O.NegLispCup.LampEnergy10.LIBS07252019_HRD10591_18-11-34-569.txt Node
Date: Thu Jul 25 18:11:34 EDT 2019
User: cochatt
Spectrometer: HR+D1059
Trigger mode: 1
Integration Time (sec): 1.000000E-1
Scans to average: 1
Electric dark correction enabled: true
Nonlinearity correction enabled: false
Boxcar width: 0
XAxis mode: Wavelengths
Number of Pixels in Spectrum: 2048
>>>>>Begin Spectral Data<<<<<
223.165	-15.94
223.4	-15.94
223.635	-15.94
223.869	-11.94
224.104	-19.94
224.338	-14.94
224.573	-11.94
224.808	-16.94
225.042	-11.94
225.277	-0.94
225.511	-20.94
225.746	-13.94
225.98	24.06
226.215	6.06
226.449	19.06
226.683	26.06
226.918	30.06
227.152	34.06
227.387	38.06
227.621	39.06
227.856	55.06
228.09	44.06
228.324	57.06
228.559	64.06
228.793	51.06
229.027	69.06
229.262	82.06
229.496	86.06
229.73	87.06
229.964	97.06
230.199	112.06
230.433	106.06
230.667	106.06
230.901	113.06
231.136	116.06
231.37	121.06
231.604	124.06
231.838	129.06
232.072	120.06
232.306	118.06
232.541	133.06
232.775	133.06
233.009	127.06
233.243	129.06
233.477	120.06
233.711	132.06
233.945	135.06
234.179	130.06
234.413	124.06
234.647	124.06
234.881	121.06
235.115	136.06
235.349	136.06
235.583	126.06
235.817	113.06
236.051	124.06
236.285	129.06
236.519	154.06
236.753	124.06
236.987	134.06
237.221	128.06
237.455	142.06
237.689	132.06
237.922	148.06
238.156	140.06
238.39	156.06
238.624	126.06
238.858	125.06
239.091	148.06
239.325	136.06
239.559	148.06
239.793	145.06
240.027	146.06
240.26	145.06
240.494	149.06
240.728	136.06
240.961	144.06
241.195	155.06
241.429	145.06
241.662	148.06
241.896	148.06
242.13	161.06
242.363	152.06
242.597	157.06
242.83	155.06
243.064	150.06
243.298	152.06
243.531	154.06
243.765	139.06
243.998	155.06
244.232	154.06
244.465	147.06
244.699	169.06
244.932	163.06
245.166	165.06
245.399	165.06
245.633	146.06
245.866	158.06
246.099	171.06
246.333	171.06
246.566	156.06
246.8	161.06
247.033	171.06
247.266	166.06
247.5	160.06
247.733	171.06
247.966	174.06
248.2	176.06
248.433	173.06
248.666	178.06
248.899	164.06
249.133	186.06
249.366	190.06
249.599	189.06
249.832	194.06
250.066	188.06
250.299	197.06
250.532	176.06
250.765	180.06
250.998	200.06
251.231	192.06
251.465	209.06
251.698	204.06
251.931	206.06
252.164	180.06
252.397	173.06
252.63	201.06
252.863	209.06
253.096	203.06
253.329	215.06
253.562	205.06
253.795	207.06
254.028	215.06
254.261	225.06
254.494	213.06
254.727	209.06
254.96	218.06
255.193	209.06
255.426	235.06
255.659	205.06
255.892	218.06
256.124	215.06
256.357	229.06
256.59	202.06
256.823	217.06
257.056	252.06
257.289	206.06
257.521	207.06
257.754	224.06
257.987	207.06
258.22	212.06
258.452	223.06
258.685	226.06
258.918	222.06
259.151	224.06
259.383	227.06
259.616	236.06
259.849	213.06
260.081	218.06
260.314	237.06
260.547	233.06
260.779	238.06
261.012	233.06
261.244	213.06
261.477	219.06
261.71	252.06
261.942	233.06
262.175	234.06
262.407	227.06
262.64	239.06
262.872	248.06
263.105	252.06
263.337	268.06
263.57	250.06
263.802	240.06
264.035	258.06
264.267	257.06
264.499	265.06
264.732	266.06
264.964	242.06
265.197	246.06
265.429	249.06
265.661	251.06
265.894	248.06
266.126	260.06
266.358	250.06
266.591	255.06
266.823	250.06
267.055	260.06
267.287	265.06
267.52	264.06
267.752	259.06
267.984	266.06
268.216	264.06
268.448	275.06
268.681	264.06
268.913	281.06
269.145	275.06
269.377	267.06
269.609	268.06
269.841	276.06
270.073	268.06
270.306	267.06
270.538	266.06
270.77	264.06
271.002	274.06
271.234	270.06
271.466	278.06
271.698	280.06
271.93	279.06
272.162	273.06
272.394	289.06
272.626	289.06
272.858	288.06
273.09	302.06
273.322	280.06
273.553	276.06
273.785	292.06
274.017	302.06
274.249	301.06
274.481	283.06
274.713	296.06
274.945	278.06
275.176	286.06
275.408	290.06
275.64	293.06
275.872	303.06
276.104	297.06
276.335	280.06
276.567	302.06
276.799	305.06
277.031	305.06
277.262	315.06
277.494	309.06
277.726	320.06
277.957	296.06
278.189	311.06
278.421	305.06
278.652	292.06
278.884	320.06
279.115	306.06
279.347	299.06
279.579	315.06
279.81	323.06
280.042	325.06
280.273	319.06
280.505	300.06
280.736	313.06
280.968	344.06
281.199	323.06
281.431	343.06
281.662	323.06
281.894	324.06
282.125	332.06
282.356	345.06
282.588	338.06
282.819	345.06
283.051	343.06
283.282	338.06
283.513	316.06
283.745	338.06
283.976	330.06
284.207	333.06
284.439	321.06
284.67	349.06
284.901	344.06
285.132	345.06
285.364	348.06
285.595	342.06
285.826	344.06
286.057	349.06
286.288	340.06
286.52	354.06
286.751	356.06
286.982	352.06
287.213	354.06
287.444	360.06
287.675	354.06
287.906	372.06
288.138	359.06
288.369	373.06
288.6	370.06
288.831	370.06
289.062	357.06
289.293	359.06
289.524	378.06
289.755	360.06
289.986	370.06
290.217	359.06
290.448	351.06
290.679	391.06
290.91	389.06
291.141	390.06
291.371	372.06
291.602	359.06
291.833	381.06
292.064	363.06
292.295	379.06
292.526	372.06
292.757	360.06
292.987	388.06
293.218	366.06
293.449	378.06
293.68	375.06
293.91	362.06
294.141	362.06
294.372	371.06
294.603	372.06
294.833	384.06
295.064	368.06
295.295	379.06
295.525	363.06
295.756	380.06
295.987	368.06
296.217	394.06
296.448	409.06
296.679	385.06
296.909	413.06
297.14	399.06
297.37	422.06
297.601	396.06
297.831	397.06
298.062	393.06
298.292	404.06
298.523	411.06
298.753	406.06
298.984	390.06
299.214	400.06
299.445	410.06
299.675	394.06
299.905	406.06
300.136	383.06
300.366	395.06
300.597	422.06
300.827	433.06
301.057	421.06
301.288	424.06
301.518	437.06
301.748	429.06
301.979	412.06
302.209	441.06
302.439	418.06
302.669	408.06
302.9	409.06
303.13	419.06
303.36	419.06
303.59	418.06
303.82	412.06
304.051	408.06
304.281	424.06
304.511	418.06
304.741	438.06
304.971	416.06
305.201	423.06
305.431	433.06
305.661	419.06
305.891	424.06
306.121	418.06
306.352	429.06
306.582	392.06
306.812	421.06
307.042	411.06
307.272	420.06
307.502	433.06
307.731	420.06
307.961	399.06
308.191	401.06
308.421	409.06
308.651	398.06
308.881	405.06
309.111	424.06
309.341	417.06
309.571	413.06
309.8	424.06
310.03	421.06
310.26	414.06
310.49	421.06
310.72	411.06
310.949	404.06
311.179	425.06
311.409	430.06
311.639	396.06
311.868	408.06
312.098	428.06
312.328	437.06
312.557	438.06
312.787	429.06
313.017	439.06
313.246	429.06
313.476	435.06
313.706	417.06
313.935	461.06
314.165	429.06
314.394	432.06
314.624	468.06
314.853	442.06
315.083	445.06
315.312	472.06
315.542	416.06
315.771	438.06
316.001	424.06
316.23	437.06
316.46	432.06
316.689	438.06
316.919	435.06
317.148	426.06
317.377	438.06
317.607	438.06
317.836	425.06
318.065	418.06
318.295	450.06
318.524	430.06
318.753	416.06
318.983	427.06
319.212	431.06
319.441	439.06
319.67	446.06
319.9	412.06
320.129	449.06
320.358	440.06
320.587	425.06
320.816	416.06
321.046	436.06
321.275	445.06
321.504	435.06
321.733	426.06
321.962	444.06
322.191	443.06
322.42	423.06
322.649	427.06
322.878	449.06
323.108	461.06
323.337	457.06
323.566	432.06
323.795	452.06
324.024	463.06
324.253	441.06
324.482	441.06
324.71	473.06
324.939	464.06
325.168	457.06
325.397	426.06
325.626	479.06
325.855	459.06
326.084	478.06
326.313	474.06
326.542	456.06
326.77	477.06
326.999	490.06
327.228	470.06
327.457	471.06
327.686	462.06
327.914	467.06
328.143	474.06
328.372	483.06
328.6	460.06
328.829	458.06
329.058	456.06
329.287	485.06
329.515	479.06
329.744	503.06
329.972	484.06
330.201	490.06
330.43	481.06
330.658	476.06
330.887	501.06
331.115	512.06
331.344	503.06
331.572	518.06
331.801	499.06
332.03	540.06
332.258	549.06
332.486	536.06
332.715	572.06
332.943	583.06
333.172	617.06
333.4	646.06
333.629	654.06
333.857	659.06
334.085	644.06
334.314	658.06
334.542	619.06
334.771	613.06
334.999	605.06
335.227	603.06
335.455	579.06
335.684	616.06
335.912	597.06
336.14	592.06
336.369	580.06
336.597	580.06
336.825	594.06
337.053	580.06
337.281	561.06
337.51	544.06
337.738	548.06
337.966	548.06
338.194	536.06
338.422	527.06
338.65	506.06
338.878	532.06
339.106	530.06
339.334	516.06
339.562	503.06
339.79	493.06
340.018	532.06
340.246	487.06
340.474	484.06
340.702	513.06
340.93	520.06
341.158	516.06
341.386	497.06
341.614	485.06
341.842	509.06
342.07	515.06
342.298	523.06
342.526	486.06
342.754	503.06
342.981	514.06
343.209	515.06
343.437	545.06
343.665	561.06
343.893	596.06
344.12	629.06
344.348	606.06
344.576	566.06
344.804	553.06
345.031	516.06
345.259	520.06
345.487	500.06
345.714	500.06
345.942	475.06
346.17	488.06
346.397	510.06
346.625	491.06
346.853	496.06
347.08	496.06
347.308	485.06
347.535	529.06
347.763	500.06
347.99	509.06
348.218	525.06
348.445	490.06
348.673	511.06
348.9	480.06
349.128	480.06
349.355	493.06
349.583	493.06
349.81	472.06
350.037	491.06
350.265	473.06
350.492	476.06
350.72	485.06
350.947	477.06
351.174	468.06
351.402	456.06
351.629	472.06
351.856	458.06
352.083	480.06
352.311	480.06
352.538	471.06
352.765	459.06
352.992	478.06
353.22	470.06
353.447	443.06
353.674	469.06
353.901	464.06
354.128	462.06
354.355	453.06
354.583	468.06
354.81	482.06
355.037	477.06
355.264	480.06
355.491	483.06
355.718	482.06
355.945	481.06
356.172	488.06
356.399	467.06
356.626	470.06
356.853	476.06
357.08	475.06
357.307	470.06
357.534	496.06
357.761	474.06
357.988	467.06
358.215	456.06
358.441	468.06
358.668	466.06
358.895	489.06
359.122	486.06
359.349	477.06
359.576	453.06
359.802	465.06
360.029	469.06
360.256	481.06
360.483	486.06
360.709	482.06
360.936	478.06
361.163	450.06
361.39	467.06
361.616	485.06
361.843	489.06
362.07	478.06
362.296	454.06
362.523	469.06
362.749	472.06
362.976	450.06
363.203	476.06
363.429	453.06
363.656	457.06
363.882	483.06
364.109	483.06
364.335	470.06
364.562	478.06
364.788	464.06
365.015	483.06
365.241	479.06
365.468	459.06
365.694	456.06
365.92	474.06
366.147	463.06
366.373	480.06
366.599	478.06
366.826	465.06
367.052	456.06
367.278	471.06
367.505	491.06
367.731	460.06
367.957	468.06
368.184	466.06
368.41	466.06
368.636	467.06
368.862	485.06
369.089	482.06
369.315	484.06
369.541	499.06
369.767	508.06
369.993	489.06
370.219	466.06
370.445	470.06
370.672	507.06
370.898	500.06
371.124	523.06
371.35	519.06
371.576	512.06
371.802	507.06
372.028	505.06
372.254	527.06
372.48	520.06
372.706	517.06
372.932	534.06
373.158	531.06
373.384	545.06
373.61	540.06
373.835	517.06
374.061	503.06
374.287	531.06
374.513	506.06
374.739	560.06
374.965	544.06
375.191	572.06
375.416	596.06
375.642	553.06
375.868	544.06
376.094	560.06
376.319	516.06
376.545	524.06
376.771	520.06
376.997	522.06
377.222	522.06
377.448	515.06
377.674	514.06
377.899	523.06
378.125	520.06
378.35	512.06
378.576	493.06
378.802	512.06
379.027	484.06
379.253	512.06
379.478	501.06
379.704	494.06
379.929	520.06
380.155	490.06
380.38	514.06
380.606	496.06
380.831	508.06
381.057	510.06
381.282	497.06
381.507	514.06
381.733	512.06
381.958	508.06
382.184	527.06
382.409	529.06
382.634	540.06
382.86	554.06
383.085	569.06
383.31	545.06
383.535	547.06
383.761	568.06
383.986	577.06
384.211	610.06
384.436	591.06
384.662	603.06
384.887	621.06
385.112	614.06
385.337	621.06
385.562	632.06
385.787	606.06
386.013	616.06
386.238	601.06
386.463	630.06
386.688	587.06
386.913	616.06
387.138	581.06
387.363	576.06
387.588	594.06
387.813	626.06
388.038	588.06
388.263	597.06
388.488	601.06
388.713	605.06
388.938	610.06
389.163	573.06
389.387	600.06
389.612	597.06
389.837	606.06
390.062	567.06
390.287	624.06
390.512	584.06
390.736	606.06
390.961	605.06
391.186	630.06
391.411	636.06
391.636	669.06
391.86	675.06
392.085	677.06
392.31	689.06
392.534	674.06
392.759	653.06
392.984	642.06
393.208	649.06
393.433	641.06
393.658	651.06
393.882	648.06
394.107	664.06
394.331	655.06
394.556	643.06
394.78	670.06
395.005	670.06
395.229	655.06
395.454	650.06
395.678	683.06
395.903	691.06
396.127	680.06
396.352	629.06
396.576	635.06
396.801	635.06
397.025	638.06
397.249	682.06
397.474	668.06
397.698	698.06
397.922	674.06
398.147	672.06
398.371	686.06
398.595	721.06
398.82	730.06
399.044	773.06
399.268	900.06
399.492	1030.06
399.717	1140.06
399.941	1184.06
400.165	990.06
400.389	887.06
400.613	837.06
400.837	788.06
401.062	782.06
401.286	753.06
401.51	758.06
401.734	769.06
401.958	763.06
402.182	801.06
402.406	775.06
402.63	800.06
402.854	809.06
403.078	866.06
403.302	847.06
403.526	867.06
403.75	899.06
403.974	902.06
404.198	896.06
404.422	910.06
404.645	884.06
404.869	866.06
405.093	881.06
405.317	847.06
405.541	848.06
405.765	839.06
405.988	816.06
406.212	858.06
406.436	839.06
406.66	880.06
406.883	858.06
407.107	885.06
407.331	960.06
407.555	980.06
407.778	968.06
408.002	954.06
408.226	910.06
408.449	927.06
408.673	857.06
408.896	844.06
409.12	886.06
409.344	868.06
409.567	846.06
409.791	868.06
410.014	905.06
410.238	872.06
410.461	845.06
410.685	836.06
410.908	816.06
411.132	817.06
411.355	826.06
411.578	829.06
411.802	797.06
412.025	792.06
412.249	796.06
412.472	792.06
412.695	774.06
412.919	734.06
413.142	765.06
413.365	738.06
413.589	767.06
413.812	760.06
414.035	758.06
414.258	741.06
414.482	757.06
414.705	782.06
414.928	782.06
415.151	785.06
415.374	749.06
415.597	779.06
415.821	732.06
416.044	752.06
416.267	749.06
416.49	737.06
416.713	725.06
416.936	754.06
417.159	746.06
417.382	738.06
417.605	744.06
417.828	735.06
418.051	753.06
418.274	787.06
418.497	781.06
418.72	798.06
418.943	762.06
419.166	852.06
419.389	850.06
419.611	884.06
419.834	811.06
420.057	792.06
420.28	762.06
420.503	747.06
420.726	754.06
420.948	772.06
421.171	756.06
421.394	753.06
421.617	749.06
421.839	774.06
422.062	766.06
422.285	748.06
422.507	802.06
422.73	796.06
422.953	763.06
423.175	789.06
423.398	802.06
423.621	800.06
423.843	809.06
424.066	818.06
424.288	797.06
424.511	800.06
424.733	800.06
424.956	792.06
425.178	771.06
425.401	794.06
425.623	784.06
425.846	736.06
426.068	728.06
426.291	728.06
426.513	729.06
426.735	709.06
426.958	704.06
427.18	706.06
427.402	701.06
427.625	693.06
427.847	693.06
428.069	689.06
428.292	674.06
428.514	676.06
428.736	673.06
428.958	689.06
429.181	679.06
429.403	652.06
429.625	670.06
429.847	666.06
430.069	664.06
430.292	679.06
430.514	662.06
430.736	667.06
430.958	639.06
431.18	664.06
431.402	666.06
431.624	665.06
431.846	675.06
432.068	693.06
432.29	678.06
432.512	690.06
432.734	693.06
432.956	696.06
433.178	704.06
433.4	677.06
433.622	676.06
433.844	689.06
434.066	709.06
434.287	703.06
434.509	712.06
434.731	744.06
434.953	746.06
435.175	792.06
435.397	763.06
435.618	709.06
435.84	704.06
436.062	684.06
436.284	678.06
436.505	667.06
436.727	682.06
436.949	711.06
437.17	695.06
437.392	668.06
437.614	697.06
437.835	645.06
438.057	675.06
438.278	655.06
438.5	667.06
438.721	636.06
438.943	665.06
439.165	660.06
439.386	665.06
439.608	680.06
439.829	688.06
440.05	692.06
440.272	684.06
440.493	707.06
440.715	722.06
440.936	707.06
441.158	728.06
441.379	722.06
441.6	763.06
441.822	812.06
442.043	815.06
442.264	749.06
442.486	738.06
442.707	769.06
442.928	747.06
443.149	773.06
443.371	773.06
443.592	762.06
443.813	768.06
444.034	767.06
444.255	809.06
444.476	854.06
444.698	902.06
444.919	929.06
445.14	1016.06
445.361	880.06
445.582	799.06
445.803	773.06
446.024	729.06
446.245	733.06
446.466	740.06
446.687	698.06
446.908	691.06
447.129	662.06
447.35	688.06
447.571	680.06
447.792	650.06
448.013	652.06
448.234	657.06
448.455	658.06
448.675	649.06
448.896	637.06
449.117	650.06
449.338	644.06
449.559	646.06
449.779	639.06
450	606.06
450.221	646.06
450.442	648.06
450.662	650.06
450.883	637.06
451.104	675.06
451.324	661.06
451.545	632.06
451.766	661.06
451.986	629.06
452.207	641.06
452.428	652.06
452.648	638.06
452.869	612.06
453.089	630.06
453.31	627.06
453.53	624.06
453.751	642.06
453.971	622.06
454.192	624.06
454.412	619.06
454.633	620.06
454.853	604.06
455.073	608.06
455.294	617.06
455.514	593.06
455.734	580.06
455.955	588.06
456.175	610.06
456.395	576.06
456.616	604.06
456.836	573.06
457.056	589.06
457.276	577.06
457.497	598.06
457.717	561.06
457.937	596.06
458.157	599.06
458.377	612.06
458.598	620.06
458.818	643.06
459.038	644.06
459.258	659.06
459.478	660.06
459.698	711.06
459.918	738.06
460.138	744.06
460.358	800.06
460.578	818.06
460.798	821.06
461.018	852.06
461.238	806.06
461.458	790.06
461.678	789.06
461.898	831.06
462.118	808.06
462.338	885.06
462.558	890.06
462.777	906.06
462.997	1006.06
463.217	1138.06
463.437	1110.06
463.657	981.06
463.876	972.06
464.096	949.06
464.316	961.06
464.536	961.06
464.755	918.06
464.975	898.06
465.195	829.06
465.414	789.06
465.634	740.06
465.854	725.06
466.073	712.06
466.293	692.06
466.512	676.06
466.732	665.06
466.951	666.06
467.171	661.06
467.391	666.06
467.61	666.06
467.829	657.06
468.049	640.06
468.268	631.06
468.488	637.06
468.707	622.06
468.927	646.06
469.146	647.06
469.365	631.06
469.585	653.06
469.804	666.06
470.023	690.06
470.243	690.06
470.462	686.06
470.681	680.06
470.901	689.06
471.12	666.06
471.339	680.06
471.558	654.06
471.777	629.06
471.997	644.06
472.216	618.06
472.435	608.06
472.654	628.06
472.873	586.06
473.092	616.06
473.311	605.06
473.53	607.06
473.749	625.06
473.968	608.06
474.187	590.06
474.406	593.06
474.625	602.06
474.844	602.06
475.063	610.06
475.282	586.06
475.501	636.06
475.72	626.06
475.939	626.06
476.158	632.06
476.377	626.06
476.596	651.06
476.814	636.06
477.033	655.06
477.252	667.06
477.471	657.06
477.69	673.06
477.908	684.06
478.127	713.06
478.346	730.06
478.564	734.06
478.783	753.06
479.002	793.06
479.22	793.06
479.439	760.06
479.658	764.06
479.876	764.06
480.095	749.06
480.313	777.06
480.532	822.06
480.751	810.06
480.969	802.06
481.188	732.06
481.406	723.06
481.624	714.06
481.843	680.06
482.061	693.06
482.28	704.06
482.498	688.06
482.717	677.06
482.935	671.06
483.153	674.06
483.372	711.06
483.59	715.06
483.808	683.06
484.027	707.06
484.245	709.06
484.463	701.06
484.681	703.06
484.9	698.06
485.118	719.06
485.336	726.06
485.554	744.06
485.772	700.06
485.99	751.06
486.209	750.06
486.427	748.06
486.645	756.06
486.863	735.06
487.081	719.06
487.299	702.06
487.517	729.06
487.735	722.06
487.953	728.06
488.171	758.06
488.389	753.06
488.607	713.06
488.825	727.06
489.043	718.06
489.261	711.06
489.479	714.06
489.696	741.06
489.914	732.06
490.132	715.06
490.35	724.06
490.568	741.06
490.786	750.06
491.003	727.06
491.221	729.06
491.439	722.06
491.657	737.06
491.874	738.06
492.092	726.06
492.31	727.06
492.527	744.06
492.745	729.06
492.963	752.06
493.18	724.06
493.398	753.06
493.615	752.06
493.833	763.06
494.05	764.06
494.268	761.06
494.485	763.06
494.703	781.06
494.92	786.06
495.138	768.06
495.355	760.06
495.573	780.06
495.79	777.06
496.008	758.06
496.225	785.06
496.442	769.06
496.66	790.06
496.877	817.06
497.094	838.06
497.312	836.06
497.529	859.06
497.746	868.06
497.963	896.06
498.181	935.06
498.398	950.06
498.615	1021.06
498.832	1045.06
499.049	1162.06
499.267	1262.06
499.484	1417.06
499.701	1558.06
499.918	1719.06
500.135	1981.06
500.352	2328.06
500.569	2452.06
500.786	2436.06
501.003	2208.06
501.22	1942.06
