Data from Ni(NO3)2@0.25M.TitratingCurve.Agarose3%dH2O.NegLispCup.LampEnergy10.LIBS07252019_HRD10591_18-04-41-566.txt Node
Date: Thu Jul 25 18:04:41 EDT 2019
User: cochatt
Spectrometer: HR+D1059
Trigger mode: 1
Integration Time (sec): 1.000000E-1
Scans to average: 1
Electric dark correction enabled: true
Nonlinearity correction enabled: false
Boxcar width: 0
XAxis mode: Wavelengths
Number of Pixels in Spectrum: 2048
>>>>>Begin Spectral Data<<<<<
223.165	-26.69
223.4	-26.69
223.635	-26.69
223.869	-19.69
224.104	-17.69
224.338	-2.69
224.573	-10.69
224.808	-13.69
225.042	-9.69
225.277	-3.69
225.511	-7.69
225.746	-2.69
225.98	12.31
226.215	16.31
226.449	29.31
226.683	13.31
226.918	15.31
227.152	28.31
227.387	31.31
227.621	33.31
227.856	52.31
228.09	58.31
228.324	50.31
228.559	62.31
228.793	73.31
229.027	102.31
229.262	107.31
229.496	121.31
229.73	117.31
229.964	119.31
230.199	99.31
230.433	128.31
230.667	131.31
230.901	132.31
231.136	147.31
231.37	132.31
231.604	114.31
231.838	128.31
232.072	142.31
232.306	129.31
232.541	142.31
232.775	145.31
233.009	136.31
233.243	134.31
233.477	141.31
233.711	144.31
233.945	137.31
234.179	142.31
234.413	139.31
234.647	149.31
234.881	152.31
235.115	143.31
235.349	154.31
235.583	130.31
235.817	156.31
236.051	152.31
236.285	142.31
236.519	135.31
236.753	145.31
236.987	131.31
237.221	136.31
237.455	146.31
237.689	152.31
237.922	137.31
238.156	152.31
238.39	155.31
238.624	158.31
238.858	156.31
239.091	151.31
239.325	155.31
239.559	163.31
239.793	155.31
240.027	158.31
240.26	149.31
240.494	162.31
240.728	158.31
240.961	163.31
241.195	159.31
241.429	152.31
241.662	187.31
241.896	168.31
242.13	175.31
242.363	158.31
242.597	178.31
242.83	168.31
243.064	187.31
243.298	160.31
243.531	183.31
243.765	178.31
243.998	194.31
244.232	172.31
244.465	184.31
244.699	200.31
244.932	205.31
245.166	191.31
245.399	193.31
245.633	188.31
245.866	190.31
246.099	195.31
246.333	206.31
246.566	186.31
246.8	196.31
247.033	200.31
247.266	207.31
247.5	193.31
247.733	199.31
247.966	200.31
248.2	207.31
248.433	202.31
248.666	218.31
248.899	206.31
249.133	223.31
249.366	214.31
249.599	218.31
249.832	209.31
250.066	220.31
250.299	218.31
250.532	223.31
250.765	206.31
250.998	232.31
251.231	233.31
251.465	221.31
251.698	237.31
251.931	242.31
252.164	255.31
252.397	239.31
252.63	239.31
252.863	247.31
253.096	231.31
253.329	253.31
253.562	262.31
253.795	247.31
254.028	251.31
254.261	248.31
254.494	237.31
254.727	254.31
254.96	265.31
255.193	273.31
255.426	263.31
255.659	255.31
255.892	278.31
256.124	261.31
256.357	291.31
256.59	251.31
256.823	282.31
257.056	252.31
257.289	283.31
257.521	283.31
257.754	282.31
257.987	272.31
258.22	286.31
258.452	272.31
258.685	289.31
258.918	292.31
259.151	275.31
259.383	294.31
259.616	290.31
259.849	296.31
260.081	286.31
260.314	281.31
260.547	298.31
260.779	288.31
261.012	291.31
261.244	288.31
261.477	301.31
261.71	289.31
261.942	310.31
262.175	316.31
262.407	303.31
262.64	288.31
262.872	298.31
263.105	294.31
263.337	305.31
263.57	316.31
263.802	307.31
264.035	321.31
264.267	325.31
264.499	320.31
264.732	329.31
264.964	323.31
265.197	333.31
265.429	313.31
265.661	316.31
265.894	309.31
266.126	313.31
266.358	333.31
266.591	351.31
266.823	332.31
267.055	317.31
267.287	322.31
267.52	330.31
267.752	325.31
267.984	342.31
268.216	341.31
268.448	344.31
268.681	316.31
268.913	349.31
269.145	332.31
269.377	337.31
269.609	357.31
269.841	349.31
270.073	366.31
270.306	341.31
270.538	332.31
270.77	350.31
271.002	348.31
271.234	343.31
271.466	366.31
271.698	356.31
271.93	372.31
272.162	374.31
272.394	362.31
272.626	365.31
272.858	374.31
273.09	367.31
273.322	379.31
273.553	372.31
273.785	374.31
274.017	366.31
274.249	373.31
274.481	376.31
274.713	365.31
274.945	374.31
275.176	369.31
275.408	383.31
275.64	382.31
275.872	377.31
276.104	389.31
276.335	386.31
276.567	368.31
276.799	377.31
277.031	395.31
277.262	383.31
277.494	384.31
277.726	385.31
277.957	393.31
278.189	412.31
278.421	402.31
278.652	406.31
278.884	402.31
279.115	376.31
279.347	430.31
279.579	406.31
279.81	392.31
280.042	390.31
280.273	408.31
280.505	412.31
280.736	405.31
280.968	423.31
281.199	395.31
281.431	436.31
281.662	405.31
281.894	398.31
282.125	431.31
282.356	432.31
282.588	418.31
282.819	427.31
283.051	418.31
283.282	406.31
283.513	456.31
283.745	440.31
283.976	422.31
284.207	420.31
284.439	432.31
284.67	440.31
284.901	426.31
285.132	453.31
285.364	433.31
285.595	436.31
285.826	416.31
286.057	428.31
286.288	426.31
286.52	431.31
286.751	433.31
286.982	448.31
287.213	492.31
287.444	457.31
287.675	449.31
287.906	456.31
288.138	446.31
288.369	475.31
288.6	453.31
288.831	466.31
289.062	450.31
289.293	444.31
289.524	477.31
289.755	448.31
289.986	462.31
290.217	469.31
290.448	467.31
290.679	471.31
290.91	472.31
291.141	473.31
291.371	472.31
291.602	466.31
291.833	482.31
292.064	486.31
292.295	463.31
292.526	488.31
292.757	450.31
292.987	462.31
293.218	453.31
293.449	428.31
293.68	457.31
293.91	462.31
294.141	475.31
294.372	457.31
294.603	467.31
294.833	489.31
295.064	458.31
295.295	454.31
295.525	474.31
295.756	474.31
295.987	472.31
296.217	475.31
296.448	485.31
296.679	462.31
296.909	469.31
297.14	455.31
297.37	506.31
297.601	499.31
297.831	501.31
298.062	479.31
298.292	502.31
298.523	512.31
298.753	494.31
298.984	504.31
299.214	500.31
299.445	526.31
299.675	510.31
299.905	485.31
300.136	510.31
300.366	512.31
300.597	522.31
300.827	512.31
301.057	517.31
301.288	538.31
301.518	517.31
301.748	534.31
301.979	528.31
302.209	531.31
302.439	545.31
302.669	521.31
302.9	511.31
303.13	520.31
303.36	536.31
303.59	527.31
303.82	539.31
304.051	534.31
304.281	555.31
304.511	543.31
304.741	540.31
304.971	538.31
305.201	536.31
305.431	542.31
305.661	537.31
305.891	544.31
306.121	525.31
306.352	527.31
306.582	521.31
306.812	520.31
307.042	531.31
307.272	524.31
307.502	524.31
307.731	530.31
307.961	533.31
308.191	503.31
308.421	514.31
308.651	478.31
308.881	526.31
309.111	521.31
309.341	538.31
309.571	537.31
309.8	532.31
310.03	516.31
310.26	538.31
310.49	545.31
310.72	531.31
310.949	519.31
311.179	526.31
311.409	522.31
311.639	553.31
311.868	545.31
312.098	524.31
312.328	547.31
312.557	568.31
312.787	539.31
313.017	561.31
313.246	570.31
313.476	585.31
313.706	571.31
313.935	564.31
314.165	576.31
314.394	593.31
314.624	564.31
314.853	565.31
315.083	581.31
315.312	580.31
315.542	571.31
315.771	588.31
316.001	574.31
316.23	588.31
316.46	576.31
316.689	552.31
316.919	557.31
317.148	560.31
317.377	574.31
317.607	545.31
317.836	566.31
318.065	586.31
318.295	576.31
318.524	565.31
318.753	575.31
318.983	568.31
319.212	575.31
319.441	572.31
319.67	571.31
319.9	604.31
320.129	587.31
320.358	604.31
320.587	592.31
320.816	576.31
321.046	588.31
321.275	604.31
321.504	581.31
321.733	603.31
321.962	601.31
322.191	592.31
322.42	611.31
322.649	599.31
322.878	587.31
323.108	617.31
323.337	637.31
323.566	622.31
323.795	608.31
324.024	596.31
324.253	643.31
324.482	624.31
324.71	625.31
324.939	624.31
325.168	634.31
325.397	646.31
325.626	624.31
325.855	662.31
326.084	652.31
326.313	650.31
326.542	645.31
326.77	659.31
326.999	681.31
327.228	634.31
327.457	681.31
327.686	643.31
327.914	632.31
328.143	665.31
328.372	656.31
328.6	658.31
328.829	688.31
329.058	679.31
329.287	695.31
329.515	660.31
329.744	689.31
329.972	658.31
330.201	694.31
330.43	696.31
330.658	702.31
330.887	708.31
331.115	713.31
331.344	716.31
331.572	719.31
331.801	733.31
332.03	737.31
332.258	783.31
332.486	788.31
332.715	812.31
332.943	822.31
333.172	844.31
333.4	876.31
333.629	928.31
333.857	910.31
334.085	927.31
334.314	916.31
334.542	910.31
334.771	884.31
334.999	887.31
335.227	887.31
335.455	885.31
335.684	852.31
335.912	836.31
336.14	838.31
336.369	867.31
336.597	840.31
336.825	838.31
337.053	832.31
337.281	814.31
337.51	814.31
337.738	786.31
337.966	811.31
338.194	786.31
338.422	786.31
338.65	770.31
338.878	771.31
339.106	790.31
339.334	800.31
339.562	763.31
339.79	748.31
340.018	746.31
340.246	716.31
340.474	734.31
340.702	744.31
340.93	738.31
341.158	732.31
341.386	757.31
341.614	758.31
341.842	734.31
342.07	726.31
342.298	741.31
342.526	722.31
342.754	730.31
342.981	743.31
343.209	737.31
343.437	787.31
343.665	795.31
343.893	847.31
344.12	880.31
344.348	864.31
344.576	836.31
344.804	831.31
345.031	773.31
345.259	783.31
345.487	754.31
345.714	740.31
345.942	727.31
346.17	736.31
346.397	710.31
346.625	696.31
346.853	692.31
347.08	716.31
347.308	719.31
347.535	721.31
347.763	725.31
347.99	744.31
348.218	705.31
348.445	732.31
348.673	696.31
348.9	688.31
349.128	701.31
349.355	706.31
349.583	742.31
349.81	702.31
350.037	684.31
350.265	710.31
350.492	703.31
350.72	688.31
350.947	689.31
351.174	685.31
351.402	709.31
351.629	698.31
351.856	701.31
352.083	690.31
352.311	677.31
352.538	683.31
352.765	688.31
352.992	682.31
353.22	681.31
353.447	670.31
353.674	693.31
353.901	694.31
354.128	670.31
354.355	681.31
354.583	669.31
354.81	686.31
355.037	681.31
355.264	697.31
355.491	709.31
355.718	699.31
355.945	684.31
356.172	668.31
356.399	688.31
356.626	678.31
356.853	678.31
357.08	697.31
357.307	696.31
357.534	667.31
357.761	693.31
357.988	683.31
358.215	676.31
358.441	671.31
358.668	668.31
358.895	700.31
359.122	669.31
359.349	673.31
359.576	690.31
359.802	699.31
360.029	684.31
360.256	650.31
360.483	682.31
360.709	681.31
360.936	665.31
361.163	697.31
361.39	712.31
361.616	692.31
361.843	681.31
362.07	704.31
362.296	684.31
362.523	701.31
362.749	658.31
362.976	667.31
363.203	688.31
363.429	680.31
363.656	672.31
363.882	671.31
364.109	656.31
364.335	682.31
364.562	652.31
364.788	678.31
365.015	687.31
365.241	669.31
365.468	674.31
365.694	668.31
365.92	658.31
366.147	688.31
366.373	694.31
366.599	692.31
366.826	689.31
367.052	672.31
367.278	676.31
367.505	696.31
367.731	700.31
367.957	679.31
368.184	670.31
368.41	692.31
368.636	684.31
368.862	682.31
369.089	673.31
369.315	686.31
369.541	691.31
369.767	708.31
369.993	694.31
370.219	706.31
370.445	728.31
370.672	744.31
370.898	726.31
371.124	712.31
371.35	723.31
371.576	711.31
371.802	729.31
372.028	718.31
372.254	716.31
372.48	723.31
372.706	702.31
372.932	751.31
373.158	761.31
373.384	737.31
373.61	730.31
373.835	745.31
374.061	727.31
374.287	732.31
374.513	752.31
374.739	731.31
374.965	789.31
375.191	829.31
375.416	788.31
375.642	769.31
375.868	741.31
376.094	734.31
376.319	729.31
376.545	730.31
376.771	711.31
376.997	735.31
377.222	726.31
377.448	708.31
377.674	713.31
377.899	722.31
378.125	708.31
378.35	715.31
378.576	690.31
378.802	686.31
379.027	714.31
379.253	720.31
379.478	696.31
379.704	701.31
379.929	716.31
380.155	694.31
380.38	708.31
380.606	713.31
380.831	710.31
381.057	721.31
381.282	715.31
381.507	718.31
381.733	710.31
381.958	722.31
382.184	737.31
382.409	732.31
382.634	753.31
382.86	759.31
383.085	764.31
383.31	748.31
383.535	748.31
383.761	766.31
383.986	775.31
384.211	772.31
384.436	806.31
384.662	830.31
384.887	831.31
385.112	860.31
385.337	851.31
385.562	875.31
385.787	853.31
386.013	846.31
386.238	879.31
386.463	880.31
386.688	869.31
386.913	843.31
387.138	853.31
387.363	861.31
387.588	857.31
387.813	856.31
388.038	839.31
388.263	836.31
388.488	848.31
388.713	865.31
388.938	845.31
389.163	836.31
389.387	829.31
389.612	820.31
389.837	822.31
390.062	817.31
390.287	864.31
390.512	854.31
390.736	856.31
390.961	881.31
391.186	871.31
391.411	909.31
391.636	916.31
391.86	936.31
392.085	969.31
392.31	973.31
392.534	936.31
392.759	914.31
392.984	892.31
393.208	922.31
393.433	897.31
393.658	893.31
393.882	892.31
394.107	900.31
394.331	930.31
394.556	906.31
394.78	921.31
395.005	917.31
395.229	914.31
395.454	943.31
395.678	973.31
395.903	966.31
396.127	922.31
396.352	929.31
396.576	918.31
396.801	930.31
397.025	934.31
397.249	955.31
397.474	969.31
397.698	987.31
397.922	1004.31
398.147	968.31
398.371	980.31
398.595	1042.31
398.82	1087.31
399.044	1156.31
399.268	1240.31
399.492	1410.31
399.717	1550.31
399.941	1546.31
400.165	1424.31
400.389	1293.31
400.613	1204.31
400.837	1162.31
401.062	1153.31
401.286	1107.31
401.51	1088.31
401.734	1072.31
401.958	1094.31
402.182	1104.31
402.406	1156.31
402.63	1111.31
402.854	1149.31
403.078	1140.31
403.302	1196.31
403.526	1172.31
403.75	1189.31
403.974	1228.31
404.198	1194.31
404.422	1210.31
404.645	1188.31
404.869	1186.31
405.093	1191.31
405.317	1180.31
405.541	1201.31
405.765	1186.31
405.988	1157.31
406.212	1178.31
406.436	1192.31
406.66	1208.31
406.883	1239.31
407.107	1261.31
407.331	1329.31
407.555	1390.31
407.778	1384.31
408.002	1344.31
408.226	1302.31
408.449	1286.31
408.673	1251.31
408.896	1245.31
409.12	1220.31
409.344	1242.31
409.567	1212.31
409.791	1230.31
410.014	1231.31
410.238	1176.31
410.461	1190.31
410.685	1153.31
410.908	1180.31
411.132	1144.31
411.355	1115.31
411.578	1154.31
411.802	1105.31
412.025	1130.31
412.249	1133.31
412.472	1165.31
412.695	1108.31
412.919	1123.31
413.142	1118.31
413.365	1109.31
413.589	1156.31
413.812	1100.31
414.035	1096.31
414.258	1102.31
414.482	1104.31
414.705	1117.31
414.928	1113.31
415.151	1105.31
415.374	1094.31
415.597	1074.31
415.821	1063.31
416.044	1065.31
416.267	1061.31
416.49	1083.31
416.713	1048.31
416.936	1085.31
417.159	1082.31
417.382	1062.31
417.605	1042.31
417.828	1081.31
418.051	1086.31
418.274	1075.31
418.497	1101.31
418.72	1119.31
418.943	1142.31
419.166	1180.31
419.389	1230.31
419.611	1191.31
419.834	1194.31
420.057	1144.31
420.28	1102.31
420.503	1095.31
420.726	1109.31
420.948	1049.31
421.171	1106.31
421.394	1099.31
421.617	1081.31
421.839	1087.31
422.062	1089.31
422.285	1122.31
422.507	1124.31
422.73	1092.31
422.953	1105.31
423.175	1112.31
423.398	1138.31
423.621	1141.31
423.843	1144.31
424.066	1129.31
424.288	1112.31
424.511	1120.31
424.733	1142.31
424.956	1105.31
425.178	1120.31
425.401	1109.31
425.623	1105.31
425.846	1061.31
426.068	1052.31
426.291	1043.31
426.513	1054.31
426.735	1042.31
426.958	1055.31
427.18	1031.31
427.402	1015.31
427.625	1012.31
427.847	987.31
428.069	986.31
428.292	1004.31
428.514	970.31
428.736	959.31
428.958	989.31
429.181	992.31
429.403	975.31
429.625	988.31
429.847	929.31
430.069	979.31
430.292	992.31
430.514	985.31
430.736	981.31
430.958	1009.31
431.18	972.31
431.402	987.31
431.624	947.31
431.846	998.31
432.068	964.31
432.29	1011.31
432.512	980.31
432.734	1006.31
432.956	972.31
433.178	1007.31
433.4	1021.31
433.622	1022.31
433.844	1069.31
434.066	1025.31
434.287	1036.31
434.509	1074.31
434.731	1101.31
434.953	1114.31
435.175	1095.31
435.397	1064.31
435.618	1051.31
435.84	985.31
436.062	1038.31
436.284	1004.31
436.505	990.31
436.727	1008.31
436.949	977.31
437.17	990.31
437.392	989.31
437.614	967.31
437.835	968.31
438.057	969.31
438.278	932.31
438.5	989.31
438.721	956.31
438.943	973.31
439.165	959.31
439.386	986.31
439.608	989.31
439.829	989.31
440.05	1011.31
440.272	1009.31
440.493	1028.31
440.715	1015.31
440.936	1033.31
441.158	1070.31
441.379	1053.31
441.6	1144.31
441.822	1128.31
442.043	1136.31
442.264	1109.31
442.486	1089.31
442.707	1111.31
442.928	1074.31
443.149	1124.31
443.371	1104.31
443.592	1078.31
443.813	1092.31
444.034	1155.31
444.255	1193.31
444.476	1206.31
444.698	1263.31
444.919	1304.31
445.14	1352.31
445.361	1267.31
445.582	1175.31
445.803	1088.31
446.024	1088.31
446.245	1036.31
446.466	1034.31
446.687	1037.31
446.908	1020.31
447.129	1014.31
447.35	1006.31
447.571	982.31
447.792	964.31
448.013	935.31
448.234	953.31
448.455	930.31
448.675	950.31
448.896	916.31
449.117	908.31
449.338	923.31
449.559	938.31
449.779	910.31
450	904.31
450.221	934.31
450.442	910.31
450.662	960.31
450.883	937.31
451.104	954.31
451.324	966.31
451.545	949.31
451.766	953.31
451.986	917.31
452.207	896.31
452.428	904.31
452.648	909.31
452.869	917.31
453.089	899.31
453.31	890.31
453.53	900.31
453.751	864.31
453.971	872.31
454.192	885.31
454.412	872.31
454.633	884.31
454.853	873.31
455.073	860.31
455.294	872.31
455.514	861.31
455.734	884.31
455.955	847.31
456.175	867.31
456.395	856.31
456.616	868.31
456.836	858.31
457.056	845.31
457.276	836.31
457.497	870.31
457.717	841.31
457.937	840.31
458.157	865.31
458.377	881.31
458.598	878.31
458.818	950.31
459.038	962.31
459.258	970.31
459.478	1006.31
459.698	1019.31
459.918	1046.31
460.138	1133.31
460.358	1152.31
460.578	1129.31
460.798	1193.31
461.018	1174.31
461.238	1184.31
461.458	1180.31
461.678	1176.31
461.898	1171.31
462.118	1174.31
462.338	1245.31
462.558	1277.31
462.777	1322.31
462.997	1429.31
463.217	1511.31
463.437	1491.31
463.657	1431.31
463.876	1364.31
464.096	1366.31
464.316	1341.31
464.536	1330.31
464.755	1305.31
464.975	1274.31
465.195	1195.31
465.414	1123.31
465.634	1060.31
465.854	1026.31
466.073	1026.31
466.293	989.31
466.512	982.31
466.732	965.31
466.951	970.31
467.171	968.31
467.391	972.31
467.61	928.31
467.829	941.31
468.049	941.31
468.268	962.31
468.488	922.31
468.707	934.31
468.927	927.31
469.146	911.31
469.365	962.31
469.585	934.31
469.804	962.31
470.023	976.31
470.243	953.31
470.462	1008.31
470.681	1002.31
470.901	1005.31
471.12	993.31
471.339	974.31
471.558	960.31
471.777	986.31
471.997	918.31
472.216	905.31
472.435	922.31
472.654	898.31
472.873	898.31
473.092	899.31
473.311	894.31
473.53	920.31
473.749	892.31
473.968	896.31
474.187	890.31
474.406	860.31
474.625	896.31
474.844	880.31
475.063	910.31
475.282	936.31
475.501	914.31
475.72	889.31
475.939	910.31
476.158	934.31
476.377	913.31
476.596	920.31
476.814	954.31
477.033	944.31
477.252	982.31
477.471	1030.31
477.69	1046.31
477.908	1041.31
478.127	1064.31
478.346	1113.31
478.564	1082.31
478.783	1116.31
479.002	1107.31
479.22	1130.31
479.439	1152.31
479.658	1106.31
479.876	1126.31
480.095	1154.31
480.313	1145.31
480.532	1177.31
480.751	1170.31
480.969	1135.31
481.188	1115.31
481.406	1077.31
481.624	1033.31
481.843	1048.31
482.061	1014.31
482.28	1012.31
482.498	1022.31
482.717	988.31
482.935	1001.31
483.153	1028.31
483.372	1051.31
483.59	1028.31
483.808	1032.31
484.027	1017.31
484.245	1028.31
484.463	1021.31
484.681	1053.31
484.9	1057.31
485.118	1035.31
485.336	1045.31
485.554	1065.31
485.772	1042.31
485.99	1043.31
486.209	1077.31
486.427	1073.31
486.645	1075.31
486.863	1088.31
487.081	1096.31
487.299	1078.31
487.517	1077.31
487.735	1081.31
487.953	1086.31
488.171	1104.31
488.389	1069.31
488.607	1076.31
488.825	1051.31
489.043	1041.31
489.261	1047.31
489.479	1055.31
489.696	1040.31
489.914	1057.31
490.132	1059.31
490.35	1049.31
490.568	1087.31
490.786	1112.31
491.003	1053.31
491.221	1094.31
491.439	1088.31
491.657	1095.31
491.874	1100.31
492.092	1105.31
492.31	1156.31
492.527	1148.31
492.745	1154.31
492.963	1129.31
493.18	1158.31
493.398	1116.31
493.615	1124.31
493.833	1125.31
494.05	1177.31
494.268	1167.31
494.485	1184.31
494.703	1168.31
494.92	1182.31
495.138	1150.31
495.355	1153.31
495.573	1159.31
495.79	1162.31
496.008	1194.31
496.225	1189.31
496.442	1212.31
496.66	1214.31
496.877	1220.31
497.094	1220.31
497.312	1277.31
