Data from Ni(NO3)2Standard.Agarose3%.GreenCap.LampEnergy5.5.E.O_HRD10591_14-40-11-188.txt Node
Date: Mon Jul 22 14:40:11 EDT 2019
User: cochatt
Spectrometer: HR+D1059
Trigger mode: 1
Integration Time (sec): 1.000000E-1
Scans to average: 1
Electric dark correction enabled: true
Nonlinearity correction enabled: false
Boxcar width: 0
XAxis mode: Wavelengths
Number of Pixels in Spectrum: 2048
>>>>>Begin Spectral Data<<<<<
223.165	-10.56
223.4	-10.56
223.635	-10.56
223.869	-12.56
224.104	-17.56
224.338	-8.56
224.573	-15.56
224.808	-12.56
225.042	-8.56
225.277	-4.56
225.511	3.44
225.746	5.44
225.98	1.44
226.215	1.44
226.449	18.44
226.683	15.44
226.918	16.44
227.152	28.44
227.387	54.44
227.621	37.44
227.856	42.44
228.09	54.44
228.324	50.44
228.559	46.44
228.793	53.44
229.027	74.44
229.262	81.44
229.496	68.44
229.73	67.44
229.964	75.44
230.199	66.44
230.433	89.44
230.667	80.44
230.901	72.44
231.136	81.44
231.37	86.44
231.604	85.44
231.838	68.44
232.072	82.44
232.306	86.44
232.541	87.44
232.775	78.44
233.009	79.44
233.243	94.44
233.477	76.44
233.711	82.44
233.945	89.44
234.179	70.44
234.413	94.44
234.647	74.44
234.881	84.44
235.115	77.44
235.349	74.44
235.583	85.44
235.817	73.44
236.051	94.44
236.285	86.44
236.519	78.44
236.753	83.44
236.987	69.44
237.221	86.44
237.455	70.44
237.689	84.44
237.922	77.44
238.156	77.44
238.39	88.44
238.624	71.44
238.858	77.44
239.091	68.44
239.325	83.44
239.559	75.44
239.793	74.44
240.027	81.44
240.26	67.44
240.494	74.44
240.728	74.44
240.961	79.44
241.195	69.44
241.429	72.44
241.662	75.44
241.896	83.44
242.13	71.44
242.363	77.44
242.597	84.44
242.83	76.44
243.064	75.44
243.298	74.44
243.531	71.44
243.765	85.44
243.998	90.44
244.232	77.44
244.465	72.44
244.699	76.44
244.932	80.44
245.166	75.44
245.399	81.44
245.633	79.44
245.866	85.44
246.099	74.44
246.333	77.44
246.566	77.44
246.8	69.44
247.033	71.44
247.266	82.44
247.5	75.44
247.733	76.44
247.966	86.44
248.2	94.44
248.433	88.44
248.666	75.44
248.899	85.44
249.133	78.44
249.366	86.44
249.599	85.44
249.832	70.44
250.066	74.44
250.299	84.44
250.532	81.44
250.765	75.44
250.998	76.44
251.231	79.44
251.465	80.44
251.698	79.44
251.931	84.44
252.164	90.44
252.397	76.44
252.63	84.44
252.863	83.44
253.096	85.44
253.329	82.44
253.562	84.44
253.795	93.44
254.028	82.44
254.261	74.44
254.494	80.44
254.727	88.44
254.96	91.44
255.193	86.44
255.426	75.44
255.659	84.44
255.892	78.44
256.124	76.44
256.357	82.44
256.59	78.44
256.823	81.44
257.056	77.44
257.289	87.44
257.521	86.44
257.754	88.44
257.987	82.44
258.22	85.44
258.452	78.44
258.685	73.44
258.918	74.44
259.151	74.44
259.383	72.44
259.616	73.44
259.849	83.44
260.081	85.44
260.314	82.44
260.547	85.44
260.779	90.44
261.012	88.44
261.244	82.44
261.477	81.44
261.71	72.44
261.942	80.44
262.175	74.44
262.407	70.44
262.64	85.44
262.872	83.44
263.105	83.44
263.337	101.44
263.57	80.44
263.802	89.44
264.035	62.44
264.267	85.44
264.499	79.44
264.732	79.44
264.964	100.44
265.197	72.44
265.429	69.44
265.661	89.44
265.894	80.44
266.126	100.44
266.358	87.44
266.591	83.44
266.823	80.44
267.055	89.44
267.287	89.44
267.52	76.44
267.752	97.44
267.984	106.44
268.216	85.44
268.448	78.44
268.681	77.44
268.913	99.44
269.145	89.44
269.377	86.44
269.609	71.44
269.841	86.44
270.073	70.44
270.306	77.44
270.538	92.44
270.77	88.44
271.002	79.44
271.234	89.44
271.466	83.44
271.698	84.44
271.93	88.44
272.162	93.44
272.394	77.44
272.626	81.44
272.858	83.44
273.09	88.44
273.322	95.44
273.553	86.44
273.785	86.44
274.017	91.44
274.249	77.44
274.481	84.44
274.713	86.44
274.945	106.44
275.176	85.44
275.408	94.44
275.64	79.44
275.872	73.44
276.104	92.44
276.335	91.44
276.567	92.44
276.799	78.44
277.031	94.44
277.262	90.44
277.494	85.44
277.726	79.44
277.957	72.44
278.189	74.44
278.421	83.44
278.652	72.44
278.884	79.44
279.115	91.44
279.347	83.44
279.579	85.44
279.81	85.44
280.042	88.44
280.273	78.44
280.505	80.44
280.736	72.44
280.968	94.44
281.199	82.44
281.431	83.44
281.662	85.44
281.894	89.44
282.125	90.44
282.356	83.44
282.588	67.44
282.819	79.44
283.051	74.44
283.282	71.44
283.513	82.44
283.745	79.44
283.976	89.44
284.207	94.44
284.439	105.44
284.67	94.44
284.901	85.44
285.132	78.44
285.364	107.44
285.595	99.44
285.826	83.44
286.057	96.44
286.288	95.44
286.52	89.44
286.751	77.44
286.982	88.44
287.213	74.44
287.444	95.44
287.675	85.44
287.906	78.44
288.138	98.44
288.369	79.44
288.6	92.44
288.831	92.44
289.062	89.44
289.293	91.44
289.524	79.44
289.755	91.44
289.986	81.44
290.217	69.44
290.448	81.44
290.679	82.44
290.91	78.44
291.141	76.44
291.371	71.44
291.602	83.44
291.833	85.44
292.064	87.44
292.295	87.44
292.526	81.44
292.757	94.44
292.987	85.44
293.218	79.44
293.449	83.44
293.68	94.44
293.91	71.44
294.141	83.44
294.372	87.44
294.603	83.44
294.833	80.44
295.064	80.44
295.295	94.44
295.525	94.44
295.756	81.44
295.987	75.44
296.217	73.44
296.448	72.44
296.679	91.44
296.909	94.44
297.14	89.44
297.37	85.44
297.601	88.44
297.831	83.44
298.062	90.44
298.292	86.44
298.523	73.44
298.753	98.44
298.984	75.44
299.214	73.44
299.445	93.44
299.675	88.44
299.905	92.44
300.136	94.44
300.366	91.44
300.597	86.44
300.827	89.44
301.057	71.44
301.288	88.44
301.518	81.44
301.748	78.44
301.979	91.44
302.209	80.44
302.439	89.44
302.669	86.44
302.9	80.44
303.13	79.44
303.36	87.44
303.59	82.44
303.82	99.44
304.051	78.44
304.281	80.44
304.511	93.44
304.741	99.44
304.971	81.44
305.201	79.44
305.431	90.44
305.661	87.44
305.891	92.44
306.121	91.44
306.352	78.44
306.582	90.44
306.812	86.44
307.042	86.44
307.272	73.44
307.502	96.44
307.731	77.44
307.961	91.44
308.191	89.44
308.421	81.44
308.651	76.44
308.881	91.44
309.111	67.44
309.341	84.44
309.571	78.44
309.8	95.44
310.03	91.44
310.26	78.44
310.49	91.44
310.72	82.44
310.949	89.44
311.179	95.44
311.409	79.44
311.639	91.44
311.868	74.44
312.098	93.44
312.328	79.44
312.557	97.44
312.787	78.44
313.017	89.44
313.246	69.44
313.476	69.44
313.706	88.44
313.935	81.44
314.165	74.44
314.394	89.44
314.624	85.44
314.853	105.44
315.083	77.44
315.312	91.44
315.542	78.44
315.771	93.44
316.001	81.44
316.23	87.44
316.46	93.44
316.689	75.44
316.919	92.44
317.148	91.44
317.377	86.44
317.607	75.44
317.836	77.44
318.065	101.44
318.295	87.44
318.524	88.44
318.753	85.44
318.983	87.44
319.212	88.44
319.441	94.44
319.67	79.44
319.9	89.44
320.129	97.44
320.358	78.44
320.587	78.44
320.816	88.44
321.046	84.44
321.275	78.44
321.504	84.44
321.733	71.44
321.962	94.44
322.191	85.44
322.42	75.44
322.649	79.44
322.878	103.44
323.108	83.44
323.337	91.44
323.566	91.44
323.795	91.44
324.024	97.44
324.253	87.44
324.482	87.44
324.71	81.44
324.939	90.44
325.168	85.44
325.397	69.44
325.626	88.44
325.855	80.44
326.084	94.44
326.313	84.44
326.542	68.44
326.77	86.44
326.999	85.44
327.228	84.44
327.457	101.44
327.686	96.44
327.914	94.44
328.143	86.44
328.372	82.44
328.6	91.44
328.829	84.44
329.058	83.44
329.287	96.44
329.515	92.44
329.744	88.44
329.972	78.44
330.201	89.44
330.43	81.44
330.658	91.44
330.887	87.44
331.115	93.44
331.344	90.44
331.572	85.44
331.801	78.44
332.03	90.44
332.258	83.44
332.486	93.44
332.715	86.44
332.943	77.44
333.172	86.44
333.4	79.44
333.629	86.44
333.857	74.44
334.085	83.44
334.314	87.44
334.542	81.44
334.771	75.44
334.999	94.44
335.227	80.44
335.455	100.44
335.684	90.44
335.912	97.44
336.14	85.44
336.369	97.44
336.597	98.44
336.825	97.44
337.053	82.44
337.281	95.44
337.51	93.44
337.738	79.44
337.966	85.44
338.194	93.44
338.422	88.44
338.65	91.44
338.878	102.44
339.106	88.44
339.334	90.44
339.562	85.44
339.79	89.44
340.018	79.44
340.246	88.44
340.474	82.44
340.702	87.44
340.93	90.44
341.158	90.44
341.386	89.44
341.614	74.44
341.842	77.44
342.07	90.44
342.298	94.44
342.526	94.44
342.754	79.44
342.981	88.44
343.209	89.44
343.437	80.44
343.665	90.44
343.893	79.44
344.12	81.44
344.348	88.44
344.576	84.44
344.804	93.44
345.031	82.44
345.259	92.44
345.487	82.44
345.714	77.44
345.942	73.44
346.17	91.44
346.397	83.44
346.625	91.44
346.853	77.44
347.08	89.44
347.308	103.44
347.535	91.44
347.763	77.44
347.99	96.44
348.218	89.44
348.445	89.44
348.673	69.44
348.9	99.44
349.128	92.44
349.355	93.44
349.583	88.44
349.81	90.44
350.037	92.44
350.265	79.44
350.492	78.44
350.72	96.44
350.947	94.44
351.174	96.44
351.402	76.44
351.629	96.44
351.856	81.44
352.083	81.44
352.311	88.44
352.538	83.44
352.765	93.44
352.992	88.44
353.22	79.44
353.447	91.44
353.674	76.44
353.901	85.44
354.128	83.44
354.355	70.44
354.583	73.44
354.81	89.44
355.037	97.44
355.264	91.44
355.491	86.44
355.718	78.44
355.945	67.44
356.172	75.44
356.399	86.44
356.626	95.44
356.853	95.44
357.08	93.44
357.307	90.44
357.534	92.44
357.761	85.44
357.988	83.44
358.215	75.44
358.441	84.44
358.668	94.44
358.895	90.44
359.122	94.44
359.349	85.44
359.576	78.44
359.802	89.44
360.029	83.44
360.256	84.44
360.483	85.44
360.709	70.44
360.936	98.44
361.163	89.44
361.39	79.44
361.616	81.44
361.843	93.44
362.07	89.44
362.296	83.44
362.523	89.44
362.749	84.44
362.976	87.44
363.203	89.44
363.429	83.44
363.656	73.44
363.882	89.44
364.109	82.44
364.335	76.44
364.562	79.44
364.788	78.44
365.015	82.44
365.241	77.44
365.468	86.44
365.694	89.44
365.92	72.44
366.147	94.44
366.373	77.44
366.599	99.44
366.826	76.44
367.052	86.44
367.278	82.44
367.505	88.44
367.731	91.44
367.957	94.44
368.184	83.44
368.41	101.44
368.636	83.44
368.862	79.44
369.089	87.44
369.315	74.44
369.541	85.44
369.767	88.44
369.993	76.44
370.219	87.44
370.445	89.44
370.672	86.44
370.898	86.44
371.124	91.44
371.35	81.44
371.576	89.44
371.802	98.44
372.028	79.44
372.254	86.44
372.48	84.44
372.706	76.44
372.932	90.44
373.158	85.44
373.384	89.44
373.61	79.44
373.835	82.44
374.061	93.44
374.287	72.44
374.513	86.44
374.739	100.44
374.965	79.44
375.191	75.44
375.416	90.44
375.642	89.44
375.868	78.44
376.094	83.44
376.319	81.44
376.545	85.44
376.771	82.44
376.997	89.44
377.222	84.44
377.448	89.44
377.674	75.44
377.899	72.44
378.125	97.44
378.35	86.44
378.576	79.44
378.802	81.44
379.027	88.44
379.253	98.44
379.478	86.44
379.704	70.44
379.929	84.44
380.155	73.44
380.38	89.44
380.606	70.44
380.831	84.44
381.057	81.44
381.282	75.44
381.507	73.44
381.733	90.44
381.958	87.44
382.184	87.44
382.409	93.44
382.634	82.44
382.86	78.44
383.085	95.44
383.31	86.44
383.535	97.44
383.761	92.44
383.986	77.44
384.211	71.44
384.436	69.44
384.662	94.44
384.887	95.44
385.112	89.44
385.337	83.44
385.562	81.44
385.787	78.44
386.013	79.44
386.238	97.44
386.463	90.44
386.688	81.44
386.913	91.44
387.138	91.44
387.363	75.44
387.588	94.44
387.813	86.44
388.038	89.44
388.263	76.44
388.488	90.44
388.713	99.44
388.938	82.44
389.163	82.44
389.387	83.44
389.612	80.44
389.837	78.44
390.062	88.44
390.287	92.44
390.512	84.44
390.736	84.44
390.961	98.44
391.186	99.44
391.411	86.44
391.636	78.44
391.86	86.44
392.085	106.44
392.31	64.44
392.534	71.44
392.759	88.44
392.984	78.44
393.208	87.44
393.433	85.44
393.658	89.44
393.882	79.44
394.107	83.44
394.331	85.44
394.556	82.44
394.78	87.44
395.005	75.44
395.229	79.44
395.454	98.44
395.678	83.44
395.903	86.44
396.127	73.44
396.352	69.44
396.576	73.44
396.801	98.44
397.025	93.44
397.249	83.44
397.474	93.44
397.698	85.44
397.922	91.44
398.147	85.44
398.371	94.44
398.595	85.44
398.82	83.44
399.044	89.44
399.268	91.44
399.492	95.44
399.717	88.44
399.941	95.44
400.165	101.44
400.389	85.44
400.613	76.44
400.837	94.44
401.062	79.44
401.286	75.44
401.51	90.44
401.734	92.44
401.958	94.44
402.182	86.44
402.406	90.44
402.63	65.44
402.854	87.44
403.078	84.44
403.302	75.44
403.526	78.44
403.75	95.44
403.974	84.44
404.198	87.44
404.422	83.44
404.645	87.44
404.869	94.44
405.093	87.44
405.317	88.44
405.541	80.44
405.765	77.44
405.988	83.44
406.212	90.44
406.436	84.44
406.66	85.44
406.883	86.44
407.107	100.44
407.331	86.44
407.555	91.44
407.778	83.44
408.002	85.44
408.226	86.44
408.449	86.44
408.673	78.44
408.896	84.44
409.12	84.44
409.344	88.44
409.567	89.44
409.791	70.44
410.014	84.44
410.238	68.44
410.461	73.44
410.685	97.44
410.908	85.44
411.132	92.44
411.355	85.44
411.578	89.44
411.802	82.44
412.025	97.44
412.249	85.44
412.472	87.44
412.695	84.44
412.919	81.44
413.142	79.44
413.365	84.44
413.589	90.44
413.812	86.44
414.035	84.44
414.258	89.44
414.482	78.44
414.705	85.44
414.928	96.44
415.151	79.44
415.374	85.44
415.597	82.44
415.821	74.44
416.044	65.44
416.267	77.44
416.49	73.44
416.713	66.44
416.936	75.44
417.159	86.44
417.382	88.44
417.605	91.44
417.828	70.44
418.051	80.44
418.274	85.44
418.497	76.44
418.72	84.44
418.943	92.44
419.166	95.44
419.389	84.44
419.611	78.44
419.834	89.44
420.057	87.44
420.28	94.44
420.503	73.44
420.726	83.44
420.948	86.44
421.171	73.44
421.394	98.44
421.617	87.44
421.839	83.44
422.062	76.44
422.285	86.44
422.507	83.44
422.73	86.44
422.953	79.44
423.175	84.44
423.398	85.44
423.621	83.44
423.843	81.44
424.066	81.44
424.288	85.44
424.511	87.44
424.733	91.44
424.956	86.44
425.178	91.44
425.401	92.44
425.623	87.44
425.846	78.44
426.068	80.44
426.291	83.44
426.513	85.44
426.735	87.44
426.958	88.44
427.18	91.44
427.402	92.44
427.625	88.44
427.847	85.44
428.069	74.44
428.292	82.44
428.514	101.44
428.736	80.44
428.958	81.44
429.181	92.44
429.403	87.44
429.625	82.44
429.847	87.44
430.069	78.44
430.292	97.44
430.514	79.44
430.736	84.44
430.958	92.44
431.18	97.44
431.402	94.44
431.624	92.44
431.846	77.44
432.068	94.44
432.29	109.44
432.512	92.44
432.734	89.44
432.956	83.44
433.178	87.44
433.4	110.44
433.622	75.44
433.844	93.44
434.066	87.44
434.287	88.44
434.509	90.44
434.731	75.44
434.953	79.44
435.175	76.44
435.397	94.44
435.618	85.44
435.84	83.44
436.062	94.44
436.284	82.44
436.505	72.44
436.727	77.44
436.949	92.44
437.17	94.44
437.392	85.44
437.614	91.44
437.835	90.44
438.057	87.44
438.278	85.44
438.5	99.44
438.721	98.44
438.943	87.44
439.165	98.44
439.386	86.44
439.608	81.44
439.829	83.44
440.05	97.44
440.272	97.44
440.493	97.44
440.715	81.44
440.936	83.44
441.158	96.44
441.379	95.44
441.6	87.44
441.822	83.44
442.043	94.44
442.264	85.44
442.486	87.44
442.707	85.44
442.928	80.44
443.149	75.44
443.371	89.44
443.592	92.44
443.813	83.44
444.034	88.44
444.255	94.44
444.476	92.44
444.698	97.44
444.919	80.44
445.14	225.44
445.361	133.44
445.582	99.44
445.803	95.44
446.024	81.44
446.245	98.44
446.466	81.44
446.687	86.44
446.908	91.44
447.129	83.44
447.35	78.44
447.571	83.44
447.792	87.44
448.013	76.44
448.234	90.44
448.455	94.44
448.675	93.44
448.896	80.44
449.117	71.44
449.338	81.44
449.559	78.44
449.779	78.44
450	84.44
450.221	79.44
450.442	82.44
450.662	90.44
450.883	94.44
451.104	85.44
451.324	94.44
451.545	77.44
451.766	82.44
451.986	84.44
452.207	85.44
452.428	73.44
452.648	78.44
452.869	87.44
453.089	81.44
453.31	84.44
453.53	92.44
453.751	98.44
453.971	77.44
454.192	72.44
454.412	86.44
454.633	91.44
454.853	86.44
455.073	82.44
455.294	91.44
455.514	77.44
455.734	95.44
455.955	85.44
456.175	87.44
456.395	87.44
456.616	73.44
456.836	86.44
457.056	86.44
457.276	95.44
457.497	84.44
457.717	93.44
457.937	89.44
458.157	84.44
458.377	79.44
458.598	95.44
458.818	96.44
459.038	85.44
459.258	79.44
459.478	85.44
459.698	89.44
459.918	87.44
460.138	89.44
460.358	93.44
460.578	96.44
460.798	83.44
461.018	84.44
461.238	83.44
461.458	83.44
461.678	93.44
461.898	85.44
462.118	86.44
462.338	101.44
462.558	101.44
462.777	106.44
462.997	79.44
463.217	98.44
463.437	93.44
463.657	90.44
463.876	87.44
464.096	90.44
464.316	83.44
464.536	102.44
464.755	91.44
464.975	94.44
465.195	88.44
465.414	77.44
465.634	85.44
465.854	84.44
466.073	85.44
466.293	93.44
466.512	83.44
466.732	96.44
466.951	85.44
467.171	85.44
467.391	94.44
467.61	70.44
467.829	81.44
468.049	88.44
468.268	82.44
468.488	89.44
468.707	79.44
468.927	79.44
469.146	98.44
469.365	73.44
469.585	82.44
469.804	98.44
470.023	82.44
470.243	91.44
470.462	98.44
470.681	84.44
470.901	97.44
471.12	101.44
471.339	103.44
471.558	89.44
471.777	93.44
471.997	86.44
472.216	100.44
472.435	99.44
472.654	88.44
472.873	89.44
473.092	78.44
473.311	79.44
473.53	100.44
473.749	92.44
473.968	94.44
474.187	91.44
474.406	85.44
474.625	87.44
474.844	96.44
475.063	90.44
475.282	89.44
475.501	84.44
475.72	77.44
475.939	94.44
476.158	88.44
476.377	93.44
476.596	83.44
476.814	92.44
477.033	98.44
477.252	84.44
477.471	76.44
477.69	85.44
477.908	88.44
478.127	97.44
478.346	91.44
478.564	94.44
478.783	84.44
479.002	100.44
479.22	77.44
479.439	90.44
479.658	102.44
479.876	92.44
480.095	87.44
480.313	89.44
480.532	87.44
480.751	97.44
480.969	82.44
481.188	83.44
481.406	93.44
481.624	89.44
481.843	104.44
482.061	96.44
482.28	90.44
482.498	91.44
482.717	89.44
482.935	106.44
483.153	91.44
483.372	74.44
483.59	103.44
483.808	88.44
484.027	87.44
484.245	100.44
484.463	89.44
484.681	96.44
484.9	109.44
485.118	94.44
485.336	82.44
485.554	90.44
485.772	100.44
485.99	110.44
486.209	90.44
486.427	81.44
486.645	92.44
486.863	98.44
487.081	102.44
487.299	83.44
487.517	105.44
487.735	85.44
487.953	86.44
488.171	107.44
488.389	96.44
488.607	86.44
488.825	87.44
489.043	98.44
489.261	98.44
489.479	97.44
489.696	87.44
489.914	94.44
490.132	94.44
490.35	98.44
490.568	82.44
490.786	101.44
491.003	99.44
491.221	97.44
491.439	87.44
491.657	87.44
491.874	89.44
492.092	85.44
492.31	94.44
492.527	90.44
492.745	83.44
492.963	98.44
493.18	94.44
493.398	94.44
493.615	93.44
493.833	80.44
494.05	97.44
494.268	86.44
494.485	91.44
494.703	93.44
494.92	102.44
495.138	116.44
495.355	95.44
495.573	106.44
495.79	94.44
496.008	98.44
496.225	92.44
496.442	87.44
496.66	93.44
496.877	102.44
497.094	100.44
497.312	97.44
497.529	106.44
497.746	95.44
497.963	85.44
498.181	104.44
498.398	83.44
498.615	97.44
498.832	90.44
499.049	100.44
499.267	96.44
499.484	109.44
499.701	115.44
499.918	110.44
500.135	103.44
500.352	108.44
500.569	119.44
500.786	105.44
501.003	105.44
501.22	121.44
501.437	104.44
501.654	110.44
501.871	106.44
502.088	99.44
502.305	94.44
502.522	110.44
502.739	98.44
502.956	101.44
503.172	89.44
503.389	94.44
503.606	81.44
503.823	89.44
504.04	109.44
504.256	102.44
504.473	85.44
504.69	97.44
504.907	103.44
505.123	100.44
505.34	103.44
505.557	93.44
505.773	86.44
505.99	93.44
506.207	83.44
506.423	94.44
506.64	94.44
506.856	99.44
507.073	102.44
507.289	105.44
507.506	102.44
507.722	93.44
507.939	87.44
508.155	83.44
508.372	86.44
508.588	93.44
508.805	110.44
509.021	95.44
509.238	93.44
509.454	92.44
509.67	94.44
509.887	94.44
510.103	92.44
510.319	99.44
510.536	99.44
510.752	107.44
510.968	84.44
511.184	87.44
511.401	86.44
511.617	82.44
511.833	107.44
512.049	99.44
512.265	89.44
512.481	92.44
512.698	87.44
512.914	93.44
513.13	97.44
513.346	92.44
513.562	95.44
513.778	80.44
513.994	103.44
514.21	95.44
514.426	99.44
514.642	99.44
514.858	91.44
515.074	92.44
515.29	94.44
515.506	87.44
515.721	99.44
515.937	88.44
516.153	94.44
516.369	91.44
516.585	85.44
516.801	87.44
517.016	98.44
517.232	98.44
517.448	98.44
517.664	92.44
517.879	86.44
518.095	100.44
518.311	102.44
