Data from Ni(NO3)2Standard.Agarose3%.GreenCap.LampEnergy5.5.E.O_HRD10591_14-39-46-188.txt Node
Date: Mon Jul 22 14:39:46 EDT 2019
User: cochatt
Spectrometer: HR+D1059
Trigger mode: 1
Integration Time (sec): 1.000000E-1
Scans to average: 1
Electric dark correction enabled: true
Nonlinearity correction enabled: false
Boxcar width: 0
XAxis mode: Wavelengths
Number of Pixels in Spectrum: 2048
>>>>>Begin Spectral Data<<<<<
223.165	-16.56
223.4	-16.56
223.635	-16.56
223.869	-17.56
224.104	-29.56
224.338	-12.56
224.573	-2.56
224.808	-21.56
225.042	-21.56
225.277	-14.56
225.511	-0.56
225.746	9.44
225.98	19.44
226.215	19.44
226.449	25.44
226.683	7.44
226.918	25.44
227.152	30.44
227.387	45.44
227.621	24.44
227.856	27.44
228.09	43.44
228.324	53.44
228.559	63.44
228.793	54.44
229.027	45.44
229.262	55.44
229.496	65.44
229.73	69.44
229.964	59.44
230.199	79.44
230.433	80.44
230.667	65.44
230.901	86.44
231.136	79.44
231.37	81.44
231.604	85.44
231.838	79.44
232.072	86.44
232.306	69.44
232.541	77.44
232.775	83.44
233.009	75.44
233.243	66.44
233.477	73.44
233.711	73.44
233.945	84.44
234.179	79.44
234.413	88.44
234.647	63.44
234.881	67.44
235.115	79.44
235.349	96.44
235.583	72.44
235.817	79.44
236.051	69.44
236.285	67.44
236.519	81.44
236.753	71.44
236.987	84.44
237.221	75.44
237.455	90.44
237.689	74.44
237.922	87.44
238.156	80.44
238.39	72.44
238.624	83.44
238.858	74.44
239.091	77.44
239.325	74.44
239.559	69.44
239.793	71.44
240.027	67.44
240.26	75.44
240.494	80.44
240.728	68.44
240.961	78.44
241.195	66.44
241.429	71.44
241.662	72.44
241.896	87.44
242.13	78.44
242.363	86.44
242.597	81.44
242.83	74.44
243.064	86.44
243.298	69.44
243.531	67.44
243.765	85.44
243.998	76.44
244.232	82.44
244.465	74.44
244.699	80.44
244.932	71.44
245.166	81.44
245.399	68.44
245.633	74.44
245.866	80.44
246.099	70.44
246.333	73.44
246.566	65.44
246.8	85.44
247.033	79.44
247.266	82.44
247.5	81.44
247.733	74.44
247.966	81.44
248.2	65.44
248.433	79.44
248.666	74.44
248.899	77.44
249.133	79.44
249.366	75.44
249.599	70.44
249.832	74.44
250.066	73.44
250.299	69.44
250.532	87.44
250.765	71.44
250.998	83.44
251.231	86.44
251.465	87.44
251.698	68.44
251.931	58.44
252.164	66.44
252.397	73.44
252.63	84.44
252.863	69.44
253.096	68.44
253.329	83.44
253.562	89.44
253.795	81.44
254.028	89.44
254.261	92.44
254.494	82.44
254.727	82.44
254.96	90.44
255.193	93.44
255.426	78.44
255.659	72.44
255.892	67.44
256.124	86.44
256.357	81.44
256.59	69.44
256.823	85.44
257.056	88.44
257.289	84.44
257.521	84.44
257.754	84.44
257.987	75.44
258.22	67.44
258.452	70.44
258.685	75.44
258.918	78.44
259.151	69.44
259.383	67.44
259.616	74.44
259.849	82.44
260.081	83.44
260.314	83.44
260.547	71.44
260.779	78.44
261.012	82.44
261.244	87.44
261.477	77.44
261.71	71.44
261.942	76.44
262.175	75.44
262.407	70.44
262.64	80.44
262.872	77.44
263.105	82.44
263.337	87.44
263.57	79.44
263.802	74.44
264.035	70.44
264.267	68.44
264.499	91.44
264.732	84.44
264.964	82.44
265.197	71.44
265.429	80.44
265.661	72.44
265.894	91.44
266.126	80.44
266.358	79.44
266.591	83.44
266.823	73.44
267.055	79.44
267.287	77.44
267.52	95.44
267.752	78.44
267.984	81.44
268.216	81.44
268.448	73.44
268.681	78.44
268.913	82.44
269.145	73.44
269.377	85.44
269.609	83.44
269.841	73.44
270.073	85.44
270.306	81.44
270.538	74.44
270.77	71.44
271.002	85.44
271.234	81.44
271.466	67.44
271.698	94.44
271.93	84.44
272.162	63.44
272.394	90.44
272.626	91.44
272.858	87.44
273.09	87.44
273.322	95.44
273.553	73.44
273.785	86.44
274.017	82.44
274.249	70.44
274.481	86.44
274.713	58.44
274.945	79.44
275.176	78.44
275.408	82.44
275.64	91.44
275.872	82.44
276.104	81.44
276.335	71.44
276.567	75.44
276.799	87.44
277.031	87.44
277.262	84.44
277.494	94.44
277.726	94.44
277.957	72.44
278.189	83.44
278.421	81.44
278.652	89.44
278.884	84.44
279.115	71.44
279.347	71.44
279.579	95.44
279.81	82.44
280.042	89.44
280.273	102.44
280.505	83.44
280.736	84.44
280.968	87.44
281.199	74.44
281.431	82.44
281.662	95.44
281.894	84.44
282.125	79.44
282.356	74.44
282.588	77.44
282.819	76.44
283.051	86.44
283.282	82.44
283.513	77.44
283.745	78.44
283.976	79.44
284.207	72.44
284.439	83.44
284.67	86.44
284.901	59.44
285.132	77.44
285.364	85.44
285.595	86.44
285.826	86.44
286.057	83.44
286.288	85.44
286.52	79.44
286.751	78.44
286.982	76.44
287.213	72.44
287.444	88.44
287.675	68.44
287.906	81.44
288.138	82.44
288.369	83.44
288.6	77.44
288.831	54.44
289.062	79.44
289.293	80.44
289.524	85.44
289.755	88.44
289.986	74.44
290.217	77.44
290.448	85.44
290.679	83.44
290.91	80.44
291.141	86.44
291.371	82.44
291.602	73.44
291.833	74.44
292.064	86.44
292.295	82.44
292.526	88.44
292.757	89.44
292.987	71.44
293.218	73.44
293.449	86.44
293.68	87.44
293.91	70.44
294.141	85.44
294.372	70.44
294.603	83.44
294.833	73.44
295.064	91.44
295.295	77.44
295.525	85.44
295.756	79.44
295.987	74.44
296.217	94.44
296.448	94.44
296.679	74.44
296.909	83.44
297.14	74.44
297.37	91.44
297.601	92.44
297.831	83.44
298.062	96.44
298.292	80.44
298.523	83.44
298.753	83.44
298.984	86.44
299.214	82.44
299.445	89.44
299.675	83.44
299.905	80.44
300.136	91.44
300.366	91.44
300.597	93.44
300.827	80.44
301.057	80.44
301.288	73.44
301.518	81.44
301.748	77.44
301.979	93.44
302.209	78.44
302.439	88.44
302.669	76.44
302.9	90.44
303.13	76.44
303.36	74.44
303.59	82.44
303.82	85.44
304.051	79.44
304.281	61.44
304.511	92.44
304.741	82.44
304.971	87.44
305.201	86.44
305.431	91.44
305.661	77.44
305.891	76.44
306.121	78.44
306.352	89.44
306.582	89.44
306.812	92.44
307.042	69.44
307.272	83.44
307.502	96.44
307.731	95.44
307.961	86.44
308.191	95.44
308.421	72.44
308.651	89.44
308.881	94.44
309.111	87.44
309.341	81.44
309.571	89.44
309.8	85.44
310.03	78.44
310.26	77.44
310.49	81.44
310.72	76.44
310.949	83.44
311.179	88.44
311.409	85.44
311.639	91.44
311.868	88.44
312.098	79.44
312.328	82.44
312.557	84.44
312.787	76.44
313.017	102.44
313.246	68.44
313.476	92.44
313.706	102.44
313.935	75.44
314.165	90.44
314.394	89.44
314.624	70.44
314.853	81.44
315.083	83.44
315.312	82.44
315.542	74.44
315.771	74.44
316.001	81.44
316.23	94.44
316.46	67.44
316.689	84.44
316.919	85.44
317.148	81.44
317.377	95.44
317.607	93.44
317.836	79.44
318.065	83.44
318.295	90.44
318.524	88.44
318.753	86.44
318.983	89.44
319.212	88.44
319.441	90.44
319.67	84.44
319.9	73.44
320.129	80.44
320.358	81.44
320.587	82.44
320.816	84.44
321.046	90.44
321.275	98.44
321.504	82.44
321.733	86.44
321.962	88.44
322.191	83.44
322.42	72.44
322.649	88.44
322.878	89.44
323.108	99.44
323.337	85.44
323.566	77.44
323.795	81.44
324.024	81.44
324.253	92.44
324.482	90.44
324.71	68.44
324.939	69.44
325.168	92.44
325.397	85.44
325.626	74.44
325.855	85.44
326.084	83.44
326.313	78.44
326.542	95.44
326.77	87.44
326.999	75.44
327.228	90.44
327.457	92.44
327.686	69.44
327.914	84.44
328.143	85.44
328.372	87.44
328.6	86.44
328.829	92.44
329.058	87.44
329.287	79.44
329.515	97.44
329.744	85.44
329.972	88.44
330.201	91.44
330.43	81.44
330.658	76.44
330.887	97.44
331.115	90.44
331.344	72.44
331.572	76.44
331.801	77.44
332.03	83.44
332.258	89.44
332.486	95.44
332.715	104.44
332.943	74.44
333.172	78.44
333.4	89.44
333.629	77.44
333.857	83.44
334.085	80.44
334.314	88.44
334.542	91.44
334.771	93.44
334.999	98.44
335.227	95.44
335.455	98.44
335.684	83.44
335.912	87.44
336.14	97.44
336.369	83.44
336.597	91.44
336.825	93.44
337.053	103.44
337.281	83.44
337.51	83.44
337.738	83.44
337.966	85.44
338.194	99.44
338.422	93.44
338.65	85.44
338.878	75.44
339.106	92.44
339.334	86.44
339.562	56.44
339.79	83.44
340.018	77.44
340.246	79.44
340.474	93.44
340.702	108.44
340.93	79.44
341.158	101.44
341.386	82.44
341.614	71.44
341.842	88.44
342.07	95.44
342.298	90.44
342.526	90.44
342.754	97.44
342.981	85.44
343.209	78.44
343.437	101.44
343.665	87.44
343.893	99.44
344.12	96.44
344.348	87.44
344.576	98.44
344.804	94.44
345.031	70.44
345.259	78.44
345.487	94.44
345.714	84.44
345.942	87.44
346.17	78.44
346.397	89.44
346.625	89.44
346.853	86.44
347.08	93.44
347.308	97.44
347.535	79.44
347.763	80.44
347.99	69.44
348.218	73.44
348.445	77.44
348.673	84.44
348.9	90.44
349.128	89.44
349.355	93.44
349.583	77.44
349.81	83.44
350.037	95.44
350.265	89.44
350.492	82.44
350.72	77.44
350.947	85.44
351.174	91.44
351.402	88.44
351.629	79.44
351.856	82.44
352.083	81.44
352.311	74.44
352.538	89.44
352.765	84.44
352.992	82.44
353.22	92.44
353.447	80.44
353.674	71.44
353.901	79.44
354.128	71.44
354.355	75.44
354.583	94.44
354.81	73.44
355.037	90.44
355.264	94.44
355.491	81.44
355.718	79.44
355.945	88.44
356.172	83.44
356.399	69.44
356.626	83.44
356.853	87.44
357.08	92.44
357.307	80.44
357.534	84.44
357.761	87.44
357.988	81.44
358.215	85.44
358.441	81.44
358.668	81.44
358.895	76.44
359.122	89.44
359.349	76.44
359.576	87.44
359.802	88.44
360.029	76.44
360.256	93.44
360.483	91.44
360.709	85.44
360.936	97.44
361.163	76.44
361.39	90.44
361.616	89.44
361.843	86.44
362.07	81.44
362.296	84.44
362.523	93.44
362.749	85.44
362.976	84.44
363.203	106.44
363.429	82.44
363.656	90.44
363.882	78.44
364.109	80.44
364.335	71.44
364.562	72.44
364.788	90.44
365.015	83.44
365.241	88.44
365.468	100.44
365.694	78.44
365.92	89.44
366.147	72.44
366.373	77.44
366.599	75.44
366.826	81.44
367.052	79.44
367.278	101.44
367.505	70.44
367.731	90.44
367.957	93.44
368.184	81.44
368.41	97.44
368.636	91.44
368.862	92.44
369.089	72.44
369.315	82.44
369.541	99.44
369.767	89.44
369.993	73.44
370.219	78.44
370.445	83.44
370.672	89.44
370.898	88.44
371.124	82.44
371.35	81.44
371.576	89.44
371.802	86.44
372.028	98.44
372.254	81.44
372.48	70.44
372.706	73.44
372.932	75.44
373.158	83.44
373.384	92.44
373.61	86.44
373.835	85.44
374.061	84.44
374.287	88.44
374.513	83.44
374.739	80.44
374.965	92.44
375.191	91.44
375.416	96.44
375.642	79.44
375.868	109.44
376.094	88.44
376.319	79.44
376.545	86.44
376.771	85.44
376.997	95.44
377.222	78.44
377.448	81.44
377.674	94.44
377.899	95.44
378.125	96.44
378.35	68.44
378.576	96.44
378.802	81.44
379.027	83.44
379.253	91.44
379.478	89.44
379.704	78.44
379.929	66.44
380.155	81.44
380.38	96.44
380.606	84.44
380.831	83.44
381.057	88.44
381.282	72.44
381.507	74.44
381.733	75.44
381.958	89.44
382.184	83.44
382.409	82.44
382.634	78.44
382.86	87.44
383.085	84.44
383.31	83.44
383.535	92.44
383.761	101.44
383.986	90.44
384.211	84.44
384.436	82.44
384.662	79.44
384.887	89.44
385.112	73.44
385.337	83.44
385.562	84.44
385.787	79.44
386.013	80.44
386.238	74.44
386.463	87.44
386.688	76.44
386.913	94.44
387.138	86.44
387.363	92.44
387.588	97.44
387.813	93.44
388.038	88.44
388.263	87.44
388.488	84.44
388.713	83.44
388.938	81.44
389.163	88.44
389.387	75.44
389.612	82.44
389.837	88.44
390.062	94.44
390.287	77.44
390.512	84.44
390.736	95.44
390.961	90.44
391.186	88.44
391.411	86.44
391.636	82.44
391.86	70.44
392.085	78.44
392.31	84.44
392.534	75.44
392.759	92.44
392.984	94.44
393.208	93.44
393.433	77.44
393.658	100.44
393.882	68.44
394.107	74.44
394.331	88.44
394.556	90.44
394.78	80.44
395.005	90.44
395.229	78.44
395.454	84.44
395.678	74.44
395.903	92.44
396.127	74.44
396.352	72.44
396.576	72.44
396.801	86.44
397.025	87.44
397.249	89.44
397.474	94.44
397.698	83.44
397.922	81.44
398.147	77.44
398.371	75.44
398.595	81.44
398.82	84.44
399.044	102.44
399.268	91.44
399.492	91.44
399.717	96.44
399.941	83.44
400.165	79.44
400.389	88.44
400.613	82.44
400.837	75.44
401.062	97.44
401.286	83.44
401.51	77.44
401.734	85.44
401.958	82.44
402.182	78.44
402.406	79.44
402.63	86.44
402.854	93.44
403.078	90.44
403.302	99.44
403.526	85.44
403.75	75.44
403.974	79.44
404.198	82.44
404.422	79.44
404.645	96.44
404.869	97.44
405.093	83.44
405.317	79.44
405.541	81.44
405.765	98.44
405.988	78.44
406.212	73.44
406.436	82.44
406.66	96.44
406.883	93.44
407.107	80.44
407.331	88.44
407.555	87.44
407.778	71.44
408.002	81.44
408.226	80.44
408.449	98.44
408.673	75.44
408.896	80.44
409.12	77.44
409.344	90.44
409.567	83.44
409.791	81.44
410.014	90.44
410.238	90.44
410.461	94.44
410.685	89.44
410.908	96.44
411.132	74.44
411.355	98.44
411.578	87.44
411.802	82.44
412.025	90.44
412.249	78.44
412.472	94.44
412.695	74.44
412.919	87.44
413.142	87.44
413.365	83.44
413.589	93.44
413.812	77.44
414.035	90.44
414.258	88.44
414.482	91.44
414.705	87.44
414.928	69.44
415.151	77.44
415.374	83.44
415.597	82.44
415.821	78.44
416.044	91.44
416.267	91.44
416.49	93.44
416.713	93.44
416.936	88.44
417.159	89.44
417.382	87.44
417.605	77.44
417.828	80.44
418.051	82.44
418.274	86.44
418.497	94.44
418.72	74.44
418.943	102.44
419.166	92.44
419.389	93.44
419.611	83.44
419.834	90.44
420.057	85.44
420.28	95.44
420.503	80.44
420.726	89.44
420.948	84.44
421.171	86.44
421.394	75.44
421.617	71.44
421.839	72.44
422.062	84.44
422.285	81.44
422.507	82.44
422.73	89.44
422.953	67.44
423.175	82.44
423.398	80.44
423.621	87.44
423.843	68.44
424.066	86.44
424.288	81.44
424.511	90.44
424.733	87.44
424.956	83.44
425.178	95.44
425.401	90.44
425.623	79.44
425.846	70.44
426.068	84.44
426.291	85.44
426.513	83.44
426.735	89.44
426.958	92.44
427.18	85.44
427.402	106.44
427.625	81.44
427.847	81.44
428.069	83.44
428.292	85.44
428.514	86.44
428.736	90.44
428.958	97.44
429.181	86.44
429.403	81.44
429.625	91.44
429.847	67.44
430.069	91.44
430.292	79.44
430.514	89.44
430.736	79.44
430.958	74.44
431.18	88.44
431.402	75.44
431.624	88.44
431.846	73.44
432.068	95.44
432.29	97.44
432.512	80.44
432.734	99.44
432.956	86.44
433.178	76.44
433.4	78.44
433.622	88.44
433.844	80.44
434.066	89.44
434.287	92.44
434.509	91.44
434.731	89.44
434.953	84.44
435.175	80.44
435.397	72.44
435.618	74.44
435.84	95.44
436.062	89.44
436.284	98.44
436.505	99.44
436.727	87.44
436.949	81.44
437.17	90.44
437.392	89.44
437.614	86.44
437.835	71.44
438.057	79.44
438.278	75.44
438.5	84.44
438.721	81.44
438.943	85.44
439.165	93.44
439.386	82.44
439.608	90.44
439.829	73.44
440.05	86.44
440.272	100.44
440.493	91.44
440.715	91.44
440.936	98.44
441.158	87.44
441.379	81.44
441.6	96.44
441.822	82.44
442.043	93.44
442.264	90.44
442.486	90.44
442.707	91.44
442.928	97.44
443.149	75.44
443.371	71.44
443.592	74.44
443.813	87.44
444.034	81.44
444.255	94.44
444.476	68.44
444.698	90.44
444.919	87.44
445.14	201.44
445.361	130.44
445.582	91.44
445.803	95.44
446.024	78.44
446.245	70.44
446.466	80.44
446.687	81.44
446.908	84.44
447.129	78.44
447.35	91.44
447.571	89.44
447.792	93.44
448.013	105.44
448.234	91.44
448.455	87.44
448.675	87.44
448.896	88.44
449.117	86.44
449.338	71.44
449.559	88.44
449.779	88.44
450	81.44
450.221	84.44
450.442	72.44
450.662	86.44
450.883	72.44
451.104	81.44
451.324	81.44
451.545	97.44
451.766	76.44
451.986	79.44
452.207	88.44
452.428	83.44
452.648	90.44
452.869	89.44
453.089	77.44
453.31	81.44
453.53	80.44
453.751	88.44
453.971	85.44
454.192	104.44
454.412	85.44
454.633	76.44
454.853	81.44
455.073	90.44
455.294	91.44
455.514	85.44
455.734	85.44
455.955	95.44
456.175	87.44
456.395	87.44
456.616	86.44
456.836	85.44
457.056	102.44
457.276	86.44
457.497	73.44
457.717	94.44
457.937	91.44
458.157	114.44
458.377	89.44
458.598	98.44
458.818	93.44
459.038	90.44
459.258	76.44
459.478	106.44
459.698	87.44
459.918	88.44
460.138	83.44
460.358	72.44
460.578	93.44
460.798	93.44
461.018	89.44
461.238	94.44
461.458	76.44
461.678	98.44
461.898	90.44
462.118	88.44
462.338	81.44
462.558	91.44
462.777	96.44
462.997	93.44
463.217	89.44
463.437	88.44
463.657	72.44
463.876	95.44
464.096	92.44
464.316	88.44
464.536	90.44
464.755	99.44
464.975	81.44
465.195	96.44
465.414	90.44
465.634	87.44
465.854	86.44
466.073	82.44
466.293	95.44
466.512	96.44
466.732	84.44
466.951	90.44
467.171	83.44
467.391	97.44
467.61	81.44
467.829	94.44
468.049	95.44
468.268	94.44
468.488	70.44
468.707	74.44
468.927	90.44
469.146	75.44
469.365	82.44
469.585	100.44
469.804	97.44
470.023	88.44
470.243	92.44
470.462	74.44
470.681	86.44
470.901	80.44
471.12	85.44
471.339	92.44
471.558	80.44
471.777	94.44
471.997	86.44
472.216	85.44
472.435	81.44
472.654	83.44
472.873	84.44
473.092	94.44
473.311	75.44
473.53	74.44
473.749	74.44
473.968	73.44
474.187	89.44
474.406	103.44
474.625	105.44
474.844	83.44
475.063	91.44
475.282	93.44
475.501	86.44
475.72	93.44
475.939	89.44
476.158	92.44
476.377	83.44
476.596	94.44
476.814	106.44
477.033	86.44
477.252	86.44
477.471	92.44
477.69	89.44
477.908	87.44
478.127	97.44
478.346	97.44
478.564	94.44
478.783	97.44
479.002	79.44
479.22	87.44
479.439	100.44
479.658	74.44
479.876	81.44
480.095	87.44
480.313	91.44
480.532	71.44
480.751	82.44
480.969	84.44
481.188	93.44
481.406	84.44
481.624	87.44
481.843	81.44
482.061	91.44
482.28	89.44
482.498	85.44
482.717	91.44
482.935	89.44
483.153	100.44
483.372	77.44
483.59	94.44
483.808	98.44
484.027	89.44
484.245	84.44
484.463	87.44
484.681	104.44
484.9	97.44
485.118	93.44
485.336	84.44
485.554	96.44
485.772	93.44
485.99	81.44
486.209	84.44
486.427	102.44
486.645	111.44
486.863	91.44
487.081	90.44
487.299	96.44
487.517	106.44
487.735	93.44
487.953	121.44
488.171	109.44
488.389	115.44
488.607	91.44
488.825	90.44
489.043	82.44
489.261	109.44
489.479	103.44
489.696	99.44
489.914	93.44
490.132	86.44
490.35	89.44
490.568	92.44
490.786	88.44
491.003	93.44
491.221	81.44
491.439	94.44
491.657	107.44
491.874	99.44
492.092	113.44
492.31	104.44
492.527	102.44
492.745	98.44
492.963	97.44
493.18	100.44
493.398	83.44
493.615	86.44
493.833	96.44
494.05	102.44
494.268	94.44
494.485	97.44
494.703	91.44
494.92	91.44
495.138	93.44
495.355	100.44
495.573	92.44
495.79	92.44
496.008	89.44
496.225	89.44
496.442	103.44
496.66	97.44
496.877	94.44
497.094	97.44
497.312	96.44
497.529	92.44
497.746	109.44
497.963	99.44
498.181	101.44
498.398	98.44
498.615	94.44
498.832	92.44
499.049	92.44
499.267	110.44
499.484	109.44
499.701	104.44
499.918	101.44
500.135	101.44
500.352	106.44
500.569	123.44
500.786	123.44
501.003	101.44
501.22	113.44
501.437	101.44
501.654	102.44
501.871	118.44
502.088	102.44
502.305	106.44
502.522	107.44
502.739	93.44
502.956	96.44
503.172	103.44
503.389	110.44
503.606	86.44
503.823	82.44
504.04	86.44
504.256	95.44
504.473	93.44
504.69	90.44
504.907	94.44
505.123	97.44
505.34	94.44
505.557	87.44
505.773	97.44
505.99	81.44
506.207	93.44
506.423	103.44
506.64	86.44
506.856	89.44
507.073	89.44
507.289	101.44
507.506	70.44
507.722	85.44
507.939	105.44
508.155	75.44
508.372	91.44
508.588	100.44
508.805	93.44
509.021	89.44
509.238	93.44
509.454	97.44
509.67	94.44
509.887	81.44
510.103	89.44
510.319	88.44
510.536	90.44
510.752	77.44
510.968	103.44
511.184	95.44
511.401	94.44
511.617	88.44
511.833	96.44
512.049	96.44
512.265	82.44
512.481	93.44
512.698	75.44
512.914	91.44
513.13	94.44
513.346	73.44
513.562	78.44
513.778	93.44
513.994	90.44
514.21	86.44
514.426	75.44
514.642	85.44
514.858	100.44
515.074	91.44
515.29	99.44
515.506	94.44
515.721	91.44
515.937	81.44
516.153	101.44
516.369	91.44
516.585	80.44
516.801	93.44
517.016	101.44
517.232	91.44
517.448	88.44
517.664	84.44
517.879	95.44
518.095	95.44
518.311	92.44
