Data from Ni(NO3)2@0.0625M.TitratingCurve.Agarose3%dH2O.NegLispCup.LampEnergy10.LIBS07252019_HRD10591_18-13-51-570.txt Node
Date: Thu Jul 25 18:13:51 EDT 2019
User: cochatt
Spectrometer: HR+D1059
Trigger mode: 1
Integration Time (sec): 1.000000E-1
Scans to average: 1
Electric dark correction enabled: true
Nonlinearity correction enabled: false
Boxcar width: 0
XAxis mode: Wavelengths
Number of Pixels in Spectrum: 2048
>>>>>Begin Spectral Data<<<<<
223.165	-9.38
223.4	-9.38
223.635	-9.38
223.869	-12.38
224.104	-20.38
224.338	-27.38
224.573	-6.38
224.808	-11.38
225.042	-10.38
225.277	-14.38
225.511	2.62
225.746	-12.38
225.98	8.62
226.215	14.62
226.449	8.62
226.683	12.62
226.918	40.62
227.152	36.62
227.387	33.62
227.621	28.62
227.856	55.62
228.09	40.62
228.324	63.62
228.559	65.62
228.793	74.62
229.027	102.62
229.262	113.62
229.496	102.62
229.73	130.62
229.964	121.62
230.199	132.62
230.433	131.62
230.667	128.62
230.901	145.62
231.136	136.62
231.37	145.62
231.604	126.62
231.838	134.62
232.072	150.62
232.306	145.62
232.541	120.62
232.775	138.62
233.009	144.62
233.243	139.62
233.477	155.62
233.711	146.62
233.945	138.62
234.179	140.62
234.413	158.62
234.647	151.62
234.881	154.62
235.115	136.62
235.349	139.62
235.583	152.62
235.817	142.62
236.051	160.62
236.285	150.62
236.519	164.62
236.753	152.62
236.987	149.62
237.221	156.62
237.455	146.62
237.689	166.62
237.922	156.62
238.156	150.62
238.39	159.62
238.624	160.62
238.858	173.62
239.091	162.62
239.325	164.62
239.559	170.62
239.793	175.62
240.027	172.62
240.26	170.62
240.494	180.62
240.728	182.62
240.961	196.62
241.195	171.62
241.429	166.62
241.662	171.62
241.896	190.62
242.13	173.62
242.363	178.62
242.597	182.62
242.83	172.62
243.064	188.62
243.298	180.62
243.531	176.62
243.765	195.62
243.998	213.62
244.232	197.62
244.465	177.62
244.699	199.62
244.932	222.62
245.166	207.62
245.399	202.62
245.633	200.62
245.866	216.62
246.099	213.62
246.333	222.62
246.566	208.62
246.8	219.62
247.033	220.62
247.266	221.62
247.5	205.62
247.733	218.62
247.966	224.62
248.2	241.62
248.433	225.62
248.666	233.62
248.899	239.62
249.133	234.62
249.366	225.62
249.599	238.62
249.832	241.62
250.066	236.62
250.299	244.62
250.532	249.62
250.765	245.62
250.998	249.62
251.231	247.62
251.465	232.62
251.698	246.62
251.931	265.62
252.164	232.62
252.397	237.62
252.63	272.62
252.863	249.62
253.096	272.62
253.329	280.62
253.562	248.62
253.795	240.62
254.028	271.62
254.261	260.62
254.494	271.62
254.727	278.62
254.96	266.62
255.193	285.62
255.426	263.62
255.659	247.62
255.892	289.62
256.124	269.62
256.357	268.62
256.59	266.62
256.823	275.62
257.056	264.62
257.289	269.62
257.521	296.62
257.754	295.62
257.987	280.62
258.22	272.62
258.452	265.62
258.685	291.62
258.918	290.62
259.151	276.62
259.383	295.62
259.616	295.62
259.849	301.62
260.081	295.62
260.314	304.62
260.547	290.62
260.779	319.62
261.012	305.62
261.244	298.62
261.477	287.62
261.71	312.62
261.942	293.62
262.175	296.62
262.407	324.62
262.64	309.62
262.872	322.62
263.105	328.62
263.337	318.62
263.57	346.62
263.802	326.62
264.035	322.62
264.267	327.62
264.499	329.62
264.732	350.62
264.964	328.62
265.197	334.62
265.429	346.62
265.661	329.62
265.894	337.62
266.126	346.62
266.358	345.62
266.591	334.62
266.823	335.62
267.055	332.62
267.287	337.62
267.52	358.62
267.752	339.62
267.984	348.62
268.216	337.62
268.448	351.62
268.681	341.62
268.913	345.62
269.145	334.62
269.377	360.62
269.609	351.62
269.841	333.62
270.073	353.62
270.306	353.62
270.538	348.62
270.77	348.62
271.002	361.62
271.234	352.62
271.466	376.62
271.698	364.62
271.93	367.62
272.162	379.62
272.394	376.62
272.626	360.62
272.858	372.62
273.09	374.62
273.322	378.62
273.553	374.62
273.785	389.62
274.017	373.62
274.249	381.62
274.481	378.62
274.713	375.62
274.945	398.62
275.176	395.62
275.408	389.62
275.64	412.62
275.872	398.62
276.104	400.62
276.335	388.62
276.567	395.62
276.799	392.62
277.031	399.62
277.262	399.62
277.494	408.62
277.726	383.62
277.957	401.62
278.189	398.62
278.421	407.62
278.652	404.62
278.884	381.62
279.115	406.62
279.347	409.62
279.579	399.62
279.81	407.62
280.042	402.62
280.273	420.62
280.505	433.62
280.736	407.62
280.968	424.62
281.199	404.62
281.431	431.62
281.662	426.62
281.894	433.62
282.125	443.62
282.356	438.62
282.588	454.62
282.819	435.62
283.051	442.62
283.282	452.62
283.513	451.62
283.745	458.62
283.976	445.62
284.207	433.62
284.439	448.62
284.67	428.62
284.901	444.62
285.132	446.62
285.364	446.62
285.595	455.62
285.826	448.62
286.057	471.62
286.288	450.62
286.52	458.62
286.751	449.62
286.982	455.62
287.213	462.62
287.444	456.62
287.675	474.62
287.906	468.62
288.138	485.62
288.369	468.62
288.6	490.62
288.831	496.62
289.062	467.62
289.293	474.62
289.524	486.62
289.755	471.62
289.986	480.62
290.217	493.62
290.448	476.62
290.679	485.62
290.91	496.62
291.141	482.62
291.371	480.62
291.602	487.62
291.833	492.62
292.064	492.62
292.295	487.62
292.526	471.62
292.757	524.62
292.987	472.62
293.218	468.62
293.449	489.62
293.68	487.62
293.91	516.62
294.141	488.62
294.372	488.62
294.603	494.62
294.833	487.62
295.064	486.62
295.295	490.62
295.525	510.62
295.756	512.62
295.987	512.62
296.217	504.62
296.448	509.62
296.679	516.62
296.909	500.62
297.14	517.62
297.37	522.62
297.601	528.62
297.831	537.62
298.062	544.62
298.292	546.62
298.523	569.62
298.753	554.62
298.984	530.62
299.214	542.62
299.445	536.62
299.675	543.62
299.905	530.62
300.136	546.62
300.366	531.62
300.597	557.62
300.827	558.62
301.057	553.62
301.288	568.62
301.518	563.62
301.748	561.62
301.979	584.62
302.209	560.62
302.439	555.62
302.669	560.62
302.9	544.62
303.13	554.62
303.36	555.62
303.59	552.62
303.82	546.62
304.051	534.62
304.281	541.62
304.511	555.62
304.741	537.62
304.971	536.62
305.201	531.62
305.431	541.62
305.661	525.62
305.891	521.62
306.121	528.62
306.352	524.62
306.582	544.62
306.812	554.62
307.042	558.62
307.272	543.62
307.502	524.62
307.731	526.62
307.961	537.62
308.191	528.62
308.421	523.62
308.651	517.62
308.881	522.62
309.111	551.62
309.341	514.62
309.571	534.62
309.8	541.62
310.03	550.62
310.26	538.62
310.49	526.62
310.72	541.62
310.949	527.62
311.179	560.62
311.409	533.62
311.639	541.62
311.868	551.62
312.098	540.62
312.328	551.62
312.557	553.62
312.787	554.62
313.017	548.62
313.246	573.62
313.476	574.62
313.706	575.62
313.935	580.62
314.165	577.62
314.394	573.62
314.624	561.62
314.853	559.62
315.083	539.62
315.312	580.62
315.542	559.62
315.771	545.62
316.001	561.62
316.23	559.62
316.46	570.62
316.689	579.62
316.919	566.62
317.148	567.62
317.377	559.62
317.607	559.62
317.836	544.62
318.065	557.62
318.295	578.62
318.524	556.62
318.753	569.62
318.983	579.62
319.212	554.62
319.441	558.62
319.67	536.62
319.9	562.62
320.129	554.62
320.358	552.62
320.587	569.62
320.816	575.62
321.046	556.62
321.275	576.62
321.504	569.62
321.733	561.62
321.962	582.62
322.191	576.62
322.42	568.62
322.649	557.62
322.878	562.62
323.108	566.62
323.337	560.62
323.566	559.62
323.795	556.62
324.024	582.62
324.253	586.62
324.482	602.62
324.71	585.62
324.939	598.62
325.168	574.62
325.397	589.62
325.626	592.62
325.855	586.62
326.084	627.62
326.313	610.62
326.542	609.62
326.77	647.62
326.999	596.62
327.228	601.62
327.457	606.62
327.686	616.62
327.914	617.62
328.143	618.62
328.372	628.62
328.6	616.62
328.829	619.62
329.058	604.62
329.287	625.62
329.515	614.62
329.744	619.62
329.972	622.62
330.201	662.62
330.43	634.62
330.658	638.62
330.887	642.62
331.115	631.62
331.344	638.62
331.572	604.62
331.801	656.62
332.03	674.62
332.258	675.62
332.486	716.62
332.715	737.62
332.943	779.62
333.172	802.62
333.4	846.62
333.629	852.62
333.857	847.62
334.085	834.62
334.314	817.62
334.542	794.62
334.771	780.62
334.999	762.62
335.227	789.62
335.455	762.62
335.684	776.62
335.912	743.62
336.14	731.62
336.369	761.62
336.597	760.62
336.825	779.62
337.053	753.62
337.281	741.62
337.51	718.62
337.738	713.62
337.966	686.62
338.194	681.62
338.422	686.62
338.65	673.62
338.878	663.62
339.106	668.62
339.334	683.62
339.562	668.62
339.79	644.62
340.018	622.62
340.246	656.62
340.474	658.62
340.702	677.62
340.93	646.62
341.158	639.62
341.386	657.62
341.614	656.62
341.842	649.62
342.07	631.62
342.298	618.62
342.526	632.62
342.754	624.62
342.981	636.62
343.209	672.62
343.437	680.62
343.665	698.62
343.893	774.62
344.12	805.62
344.348	777.62
344.576	740.62
344.804	720.62
345.031	659.62
345.259	695.62
345.487	660.62
345.714	660.62
345.942	632.62
346.17	634.62
346.397	641.62
346.625	628.62
346.853	619.62
347.08	629.62
347.308	640.62
347.535	636.62
347.763	628.62
347.99	667.62
348.218	653.62
348.445	642.62
348.673	614.62
348.9	650.62
349.128	618.62
349.355	638.62
349.583	602.62
349.81	612.62
350.037	616.62
350.265	593.62
350.492	595.62
350.72	591.62
350.947	612.62
351.174	598.62
351.402	596.62
351.629	592.62
351.856	603.62
352.083	584.62
352.311	602.62
352.538	601.62
352.765	585.62
352.992	575.62
353.22	598.62
353.447	596.62
353.674	604.62
353.901	603.62
354.128	598.62
354.355	630.62
354.583	594.62
354.81	606.62
355.037	625.62
355.264	584.62
355.491	623.62
355.718	614.62
355.945	608.62
356.172	626.62
356.399	617.62
356.626	612.62
356.853	609.62
357.08	600.62
357.307	628.62
357.534	600.62
357.761	611.62
357.988	611.62
358.215	614.62
358.441	604.62
358.668	603.62
358.895	599.62
359.122	604.62
359.349	622.62
359.576	605.62
359.802	594.62
360.029	616.62
360.256	600.62
360.483	626.62
360.709	610.62
360.936	603.62
361.163	597.62
361.39	615.62
361.616	600.62
361.843	604.62
362.07	588.62
362.296	600.62
362.523	610.62
362.749	602.62
362.976	612.62
363.203	600.62
363.429	583.62
363.656	604.62
363.882	588.62
364.109	602.62
364.335	608.62
364.562	597.62
364.788	586.62
365.015	605.62
365.241	615.62
365.468	611.62
365.694	588.62
365.92	595.62
366.147	594.62
366.373	608.62
366.599	598.62
366.826	612.62
367.052	601.62
367.278	629.62
367.505	593.62
367.731	610.62
367.957	597.62
368.184	603.62
368.41	591.62
368.636	611.62
368.862	626.62
369.089	625.62
369.315	603.62
369.541	614.62
369.767	653.62
369.993	649.62
370.219	645.62
370.445	642.62
370.672	668.62
370.898	626.62
371.124	649.62
371.35	653.62
371.576	668.62
371.802	672.62
372.028	654.62
372.254	655.62
372.48	642.62
372.706	677.62
372.932	663.62
373.158	702.62
373.384	657.62
373.61	638.62
373.835	664.62
374.061	666.62
374.287	667.62
374.513	667.62
374.739	684.62
374.965	720.62
375.191	738.62
375.416	744.62
375.642	719.62
375.868	697.62
376.094	684.62
376.319	685.62
376.545	653.62
376.771	671.62
376.997	660.62
377.222	662.62
377.448	651.62
377.674	686.62
377.899	645.62
378.125	658.62
378.35	659.62
378.576	656.62
378.802	649.62
379.027	641.62
379.253	653.62
379.478	634.62
379.704	640.62
379.929	656.62
380.155	643.62
380.38	639.62
380.606	659.62
380.831	637.62
381.057	647.62
381.282	633.62
381.507	686.62
381.733	664.62
381.958	652.62
382.184	672.62
382.409	686.62
382.634	685.62
382.86	677.62
383.085	687.62
383.31	735.62
383.535	734.62
383.761	726.62
383.986	737.62
384.211	742.62
384.436	756.62
384.662	778.62
384.887	787.62
385.112	809.62
385.337	788.62
385.562	775.62
385.787	793.62
386.013	792.62
386.238	789.62
386.463	794.62
386.688	788.62
386.913	777.62
387.138	782.62
387.363	770.62
387.588	761.62
387.813	779.62
388.038	796.62
388.263	781.62
388.488	793.62
388.713	776.62
388.938	765.62
389.163	774.62
389.387	750.62
389.612	761.62
389.837	774.62
390.062	762.62
390.287	767.62
390.512	749.62
390.736	787.62
390.961	786.62
391.186	792.62
391.411	816.62
391.636	861.62
391.86	878.62
392.085	911.62
392.31	894.62
392.534	891.62
392.759	826.62
392.984	820.62
393.208	807.62
393.433	805.62
393.658	822.62
393.882	832.62
394.107	841.62
394.331	865.62
394.556	861.62
394.78	846.62
395.005	852.62
395.229	859.62
395.454	859.62
395.678	898.62
395.903	894.62
396.127	895.62
396.352	857.62
396.576	800.62
396.801	808.62
397.025	832.62
397.249	856.62
397.474	854.62
397.698	862.62
397.922	876.62
398.147	859.62
398.371	892.62
398.595	943.62
398.82	934.62
399.044	1036.62
399.268	1134.62
399.492	1315.62
399.717	1542.62
399.941	1522.62
400.165	1352.62
400.389	1174.62
400.613	1056.62
400.837	1009.62
401.062	1017.62
401.286	984.62
401.51	1000.62
401.734	964.62
401.958	968.62
402.182	1002.62
402.406	996.62
402.63	1039.62
402.854	1065.62
403.078	1082.62
403.302	1092.62
403.526	1144.62
403.75	1117.62
403.974	1162.62
404.198	1158.62
404.422	1152.62
404.645	1180.62
404.869	1150.62
405.093	1141.62
405.317	1112.62
405.541	1108.62
405.765	1067.62
405.988	1056.62
406.212	1083.62
406.436	1086.62
406.66	1065.62
406.883	1117.62
407.107	1201.62
407.331	1239.62
407.555	1313.62
407.778	1286.62
408.002	1238.62
408.226	1184.62
408.449	1182.62
408.673	1145.62
408.896	1116.62
409.12	1122.62
409.344	1112.62
409.567	1121.62
409.791	1153.62
410.014	1147.62
410.238	1117.62
410.461	1099.62
410.685	1103.62
410.908	1049.62
411.132	1065.62
411.355	1026.62
411.578	1024.62
411.802	998.62
412.025	1031.62
412.249	1044.62
412.472	1024.62
412.695	1001.62
412.919	966.62
413.142	983.62
413.365	971.62
413.589	991.62
413.812	937.62
414.035	956.62
414.258	955.62
414.482	967.62
414.705	1001.62
414.928	1007.62
415.151	999.62
415.374	987.62
415.597	986.62
415.821	976.62
416.044	972.62
416.267	972.62
416.49	969.62
416.713	968.62
416.936	970.62
417.159	942.62
417.382	948.62
417.605	987.62
417.828	965.62
418.051	969.62
418.274	963.62
418.497	977.62
418.72	1002.62
418.943	999.62
419.166	1105.62
419.389	1151.62
419.611	1103.62
419.834	1054.62
420.057	1044.62
420.28	992.62
420.503	960.62
420.726	964.62
420.948	936.62
421.171	961.62
421.394	993.62
421.617	957.62
421.839	978.62
422.062	982.62
422.285	950.62
422.507	1006.62
422.73	992.62
422.953	1020.62
423.175	1060.62
423.398	1063.62
423.621	1074.62
423.843	1062.62
424.066	1052.62
424.288	1050.62
424.511	994.62
424.733	1041.62
424.956	988.62
425.178	1007.62
425.401	993.62
425.623	992.62
425.846	960.62
426.068	987.62
426.291	933.62
426.513	919.62
426.735	918.62
426.958	902.62
427.18	893.62
427.402	905.62
427.625	870.62
427.847	852.62
428.069	871.62
428.292	876.62
428.514	888.62
428.736	884.62
428.958	884.62
429.181	869.62
429.403	864.62
429.625	845.62
429.847	837.62
430.069	831.62
430.292	861.62
430.514	855.62
430.736	872.62
430.958	861.62
431.18	835.62
431.402	854.62
431.624	844.62
431.846	863.62
432.068	859.62
432.29	888.62
432.512	872.62
432.734	890.62
432.956	865.62
433.178	864.62
433.4	867.62
433.622	877.62
433.844	905.62
434.066	894.62
434.287	898.62
434.509	894.62
434.731	964.62
434.953	1000.62
435.175	1004.62
435.397	996.62
435.618	953.62
435.84	922.62
436.062	890.62
436.284	890.62
436.505	886.62
436.727	862.62
436.949	885.62
437.17	887.62
437.392	888.62
437.614	877.62
437.835	816.62
438.057	831.62
438.278	839.62
438.5	823.62
438.721	817.62
438.943	854.62
439.165	843.62
439.386	824.62
439.608	870.62
439.829	878.62
440.05	885.62
440.272	852.62
440.493	877.62
440.715	885.62
440.936	912.62
441.158	938.62
441.379	954.62
441.6	1008.62
441.822	983.62
442.043	987.62
442.264	982.62
442.486	935.62
442.707	960.62
442.928	963.62
443.149	975.62
443.371	985.62
443.592	991.62
443.813	980.62
444.034	994.62
444.255	1037.62
444.476	1102.62
444.698	1136.62
444.919	1239.62
445.14	1241.62
445.361	1120.62
445.582	1004.62
445.803	952.62
446.024	950.62
446.245	936.62
446.466	915.62
446.687	903.62
446.908	902.62
447.129	895.62
447.35	854.62
447.571	848.62
447.792	817.62
448.013	850.62
448.234	813.62
448.455	826.62
448.675	808.62
448.896	796.62
449.117	817.62
449.338	806.62
449.559	799.62
449.779	805.62
450	796.62
450.221	786.62
450.442	823.62
450.662	784.62
450.883	820.62
451.104	845.62
451.324	849.62
451.545	837.62
451.766	818.62
451.986	833.62
452.207	853.62
452.428	810.62
452.648	820.62
452.869	789.62
453.089	803.62
453.31	833.62
453.53	780.62
453.751	796.62
453.971	800.62
454.192	776.62
454.412	763.62
454.633	772.62
454.853	780.62
455.073	732.62
455.294	744.62
455.514	770.62
455.734	747.62
455.955	734.62
456.175	741.62
456.395	770.62
456.616	726.62
456.836	751.62
457.056	762.62
457.276	740.62
457.497	752.62
457.717	737.62
457.937	760.62
458.157	773.62
458.377	785.62
458.598	784.62
458.818	812.62
459.038	857.62
459.258	872.62
459.478	906.62
459.698	934.62
459.918	936.62
460.138	971.62
460.358	1045.62
460.578	1064.62
460.798	1059.62
461.018	1090.62
461.238	1052.62
461.458	1004.62
461.678	1018.62
461.898	1040.62
462.118	1030.62
462.338	1121.62
462.558	1137.62
462.777	1216.62
462.997	1297.62
463.217	1441.62
463.437	1425.62
463.657	1309.62
463.876	1245.62
464.096	1249.62
464.316	1251.62
464.536	1237.62
464.755	1208.62
464.975	1133.62
465.195	1104.62
465.414	1016.62
465.634	949.62
465.854	920.62
466.073	907.62
466.293	884.62
466.512	870.62
466.732	866.62
466.951	856.62
467.171	850.62
467.391	880.62
467.61	853.62
467.829	857.62
468.049	832.62
468.268	816.62
468.488	815.62
468.707	793.62
468.927	793.62
469.146	807.62
469.365	842.62
469.585	808.62
469.804	864.62
470.023	854.62
470.243	876.62
470.462	878.62
470.681	886.62
470.901	896.62
471.12	861.62
471.339	856.62
471.558	824.62
471.777	826.62
471.997	825.62
472.216	807.62
472.435	776.62
472.654	815.62
472.873	763.62
473.092	763.62
473.311	784.62
473.53	778.62
473.749	761.62
473.968	795.62
474.187	772.62
474.406	770.62
474.625	816.62
474.844	770.62
475.063	796.62
475.282	805.62
475.501	797.62
475.72	811.62
475.939	844.62
476.158	820.62
476.377	839.62
476.596	840.62
476.814	822.62
477.033	831.62
477.252	812.62
477.471	855.62
477.69	892.62
477.908	920.62
478.127	951.62
478.346	938.62
478.564	946.62
478.783	982.62
479.002	997.62
479.22	1024.62
479.439	964.62
479.658	969.62
479.876	975.62
480.095	998.62
480.313	1028.62
480.532	1110.62
480.751	1091.62
480.969	1019.62
481.188	980.62
481.406	963.62
481.624	931.62
481.843	899.62
482.061	888.62
482.28	881.62
482.498	895.62
482.717	880.62
482.935	872.62
483.153	873.62
483.372	863.62
483.59	897.62
483.808	895.62
484.027	917.62
484.245	921.62
484.463	888.62
484.681	922.62
484.9	904.62
485.118	935.62
485.336	941.62
485.554	968.62
485.772	958.62
485.99	954.62
486.209	973.62
486.427	973.62
486.645	971.62
486.863	978.62
487.081	934.62
487.299	949.62
487.517	946.62
487.735	978.62
487.953	955.62
488.171	936.62
488.389	939.62
488.607	936.62
488.825	954.62
489.043	914.62
489.261	908.62
489.479	940.62
489.696	932.62
489.914	941.62
490.132	948.62
490.35	941.62
490.568	953.62
490.786	909.62
491.003	922.62
491.221	963.62
491.439	955.62
491.657	940.62
491.874	951.62
492.092	984.62
492.31	951.62
492.527	957.62
492.745	983.62
492.963	981.62
493.18	988.62
493.398	973.62
493.615	981.62
493.833	974.62
494.05	982.62
494.268	993.62
494.485	996.62
494.703	996.62
494.92	963.62
495.138	980.62
495.355	969.62
495.573	1011.62
495.79	995.62
496.008	1009.62
496.225	984.62
496.442	1003.62
496.66	1018.62
496.877	1026.62
497.094	1068.62
497.312	1076.62
497.529	1116.62
497.746	1131.62
497.963	1168.62
498.181	1203.62
498.398	1231.62
498.615	1296.62
498.832	1416.62
499.049	1545.62
499.267	1634.62
499.484	1822.62
499.701	2017.62
