Data from Ni(NO3)2@0.125M.TitratingCurve.Agarose3%dH2O.NegLispCup.LampEnergy10.LIBS07252019_HRD10591_18-09-48-568.txt Node
Date: Thu Jul 25 18:09:48 EDT 2019
User: cochatt
Spectrometer: HR+D1059
Trigger mode: 1
Integration Time (sec): 1.000000E-1
Scans to average: 1
Electric dark correction enabled: true
Nonlinearity correction enabled: false
Boxcar width: 0
XAxis mode: Wavelengths
Number of Pixels in Spectrum: 2048
>>>>>Begin Spectral Data<<<<<
223.165	-16.56
223.4	-16.56
223.635	-16.56
223.869	-21.56
224.104	-23.56
224.338	-19.56
224.573	-14.56
224.808	-22.56
225.042	-4.56
225.277	-7.56
225.511	-12.56
225.746	4.44
225.98	20.44
226.215	9.44
226.449	19.44
226.683	27.44
226.918	33.44
227.152	28.44
227.387	40.44
227.621	32.44
227.856	35.44
228.09	47.44
228.324	42.44
228.559	53.44
228.793	77.44
229.027	87.44
229.262	94.44
229.496	98.44
229.73	99.44
229.964	95.44
230.199	101.44
230.433	98.44
230.667	76.44
230.901	109.44
231.136	99.44
231.37	117.44
231.604	109.44
231.838	104.44
232.072	115.44
232.306	115.44
232.541	122.44
232.775	98.44
233.009	117.44
233.243	112.44
233.477	104.44
233.711	106.44
233.945	113.44
234.179	111.44
234.413	114.44
234.647	111.44
234.881	118.44
235.115	121.44
235.349	115.44
235.583	105.44
235.817	113.44
236.051	132.44
236.285	113.44
236.519	94.44
236.753	121.44
236.987	102.44
237.221	99.44
237.455	114.44
237.689	119.44
237.922	115.44
238.156	120.44
238.39	115.44
238.624	119.44
238.858	111.44
239.091	115.44
239.325	120.44
239.559	120.44
239.793	123.44
240.027	132.44
240.26	132.44
240.494	136.44
240.728	120.44
240.961	120.44
241.195	117.44
241.429	125.44
241.662	137.44
241.896	115.44
242.13	121.44
242.363	127.44
242.597	125.44
242.83	133.44
243.064	147.44
243.298	127.44
243.531	134.44
243.765	127.44
243.998	145.44
244.232	138.44
244.465	139.44
244.699	132.44
244.932	151.44
245.166	138.44
245.399	145.44
245.633	136.44
245.866	146.44
246.099	131.44
246.333	131.44
246.566	152.44
246.8	147.44
247.033	143.44
247.266	148.44
247.5	140.44
247.733	133.44
247.966	163.44
248.2	161.44
248.433	150.44
248.666	156.44
248.899	150.44
249.133	141.44
249.366	155.44
249.599	167.44
249.832	149.44
250.066	160.44
250.299	153.44
250.532	150.44
250.765	159.44
250.998	168.44
251.231	167.44
251.465	157.44
251.698	169.44
251.931	163.44
252.164	157.44
252.397	165.44
252.63	172.44
252.863	170.44
253.096	175.44
253.329	179.44
253.562	176.44
253.795	177.44
254.028	167.44
254.261	162.44
254.494	177.44
254.727	179.44
254.96	167.44
255.193	167.44
255.426	180.44
255.659	171.44
255.892	182.44
256.124	171.44
256.357	182.44
256.59	180.44
256.823	191.44
257.056	181.44
257.289	183.44
257.521	193.44
257.754	173.44
257.987	187.44
258.22	189.44
258.452	193.44
258.685	194.44
258.918	192.44
259.151	202.44
259.383	193.44
259.616	199.44
259.849	184.44
260.081	184.44
260.314	181.44
260.547	193.44
260.779	205.44
261.012	197.44
261.244	190.44
261.477	201.44
261.71	205.44
261.942	208.44
262.175	202.44
262.407	209.44
262.64	195.44
262.872	195.44
263.105	198.44
263.337	204.44
263.57	199.44
263.802	197.44
264.035	213.44
264.267	204.44
264.499	215.44
264.732	207.44
264.964	204.44
265.197	216.44
265.429	215.44
265.661	213.44
265.894	205.44
266.126	216.44
266.358	226.44
266.591	224.44
266.823	204.44
267.055	219.44
267.287	212.44
267.52	235.44
267.752	224.44
267.984	209.44
268.216	215.44
268.448	216.44
268.681	218.44
268.913	220.44
269.145	218.44
269.377	224.44
269.609	204.44
269.841	233.44
270.073	214.44
270.306	223.44
270.538	227.44
270.77	234.44
271.002	209.44
271.234	220.44
271.466	222.44
271.698	224.44
271.93	213.44
272.162	248.44
272.394	233.44
272.626	205.44
272.858	219.44
273.09	229.44
273.322	240.44
273.553	233.44
273.785	243.44
274.017	231.44
274.249	237.44
274.481	240.44
274.713	237.44
274.945	254.44
275.176	239.44
275.408	267.44
275.64	260.44
275.872	249.44
276.104	235.44
276.335	239.44
276.567	244.44
276.799	242.44
277.031	264.44
277.262	242.44
277.494	245.44
277.726	252.44
277.957	249.44
278.189	233.44
278.421	263.44
278.652	268.44
278.884	262.44
279.115	264.44
279.347	244.44
279.579	255.44
279.81	234.44
280.042	249.44
280.273	268.44
280.505	252.44
280.736	253.44
280.968	256.44
281.199	241.44
281.431	267.44
281.662	277.44
281.894	266.44
282.125	246.44
282.356	272.44
282.588	277.44
282.819	277.44
283.051	267.44
283.282	263.44
283.513	258.44
283.745	275.44
283.976	267.44
284.207	279.44
284.439	277.44
284.67	281.44
284.901	275.44
285.132	277.44
285.364	284.44
285.595	265.44
285.826	283.44
286.057	280.44
286.288	268.44
286.52	288.44
286.751	290.44
286.982	281.44
287.213	294.44
287.444	276.44
287.675	283.44
287.906	290.44
288.138	291.44
288.369	286.44
288.6	300.44
288.831	283.44
289.062	291.44
289.293	282.44
289.524	277.44
289.755	290.44
289.986	286.44
290.217	281.44
290.448	285.44
290.679	291.44
290.91	300.44
291.141	276.44
291.371	282.44
291.602	282.44
291.833	288.44
292.064	307.44
292.295	298.44
292.526	296.44
292.757	307.44
292.987	289.44
293.218	287.44
293.449	319.44
293.68	298.44
293.91	300.44
294.141	280.44
294.372	299.44
294.603	302.44
294.833	318.44
295.064	294.44
295.295	298.44
295.525	284.44
295.756	317.44
295.987	313.44
296.217	304.44
296.448	314.44
296.679	292.44
296.909	315.44
297.14	311.44
297.37	305.44
297.601	330.44
297.831	315.44
298.062	334.44
298.292	325.44
298.523	340.44
298.753	331.44
298.984	331.44
299.214	320.44
299.445	310.44
299.675	317.44
299.905	312.44
300.136	323.44
300.366	340.44
300.597	301.44
300.827	330.44
301.057	338.44
301.288	331.44
301.518	341.44
301.748	346.44
301.979	326.44
302.209	340.44
302.439	348.44
302.669	337.44
302.9	328.44
303.13	332.44
303.36	358.44
303.59	332.44
303.82	335.44
304.051	333.44
304.281	341.44
304.511	339.44
304.741	325.44
304.971	329.44
305.201	327.44
305.431	333.44
305.661	331.44
305.891	339.44
306.121	322.44
306.352	321.44
306.582	328.44
306.812	335.44
307.042	330.44
307.272	325.44
307.502	332.44
307.731	323.44
307.961	311.44
308.191	348.44
308.421	326.44
308.651	337.44
308.881	326.44
309.111	347.44
309.341	325.44
309.571	345.44
309.8	326.44
310.03	323.44
310.26	336.44
310.49	320.44
310.72	340.44
310.949	328.44
311.179	340.44
311.409	332.44
311.639	359.44
311.868	330.44
312.098	341.44
312.328	337.44
312.557	348.44
312.787	339.44
313.017	348.44
313.246	363.44
313.476	359.44
313.706	344.44
313.935	357.44
314.165	360.44
314.394	336.44
314.624	335.44
314.853	364.44
315.083	343.44
315.312	361.44
315.542	319.44
315.771	336.44
316.001	323.44
316.23	341.44
316.46	345.44
316.689	351.44
316.919	323.44
317.148	338.44
317.377	350.44
317.607	350.44
317.836	337.44
318.065	349.44
318.295	345.44
318.524	347.44
318.753	331.44
318.983	337.44
319.212	341.44
319.441	315.44
319.67	340.44
319.9	346.44
320.129	337.44
320.358	359.44
320.587	343.44
320.816	333.44
321.046	348.44
321.275	340.44
321.504	352.44
321.733	343.44
321.962	339.44
322.191	350.44
322.42	348.44
322.649	355.44
322.878	346.44
323.108	356.44
323.337	346.44
323.566	375.44
323.795	359.44
324.024	349.44
324.253	356.44
324.482	356.44
324.71	348.44
324.939	357.44
325.168	343.44
325.397	357.44
325.626	383.44
325.855	377.44
326.084	397.44
326.313	408.44
326.542	364.44
326.77	371.44
326.999	375.44
327.228	377.44
327.457	375.44
327.686	372.44
327.914	384.44
328.143	394.44
328.372	372.44
328.6	369.44
328.829	382.44
329.058	379.44
329.287	399.44
329.515	384.44
329.744	386.44
329.972	381.44
330.201	385.44
330.43	405.44
330.658	414.44
330.887	403.44
331.115	389.44
331.344	389.44
331.572	408.44
331.801	415.44
332.03	420.44
332.258	435.44
332.486	443.44
332.715	449.44
332.943	479.44
333.172	498.44
333.4	518.44
333.629	508.44
333.857	515.44
334.085	498.44
334.314	504.44
334.542	479.44
334.771	479.44
334.999	485.44
335.227	465.44
335.455	468.44
335.684	480.44
335.912	471.44
336.14	479.44
336.369	457.44
336.597	462.44
336.825	462.44
337.053	474.44
337.281	446.44
337.51	429.44
337.738	452.44
337.966	439.44
338.194	426.44
338.422	437.44
338.65	412.44
338.878	420.44
339.106	398.44
339.334	425.44
339.562	418.44
339.79	391.44
340.018	405.44
340.246	409.44
340.474	407.44
340.702	394.44
340.93	407.44
341.158	390.44
341.386	395.44
341.614	422.44
341.842	402.44
342.07	402.44
342.298	386.44
342.526	402.44
342.754	403.44
342.981	405.44
343.209	427.44
343.437	426.44
343.665	458.44
343.893	482.44
344.12	495.44
344.348	476.44
344.576	448.44
344.804	435.44
345.031	449.44
345.259	416.44
345.487	418.44
345.714	404.44
345.942	381.44
346.17	417.44
346.397	384.44
346.625	407.44
346.853	398.44
347.08	389.44
347.308	395.44
347.535	417.44
347.763	423.44
347.99	421.44
348.218	406.44
348.445	408.44
348.673	400.44
348.9	404.44
349.128	404.44
349.355	384.44
349.583	371.44
349.81	376.44
350.037	384.44
350.265	390.44
350.492	377.44
350.72	391.44
350.947	385.44
351.174	410.44
351.402	389.44
351.629	373.44
351.856	379.44
352.083	363.44
352.311	364.44
352.538	391.44
352.765	371.44
352.992	368.44
353.22	383.44
353.447	376.44
353.674	360.44
353.901	377.44
354.128	409.44
354.355	375.44
354.583	398.44
354.81	383.44
355.037	403.44
355.264	382.44
355.491	386.44
355.718	386.44
355.945	389.44
356.172	368.44
356.399	404.44
356.626	374.44
356.853	395.44
357.08	395.44
357.307	402.44
357.534	391.44
357.761	401.44
357.988	395.44
358.215	379.44
358.441	381.44
358.668	383.44
358.895	399.44
359.122	378.44
359.349	386.44
359.576	353.44
359.802	373.44
360.029	369.44
360.256	360.44
360.483	385.44
360.709	377.44
360.936	383.44
361.163	382.44
361.39	364.44
361.616	368.44
361.843	389.44
362.07	403.44
362.296	372.44
362.523	375.44
362.749	393.44
362.976	380.44
363.203	383.44
363.429	353.44
363.656	377.44
363.882	380.44
364.109	373.44
364.335	383.44
364.562	365.44
364.788	360.44
365.015	400.44
365.241	356.44
365.468	359.44
365.694	358.44
365.92	373.44
366.147	377.44
366.373	375.44
366.599	373.44
366.826	371.44
367.052	395.44
367.278	377.44
367.505	392.44
367.731	388.44
367.957	381.44
368.184	376.44
368.41	385.44
368.636	367.44
368.862	387.44
369.089	395.44
369.315	388.44
369.541	405.44
369.767	390.44
369.993	388.44
370.219	385.44
370.445	382.44
370.672	401.44
370.898	405.44
371.124	394.44
371.35	417.44
371.576	418.44
371.802	399.44
372.028	413.44
372.254	411.44
372.48	405.44
372.706	409.44
372.932	425.44
373.158	409.44
373.384	412.44
373.61	420.44
373.835	389.44
374.061	411.44
374.287	424.44
374.513	397.44
374.739	454.44
374.965	459.44
375.191	456.44
375.416	451.44
375.642	444.44
375.868	427.44
376.094	420.44
376.319	413.44
376.545	403.44
376.771	419.44
376.997	394.44
377.222	403.44
377.448	417.44
377.674	403.44
377.899	407.44
378.125	400.44
378.35	408.44
378.576	396.44
378.802	413.44
379.027	405.44
379.253	402.44
379.478	426.44
379.704	412.44
379.929	393.44
380.155	416.44
380.38	395.44
380.606	401.44
380.831	407.44
381.057	401.44
381.282	405.44
381.507	416.44
381.733	416.44
381.958	394.44
382.184	415.44
382.409	426.44
382.634	416.44
382.86	443.44
383.085	420.44
383.31	454.44
383.535	445.44
383.761	435.44
383.986	466.44
384.211	466.44
384.436	481.44
384.662	489.44
384.887	480.44
385.112	494.44
385.337	500.44
385.562	487.44
385.787	472.44
386.013	502.44
386.238	479.44
386.463	488.44
386.688	503.44
386.913	500.44
387.138	491.44
387.363	469.44
387.588	485.44
387.813	455.44
388.038	463.44
388.263	469.44
388.488	503.44
388.713	499.44
388.938	488.44
389.163	470.44
389.387	483.44
389.612	460.44
389.837	451.44
390.062	446.44
390.287	455.44
390.512	467.44
390.736	468.44
390.961	478.44
391.186	484.44
391.411	516.44
391.636	518.44
391.86	529.44
392.085	534.44
392.31	545.44
392.534	539.44
392.759	511.44
392.984	512.44
393.208	485.44
393.433	513.44
393.658	519.44
393.882	512.44
394.107	517.44
394.331	509.44
394.556	506.44
394.78	512.44
395.005	507.44
395.229	505.44
395.454	517.44
395.678	548.44
395.903	537.44
396.127	527.44
396.352	524.44
396.576	501.44
396.801	515.44
397.025	505.44
397.249	533.44
397.474	538.44
397.698	556.44
397.922	532.44
398.147	515.44
398.371	540.44
398.595	547.44
398.82	571.44
399.044	603.44
399.268	683.44
399.492	785.44
399.717	924.44
399.941	917.44
400.165	776.44
400.389	701.44
400.613	645.44
400.837	611.44
401.062	604.44
401.286	597.44
401.51	602.44
401.734	601.44
401.958	590.44
402.182	606.44
402.406	621.44
402.63	605.44
402.854	643.44
403.078	640.44
403.302	680.44
403.526	676.44
403.75	676.44
403.974	706.44
404.198	706.44
404.422	696.44
404.645	690.44
404.869	687.44
405.093	682.44
405.317	650.44
405.541	657.44
405.765	649.44
405.988	657.44
406.212	652.44
406.436	651.44
406.66	656.44
406.883	690.44
407.107	741.44
407.331	744.44
407.555	744.44
407.778	744.44
408.002	759.44
408.226	741.44
408.449	719.44
408.673	684.44
408.896	695.44
409.12	663.44
409.344	695.44
409.567	699.44
409.791	713.44
410.014	706.44
410.238	687.44
410.461	683.44
410.685	673.44
410.908	655.44
411.132	635.44
411.355	617.44
411.578	624.44
411.802	618.44
412.025	609.44
412.249	636.44
412.472	647.44
412.695	626.44
412.919	616.44
413.142	625.44
413.365	599.44
413.589	612.44
413.812	617.44
414.035	593.44
414.258	610.44
414.482	600.44
414.705	609.44
414.928	615.44
415.151	627.44
415.374	631.44
415.597	613.44
415.821	608.44
416.044	586.44
416.267	577.44
416.49	595.44
416.713	580.44
416.936	590.44
417.159	598.44
417.382	572.44
417.605	588.44
417.828	615.44
418.051	610.44
418.274	585.44
418.497	589.44
418.72	605.44
418.943	606.44
419.166	649.44
419.389	700.44
419.611	673.44
419.834	649.44
420.057	635.44
420.28	614.44
420.503	597.44
420.726	602.44
420.948	588.44
421.171	594.44
421.394	600.44
421.617	598.44
421.839	604.44
422.062	604.44
422.285	581.44
422.507	623.44
422.73	619.44
422.953	600.44
423.175	642.44
423.398	632.44
423.621	643.44
423.843	681.44
424.066	641.44
424.288	654.44
424.511	645.44
424.733	645.44
424.956	628.44
425.178	623.44
425.401	623.44
425.623	607.44
425.846	588.44
426.068	588.44
426.291	585.44
426.513	569.44
426.735	565.44
426.958	546.44
427.18	546.44
427.402	572.44
427.625	546.44
427.847	544.44
428.069	562.44
428.292	562.44
428.514	536.44
428.736	536.44
428.958	559.44
429.181	529.44
429.403	550.44
429.625	536.44
429.847	524.44
430.069	543.44
430.292	554.44
430.514	556.44
430.736	539.44
430.958	561.44
431.18	545.44
431.402	533.44
431.624	533.44
431.846	549.44
432.068	543.44
432.29	537.44
432.512	540.44
432.734	549.44
432.956	543.44
433.178	543.44
433.4	552.44
433.622	565.44
433.844	565.44
434.066	559.44
434.287	548.44
434.509	569.44
434.731	591.44
434.953	600.44
435.175	628.44
435.397	613.44
435.618	583.44
435.84	557.44
436.062	553.44
436.284	583.44
436.505	550.44
436.727	570.44
436.949	565.44
437.17	561.44
437.392	550.44
437.614	537.44
437.835	515.44
438.057	529.44
438.278	544.44
438.5	537.44
438.721	537.44
438.943	572.44
439.165	540.44
439.386	546.44
439.608	541.44
439.829	564.44
440.05	568.44
440.272	577.44
440.493	588.44
440.715	562.44
440.936	586.44
441.158	597.44
441.379	585.44
441.6	637.44
441.822	627.44
442.043	635.44
442.264	621.44
442.486	611.44
442.707	616.44
442.928	638.44
443.149	607.44
443.371	645.44
443.592	630.44
443.813	616.44
444.034	629.44
444.255	667.44
444.476	673.44
444.698	738.44
444.919	770.44
445.14	834.44
445.361	726.44
445.582	645.44
445.803	598.44
446.024	615.44
446.245	594.44
446.466	593.44
446.687	587.44
446.908	567.44
447.129	576.44
447.35	539.44
447.571	553.44
447.792	548.44
448.013	547.44
448.234	544.44
448.455	521.44
448.675	535.44
448.896	523.44
449.117	550.44
449.338	512.44
449.559	504.44
449.779	515.44
450	502.44
450.221	516.44
450.442	518.44
450.662	504.44
450.883	536.44
451.104	556.44
451.324	540.44
451.545	532.44
451.766	533.44
451.986	542.44
452.207	534.44
452.428	526.44
452.648	520.44
452.869	509.44
453.089	509.44
453.31	505.44
453.53	496.44
453.751	500.44
453.971	499.44
454.192	495.44
454.412	495.44
454.633	500.44
454.853	501.44
455.073	493.44
455.294	507.44
455.514	493.44
455.734	474.44
455.955	491.44
456.175	483.44
456.395	488.44
456.616	482.44
456.836	496.44
457.056	485.44
457.276	492.44
457.497	490.44
457.717	481.44
457.937	483.44
458.157	475.44
458.377	492.44
458.598	485.44
458.818	502.44
459.038	542.44
459.258	553.44
459.478	567.44
459.698	552.44
459.918	577.44
460.138	630.44
460.358	637.44
460.578	665.44
460.798	664.44
461.018	673.44
461.238	643.44
461.458	655.44
461.678	654.44
461.898	634.44
462.118	666.44
462.338	716.44
462.558	705.44
462.777	739.44
462.997	831.44
463.217	904.44
463.437	888.44
463.657	801.44
463.876	767.44
464.096	771.44
464.316	785.44
464.536	768.44
464.755	762.44
464.975	695.44
465.195	681.44
465.414	654.44
465.634	601.44
465.854	563.44
466.073	587.44
466.293	559.44
466.512	550.44
466.732	538.44
466.951	548.44
467.171	533.44
467.391	540.44
467.61	543.44
467.829	527.44
468.049	528.44
468.268	537.44
468.488	522.44
468.707	507.44
468.927	507.44
469.146	520.44
469.365	536.44
469.585	543.44
469.804	552.44
470.023	578.44
470.243	575.44
470.462	554.44
470.681	556.44
470.901	563.44
471.12	561.44
471.339	567.44
471.558	526.44
471.777	532.44
471.997	533.44
472.216	532.44
472.435	532.44
472.654	513.44
472.873	501.44
473.092	515.44
473.311	483.44
473.53	509.44
473.749	511.44
473.968	492.44
474.187	513.44
474.406	500.44
474.625	507.44
474.844	506.44
475.063	488.44
475.282	493.44
475.501	529.44
475.72	508.44
475.939	501.44
476.158	503.44
476.377	539.44
476.596	526.44
476.814	516.44
477.033	553.44
477.252	541.44
477.471	545.44
477.69	565.44
477.908	562.44
478.127	588.44
478.346	595.44
478.564	612.44
478.783	607.44
479.002	633.44
479.22	619.44
479.439	608.44
479.658	624.44
479.876	610.44
480.095	604.44
480.313	643.44
480.532	674.44
480.751	675.44
480.969	628.44
481.188	610.44
481.406	595.44
481.624	589.44
481.843	564.44
482.061	579.44
482.28	565.44
482.498	545.44
482.717	550.44
482.935	541.44
483.153	566.44
483.372	568.44
483.59	554.44
483.808	572.44
484.027	574.44
484.245	577.44
484.463	561.44
484.681	589.44
484.9	594.44
485.118	589.44
485.336	606.44
485.554	604.44
485.772	592.44
485.99	615.44
486.209	607.44
486.427	591.44
486.645	611.44
486.863	587.44
487.081	620.44
487.299	621.44
487.517	594.44
487.735	573.44
487.953	623.44
488.171	604.44
488.389	587.44
488.607	582.44
488.825	575.44
489.043	593.44
489.261	589.44
489.479	628.44
489.696	597.44
489.914	602.44
490.132	609.44
490.35	604.44
490.568	605.44
490.786	622.44
491.003	617.44
491.221	617.44
491.439	609.44
491.657	623.44
491.874	622.44
492.092	611.44
492.31	614.44
492.527	624.44
492.745	617.44
492.963	618.44
493.18	632.44
493.398	647.44
493.615	656.44
493.833	624.44
494.05	639.44
494.268	640.44
494.485	635.44
494.703	652.44
494.92	643.44
495.138	641.44
495.355	609.44
495.573	643.44
495.79	643.44
496.008	638.44
496.225	652.44
496.442	656.44
496.66	678.44
496.877	626.44
497.094	663.44
497.312	681.44
497.529	685.44
497.746	688.44
497.963	720.44
498.181	757.44
498.398	795.44
498.615	844.44
498.832	876.44
499.049	929.44
499.267	975.44
499.484	1097.44
499.701	1231.44
499.918	1395.44
500.135	1611.44
500.352	1887.44
500.569	1951.44
500.786	1925.44
501.003	1728.44
501.22	1575.44
501.437	1363.44
