Data from Ni(NO3)2Standard.Agarose3%.GreenCap.LampEnergy5.5.E.O_HRD10591_14-42-50-189.txt Node
Date: Mon Jul 22 14:42:50 EDT 2019
User: cochatt
Spectrometer: HR+D1059
Trigger mode: 1
Integration Time (sec): 1.000000E-1
Scans to average: 1
Electric dark correction enabled: true
Nonlinearity correction enabled: false
Boxcar width: 0
XAxis mode: Wavelengths
Number of Pixels in Spectrum: 2048
>>>>>Begin Spectral Data<<<<<
223.165	-14.44
223.4	-14.44
223.635	-14.44
223.869	-11.44
224.104	-12.44
224.338	-3.44
224.573	-8.44
224.808	-14.44
225.042	-5.44
225.277	-1.44
225.511	-10.44
225.746	9.56
225.98	-7.44
226.215	12.56
226.449	13.56
226.683	12.56
226.918	14.56
227.152	26.56
227.387	31.56
227.621	31.56
227.856	40.56
228.09	49.56
228.324	53.56
228.559	63.56
228.793	41.56
229.027	55.56
229.262	66.56
229.496	61.56
229.73	69.56
229.964	73.56
230.199	74.56
230.433	75.56
230.667	87.56
230.901	79.56
231.136	77.56
231.37	82.56
231.604	77.56
231.838	69.56
232.072	81.56
232.306	89.56
232.541	80.56
232.775	81.56
233.009	79.56
233.243	78.56
233.477	87.56
233.711	89.56
233.945	86.56
234.179	85.56
234.413	76.56
234.647	77.56
234.881	78.56
235.115	75.56
235.349	84.56
235.583	66.56
235.817	82.56
236.051	74.56
236.285	74.56
236.519	76.56
236.753	86.56
236.987	88.56
237.221	75.56
237.455	78.56
237.689	89.56
237.922	94.56
238.156	85.56
238.39	75.56
238.624	73.56
238.858	74.56
239.091	66.56
239.325	92.56
239.559	65.56
239.793	74.56
240.027	82.56
240.26	70.56
240.494	70.56
240.728	79.56
240.961	87.56
241.195	79.56
241.429	83.56
241.662	76.56
241.896	87.56
242.13	79.56
242.363	72.56
242.597	79.56
242.83	83.56
243.064	71.56
243.298	72.56
243.531	77.56
243.765	77.56
243.998	61.56
244.232	74.56
244.465	75.56
244.699	92.56
244.932	79.56
245.166	69.56
245.399	78.56
245.633	70.56
245.866	85.56
246.099	88.56
246.333	89.56
246.566	69.56
246.8	83.56
247.033	97.56
247.266	79.56
247.5	85.56
247.733	66.56
247.966	81.56
248.2	87.56
248.433	73.56
248.666	87.56
248.899	78.56
249.133	84.56
249.366	83.56
249.599	83.56
249.832	77.56
250.066	89.56
250.299	91.56
250.532	81.56
250.765	60.56
250.998	68.56
251.231	81.56
251.465	76.56
251.698	77.56
251.931	77.56
252.164	86.56
252.397	81.56
252.63	79.56
252.863	88.56
253.096	71.56
253.329	97.56
253.562	80.56
253.795	96.56
254.028	81.56
254.261	85.56
254.494	79.56
254.727	75.56
254.96	73.56
255.193	76.56
255.426	83.56
255.659	84.56
255.892	92.56
256.124	83.56
256.357	95.56
256.59	79.56
256.823	80.56
257.056	73.56
257.289	80.56
257.521	88.56
257.754	73.56
257.987	82.56
258.22	80.56
258.452	86.56
258.685	86.56
258.918	79.56
259.151	93.56
259.383	68.56
259.616	81.56
259.849	78.56
260.081	71.56
260.314	75.56
260.547	84.56
260.779	85.56
261.012	83.56
261.244	71.56
261.477	81.56
261.71	70.56
261.942	85.56
262.175	73.56
262.407	80.56
262.64	69.56
262.872	83.56
263.105	86.56
263.337	91.56
263.57	84.56
263.802	88.56
264.035	58.56
264.267	69.56
264.499	84.56
264.732	85.56
264.964	62.56
265.197	81.56
265.429	84.56
265.661	68.56
265.894	99.56
266.126	88.56
266.358	72.56
266.591	83.56
266.823	90.56
267.055	73.56
267.287	81.56
267.52	77.56
267.752	68.56
267.984	69.56
268.216	76.56
268.448	88.56
268.681	84.56
268.913	88.56
269.145	88.56
269.377	81.56
269.609	67.56
269.841	79.56
270.073	85.56
270.306	60.56
270.538	80.56
270.77	92.56
271.002	95.56
271.234	74.56
271.466	80.56
271.698	67.56
271.93	79.56
272.162	87.56
272.394	94.56
272.626	76.56
272.858	83.56
273.09	89.56
273.322	92.56
273.553	90.56
273.785	68.56
274.017	89.56
274.249	75.56
274.481	83.56
274.713	81.56
274.945	85.56
275.176	90.56
275.408	76.56
275.64	90.56
275.872	79.56
276.104	82.56
276.335	87.56
276.567	79.56
276.799	86.56
277.031	82.56
277.262	76.56
277.494	84.56
277.726	86.56
277.957	85.56
278.189	87.56
278.421	78.56
278.652	80.56
278.884	91.56
279.115	75.56
279.347	80.56
279.579	69.56
279.81	79.56
280.042	72.56
280.273	70.56
280.505	84.56
280.736	87.56
280.968	106.56
281.199	102.56
281.431	78.56
281.662	77.56
281.894	87.56
282.125	81.56
282.356	87.56
282.588	87.56
282.819	77.56
283.051	100.56
283.282	97.56
283.513	98.56
283.745	97.56
283.976	74.56
284.207	69.56
284.439	69.56
284.67	90.56
284.901	76.56
285.132	71.56
285.364	89.56
285.595	76.56
285.826	91.56
286.057	82.56
286.288	79.56
286.52	84.56
286.751	88.56
286.982	91.56
287.213	83.56
287.444	106.56
287.675	82.56
287.906	94.56
288.138	87.56
288.369	77.56
288.6	99.56
288.831	84.56
289.062	74.56
289.293	81.56
289.524	86.56
289.755	88.56
289.986	81.56
290.217	93.56
290.448	85.56
290.679	99.56
290.91	103.56
291.141	77.56
291.371	87.56
291.602	77.56
291.833	91.56
292.064	73.56
292.295	76.56
292.526	78.56
292.757	86.56
292.987	86.56
293.218	89.56
293.449	82.56
293.68	79.56
293.91	93.56
294.141	91.56
294.372	85.56
294.603	79.56
294.833	98.56
295.064	97.56
295.295	101.56
295.525	100.56
295.756	72.56
295.987	86.56
296.217	69.56
296.448	91.56
296.679	72.56
296.909	99.56
297.14	97.56
297.37	85.56
297.601	87.56
297.831	77.56
298.062	72.56
298.292	88.56
298.523	85.56
298.753	77.56
298.984	79.56
299.214	87.56
299.445	84.56
299.675	81.56
299.905	82.56
300.136	92.56
300.366	83.56
300.597	97.56
300.827	86.56
301.057	83.56
301.288	89.56
301.518	81.56
301.748	89.56
301.979	87.56
302.209	88.56
302.439	73.56
302.669	82.56
302.9	87.56
303.13	78.56
303.36	83.56
303.59	89.56
303.82	84.56
304.051	84.56
304.281	78.56
304.511	84.56
304.741	86.56
304.971	74.56
305.201	101.56
305.431	84.56
305.661	91.56
305.891	83.56
306.121	75.56
306.352	75.56
306.582	81.56
306.812	85.56
307.042	96.56
307.272	75.56
307.502	81.56
307.731	100.56
307.961	82.56
308.191	76.56
308.421	81.56
308.651	69.56
308.881	66.56
309.111	76.56
309.341	87.56
309.571	84.56
309.8	92.56
310.03	88.56
310.26	81.56
310.49	76.56
310.72	61.56
310.949	76.56
311.179	91.56
311.409	95.56
311.639	82.56
311.868	78.56
312.098	76.56
312.328	80.56
312.557	83.56
312.787	68.56
313.017	82.56
313.246	79.56
313.476	92.56
313.706	85.56
313.935	82.56
314.165	77.56
314.394	87.56
314.624	77.56
314.853	79.56
315.083	86.56
315.312	78.56
315.542	87.56
315.771	81.56
316.001	95.56
316.23	94.56
316.46	77.56
316.689	82.56
316.919	91.56
317.148	78.56
317.377	88.56
317.607	92.56
317.836	100.56
318.065	92.56
318.295	87.56
318.524	87.56
318.753	90.56
318.983	82.56
319.212	84.56
319.441	76.56
319.67	96.56
319.9	84.56
320.129	96.56
320.358	101.56
320.587	83.56
320.816	85.56
321.046	90.56
321.275	95.56
321.504	74.56
321.733	81.56
321.962	84.56
322.191	84.56
322.42	96.56
322.649	73.56
322.878	76.56
323.108	89.56
323.337	94.56
323.566	82.56
323.795	82.56
324.024	78.56
324.253	83.56
324.482	84.56
324.71	84.56
324.939	88.56
325.168	90.56
325.397	100.56
325.626	85.56
325.855	85.56
326.084	85.56
326.313	105.56
326.542	81.56
326.77	77.56
326.999	74.56
327.228	82.56
327.457	76.56
327.686	83.56
327.914	75.56
328.143	85.56
328.372	86.56
328.6	91.56
328.829	91.56
329.058	87.56
329.287	90.56
329.515	99.56
329.744	98.56
329.972	91.56
330.201	94.56
330.43	91.56
330.658	88.56
330.887	90.56
331.115	98.56
331.344	93.56
331.572	92.56
331.801	71.56
332.03	88.56
332.258	81.56
332.486	82.56
332.715	87.56
332.943	78.56
333.172	83.56
333.4	80.56
333.629	75.56
333.857	80.56
334.085	83.56
334.314	95.56
334.542	85.56
334.771	87.56
334.999	79.56
335.227	72.56
335.455	79.56
335.684	67.56
335.912	89.56
336.14	89.56
336.369	90.56
336.597	87.56
336.825	91.56
337.053	79.56
337.281	91.56
337.51	86.56
337.738	104.56
337.966	82.56
338.194	93.56
338.422	83.56
338.65	89.56
338.878	85.56
339.106	97.56
339.334	74.56
339.562	76.56
339.79	92.56
340.018	82.56
340.246	87.56
340.474	96.56
340.702	74.56
340.93	96.56
341.158	85.56
341.386	83.56
341.614	99.56
341.842	80.56
342.07	77.56
342.298	68.56
342.526	97.56
342.754	81.56
342.981	92.56
343.209	76.56
343.437	93.56
343.665	82.56
343.893	92.56
344.12	101.56
344.348	96.56
344.576	76.56
344.804	74.56
345.031	83.56
345.259	82.56
345.487	70.56
345.714	74.56
345.942	99.56
346.17	89.56
346.397	82.56
346.625	75.56
346.853	83.56
347.08	71.56
347.308	100.56
347.535	84.56
347.763	86.56
347.99	94.56
348.218	93.56
348.445	98.56
348.673	85.56
348.9	90.56
349.128	88.56
349.355	73.56
349.583	90.56
349.81	85.56
350.037	75.56
350.265	90.56
350.492	78.56
350.72	82.56
350.947	91.56
351.174	72.56
351.402	76.56
351.629	82.56
351.856	69.56
352.083	85.56
352.311	83.56
352.538	81.56
352.765	86.56
352.992	89.56
353.22	89.56
353.447	97.56
353.674	93.56
353.901	97.56
354.128	82.56
354.355	81.56
354.583	98.56
354.81	77.56
355.037	78.56
355.264	86.56
355.491	91.56
355.718	65.56
355.945	79.56
356.172	77.56
356.399	75.56
356.626	90.56
356.853	78.56
357.08	87.56
357.307	77.56
357.534	83.56
357.761	80.56
357.988	89.56
358.215	78.56
358.441	87.56
358.668	95.56
358.895	77.56
359.122	99.56
359.349	85.56
359.576	79.56
359.802	82.56
360.029	100.56
360.256	97.56
360.483	84.56
360.709	82.56
360.936	93.56
361.163	73.56
361.39	84.56
361.616	87.56
361.843	93.56
362.07	78.56
362.296	82.56
362.523	80.56
362.749	98.56
362.976	85.56
363.203	93.56
363.429	86.56
363.656	76.56
363.882	94.56
364.109	89.56
364.335	89.56
364.562	80.56
364.788	97.56
365.015	84.56
365.241	72.56
365.468	79.56
365.694	71.56
365.92	91.56
366.147	95.56
366.373	75.56
366.599	86.56
366.826	85.56
367.052	80.56
367.278	94.56
367.505	93.56
367.731	89.56
367.957	75.56
368.184	85.56
368.41	92.56
368.636	90.56
368.862	83.56
369.089	83.56
369.315	72.56
369.541	75.56
369.767	70.56
369.993	77.56
370.219	75.56
370.445	88.56
370.672	87.56
370.898	91.56
371.124	94.56
371.35	93.56
371.576	97.56
371.802	84.56
372.028	77.56
372.254	91.56
372.48	98.56
372.706	89.56
372.932	80.56
373.158	83.56
373.384	86.56
373.61	75.56
373.835	99.56
374.061	92.56
374.287	78.56
374.513	85.56
374.739	77.56
374.965	89.56
375.191	84.56
375.416	92.56
375.642	85.56
375.868	82.56
376.094	97.56
376.319	78.56
376.545	98.56
376.771	91.56
376.997	89.56
377.222	79.56
377.448	75.56
377.674	83.56
377.899	94.56
378.125	77.56
378.35	90.56
378.576	96.56
378.802	85.56
379.027	90.56
379.253	83.56
379.478	94.56
379.704	92.56
379.929	71.56
380.155	85.56
380.38	79.56
380.606	82.56
380.831	89.56
381.057	75.56
381.282	79.56
381.507	87.56
381.733	73.56
381.958	75.56
382.184	82.56
382.409	90.56
382.634	86.56
382.86	77.56
383.085	72.56
383.31	74.56
383.535	91.56
383.761	86.56
383.986	92.56
384.211	82.56
384.436	102.56
384.662	98.56
384.887	93.56
385.112	83.56
385.337	78.56
385.562	85.56
385.787	83.56
386.013	99.56
386.238	89.56
386.463	92.56
386.688	89.56
386.913	77.56
387.138	77.56
387.363	80.56
387.588	87.56
387.813	78.56
388.038	96.56
388.263	81.56
388.488	85.56
388.713	91.56
388.938	76.56
389.163	76.56
389.387	94.56
389.612	88.56
389.837	91.56
390.062	89.56
390.287	77.56
390.512	91.56
390.736	84.56
390.961	81.56
391.186	85.56
391.411	78.56
391.636	85.56
391.86	84.56
392.085	77.56
392.31	81.56
392.534	81.56
392.759	75.56
392.984	76.56
393.208	84.56
393.433	84.56
393.658	83.56
393.882	82.56
394.107	89.56
394.331	100.56
394.556	81.56
394.78	81.56
395.005	95.56
395.229	88.56
395.454	93.56
395.678	80.56
395.903	92.56
396.127	97.56
396.352	74.56
396.576	71.56
396.801	91.56
397.025	71.56
397.249	77.56
397.474	87.56
397.698	97.56
397.922	75.56
398.147	94.56
398.371	86.56
398.595	83.56
398.82	91.56
399.044	73.56
399.268	89.56
399.492	95.56
399.717	78.56
399.941	88.56
400.165	86.56
400.389	82.56
400.613	88.56
400.837	86.56
401.062	86.56
401.286	69.56
401.51	91.56
401.734	81.56
401.958	69.56
402.182	92.56
402.406	88.56
402.63	79.56
402.854	94.56
403.078	89.56
403.302	84.56
403.526	84.56
403.75	88.56
403.974	80.56
404.198	87.56
404.422	85.56
404.645	93.56
404.869	78.56
405.093	91.56
405.317	82.56
405.541	86.56
405.765	89.56
405.988	79.56
406.212	79.56
406.436	77.56
406.66	68.56
406.883	78.56
407.107	76.56
407.331	74.56
407.555	76.56
407.778	86.56
408.002	92.56
408.226	93.56
408.449	89.56
408.673	76.56
408.896	89.56
409.12	96.56
409.344	88.56
409.567	86.56
409.791	94.56
410.014	86.56
410.238	84.56
410.461	69.56
410.685	93.56
410.908	93.56
411.132	78.56
411.355	87.56
411.578	84.56
411.802	100.56
412.025	79.56
412.249	78.56
412.472	86.56
412.695	79.56
412.919	67.56
413.142	90.56
413.365	92.56
413.589	98.56
413.812	85.56
414.035	76.56
414.258	81.56
414.482	87.56
414.705	93.56
414.928	86.56
415.151	89.56
415.374	79.56
415.597	90.56
415.821	98.56
416.044	89.56
416.267	85.56
416.49	78.56
416.713	89.56
416.936	73.56
417.159	78.56
417.382	79.56
417.605	76.56
417.828	95.56
418.051	96.56
418.274	97.56
418.497	86.56
418.72	72.56
418.943	83.56
419.166	80.56
419.389	72.56
419.611	83.56
419.834	83.56
420.057	101.56
420.28	90.56
420.503	80.56
420.726	87.56
420.948	78.56
421.171	85.56
421.394	85.56
421.617	79.56
421.839	91.56
422.062	75.56
422.285	89.56
422.507	91.56
422.73	82.56
422.953	76.56
423.175	88.56
423.398	101.56
423.621	85.56
423.843	96.56
424.066	98.56
424.288	73.56
424.511	87.56
424.733	81.56
424.956	80.56
425.178	88.56
425.401	78.56
425.623	79.56
425.846	89.56
426.068	89.56
426.291	90.56
426.513	70.56
426.735	97.56
426.958	94.56
427.18	99.56
427.402	91.56
427.625	86.56
427.847	91.56
428.069	105.56
428.292	82.56
428.514	73.56
428.736	91.56
428.958	68.56
429.181	79.56
429.403	85.56
429.625	81.56
429.847	86.56
430.069	78.56
430.292	85.56
430.514	75.56
430.736	101.56
430.958	70.56
431.18	78.56
431.402	86.56
431.624	79.56
431.846	87.56
432.068	95.56
432.29	91.56
432.512	79.56
432.734	79.56
432.956	89.56
433.178	83.56
433.4	88.56
433.622	92.56
433.844	86.56
434.066	97.56
434.287	92.56
434.509	97.56
434.731	86.56
434.953	85.56
435.175	92.56
435.397	84.56
435.618	85.56
435.84	89.56
436.062	84.56
436.284	84.56
436.505	81.56
436.727	88.56
436.949	87.56
437.17	69.56
437.392	89.56
437.614	92.56
437.835	77.56
438.057	88.56
438.278	88.56
438.5	83.56
438.721	90.56
438.943	87.56
439.165	74.56
439.386	83.56
439.608	97.56
439.829	69.56
440.05	105.56
440.272	83.56
440.493	85.56
440.715	87.56
440.936	81.56
441.158	80.56
441.379	88.56
441.6	93.56
441.822	82.56
442.043	79.56
442.264	92.56
442.486	85.56
442.707	96.56
442.928	85.56
443.149	70.56
443.371	87.56
443.592	81.56
443.813	86.56
444.034	95.56
444.255	98.56
444.476	90.56
444.698	93.56
444.919	79.56
445.14	226.56
445.361	159.56
445.582	99.56
445.803	89.56
446.024	93.56
446.245	95.56
446.466	80.56
446.687	84.56
446.908	86.56
447.129	94.56
447.35	80.56
447.571	93.56
447.792	69.56
448.013	82.56
448.234	88.56
448.455	83.56
448.675	78.56
448.896	76.56
449.117	82.56
449.338	73.56
449.559	101.56
449.779	95.56
450	87.56
450.221	89.56
450.442	77.56
450.662	90.56
450.883	91.56
451.104	89.56
451.324	75.56
451.545	91.56
451.766	81.56
451.986	83.56
452.207	95.56
452.428	73.56
452.648	84.56
452.869	72.56
453.089	85.56
453.31	83.56
453.53	79.56
453.751	80.56
453.971	81.56
454.192	77.56
454.412	80.56
454.633	78.56
454.853	82.56
455.073	79.56
455.294	83.56
455.514	85.56
455.734	82.56
455.955	80.56
456.175	97.56
456.395	73.56
456.616	86.56
456.836	88.56
457.056	90.56
457.276	76.56
457.497	92.56
457.717	97.56
457.937	89.56
458.157	85.56
458.377	79.56
458.598	84.56
458.818	85.56
459.038	71.56
459.258	77.56
459.478	77.56
459.698	95.56
459.918	85.56
460.138	90.56
460.358	93.56
460.578	89.56
460.798	91.56
461.018	93.56
461.238	88.56
461.458	102.56
461.678	85.56
461.898	77.56
462.118	84.56
462.338	79.56
462.558	76.56
462.777	83.56
462.997	92.56
463.217	93.56
463.437	99.56
463.657	78.56
463.876	83.56
464.096	85.56
464.316	95.56
464.536	82.56
464.755	71.56
464.975	79.56
465.195	90.56
465.414	85.56
465.634	94.56
465.854	102.56
466.073	85.56
466.293	87.56
466.512	89.56
466.732	86.56
466.951	94.56
467.171	91.56
467.391	95.56
467.61	79.56
467.829	83.56
468.049	89.56
468.268	89.56
468.488	94.56
468.707	91.56
468.927	82.56
469.146	78.56
469.365	83.56
469.585	91.56
469.804	96.56
470.023	102.56
470.243	86.56
470.462	89.56
470.681	97.56
470.901	81.56
471.12	82.56
471.339	82.56
471.558	82.56
471.777	100.56
471.997	94.56
472.216	91.56
472.435	87.56
472.654	79.56
472.873	90.56
473.092	93.56
473.311	87.56
473.53	94.56
473.749	87.56
473.968	90.56
474.187	87.56
474.406	82.56
474.625	93.56
474.844	85.56
475.063	89.56
475.282	89.56
475.501	94.56
475.72	86.56
475.939	83.56
476.158	88.56
476.377	80.56
476.596	89.56
476.814	86.56
477.033	79.56
477.252	74.56
477.471	78.56
477.69	87.56
477.908	78.56
478.127	95.56
478.346	91.56
478.564	84.56
478.783	89.56
479.002	105.56
479.22	94.56
479.439	93.56
479.658	100.56
479.876	92.56
480.095	87.56
480.313	90.56
480.532	93.56
480.751	90.56
480.969	91.56
481.188	91.56
481.406	84.56
481.624	91.56
481.843	94.56
482.061	81.56
482.28	91.56
482.498	91.56
482.717	91.56
482.935	103.56
483.153	84.56
483.372	87.56
483.59	85.56
483.808	106.56
484.027	98.56
484.245	84.56
484.463	95.56
484.681	98.56
484.9	89.56
485.118	87.56
485.336	87.56
485.554	105.56
485.772	88.56
485.99	83.56
486.209	93.56
486.427	94.56
486.645	97.56
486.863	104.56
487.081	100.56
487.299	89.56
487.517	95.56
487.735	87.56
487.953	86.56
488.171	99.56
488.389	83.56
488.607	102.56
488.825	85.56
489.043	84.56
489.261	87.56
489.479	88.56
489.696	90.56
489.914	88.56
490.132	96.56
490.35	109.56
490.568	106.56
490.786	85.56
491.003	99.56
491.221	92.56
491.439	89.56
491.657	102.56
491.874	85.56
492.092	87.56
492.31	84.56
492.527	97.56
492.745	106.56
492.963	104.56
493.18	100.56
493.398	82.56
493.615	97.56
493.833	94.56
494.05	95.56
494.268	105.56
494.485	98.56
494.703	98.56
494.92	95.56
495.138	91.56
495.355	78.56
495.573	95.56
495.79	89.56
496.008	89.56
496.225	100.56
496.442	96.56
496.66	102.56
496.877	109.56
497.094	97.56
497.312	101.56
497.529	95.56
497.746	88.56
497.963	79.56
498.181	89.56
498.398	95.56
498.615	97.56
498.832	98.56
499.049	100.56
499.267	93.56
499.484	94.56
499.701	108.56
499.918	115.56
500.135	105.56
500.352	114.56
500.569	105.56
500.786	99.56
501.003	106.56
501.22	102.56
501.437	106.56
501.654	115.56
501.871	106.56
502.088	106.56
502.305	98.56
502.522	87.56
502.739	92.56
502.956	102.56
503.172	89.56
503.389	92.56
503.606	92.56
503.823	91.56
504.04	99.56
504.256	94.56
504.473	109.56
504.69	100.56
504.907	91.56
505.123	80.56
505.34	92.56
505.557	94.56
505.773	91.56
505.99	86.56
506.207	86.56
506.423	90.56
506.64	98.56
506.856	83.56
507.073	89.56
507.289	102.56
507.506	84.56
507.722	97.56
507.939	94.56
508.155	91.56
508.372	106.56
508.588	104.56
508.805	87.56
509.021	85.56
509.238	80.56
509.454	99.56
509.67	90.56
509.887	80.56
510.103	72.56
510.319	85.56
510.536	81.56
510.752	97.56
510.968	97.56
511.184	79.56
511.401	93.56
511.617	93.56
511.833	104.56
512.049	97.56
512.265	94.56
512.481	87.56
512.698	93.56
512.914	90.56
513.13	87.56
513.346	94.56
513.562	87.56
513.778	86.56
513.994	100.56
514.21	108.56
514.426	93.56
514.642	97.56
514.858	105.56
515.074	92.56
515.29	92.56
515.506	98.56
515.721	90.56
515.937	93.56
516.153	83.56
516.369	74.56
516.585	78.56
516.801	80.56
517.016	92.56
517.232	93.56
517.448	89.56
517.664	92.56
517.879	92.56
518.095	91.56
518.311	99.56
518.527	93.56
