Data from Ni(NO3)2Standard.Agarose3%.GreenCap.LampEnergy5.5.E.O_HRD10591_14-40-51-188.txt Node
Date: Mon Jul 22 14:40:51 EDT 2019
User: cochatt
Spectrometer: HR+D1059
Trigger mode: 1
Integration Time (sec): 1.000000E-1
Scans to average: 1
Electric dark correction enabled: true
Nonlinearity correction enabled: false
Boxcar width: 0
XAxis mode: Wavelengths
Number of Pixels in Spectrum: 2048
>>>>>Begin Spectral Data<<<<<
223.165	-17.25
223.4	-17.25
223.635	-17.25
223.869	-28.25
224.104	-24.25
224.338	-7.25
224.573	-10.25
224.808	-2.25
225.042	-7.25
225.277	-11.25
225.511	-12.25
225.746	7.75
225.98	15.75
226.215	7.75
226.449	11.75
226.683	7.75
226.918	35.75
227.152	33.75
227.387	21.75
227.621	39.75
227.856	46.75
228.09	36.75
228.324	54.75
228.559	59.75
228.793	50.75
229.027	64.75
229.262	56.75
229.496	50.75
229.73	76.75
229.964	73.75
230.199	83.75
230.433	81.75
230.667	73.75
230.901	73.75
231.136	86.75
231.37	87.75
231.604	85.75
231.838	86.75
232.072	83.75
232.306	87.75
232.541	91.75
232.775	77.75
233.009	76.75
233.243	80.75
233.477	72.75
233.711	76.75
233.945	78.75
234.179	76.75
234.413	83.75
234.647	77.75
234.881	86.75
235.115	77.75
235.349	69.75
235.583	84.75
235.817	75.75
236.051	64.75
236.285	90.75
236.519	87.75
236.753	75.75
236.987	69.75
237.221	87.75
237.455	75.75
237.689	66.75
237.922	82.75
238.156	71.75
238.39	77.75
238.624	66.75
238.858	93.75
239.091	90.75
239.325	72.75
239.559	71.75
239.793	81.75
240.027	87.75
240.26	72.75
240.494	70.75
240.728	85.75
240.961	77.75
241.195	77.75
241.429	83.75
241.662	73.75
241.896	64.75
242.13	75.75
242.363	70.75
242.597	75.75
242.83	82.75
243.064	70.75
243.298	82.75
243.531	77.75
243.765	80.75
243.998	73.75
244.232	73.75
244.465	81.75
244.699	80.75
244.932	70.75
245.166	71.75
245.399	78.75
245.633	71.75
245.866	71.75
246.099	70.75
246.333	81.75
246.566	82.75
246.8	77.75
247.033	93.75
247.266	84.75
247.5	80.75
247.733	63.75
247.966	86.75
248.2	82.75
248.433	60.75
248.666	81.75
248.899	85.75
249.133	78.75
249.366	80.75
249.599	66.75
249.832	80.75
250.066	85.75
250.299	82.75
250.532	80.75
250.765	86.75
250.998	84.75
251.231	87.75
251.465	77.75
251.698	76.75
251.931	87.75
252.164	86.75
252.397	67.75
252.63	63.75
252.863	87.75
253.096	76.75
253.329	76.75
253.562	75.75
253.795	84.75
254.028	74.75
254.261	77.75
254.494	80.75
254.727	75.75
254.96	87.75
255.193	82.75
255.426	78.75
255.659	84.75
255.892	85.75
256.124	76.75
256.357	71.75
256.59	83.75
256.823	73.75
257.056	79.75
257.289	88.75
257.521	85.75
257.754	75.75
257.987	76.75
258.22	93.75
258.452	77.75
258.685	80.75
258.918	83.75
259.151	73.75
259.383	91.75
259.616	75.75
259.849	72.75
260.081	78.75
260.314	81.75
260.547	81.75
260.779	79.75
261.012	85.75
261.244	76.75
261.477	78.75
261.71	87.75
261.942	83.75
262.175	89.75
262.407	68.75
262.64	94.75
262.872	84.75
263.105	75.75
263.337	88.75
263.57	80.75
263.802	84.75
264.035	89.75
264.267	74.75
264.499	87.75
264.732	72.75
264.964	68.75
265.197	83.75
265.429	77.75
265.661	82.75
265.894	86.75
266.126	83.75
266.358	79.75
266.591	86.75
266.823	84.75
267.055	95.75
267.287	92.75
267.52	84.75
267.752	86.75
267.984	69.75
268.216	71.75
268.448	86.75
268.681	82.75
268.913	82.75
269.145	83.75
269.377	88.75
269.609	94.75
269.841	85.75
270.073	87.75
270.306	80.75
270.538	94.75
270.77	71.75
271.002	93.75
271.234	77.75
271.466	88.75
271.698	93.75
271.93	74.75
272.162	89.75
272.394	84.75
272.626	78.75
272.858	91.75
273.09	90.75
273.322	81.75
273.553	88.75
273.785	83.75
274.017	80.75
274.249	75.75
274.481	67.75
274.713	92.75
274.945	95.75
275.176	72.75
275.408	87.75
275.64	94.75
275.872	72.75
276.104	77.75
276.335	81.75
276.567	81.75
276.799	84.75
277.031	90.75
277.262	84.75
277.494	82.75
277.726	81.75
277.957	79.75
278.189	81.75
278.421	77.75
278.652	83.75
278.884	85.75
279.115	81.75
279.347	71.75
279.579	89.75
279.81	78.75
280.042	93.75
280.273	76.75
280.505	74.75
280.736	77.75
280.968	87.75
281.199	65.75
281.431	82.75
281.662	77.75
281.894	87.75
282.125	88.75
282.356	80.75
282.588	86.75
282.819	81.75
283.051	89.75
283.282	93.75
283.513	84.75
283.745	92.75
283.976	81.75
284.207	88.75
284.439	81.75
284.67	80.75
284.901	74.75
285.132	83.75
285.364	82.75
285.595	92.75
285.826	78.75
286.057	89.75
286.288	74.75
286.52	83.75
286.751	80.75
286.982	72.75
287.213	83.75
287.444	86.75
287.675	77.75
287.906	82.75
288.138	79.75
288.369	92.75
288.6	71.75
288.831	80.75
289.062	87.75
289.293	90.75
289.524	85.75
289.755	71.75
289.986	72.75
290.217	84.75
290.448	87.75
290.679	68.75
290.91	72.75
291.141	96.75
291.371	80.75
291.602	93.75
291.833	82.75
292.064	73.75
292.295	87.75
292.526	79.75
292.757	95.75
292.987	89.75
293.218	72.75
293.449	75.75
293.68	74.75
293.91	73.75
294.141	89.75
294.372	96.75
294.603	100.75
294.833	82.75
295.064	82.75
295.295	93.75
295.525	90.75
295.756	89.75
295.987	87.75
296.217	68.75
296.448	84.75
296.679	89.75
296.909	75.75
297.14	87.75
297.37	94.75
297.601	84.75
297.831	81.75
298.062	95.75
298.292	95.75
298.523	96.75
298.753	97.75
298.984	90.75
299.214	100.75
299.445	83.75
299.675	81.75
299.905	89.75
300.136	79.75
300.366	89.75
300.597	79.75
300.827	90.75
301.057	81.75
301.288	93.75
301.518	91.75
301.748	80.75
301.979	96.75
302.209	103.75
302.439	100.75
302.669	89.75
302.9	100.75
303.13	88.75
303.36	87.75
303.59	71.75
303.82	80.75
304.051	83.75
304.281	93.75
304.511	91.75
304.741	82.75
304.971	88.75
305.201	77.75
305.431	91.75
305.661	93.75
305.891	73.75
306.121	100.75
306.352	67.75
306.582	76.75
306.812	82.75
307.042	89.75
307.272	78.75
307.502	97.75
307.731	87.75
307.961	92.75
308.191	89.75
308.421	72.75
308.651	89.75
308.881	84.75
309.111	74.75
309.341	85.75
309.571	91.75
309.8	88.75
310.03	85.75
310.26	69.75
310.49	92.75
310.72	76.75
310.949	86.75
311.179	83.75
311.409	93.75
311.639	87.75
311.868	86.75
312.098	83.75
312.328	84.75
312.557	96.75
312.787	92.75
313.017	80.75
313.246	87.75
313.476	69.75
313.706	88.75
313.935	85.75
314.165	84.75
314.394	92.75
314.624	90.75
314.853	92.75
315.083	90.75
315.312	84.75
315.542	87.75
315.771	97.75
316.001	92.75
316.23	97.75
316.46	86.75
316.689	79.75
316.919	79.75
317.148	83.75
317.377	88.75
317.607	87.75
317.836	84.75
318.065	88.75
318.295	74.75
318.524	88.75
318.753	92.75
318.983	85.75
319.212	87.75
319.441	73.75
319.67	83.75
319.9	81.75
320.129	86.75
320.358	91.75
320.587	77.75
320.816	77.75
321.046	83.75
321.275	92.75
321.504	80.75
321.733	87.75
321.962	83.75
322.191	84.75
322.42	80.75
322.649	87.75
322.878	92.75
323.108	81.75
323.337	85.75
323.566	90.75
323.795	81.75
324.024	89.75
324.253	85.75
324.482	83.75
324.71	82.75
324.939	87.75
325.168	85.75
325.397	73.75
325.626	85.75
325.855	82.75
326.084	73.75
326.313	83.75
326.542	76.75
326.77	86.75
326.999	85.75
327.228	107.75
327.457	85.75
327.686	88.75
327.914	96.75
328.143	81.75
328.372	90.75
328.6	86.75
328.829	86.75
329.058	88.75
329.287	99.75
329.515	77.75
329.744	76.75
329.972	85.75
330.201	69.75
330.43	76.75
330.658	90.75
330.887	86.75
331.115	85.75
331.344	74.75
331.572	89.75
331.801	81.75
332.03	84.75
332.258	88.75
332.486	81.75
332.715	91.75
332.943	88.75
333.172	78.75
333.4	100.75
333.629	91.75
333.857	90.75
334.085	89.75
334.314	84.75
334.542	79.75
334.771	92.75
334.999	85.75
335.227	92.75
335.455	80.75
335.684	83.75
335.912	92.75
336.14	79.75
336.369	77.75
336.597	84.75
336.825	92.75
337.053	74.75
337.281	93.75
337.51	90.75
337.738	106.75
337.966	77.75
338.194	83.75
338.422	75.75
338.65	99.75
338.878	97.75
339.106	94.75
339.334	89.75
339.562	73.75
339.79	84.75
340.018	82.75
340.246	76.75
340.474	99.75
340.702	81.75
340.93	78.75
341.158	90.75
341.386	79.75
341.614	81.75
341.842	91.75
342.07	78.75
342.298	97.75
342.526	100.75
342.754	84.75
342.981	84.75
343.209	85.75
343.437	95.75
343.665	91.75
343.893	70.75
344.12	78.75
344.348	77.75
344.576	82.75
344.804	76.75
345.031	83.75
345.259	84.75
345.487	82.75
345.714	82.75
345.942	107.75
346.17	77.75
346.397	73.75
346.625	103.75
346.853	84.75
347.08	81.75
347.308	85.75
347.535	77.75
347.763	88.75
347.99	91.75
348.218	88.75
348.445	71.75
348.673	79.75
348.9	78.75
349.128	89.75
349.355	91.75
349.583	87.75
349.81	79.75
350.037	86.75
350.265	81.75
350.492	96.75
350.72	97.75
350.947	94.75
351.174	71.75
351.402	91.75
351.629	92.75
351.856	84.75
352.083	90.75
352.311	71.75
352.538	75.75
352.765	102.75
352.992	92.75
353.22	83.75
353.447	84.75
353.674	77.75
353.901	86.75
354.128	88.75
354.355	79.75
354.583	90.75
354.81	80.75
355.037	79.75
355.264	77.75
355.491	73.75
355.718	81.75
355.945	77.75
356.172	80.75
356.399	85.75
356.626	92.75
356.853	86.75
357.08	98.75
357.307	83.75
357.534	88.75
357.761	88.75
357.988	89.75
358.215	103.75
358.441	89.75
358.668	86.75
358.895	85.75
359.122	84.75
359.349	87.75
359.576	79.75
359.802	97.75
360.029	80.75
360.256	95.75
360.483	87.75
360.709	92.75
360.936	101.75
361.163	95.75
361.39	70.75
361.616	85.75
361.843	87.75
362.07	88.75
362.296	89.75
362.523	84.75
362.749	79.75
362.976	93.75
363.203	88.75
363.429	91.75
363.656	93.75
363.882	91.75
364.109	96.75
364.335	89.75
364.562	69.75
364.788	81.75
365.015	75.75
365.241	97.75
365.468	88.75
365.694	77.75
365.92	93.75
366.147	91.75
366.373	86.75
366.599	75.75
366.826	81.75
367.052	88.75
367.278	85.75
367.505	93.75
367.731	88.75
367.957	81.75
368.184	90.75
368.41	100.75
368.636	71.75
368.862	90.75
369.089	87.75
369.315	90.75
369.541	84.75
369.767	100.75
369.993	81.75
370.219	78.75
370.445	88.75
370.672	85.75
370.898	84.75
371.124	88.75
371.35	88.75
371.576	78.75
371.802	85.75
372.028	85.75
372.254	96.75
372.48	83.75
372.706	90.75
372.932	75.75
373.158	73.75
373.384	87.75
373.61	92.75
373.835	91.75
374.061	77.75
374.287	84.75
374.513	68.75
374.739	85.75
374.965	88.75
375.191	92.75
375.416	78.75
375.642	99.75
375.868	91.75
376.094	88.75
376.319	87.75
376.545	86.75
376.771	78.75
376.997	73.75
377.222	77.75
377.448	93.75
377.674	81.75
377.899	90.75
378.125	78.75
378.35	81.75
378.576	86.75
378.802	90.75
379.027	93.75
379.253	79.75
379.478	87.75
379.704	81.75
379.929	90.75
380.155	82.75
380.38	87.75
380.606	78.75
380.831	79.75
381.057	99.75
381.282	89.75
381.507	98.75
381.733	88.75
381.958	93.75
382.184	92.75
382.409	89.75
382.634	90.75
382.86	89.75
383.085	99.75
383.31	87.75
383.535	100.75
383.761	76.75
383.986	90.75
384.211	73.75
384.436	79.75
384.662	92.75
384.887	95.75
385.112	97.75
385.337	76.75
385.562	84.75
385.787	90.75
386.013	104.75
386.238	74.75
386.463	95.75
386.688	85.75
386.913	79.75
387.138	78.75
387.363	85.75
387.588	84.75
387.813	67.75
388.038	76.75
388.263	92.75
388.488	75.75
388.713	82.75
388.938	81.75
389.163	78.75
389.387	99.75
389.612	92.75
389.837	82.75
390.062	89.75
390.287	88.75
390.512	75.75
390.736	79.75
390.961	83.75
391.186	77.75
391.411	93.75
391.636	83.75
391.86	80.75
392.085	76.75
392.31	89.75
392.534	76.75
392.759	84.75
392.984	94.75
393.208	81.75
393.433	81.75
393.658	83.75
393.882	80.75
394.107	87.75
394.331	94.75
394.556	89.75
394.78	80.75
395.005	82.75
395.229	92.75
395.454	87.75
395.678	92.75
395.903	76.75
396.127	97.75
396.352	83.75
396.576	82.75
396.801	72.75
397.025	84.75
397.249	77.75
397.474	99.75
397.698	88.75
397.922	90.75
398.147	90.75
398.371	87.75
398.595	82.75
398.82	83.75
399.044	89.75
399.268	97.75
399.492	97.75
399.717	90.75
399.941	89.75
400.165	81.75
400.389	86.75
400.613	84.75
400.837	84.75
401.062	89.75
401.286	97.75
401.51	85.75
401.734	76.75
401.958	77.75
402.182	94.75
402.406	87.75
402.63	86.75
402.854	85.75
403.078	73.75
403.302	79.75
403.526	69.75
403.75	83.75
403.974	88.75
404.198	79.75
404.422	90.75
404.645	92.75
404.869	85.75
405.093	81.75
405.317	72.75
405.541	78.75
405.765	90.75
405.988	81.75
406.212	75.75
406.436	80.75
406.66	97.75
406.883	79.75
407.107	68.75
407.331	80.75
407.555	92.75
407.778	97.75
408.002	81.75
408.226	85.75
408.449	84.75
408.673	90.75
408.896	87.75
409.12	80.75
409.344	88.75
409.567	80.75
409.791	90.75
410.014	68.75
410.238	77.75
410.461	76.75
410.685	89.75
410.908	90.75
411.132	97.75
411.355	96.75
411.578	88.75
411.802	84.75
412.025	86.75
412.249	88.75
412.472	91.75
412.695	86.75
412.919	86.75
413.142	96.75
413.365	84.75
413.589	99.75
413.812	99.75
414.035	97.75
414.258	84.75
414.482	95.75
414.705	82.75
414.928	92.75
415.151	94.75
415.374	90.75
415.597	65.75
415.821	87.75
416.044	77.75
416.267	86.75
416.49	76.75
416.713	84.75
416.936	85.75
417.159	102.75
417.382	95.75
417.605	74.75
417.828	92.75
418.051	84.75
418.274	83.75
418.497	89.75
418.72	81.75
418.943	82.75
419.166	97.75
419.389	84.75
419.611	63.75
419.834	92.75
420.057	84.75
420.28	63.75
420.503	68.75
420.726	85.75
420.948	89.75
421.171	82.75
421.394	94.75
421.617	81.75
421.839	72.75
422.062	79.75
422.285	81.75
422.507	90.75
422.73	83.75
422.953	88.75
423.175	94.75
423.398	86.75
423.621	87.75
423.843	78.75
424.066	89.75
424.288	88.75
424.511	96.75
424.733	76.75
424.956	84.75
425.178	93.75
425.401	79.75
425.623	68.75
425.846	90.75
426.068	84.75
426.291	81.75
426.513	93.75
426.735	84.75
426.958	94.75
427.18	79.75
427.402	77.75
427.625	94.75
427.847	98.75
428.069	67.75
428.292	70.75
428.514	92.75
428.736	79.75
428.958	74.75
429.181	82.75
429.403	77.75
429.625	95.75
429.847	91.75
430.069	104.75
430.292	87.75
430.514	91.75
430.736	89.75
430.958	66.75
431.18	76.75
431.402	72.75
431.624	77.75
431.846	96.75
432.068	84.75
432.29	81.75
432.512	82.75
432.734	88.75
432.956	84.75
433.178	84.75
433.4	94.75
433.622	84.75
433.844	71.75
434.066	83.75
434.287	69.75
434.509	91.75
434.731	86.75
434.953	84.75
435.175	79.75
435.397	79.75
435.618	91.75
435.84	69.75
436.062	91.75
436.284	78.75
436.505	83.75
436.727	70.75
436.949	80.75
437.17	92.75
437.392	74.75
437.614	72.75
437.835	89.75
438.057	89.75
438.278	83.75
438.5	82.75
438.721	75.75
438.943	75.75
439.165	85.75
439.386	78.75
439.608	89.75
439.829	82.75
440.05	99.75
440.272	92.75
440.493	91.75
440.715	83.75
440.936	72.75
441.158	85.75
441.379	94.75
441.6	100.75
441.822	93.75
442.043	101.75
442.264	80.75
442.486	84.75
442.707	90.75
442.928	90.75
443.149	100.75
443.371	88.75
443.592	87.75
443.813	86.75
444.034	80.75
444.255	86.75
444.476	85.75
444.698	84.75
444.919	93.75
445.14	191.75
445.361	135.75
445.582	93.75
445.803	86.75
446.024	75.75
446.245	83.75
446.466	97.75
446.687	97.75
446.908	84.75
447.129	95.75
447.35	84.75
447.571	87.75
447.792	70.75
448.013	83.75
448.234	77.75
448.455	107.75
448.675	80.75
448.896	109.75
449.117	84.75
449.338	88.75
449.559	83.75
449.779	82.75
450	90.75
450.221	83.75
450.442	99.75
450.662	77.75
450.883	89.75
451.104	77.75
451.324	93.75
451.545	92.75
451.766	79.75
451.986	84.75
452.207	83.75
452.428	90.75
452.648	98.75
452.869	83.75
453.089	88.75
453.31	92.75
453.53	84.75
453.751	72.75
453.971	66.75
454.192	85.75
454.412	88.75
454.633	87.75
454.853	93.75
455.073	77.75
455.294	81.75
455.514	81.75
455.734	80.75
455.955	84.75
456.175	88.75
456.395	81.75
456.616	87.75
456.836	82.75
457.056	76.75
457.276	83.75
457.497	97.75
457.717	85.75
457.937	91.75
458.157	74.75
458.377	84.75
458.598	93.75
458.818	76.75
459.038	99.75
459.258	92.75
459.478	76.75
459.698	83.75
459.918	77.75
460.138	87.75
460.358	79.75
460.578	84.75
460.798	91.75
461.018	69.75
461.238	99.75
461.458	106.75
461.678	77.75
461.898	78.75
462.118	82.75
462.338	70.75
462.558	88.75
462.777	98.75
462.997	89.75
463.217	85.75
463.437	92.75
463.657	89.75
463.876	90.75
464.096	91.75
464.316	93.75
464.536	98.75
464.755	97.75
464.975	75.75
465.195	94.75
465.414	96.75
465.634	93.75
465.854	87.75
466.073	85.75
466.293	97.75
466.512	87.75
466.732	68.75
466.951	87.75
467.171	104.75
467.391	78.75
467.61	87.75
467.829	88.75
468.049	84.75
468.268	86.75
468.488	85.75
468.707	102.75
468.927	88.75
469.146	70.75
469.365	98.75
469.585	88.75
469.804	79.75
470.023	83.75
470.243	98.75
470.462	90.75
470.681	93.75
470.901	90.75
471.12	80.75
471.339	94.75
471.558	87.75
471.777	68.75
471.997	83.75
472.216	100.75
472.435	87.75
472.654	94.75
472.873	83.75
473.092	88.75
473.311	90.75
473.53	90.75
473.749	75.75
473.968	92.75
474.187	92.75
474.406	74.75
474.625	83.75
474.844	83.75
475.063	87.75
475.282	78.75
475.501	93.75
475.72	83.75
475.939	81.75
476.158	76.75
476.377	80.75
476.596	100.75
476.814	85.75
477.033	81.75
477.252	87.75
477.471	83.75
477.69	83.75
477.908	79.75
478.127	88.75
478.346	81.75
478.564	92.75
478.783	75.75
479.002	83.75
479.22	76.75
479.439	84.75
479.658	101.75
479.876	80.75
480.095	79.75
480.313	84.75
480.532	93.75
480.751	112.75
480.969	90.75
481.188	90.75
481.406	96.75
481.624	83.75
481.843	83.75
482.061	96.75
482.28	90.75
482.498	88.75
482.717	91.75
482.935	81.75
483.153	90.75
483.372	88.75
483.59	99.75
483.808	89.75
484.027	91.75
484.245	72.75
484.463	81.75
484.681	88.75
484.9	100.75
485.118	95.75
485.336	79.75
485.554	99.75
485.772	78.75
485.99	91.75
486.209	81.75
486.427	80.75
486.645	82.75
486.863	91.75
487.081	92.75
487.299	103.75
487.517	97.75
487.735	84.75
487.953	81.75
488.171	74.75
488.389	86.75
488.607	99.75
488.825	103.75
489.043	95.75
489.261	91.75
489.479	80.75
489.696	97.75
489.914	86.75
490.132	88.75
490.35	92.75
490.568	98.75
490.786	107.75
491.003	84.75
491.221	92.75
491.439	99.75
491.657	99.75
491.874	92.75
492.092	88.75
492.31	108.75
492.527	103.75
492.745	97.75
492.963	97.75
493.18	83.75
493.398	101.75
493.615	94.75
493.833	108.75
494.05	111.75
494.268	89.75
494.485	93.75
494.703	85.75
494.92	92.75
495.138	88.75
495.355	81.75
495.573	95.75
495.79	74.75
496.008	85.75
496.225	85.75
496.442	98.75
496.66	108.75
496.877	92.75
497.094	101.75
497.312	87.75
497.529	111.75
497.746	101.75
497.963	97.75
498.181	88.75
498.398	101.75
498.615	89.75
498.832	99.75
499.049	104.75
499.267	108.75
499.484	102.75
499.701	109.75
499.918	107.75
500.135	107.75
500.352	127.75
500.569	119.75
500.786	120.75
501.003	119.75
501.22	115.75
501.437	106.75
501.654	118.75
501.871	109.75
502.088	87.75
502.305	103.75
502.522	80.75
502.739	95.75
502.956	92.75
503.172	98.75
503.389	96.75
503.606	108.75
503.823	99.75
504.04	103.75
504.256	91.75
504.473	108.75
504.69	100.75
504.907	114.75
505.123	96.75
505.34	81.75
505.557	94.75
505.773	82.75
505.99	82.75
506.207	89.75
506.423	95.75
506.64	80.75
506.856	92.75
507.073	103.75
507.289	96.75
507.506	98.75
507.722	76.75
507.939	89.75
508.155	94.75
508.372	81.75
508.588	96.75
508.805	97.75
509.021	77.75
509.238	98.75
509.454	78.75
509.67	91.75
509.887	83.75
510.103	78.75
510.319	83.75
510.536	92.75
510.752	83.75
510.968	101.75
511.184	90.75
511.401	106.75
511.617	88.75
511.833	101.75
512.049	91.75
512.265	89.75
512.481	98.75
512.698	88.75
512.914	76.75
513.13	95.75
513.346	88.75
513.562	103.75
513.778	92.75
513.994	89.75
514.21	93.75
514.426	94.75
514.642	76.75
514.858	96.75
515.074	96.75
515.29	94.75
515.506	98.75
515.721	97.75
515.937	95.75
516.153	94.75
516.369	85.75
516.585	81.75
516.801	91.75
517.016	90.75
517.232	99.75
517.448	87.75
517.664	100.75
517.879	91.75
518.095	87.75
518.311	95.75
518.527	99.75
