Data from Ni(NO3)2@0.0625M.TitratingCurve.Agarose3%dH2O.NegLispCup.LampEnergy10.LIBS07252019_HRD10591_18-15-51-573.txt Node
Date: Thu Jul 25 18:15:51 EDT 2019
User: cochatt
Spectrometer: HR+D1059
Trigger mode: 1
Integration Time (sec): 1.000000E-1
Scans to average: 1
Electric dark correction enabled: true
Nonlinearity correction enabled: false
Boxcar width: 0
XAxis mode: Wavelengths
Number of Pixels in Spectrum: 2048
>>>>>Begin Spectral Data<<<<<
223.165	-11.38
223.4	-11.38
223.635	-11.38
223.869	-24.38
224.104	-17.38
224.338	-2.38
224.573	-14.38
224.808	-17.38
225.042	-0.38
225.277	-2.38
225.511	2.62
225.746	1.62
225.98	-7.38
226.215	6.62
226.449	9.62
226.683	20.62
226.918	30.62
227.152	25.62
227.387	31.62
227.621	29.62
227.856	41.62
228.09	41.62
228.324	52.62
228.559	54.62
228.793	73.62
229.027	85.62
229.262	118.62
229.496	101.62
229.73	113.62
229.964	110.62
230.199	122.62
230.433	120.62
230.667	128.62
230.901	131.62
231.136	122.62
231.37	134.62
231.604	131.62
231.838	149.62
232.072	140.62
232.306	138.62
232.541	140.62
232.775	134.62
233.009	146.62
233.243	136.62
233.477	145.62
233.711	138.62
233.945	147.62
234.179	133.62
234.413	136.62
234.647	152.62
234.881	123.62
235.115	137.62
235.349	136.62
235.583	135.62
235.817	157.62
236.051	141.62
236.285	154.62
236.519	144.62
236.753	153.62
236.987	170.62
237.221	140.62
237.455	156.62
237.689	163.62
237.922	157.62
238.156	150.62
238.39	174.62
238.624	161.62
238.858	144.62
239.091	176.62
239.325	163.62
239.559	159.62
239.793	181.62
240.027	167.62
240.26	168.62
240.494	169.62
240.728	179.62
240.961	180.62
241.195	167.62
241.429	179.62
241.662	181.62
241.896	183.62
242.13	179.62
242.363	186.62
242.597	185.62
242.83	210.62
243.064	185.62
243.298	198.62
243.531	188.62
243.765	186.62
243.998	203.62
244.232	208.62
244.465	207.62
244.699	196.62
244.932	205.62
245.166	213.62
245.399	213.62
245.633	227.62
245.866	209.62
246.099	205.62
246.333	201.62
246.566	215.62
246.8	217.62
247.033	201.62
247.266	208.62
247.5	222.62
247.733	216.62
247.966	233.62
248.2	225.62
248.433	233.62
248.666	219.62
248.899	225.62
249.133	227.62
249.366	225.62
249.599	241.62
249.832	253.62
250.066	235.62
250.299	246.62
250.532	240.62
250.765	246.62
250.998	250.62
251.231	240.62
251.465	261.62
251.698	261.62
251.931	271.62
252.164	265.62
252.397	266.62
252.63	262.62
252.863	253.62
253.096	253.62
253.329	260.62
253.562	244.62
253.795	267.62
254.028	261.62
254.261	250.62
254.494	249.62
254.727	260.62
254.96	263.62
255.193	278.62
255.426	291.62
255.659	269.62
255.892	289.62
256.124	283.62
256.357	261.62
256.59	281.62
256.823	277.62
257.056	275.62
257.289	277.62
257.521	273.62
257.754	295.62
257.987	285.62
258.22	296.62
258.452	326.62
258.685	307.62
258.918	296.62
259.151	285.62
259.383	297.62
259.616	289.62
259.849	311.62
260.081	322.62
260.314	293.62
260.547	299.62
260.779	322.62
261.012	311.62
261.244	302.62
261.477	307.62
261.71	301.62
261.942	318.62
262.175	327.62
262.407	318.62
262.64	311.62
262.872	309.62
263.105	323.62
263.337	327.62
263.57	310.62
263.802	310.62
264.035	335.62
264.267	343.62
264.499	339.62
264.732	309.62
264.964	339.62
265.197	328.62
265.429	338.62
265.661	342.62
265.894	335.62
266.126	353.62
266.358	349.62
266.591	350.62
266.823	344.62
267.055	337.62
267.287	354.62
267.52	329.62
267.752	337.62
267.984	343.62
268.216	369.62
268.448	343.62
268.681	360.62
268.913	346.62
269.145	368.62
269.377	381.62
269.609	346.62
269.841	372.62
270.073	344.62
270.306	352.62
270.538	387.62
270.77	362.62
271.002	361.62
271.234	372.62
271.466	376.62
271.698	360.62
271.93	375.62
272.162	365.62
272.394	393.62
272.626	370.62
272.858	388.62
273.09	377.62
273.322	390.62
273.553	383.62
273.785	356.62
274.017	368.62
274.249	372.62
274.481	393.62
274.713	399.62
274.945	405.62
275.176	404.62
275.408	416.62
275.64	404.62
275.872	396.62
276.104	407.62
276.335	405.62
276.567	395.62
276.799	401.62
277.031	409.62
277.262	402.62
277.494	418.62
277.726	421.62
277.957	389.62
278.189	426.62
278.421	415.62
278.652	413.62
278.884	414.62
279.115	434.62
279.347	417.62
279.579	417.62
279.81	422.62
280.042	418.62
280.273	416.62
280.505	430.62
280.736	433.62
280.968	429.62
281.199	445.62
281.431	445.62
281.662	442.62
281.894	442.62
282.125	442.62
282.356	454.62
282.588	445.62
282.819	451.62
283.051	445.62
283.282	457.62
283.513	471.62
283.745	457.62
283.976	461.62
284.207	439.62
284.439	462.62
284.67	447.62
284.901	459.62
285.132	465.62
285.364	449.62
285.595	477.62
285.826	456.62
286.057	479.62
286.288	488.62
286.52	489.62
286.751	470.62
286.982	474.62
287.213	471.62
287.444	475.62
287.675	494.62
287.906	496.62
288.138	495.62
288.369	478.62
288.6	500.62
288.831	506.62
289.062	509.62
289.293	500.62
289.524	491.62
289.755	474.62
289.986	494.62
290.217	485.62
290.448	500.62
290.679	495.62
290.91	505.62
291.141	494.62
291.371	500.62
291.602	496.62
291.833	498.62
292.064	501.62
292.295	495.62
292.526	518.62
292.757	481.62
292.987	503.62
293.218	523.62
293.449	512.62
293.68	505.62
293.91	519.62
294.141	487.62
294.372	514.62
294.603	545.62
294.833	510.62
295.064	517.62
295.295	524.62
295.525	519.62
295.756	513.62
295.987	521.62
296.217	548.62
296.448	522.62
296.679	541.62
296.909	543.62
297.14	536.62
297.37	559.62
297.601	569.62
297.831	553.62
298.062	552.62
298.292	564.62
298.523	584.62
298.753	583.62
298.984	551.62
299.214	538.62
299.445	557.62
299.675	535.62
299.905	584.62
300.136	575.62
300.366	543.62
300.597	566.62
300.827	574.62
301.057	561.62
301.288	601.62
301.518	602.62
301.748	582.62
301.979	577.62
302.209	593.62
302.439	561.62
302.669	582.62
302.9	576.62
303.13	566.62
303.36	560.62
303.59	573.62
303.82	559.62
304.051	583.62
304.281	574.62
304.511	590.62
304.741	582.62
304.971	575.62
305.201	577.62
305.431	578.62
305.661	574.62
305.891	554.62
306.121	561.62
306.352	549.62
306.582	566.62
306.812	535.62
307.042	552.62
307.272	552.62
307.502	549.62
307.731	560.62
307.961	552.62
308.191	582.62
308.421	561.62
308.651	568.62
308.881	577.62
309.111	549.62
309.341	536.62
309.571	566.62
309.8	561.62
310.03	552.62
310.26	573.62
310.49	562.62
310.72	570.62
310.949	580.62
311.179	551.62
311.409	555.62
311.639	597.62
311.868	583.62
312.098	585.62
312.328	561.62
312.557	558.62
312.787	563.62
313.017	598.62
313.246	600.62
313.476	579.62
313.706	632.62
313.935	629.62
314.165	617.62
314.394	597.62
314.624	625.62
314.853	614.62
315.083	599.62
315.312	614.62
315.542	589.62
315.771	598.62
316.001	595.62
316.23	602.62
316.46	584.62
316.689	583.62
316.919	597.62
317.148	589.62
317.377	604.62
317.607	595.62
317.836	595.62
318.065	582.62
318.295	578.62
318.524	569.62
318.753	587.62
318.983	586.62
319.212	597.62
319.441	592.62
319.67	599.62
319.9	593.62
320.129	606.62
320.358	599.62
320.587	573.62
320.816	562.62
321.046	599.62
321.275	570.62
321.504	591.62
321.733	599.62
321.962	594.62
322.191	591.62
322.42	580.62
322.649	591.62
322.878	587.62
323.108	603.62
323.337	590.62
323.566	601.62
323.795	637.62
324.024	613.62
324.253	630.62
324.482	609.62
324.71	589.62
324.939	613.62
325.168	592.62
325.397	621.62
325.626	622.62
325.855	612.62
326.084	641.62
326.313	663.62
326.542	659.62
326.77	677.62
326.999	646.62
327.228	647.62
327.457	628.62
327.686	655.62
327.914	647.62
328.143	687.62
328.372	629.62
328.6	637.62
328.829	640.62
329.058	629.62
329.287	637.62
329.515	643.62
329.744	629.62
329.972	650.62
330.201	656.62
330.43	657.62
330.658	676.62
330.887	650.62
331.115	692.62
331.344	663.62
331.572	687.62
331.801	704.62
332.03	714.62
332.258	705.62
332.486	776.62
332.715	791.62
332.943	792.62
333.172	863.62
333.4	905.62
333.629	921.62
333.857	900.62
334.085	890.62
334.314	848.62
334.542	835.62
334.771	840.62
334.999	827.62
335.227	814.62
335.455	801.62
335.684	802.62
335.912	796.62
336.14	780.62
336.369	790.62
336.597	793.62
336.825	774.62
337.053	749.62
337.281	779.62
337.51	743.62
337.738	755.62
337.966	735.62
338.194	714.62
338.422	703.62
338.65	715.62
338.878	714.62
339.106	692.62
339.334	708.62
339.562	702.62
339.79	680.62
340.018	674.62
340.246	679.62
340.474	680.62
340.702	697.62
340.93	683.62
341.158	682.62
341.386	683.62
341.614	678.62
341.842	662.62
342.07	673.62
342.298	673.62
342.526	682.62
342.754	669.62
342.981	699.62
343.209	696.62
343.437	741.62
343.665	785.62
343.893	821.62
344.12	856.62
344.348	822.62
344.576	736.62
344.804	731.62
345.031	725.62
345.259	711.62
345.487	703.62
345.714	689.62
345.942	666.62
346.17	689.62
346.397	644.62
346.625	676.62
346.853	661.62
347.08	666.62
347.308	651.62
347.535	656.62
347.763	670.62
347.99	678.62
348.218	677.62
348.445	677.62
348.673	687.62
348.9	673.62
349.128	662.62
349.355	678.62
349.583	639.62
349.81	635.62
350.037	640.62
350.265	654.62
350.492	632.62
350.72	627.62
350.947	649.62
351.174	634.62
351.402	643.62
351.629	638.62
351.856	641.62
352.083	616.62
352.311	631.62
352.538	643.62
352.765	601.62
352.992	627.62
353.22	629.62
353.447	616.62
353.674	611.62
353.901	642.62
354.128	640.62
354.355	629.62
354.583	632.62
354.81	612.62
355.037	645.62
355.264	615.62
355.491	632.62
355.718	661.62
355.945	653.62
356.172	675.62
356.399	670.62
356.626	615.62
356.853	634.62
357.08	631.62
357.307	619.62
357.534	651.62
357.761	649.62
357.988	631.62
358.215	623.62
358.441	646.62
358.668	645.62
358.895	640.62
359.122	627.62
359.349	640.62
359.576	625.62
359.802	636.62
360.029	629.62
360.256	634.62
360.483	624.62
360.709	621.62
360.936	646.62
361.163	628.62
361.39	619.62
361.616	627.62
361.843	639.62
362.07	645.62
362.296	654.62
362.523	622.62
362.749	640.62
362.976	628.62
363.203	612.62
363.429	610.62
363.656	611.62
363.882	632.62
364.109	623.62
364.335	629.62
364.562	618.62
364.788	617.62
365.015	632.62
365.241	602.62
365.468	618.62
365.694	628.62
365.92	630.62
366.147	616.62
366.373	629.62
366.599	663.62
366.826	631.62
367.052	656.62
367.278	643.62
367.505	655.62
367.731	643.62
367.957	646.62
368.184	645.62
368.41	632.62
368.636	630.62
368.862	645.62
369.089	655.62
369.315	659.62
369.541	673.62
369.767	657.62
369.993	677.62
370.219	680.62
370.445	657.62
370.672	669.62
370.898	679.62
371.124	697.62
371.35	701.62
371.576	705.62
371.802	687.62
372.028	703.62
372.254	712.62
372.48	715.62
372.706	721.62
372.932	743.62
373.158	730.62
373.384	707.62
373.61	690.62
373.835	685.62
374.061	695.62
374.287	697.62
374.513	720.62
374.739	745.62
374.965	769.62
375.191	746.62
375.416	750.62
375.642	739.62
375.868	749.62
376.094	723.62
376.319	705.62
376.545	716.62
376.771	728.62
376.997	712.62
377.222	705.62
377.448	693.62
377.674	683.62
377.899	679.62
378.125	687.62
378.35	668.62
378.576	700.62
378.802	682.62
379.027	687.62
379.253	672.62
379.478	676.62
379.704	677.62
379.929	674.62
380.155	659.62
380.38	677.62
380.606	692.62
380.831	658.62
381.057	700.62
381.282	718.62
381.507	691.62
381.733	686.62
381.958	703.62
382.184	695.62
382.409	716.62
382.634	717.62
382.86	713.62
383.085	730.62
383.31	753.62
383.535	780.62
383.761	773.62
383.986	775.62
384.211	801.62
384.436	826.62
384.662	832.62
384.887	835.62
385.112	840.62
385.337	840.62
385.562	849.62
385.787	833.62
386.013	839.62
386.238	832.62
386.463	813.62
386.688	836.62
386.913	808.62
387.138	825.62
387.363	814.62
387.588	803.62
387.813	833.62
388.038	816.62
388.263	830.62
388.488	815.62
388.713	829.62
388.938	834.62
389.163	829.62
389.387	813.62
389.612	817.62
389.837	805.62
390.062	810.62
390.287	822.62
390.512	795.62
390.736	811.62
390.961	822.62
391.186	827.62
391.411	864.62
391.636	888.62
391.86	945.62
392.085	923.62
392.31	943.62
392.534	912.62
392.759	897.62
392.984	868.62
393.208	870.62
393.433	875.62
393.658	890.62
393.882	897.62
394.107	887.62
394.331	908.62
394.556	913.62
394.78	903.62
395.005	905.62
395.229	905.62
395.454	899.62
395.678	935.62
395.903	941.62
396.127	929.62
396.352	890.62
396.576	870.62
396.801	847.62
397.025	872.62
397.249	889.62
397.474	911.62
397.698	902.62
397.922	911.62
398.147	908.62
398.371	914.62
398.595	961.62
398.82	1011.62
399.044	1098.62
399.268	1187.62
399.492	1399.62
399.717	1643.62
399.941	1641.62
400.165	1406.62
400.389	1226.62
400.613	1145.62
400.837	1093.62
401.062	1069.62
401.286	1007.62
401.51	1040.62
401.734	1032.62
401.958	1041.62
402.182	1082.62
402.406	1073.62
402.63	1068.62
402.854	1126.62
403.078	1136.62
403.302	1165.62
403.526	1185.62
403.75	1226.62
403.974	1267.62
404.198	1279.62
404.422	1248.62
404.645	1193.62
404.869	1191.62
405.093	1222.62
405.317	1164.62
405.541	1136.62
405.765	1121.62
405.988	1123.62
406.212	1153.62
406.436	1146.62
406.66	1158.62
406.883	1177.62
407.107	1267.62
407.331	1333.62
407.555	1366.62
407.778	1341.62
408.002	1345.62
408.226	1273.62
408.449	1226.62
408.673	1219.62
408.896	1199.62
409.12	1156.62
409.344	1244.62
409.567	1210.62
409.791	1224.62
410.014	1207.62
410.238	1192.62
410.461	1195.62
410.685	1178.62
410.908	1161.62
411.132	1105.62
411.355	1093.62
411.578	1087.62
411.802	1070.62
412.025	1070.62
412.249	1129.62
412.472	1116.62
412.695	1079.62
412.919	1045.62
413.142	1035.62
413.365	1007.62
413.589	1042.62
413.812	1021.62
414.035	1021.62
414.258	1026.62
414.482	1070.62
414.705	1065.62
414.928	1063.62
415.151	1063.62
415.374	1064.62
415.597	1053.62
415.821	1002.62
416.044	1027.62
416.267	1001.62
416.49	1040.62
416.713	1005.62
416.936	1014.62
417.159	1005.62
417.382	1029.62
417.605	1033.62
417.828	1047.62
418.051	1041.62
418.274	1045.62
418.497	999.62
418.72	1043.62
418.943	1064.62
419.166	1128.62
419.389	1235.62
419.611	1186.62
419.834	1138.62
420.057	1093.62
420.28	1059.62
420.503	991.62
420.726	1027.62
420.948	1014.62
421.171	1031.62
421.394	1010.62
421.617	1019.62
421.839	1013.62
422.062	1007.62
422.285	1009.62
422.507	1043.62
422.73	1049.62
422.953	1042.62
423.175	1074.62
423.398	1046.62
423.621	1103.62
423.843	1158.62
424.066	1131.62
424.288	1103.62
424.511	1111.62
424.733	1104.62
424.956	1076.62
425.178	1061.62
425.401	1028.62
425.623	1052.62
425.846	1018.62
426.068	982.62
426.291	974.62
426.513	983.62
426.735	966.62
426.958	941.62
427.18	967.62
427.402	953.62
427.625	956.62
427.847	900.62
428.069	925.62
428.292	938.62
428.514	898.62
428.736	906.62
428.958	900.62
429.181	901.62
429.403	892.62
429.625	880.62
429.847	895.62
430.069	887.62
430.292	887.62
430.514	881.62
430.736	889.62
430.958	870.62
431.18	901.62
431.402	897.62
431.624	918.62
431.846	922.62
432.068	923.62
432.29	937.62
432.512	918.62
432.734	926.62
432.956	896.62
433.178	914.62
433.4	907.62
433.622	897.62
433.844	960.62
434.066	938.62
434.287	949.62
434.509	993.62
434.731	1013.62
434.953	1038.62
435.175	1041.62
435.397	1004.62
435.618	976.62
435.84	985.62
436.062	930.62
436.284	911.62
436.505	928.62
436.727	911.62
436.949	951.62
437.17	922.62
437.392	886.62
437.614	887.62
437.835	879.62
438.057	865.62
438.278	855.62
438.5	878.62
438.721	877.62
438.943	854.62
439.165	881.62
439.386	888.62
439.608	931.62
439.829	917.62
440.05	907.62
440.272	918.62
440.493	903.62
440.715	928.62
440.936	952.62
441.158	955.62
441.379	986.62
441.6	1051.62
441.822	1048.62
442.043	1066.62
442.264	1048.62
442.486	992.62
442.707	1002.62
442.928	1008.62
443.149	995.62
443.371	1008.62
443.592	1026.62
443.813	1046.62
444.034	1063.62
444.255	1088.62
444.476	1126.62
444.698	1210.62
444.919	1271.62
445.14	1326.62
445.361	1180.62
445.582	1050.62
445.803	1007.62
446.024	990.62
446.245	951.62
446.466	929.62
446.687	918.62
446.908	924.62
447.129	895.62
447.35	882.62
447.571	878.62
447.792	865.62
448.013	854.62
448.234	847.62
448.455	858.62
448.675	852.62
448.896	826.62
449.117	848.62
449.338	809.62
449.559	816.62
449.779	823.62
450	810.62
450.221	834.62
450.442	841.62
450.662	841.62
450.883	868.62
451.104	901.62
451.324	865.62
451.545	854.62
451.766	863.62
451.986	877.62
452.207	858.62
452.428	847.62
452.648	869.62
452.869	840.62
453.089	835.62
453.31	806.62
453.53	828.62
453.751	802.62
453.971	846.62
454.192	819.62
454.412	815.62
454.633	786.62
454.853	798.62
455.073	791.62
455.294	817.62
455.514	795.62
455.734	806.62
455.955	776.62
456.175	792.62
456.395	800.62
456.616	767.62
456.836	786.62
457.056	790.62
457.276	763.62
457.497	787.62
457.717	787.62
457.937	818.62
458.157	793.62
458.377	802.62
458.598	832.62
458.818	852.62
459.038	880.62
459.258	903.62
459.478	933.62
459.698	961.62
459.918	953.62
460.138	1022.62
460.358	1073.62
460.578	1090.62
460.798	1135.62
461.018	1116.62
461.238	1092.62
461.458	1072.62
461.678	1085.62
461.898	1089.62
462.118	1104.62
462.338	1155.62
462.558	1211.62
462.777	1242.62
462.997	1334.62
463.217	1539.62
463.437	1527.62
463.657	1346.62
463.876	1277.62
464.096	1290.62
464.316	1274.62
464.536	1310.62
464.755	1242.62
464.975	1207.62
465.195	1125.62
465.414	1093.62
465.634	968.62
465.854	950.62
466.073	934.62
466.293	942.62
466.512	907.62
466.732	892.62
466.951	874.62
467.171	858.62
467.391	886.62
467.61	885.62
467.829	889.62
468.049	865.62
468.268	852.62
468.488	857.62
468.707	819.62
468.927	840.62
469.146	852.62
469.365	859.62
469.585	877.62
469.804	881.62
470.023	918.62
470.243	895.62
470.462	906.62
470.681	917.62
470.901	916.62
471.12	913.62
471.339	906.62
471.558	880.62
471.777	850.62
471.997	842.62
472.216	840.62
472.435	835.62
472.654	809.62
472.873	818.62
473.092	847.62
473.311	825.62
473.53	820.62
473.749	807.62
473.968	834.62
474.187	829.62
474.406	819.62
474.625	821.62
474.844	833.62
475.063	819.62
475.282	841.62
475.501	842.62
475.72	843.62
475.939	827.62
476.158	823.62
476.377	852.62
476.596	843.62
476.814	856.62
477.033	870.62
477.252	872.62
477.471	883.62
477.69	943.62
477.908	943.62
478.127	989.62
478.346	990.62
478.564	991.62
478.783	1002.62
479.002	1032.62
479.22	1057.62
479.439	1012.62
479.658	1037.62
479.876	1049.62
480.095	1049.62
480.313	1125.62
480.532	1104.62
480.751	1136.62
480.969	1090.62
481.188	1058.62
481.406	1002.62
481.624	965.62
481.843	949.62
482.061	955.62
482.28	938.62
482.498	941.62
482.717	938.62
482.935	942.62
483.153	958.62
483.372	943.62
483.59	921.62
483.808	943.62
484.027	921.62
484.245	930.62
484.463	963.62
484.681	971.62
484.9	989.62
485.118	966.62
485.336	967.62
485.554	966.62
485.772	1014.62
485.99	1028.62
486.209	1002.62
486.427	998.62
486.645	997.62
486.863	1024.62
487.081	1015.62
487.299	1002.62
487.517	1000.62
487.735	975.62
487.953	1017.62
488.171	992.62
488.389	976.62
488.607	992.62
488.825	958.62
489.043	965.62
489.261	971.62
489.479	989.62
489.696	987.62
489.914	968.62
490.132	985.62
490.35	992.62
490.568	985.62
490.786	974.62
491.003	990.62
491.221	974.62
491.439	989.62
491.657	977.62
491.874	993.62
492.092	990.62
492.31	1001.62
492.527	1013.62
492.745	1033.62
492.963	995.62
493.18	1015.62
493.398	999.62
493.615	1016.62
493.833	994.62
494.05	1034.62
494.268	1059.62
494.485	1060.62
494.703	1050.62
494.92	1058.62
495.138	1021.62
495.355	1034.62
495.573	1026.62
495.79	1028.62
496.008	1045.62
496.225	1007.62
496.442	1060.62
496.66	1093.62
496.877	1065.62
497.094	1111.62
497.312	1089.62
497.529	1141.62
497.746	1151.62
497.963	1199.62
498.181	1246.62
498.398	1319.62
498.615	1392.62
