Data from Ni(NO3)2Standard.Agarose3%.GreenCap.LampEnergy5.5.E.O_HRD10591_14-40-14-188.txt Node
Date: Mon Jul 22 14:40:14 EDT 2019
User: cochatt
Spectrometer: HR+D1059
Trigger mode: 1
Integration Time (sec): 1.000000E-1
Scans to average: 1
Electric dark correction enabled: true
Nonlinearity correction enabled: false
Boxcar width: 0
XAxis mode: Wavelengths
Number of Pixels in Spectrum: 2048
>>>>>Begin Spectral Data<<<<<
223.165	-14.06
223.4	-14.06
223.635	-14.06
223.869	-25.06
224.104	-25.06
224.338	-20.06
224.573	-15.06
224.808	-4.06
225.042	-3.06
225.277	-9.06
225.511	-11.06
225.746	6.94
225.98	4.94
226.215	22.94
226.449	5.94
226.683	14.94
226.918	26.94
227.152	43.94
227.387	29.94
227.621	32.94
227.856	40.94
228.09	52.94
228.324	47.94
228.559	38.94
228.793	59.94
229.027	61.94
229.262	56.94
229.496	55.94
229.73	70.94
229.964	76.94
230.199	66.94
230.433	75.94
230.667	78.94
230.901	77.94
231.136	92.94
231.37	83.94
231.604	76.94
231.838	79.94
232.072	93.94
232.306	98.94
232.541	79.94
232.775	83.94
233.009	74.94
233.243	89.94
233.477	79.94
233.711	88.94
233.945	87.94
234.179	90.94
234.413	93.94
234.647	67.94
234.881	89.94
235.115	69.94
235.349	88.94
235.583	59.94
235.817	71.94
236.051	70.94
236.285	72.94
236.519	69.94
236.753	92.94
236.987	113.94
237.221	78.94
237.455	71.94
237.689	60.94
237.922	71.94
238.156	78.94
238.39	54.94
238.624	91.94
238.858	73.94
239.091	75.94
239.325	71.94
239.559	70.94
239.793	83.94
240.027	71.94
240.26	78.94
240.494	84.94
240.728	88.94
240.961	62.94
241.195	78.94
241.429	82.94
241.662	78.94
241.896	83.94
242.13	84.94
242.363	70.94
242.597	65.94
242.83	87.94
243.064	69.94
243.298	84.94
243.531	79.94
243.765	76.94
243.998	67.94
244.232	71.94
244.465	76.94
244.699	82.94
244.932	79.94
245.166	77.94
245.399	84.94
245.633	84.94
245.866	87.94
246.099	90.94
246.333	68.94
246.566	80.94
246.8	84.94
247.033	82.94
247.266	84.94
247.5	86.94
247.733	88.94
247.966	75.94
248.2	74.94
248.433	69.94
248.666	78.94
248.899	79.94
249.133	86.94
249.366	75.94
249.599	75.94
249.832	83.94
250.066	76.94
250.299	84.94
250.532	61.94
250.765	82.94
250.998	75.94
251.231	79.94
251.465	85.94
251.698	80.94
251.931	80.94
252.164	81.94
252.397	83.94
252.63	76.94
252.863	76.94
253.096	76.94
253.329	83.94
253.562	84.94
253.795	74.94
254.028	75.94
254.261	82.94
254.494	76.94
254.727	82.94
254.96	94.94
255.193	69.94
255.426	87.94
255.659	95.94
255.892	79.94
256.124	72.94
256.357	83.94
256.59	76.94
256.823	86.94
257.056	80.94
257.289	94.94
257.521	89.94
257.754	80.94
257.987	85.94
258.22	77.94
258.452	89.94
258.685	85.94
258.918	70.94
259.151	75.94
259.383	77.94
259.616	92.94
259.849	86.94
260.081	77.94
260.314	84.94
260.547	87.94
260.779	73.94
261.012	71.94
261.244	77.94
261.477	82.94
261.71	73.94
261.942	99.94
262.175	77.94
262.407	91.94
262.64	70.94
262.872	78.94
263.105	64.94
263.337	68.94
263.57	85.94
263.802	77.94
264.035	83.94
264.267	83.94
264.499	86.94
264.732	79.94
264.964	83.94
265.197	84.94
265.429	77.94
265.661	82.94
265.894	80.94
266.126	85.94
266.358	78.94
266.591	82.94
266.823	95.94
267.055	71.94
267.287	82.94
267.52	73.94
267.752	88.94
267.984	77.94
268.216	73.94
268.448	96.94
268.681	67.94
268.913	89.94
269.145	86.94
269.377	82.94
269.609	88.94
269.841	82.94
270.073	84.94
270.306	79.94
270.538	81.94
270.77	77.94
271.002	74.94
271.234	76.94
271.466	76.94
271.698	77.94
271.93	93.94
272.162	84.94
272.394	82.94
272.626	75.94
272.858	81.94
273.09	88.94
273.322	82.94
273.553	76.94
273.785	92.94
274.017	81.94
274.249	81.94
274.481	80.94
274.713	88.94
274.945	85.94
275.176	74.94
275.408	94.94
275.64	84.94
275.872	77.94
276.104	100.94
276.335	76.94
276.567	92.94
276.799	81.94
277.031	77.94
277.262	89.94
277.494	94.94
277.726	91.94
277.957	85.94
278.189	83.94
278.421	100.94
278.652	83.94
278.884	83.94
279.115	83.94
279.347	80.94
279.579	81.94
279.81	76.94
280.042	89.94
280.273	85.94
280.505	79.94
280.736	84.94
280.968	90.94
281.199	82.94
281.431	81.94
281.662	92.94
281.894	85.94
282.125	83.94
282.356	87.94
282.588	73.94
282.819	100.94
283.051	79.94
283.282	83.94
283.513	94.94
283.745	86.94
283.976	82.94
284.207	80.94
284.439	88.94
284.67	91.94
284.901	95.94
285.132	88.94
285.364	93.94
285.595	90.94
285.826	77.94
286.057	77.94
286.288	84.94
286.52	84.94
286.751	60.94
286.982	89.94
287.213	93.94
287.444	75.94
287.675	99.94
287.906	83.94
288.138	87.94
288.369	77.94
288.6	86.94
288.831	89.94
289.062	92.94
289.293	85.94
289.524	84.94
289.755	58.94
289.986	83.94
290.217	81.94
290.448	82.94
290.679	75.94
290.91	79.94
291.141	84.94
291.371	85.94
291.602	84.94
291.833	85.94
292.064	96.94
292.295	73.94
292.526	89.94
292.757	93.94
292.987	79.94
293.218	72.94
293.449	73.94
293.68	84.94
293.91	82.94
294.141	78.94
294.372	85.94
294.603	91.94
294.833	79.94
295.064	78.94
295.295	89.94
295.525	84.94
295.756	80.94
295.987	88.94
296.217	83.94
296.448	88.94
296.679	83.94
296.909	81.94
297.14	86.94
297.37	92.94
297.601	99.94
297.831	89.94
298.062	78.94
298.292	96.94
298.523	86.94
298.753	87.94
298.984	93.94
299.214	83.94
299.445	88.94
299.675	88.94
299.905	79.94
300.136	84.94
300.366	81.94
300.597	101.94
300.827	94.94
301.057	89.94
301.288	99.94
301.518	91.94
301.748	103.94
301.979	98.94
302.209	89.94
302.439	83.94
302.669	79.94
302.9	92.94
303.13	97.94
303.36	77.94
303.59	86.94
303.82	75.94
304.051	81.94
304.281	86.94
304.511	87.94
304.741	80.94
304.971	91.94
305.201	91.94
305.431	83.94
305.661	92.94
305.891	84.94
306.121	92.94
306.352	81.94
306.582	85.94
306.812	85.94
307.042	95.94
307.272	85.94
307.502	93.94
307.731	82.94
307.961	78.94
308.191	76.94
308.421	78.94
308.651	93.94
308.881	90.94
309.111	76.94
309.341	81.94
309.571	86.94
309.8	79.94
310.03	88.94
310.26	82.94
310.49	92.94
310.72	89.94
310.949	91.94
311.179	98.94
311.409	96.94
311.639	98.94
311.868	78.94
312.098	80.94
312.328	94.94
312.557	89.94
312.787	87.94
313.017	76.94
313.246	79.94
313.476	76.94
313.706	74.94
313.935	75.94
314.165	76.94
314.394	96.94
314.624	76.94
314.853	79.94
315.083	85.94
315.312	105.94
315.542	96.94
315.771	90.94
316.001	90.94
316.23	89.94
316.46	88.94
316.689	72.94
316.919	78.94
317.148	91.94
317.377	90.94
317.607	78.94
317.836	67.94
318.065	92.94
318.295	81.94
318.524	81.94
318.753	89.94
318.983	99.94
319.212	105.94
319.441	100.94
319.67	100.94
319.9	85.94
320.129	81.94
320.358	95.94
320.587	94.94
320.816	84.94
321.046	79.94
321.275	80.94
321.504	78.94
321.733	91.94
321.962	91.94
322.191	103.94
322.42	88.94
322.649	88.94
322.878	82.94
323.108	88.94
323.337	95.94
323.566	91.94
323.795	91.94
324.024	97.94
324.253	89.94
324.482	90.94
324.71	75.94
324.939	81.94
325.168	77.94
325.397	104.94
325.626	98.94
325.855	77.94
326.084	85.94
326.313	87.94
326.542	92.94
326.77	93.94
326.999	96.94
327.228	83.94
327.457	87.94
327.686	79.94
327.914	104.94
328.143	105.94
328.372	95.94
328.6	92.94
328.829	83.94
329.058	84.94
329.287	83.94
329.515	80.94
329.744	69.94
329.972	77.94
330.201	89.94
330.43	89.94
330.658	104.94
330.887	88.94
331.115	96.94
331.344	74.94
331.572	93.94
331.801	92.94
332.03	85.94
332.258	81.94
332.486	79.94
332.715	77.94
332.943	90.94
333.172	79.94
333.4	77.94
333.629	93.94
333.857	97.94
334.085	86.94
334.314	95.94
334.542	96.94
334.771	85.94
334.999	106.94
335.227	88.94
335.455	100.94
335.684	82.94
335.912	100.94
336.14	89.94
336.369	80.94
336.597	98.94
336.825	78.94
337.053	87.94
337.281	87.94
337.51	88.94
337.738	103.94
337.966	80.94
338.194	95.94
338.422	81.94
338.65	83.94
338.878	92.94
339.106	85.94
339.334	95.94
339.562	91.94
339.79	82.94
340.018	86.94
340.246	90.94
340.474	91.94
340.702	88.94
340.93	83.94
341.158	85.94
341.386	86.94
341.614	95.94
341.842	97.94
342.07	88.94
342.298	94.94
342.526	104.94
342.754	85.94
342.981	85.94
343.209	84.94
343.437	74.94
343.665	80.94
343.893	85.94
344.12	87.94
344.348	83.94
344.576	100.94
344.804	92.94
345.031	85.94
345.259	74.94
345.487	92.94
345.714	92.94
345.942	97.94
346.17	103.94
346.397	88.94
346.625	97.94
346.853	103.94
347.08	74.94
347.308	84.94
347.535	83.94
347.763	86.94
347.99	91.94
348.218	97.94
348.445	107.94
348.673	85.94
348.9	86.94
349.128	77.94
349.355	76.94
349.583	84.94
349.81	89.94
350.037	88.94
350.265	83.94
350.492	78.94
350.72	85.94
350.947	82.94
351.174	93.94
351.402	84.94
351.629	79.94
351.856	81.94
352.083	72.94
352.311	89.94
352.538	81.94
352.765	94.94
352.992	83.94
353.22	77.94
353.447	86.94
353.674	87.94
353.901	84.94
354.128	89.94
354.355	96.94
354.583	99.94
354.81	77.94
355.037	81.94
355.264	82.94
355.491	88.94
355.718	83.94
355.945	85.94
356.172	104.94
356.399	85.94
356.626	87.94
356.853	90.94
357.08	91.94
357.307	77.94
357.534	81.94
357.761	84.94
357.988	93.94
358.215	81.94
358.441	84.94
358.668	84.94
358.895	81.94
359.122	91.94
359.349	89.94
359.576	79.94
359.802	88.94
360.029	77.94
360.256	94.94
360.483	91.94
360.709	80.94
360.936	105.94
361.163	85.94
361.39	77.94
361.616	92.94
361.843	86.94
362.07	99.94
362.296	81.94
362.523	85.94
362.749	86.94
362.976	77.94
363.203	78.94
363.429	73.94
363.656	74.94
363.882	86.94
364.109	79.94
364.335	69.94
364.562	74.94
364.788	89.94
365.015	72.94
365.241	98.94
365.468	86.94
365.694	75.94
365.92	91.94
366.147	92.94
366.373	75.94
366.599	82.94
366.826	92.94
367.052	76.94
367.278	72.94
367.505	95.94
367.731	94.94
367.957	97.94
368.184	81.94
368.41	93.94
368.636	81.94
368.862	80.94
369.089	80.94
369.315	83.94
369.541	81.94
369.767	81.94
369.993	91.94
370.219	97.94
370.445	79.94
370.672	80.94
370.898	79.94
371.124	68.94
371.35	81.94
371.576	82.94
371.802	83.94
372.028	83.94
372.254	81.94
372.48	98.94
372.706	80.94
372.932	81.94
373.158	76.94
373.384	90.94
373.61	84.94
373.835	96.94
374.061	89.94
374.287	86.94
374.513	92.94
374.739	82.94
374.965	94.94
375.191	73.94
375.416	76.94
375.642	71.94
375.868	80.94
376.094	89.94
376.319	79.94
376.545	84.94
376.771	75.94
376.997	92.94
377.222	77.94
377.448	84.94
377.674	88.94
377.899	91.94
378.125	96.94
378.35	97.94
378.576	75.94
378.802	84.94
379.027	82.94
379.253	74.94
379.478	79.94
379.704	91.94
379.929	74.94
380.155	87.94
380.38	88.94
380.606	73.94
380.831	87.94
381.057	76.94
381.282	79.94
381.507	91.94
381.733	95.94
381.958	71.94
382.184	96.94
382.409	87.94
382.634	79.94
382.86	97.94
383.085	82.94
383.31	88.94
383.535	93.94
383.761	82.94
383.986	88.94
384.211	94.94
384.436	101.94
384.662	90.94
384.887	80.94
385.112	93.94
385.337	76.94
385.562	88.94
385.787	90.94
386.013	84.94
386.238	75.94
386.463	84.94
386.688	84.94
386.913	81.94
387.138	85.94
387.363	100.94
387.588	83.94
387.813	82.94
388.038	100.94
388.263	90.94
388.488	66.94
388.713	77.94
388.938	81.94
389.163	83.94
389.387	85.94
389.612	87.94
389.837	82.94
390.062	85.94
390.287	83.94
390.512	97.94
390.736	90.94
390.961	72.94
391.186	93.94
391.411	83.94
391.636	68.94
391.86	87.94
392.085	99.94
392.31	78.94
392.534	87.94
392.759	104.94
392.984	87.94
393.208	71.94
393.433	74.94
393.658	81.94
393.882	80.94
394.107	91.94
394.331	90.94
394.556	77.94
394.78	95.94
395.005	88.94
395.229	89.94
395.454	93.94
395.678	85.94
395.903	74.94
396.127	81.94
396.352	92.94
396.576	84.94
396.801	95.94
397.025	63.94
397.249	81.94
397.474	87.94
397.698	91.94
397.922	94.94
398.147	81.94
398.371	82.94
398.595	79.94
398.82	82.94
399.044	93.94
399.268	77.94
399.492	88.94
399.717	83.94
399.941	91.94
400.165	80.94
400.389	79.94
400.613	99.94
400.837	77.94
401.062	87.94
401.286	87.94
401.51	88.94
401.734	90.94
401.958	80.94
402.182	81.94
402.406	76.94
402.63	92.94
402.854	94.94
403.078	93.94
403.302	90.94
403.526	84.94
403.75	81.94
403.974	91.94
404.198	83.94
404.422	88.94
404.645	86.94
404.869	88.94
405.093	78.94
405.317	79.94
405.541	95.94
405.765	64.94
405.988	88.94
406.212	101.94
406.436	69.94
406.66	91.94
406.883	88.94
407.107	71.94
407.331	83.94
407.555	101.94
407.778	86.94
408.002	87.94
408.226	67.94
408.449	85.94
408.673	74.94
408.896	86.94
409.12	84.94
409.344	89.94
409.567	84.94
409.791	87.94
410.014	77.94
410.238	84.94
410.461	77.94
410.685	83.94
410.908	77.94
411.132	86.94
411.355	85.94
411.578	89.94
411.802	85.94
412.025	98.94
412.249	75.94
412.472	87.94
412.695	84.94
412.919	73.94
413.142	80.94
413.365	76.94
413.589	73.94
413.812	86.94
414.035	84.94
414.258	96.94
414.482	91.94
414.705	76.94
414.928	75.94
415.151	82.94
415.374	87.94
415.597	79.94
415.821	76.94
416.044	72.94
416.267	77.94
416.49	78.94
416.713	72.94
416.936	97.94
417.159	77.94
417.382	81.94
417.605	84.94
417.828	83.94
418.051	94.94
418.274	93.94
418.497	67.94
418.72	84.94
418.943	83.94
419.166	77.94
419.389	88.94
419.611	84.94
419.834	87.94
420.057	83.94
420.28	77.94
420.503	90.94
420.726	81.94
420.948	93.94
421.171	91.94
421.394	89.94
421.617	94.94
421.839	87.94
422.062	97.94
422.285	84.94
422.507	80.94
422.73	58.94
422.953	83.94
423.175	82.94
423.398	86.94
423.621	101.94
423.843	77.94
424.066	82.94
424.288	88.94
424.511	81.94
424.733	79.94
424.956	80.94
425.178	102.94
425.401	74.94
425.623	70.94
425.846	81.94
426.068	88.94
426.291	98.94
426.513	81.94
426.735	83.94
426.958	79.94
427.18	69.94
427.402	80.94
427.625	69.94
427.847	96.94
428.069	94.94
428.292	88.94
428.514	101.94
428.736	75.94
428.958	96.94
429.181	78.94
429.403	81.94
429.625	74.94
429.847	79.94
430.069	87.94
430.292	92.94
430.514	76.94
430.736	86.94
430.958	71.94
431.18	85.94
431.402	72.94
431.624	84.94
431.846	74.94
432.068	82.94
432.29	83.94
432.512	87.94
432.734	80.94
432.956	88.94
433.178	73.94
433.4	101.94
433.622	73.94
433.844	77.94
434.066	85.94
434.287	89.94
434.509	80.94
434.731	87.94
434.953	79.94
435.175	88.94
435.397	85.94
435.618	84.94
435.84	73.94
436.062	98.94
436.284	95.94
436.505	81.94
436.727	80.94
436.949	73.94
437.17	88.94
437.392	85.94
437.614	82.94
437.835	83.94
438.057	70.94
438.278	81.94
438.5	85.94
438.721	84.94
438.943	81.94
439.165	68.94
439.386	82.94
439.608	91.94
439.829	89.94
440.05	83.94
440.272	82.94
440.493	92.94
440.715	85.94
440.936	106.94
441.158	81.94
441.379	77.94
441.6	86.94
441.822	84.94
442.043	84.94
442.264	86.94
442.486	91.94
442.707	71.94
442.928	82.94
443.149	95.94
443.371	80.94
443.592	84.94
443.813	91.94
444.034	84.94
444.255	93.94
444.476	95.94
444.698	87.94
444.919	81.94
445.14	204.94
445.361	141.94
445.582	91.94
445.803	86.94
446.024	95.94
446.245	87.94
446.466	95.94
446.687	71.94
446.908	90.94
447.129	102.94
447.35	96.94
447.571	92.94
447.792	73.94
448.013	79.94
448.234	82.94
448.455	80.94
448.675	80.94
448.896	78.94
449.117	83.94
449.338	91.94
449.559	85.94
449.779	83.94
450	86.94
450.221	74.94
450.442	93.94
450.662	78.94
450.883	86.94
451.104	82.94
451.324	87.94
451.545	100.94
451.766	86.94
451.986	81.94
452.207	73.94
452.428	84.94
452.648	82.94
452.869	88.94
453.089	74.94
453.31	80.94
453.53	96.94
453.751	70.94
453.971	81.94
454.192	79.94
454.412	92.94
454.633	78.94
454.853	64.94
455.073	90.94
455.294	95.94
455.514	100.94
455.734	90.94
455.955	76.94
456.175	74.94
456.395	82.94
456.616	82.94
456.836	73.94
457.056	84.94
457.276	93.94
457.497	89.94
457.717	86.94
457.937	96.94
458.157	75.94
458.377	78.94
458.598	91.94
458.818	83.94
459.038	89.94
459.258	87.94
459.478	80.94
459.698	81.94
459.918	93.94
460.138	81.94
460.358	72.94
460.578	89.94
460.798	104.94
461.018	80.94
461.238	90.94
461.458	97.94
461.678	80.94
461.898	85.94
462.118	80.94
462.338	85.94
462.558	85.94
462.777	75.94
462.997	82.94
463.217	75.94
463.437	93.94
463.657	92.94
463.876	86.94
464.096	77.94
464.316	89.94
464.536	73.94
464.755	101.94
464.975	88.94
465.195	88.94
465.414	89.94
465.634	86.94
465.854	83.94
466.073	83.94
466.293	81.94
466.512	86.94
466.732	84.94
466.951	87.94
467.171	75.94
467.391	88.94
467.61	83.94
467.829	81.94
468.049	84.94
468.268	81.94
468.488	85.94
468.707	90.94
468.927	91.94
469.146	83.94
469.365	84.94
469.585	80.94
469.804	94.94
470.023	74.94
470.243	79.94
470.462	83.94
470.681	68.94
470.901	93.94
471.12	90.94
471.339	93.94
471.558	96.94
471.777	73.94
471.997	83.94
472.216	76.94
472.435	77.94
472.654	77.94
472.873	87.94
473.092	84.94
473.311	82.94
473.53	101.94
473.749	115.94
473.968	79.94
474.187	82.94
474.406	82.94
474.625	83.94
474.844	94.94
475.063	79.94
475.282	84.94
475.501	92.94
475.72	88.94
475.939	84.94
476.158	78.94
476.377	88.94
476.596	87.94
476.814	86.94
477.033	91.94
477.252	87.94
477.471	90.94
477.69	86.94
477.908	86.94
478.127	92.94
478.346	87.94
478.564	99.94
478.783	108.94
479.002	94.94
479.22	87.94
479.439	90.94
479.658	83.94
479.876	77.94
480.095	86.94
480.313	82.94
480.532	92.94
480.751	95.94
480.969	86.94
481.188	83.94
481.406	83.94
481.624	88.94
481.843	78.94
482.061	92.94
482.28	94.94
482.498	95.94
482.717	99.94
482.935	97.94
483.153	81.94
483.372	90.94
483.59	92.94
483.808	90.94
484.027	99.94
484.245	95.94
484.463	97.94
484.681	96.94
484.9	92.94
485.118	89.94
485.336	89.94
485.554	80.94
485.772	93.94
485.99	90.94
486.209	84.94
486.427	74.94
486.645	92.94
486.863	91.94
487.081	85.94
487.299	91.94
487.517	101.94
487.735	93.94
487.953	76.94
488.171	109.94
488.389	96.94
488.607	95.94
488.825	96.94
489.043	75.94
489.261	95.94
489.479	88.94
489.696	89.94
489.914	112.94
490.132	93.94
490.35	94.94
490.568	93.94
490.786	95.94
491.003	76.94
491.221	100.94
491.439	94.94
491.657	94.94
491.874	98.94
492.092	86.94
492.31	103.94
492.527	106.94
492.745	90.94
492.963	90.94
493.18	96.94
493.398	108.94
493.615	101.94
493.833	92.94
494.05	83.94
494.268	90.94
494.485	91.94
494.703	92.94
494.92	92.94
495.138	94.94
495.355	92.94
495.573	85.94
495.79	98.94
496.008	93.94
496.225	89.94
496.442	97.94
496.66	97.94
496.877	88.94
497.094	99.94
497.312	89.94
497.529	93.94
497.746	72.94
497.963	91.94
498.181	99.94
498.398	97.94
498.615	101.94
498.832	98.94
499.049	91.94
499.267	106.94
499.484	102.94
499.701	110.94
499.918	113.94
500.135	106.94
500.352	92.94
500.569	107.94
500.786	112.94
501.003	116.94
501.22	114.94
501.437	95.94
501.654	102.94
501.871	109.94
502.088	102.94
502.305	99.94
502.522	102.94
502.739	101.94
502.956	83.94
503.172	99.94
503.389	87.94
503.606	88.94
503.823	95.94
504.04	102.94
504.256	111.94
504.473	95.94
504.69	96.94
504.907	100.94
505.123	92.94
505.34	89.94
505.557	88.94
505.773	92.94
505.99	92.94
506.207	103.94
506.423	101.94
506.64	92.94
506.856	92.94
507.073	97.94
507.289	86.94
507.506	92.94
507.722	95.94
507.939	102.94
508.155	102.94
508.372	96.94
508.588	92.94
508.805	75.94
509.021	98.94
509.238	83.94
509.454	93.94
509.67	88.94
509.887	107.94
510.103	88.94
510.319	99.94
510.536	92.94
510.752	95.94
510.968	85.94
511.184	100.94
511.401	93.94
511.617	95.94
511.833	100.94
512.049	93.94
512.265	92.94
512.481	89.94
512.698	70.94
512.914	77.94
513.13	90.94
513.346	89.94
513.562	85.94
513.778	80.94
513.994	93.94
514.21	88.94
514.426	91.94
514.642	80.94
514.858	84.94
515.074	96.94
515.29	114.94
515.506	97.94
515.721	99.94
515.937	92.94
516.153	96.94
516.369	91.94
516.585	87.94
516.801	92.94
517.016	93.94
517.232	75.94
517.448	96.94
517.664	85.94
517.879	79.94
518.095	101.94
518.311	107.94
