Data from Ni(NO3)2@0.0625M.TitratingCurve.Agarose3%dH2O.NegLispCup.LampEnergy10.LIBS07252019_HRD10591_18-14-19-569.txt Node
Date: Thu Jul 25 18:14:19 EDT 2019
User: cochatt
Spectrometer: HR+D1059
Trigger mode: 1
Integration Time (sec): 1.000000E-1
Scans to average: 1
Electric dark correction enabled: true
Nonlinearity correction enabled: false
Boxcar width: 0
XAxis mode: Wavelengths
Number of Pixels in Spectrum: 2048
>>>>>Begin Spectral Data<<<<<
223.165	-26.06
223.4	-26.06
223.635	-26.06
223.869	-21.06
224.104	-8.06
224.338	0.94
224.573	-15.06
224.808	-18.06
225.042	0.94
225.277	-14.06
225.511	-0.06
225.746	13.94
225.98	1.94
226.215	11.94
226.449	8.94
226.683	34.94
226.918	17.94
227.152	10.94
227.387	33.94
227.621	29.94
227.856	48.94
228.09	43.94
228.324	52.94
228.559	62.94
228.793	60.94
229.027	79.94
229.262	98.94
229.496	113.94
229.73	123.94
229.964	121.94
230.199	128.94
230.433	118.94
230.667	133.94
230.901	122.94
231.136	125.94
231.37	130.94
231.604	132.94
231.838	136.94
232.072	139.94
232.306	134.94
232.541	150.94
232.775	135.94
233.009	123.94
233.243	146.94
233.477	135.94
233.711	145.94
233.945	137.94
234.179	147.94
234.413	149.94
234.647	148.94
234.881	149.94
235.115	148.94
235.349	152.94
235.583	139.94
235.817	135.94
236.051	147.94
236.285	134.94
236.519	152.94
236.753	152.94
236.987	156.94
237.221	161.94
237.455	138.94
237.689	154.94
237.922	153.94
238.156	154.94
238.39	164.94
238.624	154.94
238.858	166.94
239.091	162.94
239.325	173.94
239.559	159.94
239.793	159.94
240.027	191.94
240.26	162.94
240.494	169.94
240.728	171.94
240.961	167.94
241.195	181.94
241.429	188.94
241.662	165.94
241.896	171.94
242.13	188.94
242.363	181.94
242.597	187.94
242.83	189.94
243.064	190.94
243.298	203.94
243.531	181.94
243.765	189.94
243.998	181.94
244.232	184.94
244.465	199.94
244.699	204.94
244.932	211.94
245.166	214.94
245.399	208.94
245.633	203.94
245.866	217.94
246.099	210.94
246.333	201.94
246.566	193.94
246.8	214.94
247.033	214.94
247.266	208.94
247.5	225.94
247.733	218.94
247.966	223.94
248.2	233.94
248.433	238.94
248.666	228.94
248.899	228.94
249.133	233.94
249.366	255.94
249.599	234.94
249.832	246.94
250.066	251.94
250.299	232.94
250.532	248.94
250.765	259.94
250.998	259.94
251.231	243.94
251.465	246.94
251.698	230.94
251.931	224.94
252.164	256.94
252.397	257.94
252.63	257.94
252.863	258.94
253.096	260.94
253.329	266.94
253.562	262.94
253.795	255.94
254.028	252.94
254.261	272.94
254.494	243.94
254.727	288.94
254.96	268.94
255.193	283.94
255.426	273.94
255.659	271.94
255.892	257.94
256.124	275.94
256.357	281.94
256.59	277.94
256.823	271.94
257.056	290.94
257.289	288.94
257.521	275.94
257.754	288.94
257.987	302.94
258.22	295.94
258.452	283.94
258.685	295.94
258.918	291.94
259.151	298.94
259.383	302.94
259.616	288.94
259.849	307.94
260.081	320.94
260.314	289.94
260.547	312.94
260.779	303.94
261.012	287.94
261.244	292.94
261.477	316.94
261.71	320.94
261.942	299.94
262.175	295.94
262.407	312.94
262.64	316.94
262.872	299.94
263.105	325.94
263.337	315.94
263.57	326.94
263.802	322.94
264.035	330.94
264.267	332.94
264.499	315.94
264.732	320.94
264.964	336.94
265.197	322.94
265.429	329.94
265.661	338.94
265.894	326.94
266.126	344.94
266.358	360.94
266.591	350.94
266.823	350.94
267.055	330.94
267.287	339.94
267.52	345.94
267.752	356.94
267.984	338.94
268.216	361.94
268.448	360.94
268.681	359.94
268.913	346.94
269.145	356.94
269.377	359.94
269.609	344.94
269.841	363.94
270.073	349.94
270.306	366.94
270.538	336.94
270.77	344.94
271.002	361.94
271.234	332.94
271.466	359.94
271.698	359.94
271.93	360.94
272.162	386.94
272.394	378.94
272.626	364.94
272.858	364.94
273.09	378.94
273.322	384.94
273.553	375.94
273.785	384.94
274.017	404.94
274.249	400.94
274.481	380.94
274.713	390.94
274.945	394.94
275.176	386.94
275.408	387.94
275.64	407.94
275.872	408.94
276.104	404.94
276.335	397.94
276.567	406.94
276.799	391.94
277.031	407.94
277.262	423.94
277.494	427.94
277.726	398.94
277.957	408.94
278.189	405.94
278.421	396.94
278.652	402.94
278.884	403.94
279.115	431.94
279.347	420.94
279.579	407.94
279.81	423.94
280.042	406.94
280.273	420.94
280.505	416.94
280.736	420.94
280.968	430.94
281.199	436.94
281.431	439.94
281.662	422.94
281.894	432.94
282.125	433.94
282.356	454.94
282.588	453.94
282.819	441.94
283.051	443.94
283.282	440.94
283.513	434.94
283.745	452.94
283.976	452.94
284.207	448.94
284.439	455.94
284.67	447.94
284.901	438.94
285.132	452.94
285.364	463.94
285.595	478.94
285.826	470.94
286.057	476.94
286.288	476.94
286.52	489.94
286.751	485.94
286.982	476.94
287.213	487.94
287.444	474.94
287.675	471.94
287.906	471.94
288.138	478.94
288.369	475.94
288.6	503.94
288.831	478.94
289.062	487.94
289.293	484.94
289.524	482.94
289.755	482.94
289.986	495.94
290.217	514.94
290.448	491.94
290.679	495.94
290.91	485.94
291.141	479.94
291.371	485.94
291.602	487.94
291.833	489.94
292.064	501.94
292.295	511.94
292.526	470.94
292.757	478.94
292.987	506.94
293.218	485.94
293.449	485.94
293.68	484.94
293.91	500.94
294.141	514.94
294.372	515.94
294.603	524.94
294.833	492.94
295.064	500.94
295.295	474.94
295.525	506.94
295.756	499.94
295.987	515.94
296.217	490.94
296.448	514.94
296.679	522.94
296.909	521.94
297.14	524.94
297.37	518.94
297.601	534.94
297.831	533.94
298.062	544.94
298.292	572.94
298.523	556.94
298.753	562.94
298.984	552.94
299.214	544.94
299.445	554.94
299.675	548.94
299.905	574.94
300.136	542.94
300.366	560.94
300.597	547.94
300.827	571.94
301.057	561.94
301.288	582.94
301.518	561.94
301.748	564.94
301.979	570.94
302.209	573.94
302.439	569.94
302.669	579.94
302.9	579.94
303.13	545.94
303.36	555.94
303.59	566.94
303.82	545.94
304.051	568.94
304.281	564.94
304.511	554.94
304.741	569.94
304.971	568.94
305.201	570.94
305.431	559.94
305.661	551.94
305.891	558.94
306.121	563.94
306.352	562.94
306.582	536.94
306.812	543.94
307.042	543.94
307.272	564.94
307.502	543.94
307.731	534.94
307.961	548.94
308.191	543.94
308.421	533.94
308.651	540.94
308.881	549.94
309.111	530.94
309.341	520.94
309.571	537.94
309.8	561.94
310.03	550.94
310.26	536.94
310.49	537.94
310.72	532.94
310.949	542.94
311.179	537.94
311.409	556.94
311.639	547.94
311.868	542.94
312.098	553.94
312.328	571.94
312.557	566.94
312.787	566.94
313.017	588.94
313.246	594.94
313.476	578.94
313.706	591.94
313.935	595.94
314.165	588.94
314.394	604.94
314.624	589.94
314.853	574.94
315.083	590.94
315.312	578.94
315.542	577.94
315.771	566.94
316.001	575.94
316.23	579.94
316.46	573.94
316.689	599.94
316.919	593.94
317.148	580.94
317.377	565.94
317.607	560.94
317.836	552.94
318.065	566.94
318.295	588.94
318.524	576.94
318.753	584.94
318.983	553.94
319.212	577.94
319.441	565.94
319.67	584.94
319.9	575.94
320.129	582.94
320.358	560.94
320.587	577.94
320.816	566.94
321.046	574.94
321.275	595.94
321.504	565.94
321.733	556.94
321.962	591.94
322.191	570.94
322.42	576.94
322.649	563.94
322.878	579.94
323.108	578.94
323.337	575.94
323.566	600.94
323.795	600.94
324.024	584.94
324.253	597.94
324.482	583.94
324.71	583.94
324.939	593.94
325.168	587.94
325.397	619.94
325.626	612.94
325.855	612.94
326.084	633.94
326.313	631.94
326.542	652.94
326.77	662.94
326.999	610.94
327.228	624.94
327.457	620.94
327.686	638.94
327.914	651.94
328.143	640.94
328.372	624.94
328.6	625.94
328.829	613.94
329.058	622.94
329.287	627.94
329.515	645.94
329.744	656.94
329.972	631.94
330.201	636.94
330.43	632.94
330.658	644.94
330.887	638.94
331.115	673.94
331.344	662.94
331.572	663.94
331.801	678.94
332.03	693.94
332.258	720.94
332.486	718.94
332.715	759.94
332.943	784.94
333.172	792.94
333.4	859.94
333.629	880.94
333.857	834.94
334.085	865.94
334.314	867.94
334.542	802.94
334.771	798.94
334.999	798.94
335.227	789.94
335.455	795.94
335.684	759.94
335.912	794.94
336.14	767.94
336.369	772.94
336.597	760.94
336.825	762.94
337.053	774.94
337.281	758.94
337.51	755.94
337.738	703.94
337.966	718.94
338.194	686.94
338.422	696.94
338.65	691.94
338.878	664.94
339.106	679.94
339.334	704.94
339.562	695.94
339.79	674.94
340.018	648.94
340.246	630.94
340.474	641.94
340.702	639.94
340.93	631.94
341.158	667.94
341.386	672.94
341.614	662.94
341.842	636.94
342.07	657.94
342.298	623.94
342.526	647.94
342.754	642.94
342.981	642.94
343.209	644.94
343.437	711.94
343.665	755.94
343.893	794.94
344.12	848.94
344.348	790.94
344.576	746.94
344.804	742.94
345.031	666.94
345.259	692.94
345.487	652.94
345.714	655.94
345.942	650.94
346.17	666.94
346.397	644.94
346.625	651.94
346.853	636.94
347.08	630.94
347.308	656.94
347.535	678.94
347.763	675.94
347.99	666.94
348.218	680.94
348.445	650.94
348.673	644.94
348.9	625.94
349.128	628.94
349.355	643.94
349.583	637.94
349.81	634.94
350.037	634.94
350.265	638.94
350.492	631.94
350.72	630.94
350.947	608.94
351.174	613.94
351.402	619.94
351.629	621.94
351.856	627.94
352.083	614.94
352.311	621.94
352.538	593.94
352.765	593.94
352.992	603.94
353.22	598.94
353.447	602.94
353.674	595.94
353.901	600.94
354.128	607.94
354.355	636.94
354.583	642.94
354.81	602.94
355.037	631.94
355.264	624.94
355.491	625.94
355.718	602.94
355.945	612.94
356.172	618.94
356.399	620.94
356.626	630.94
356.853	639.94
357.08	618.94
357.307	630.94
357.534	606.94
357.761	613.94
357.988	615.94
358.215	605.94
358.441	614.94
358.668	603.94
358.895	589.94
359.122	618.94
359.349	606.94
359.576	628.94
359.802	616.94
360.029	611.94
360.256	612.94
360.483	632.94
360.709	619.94
360.936	616.94
361.163	625.94
361.39	608.94
361.616	630.94
361.843	603.94
362.07	611.94
362.296	600.94
362.523	618.94
362.749	591.94
362.976	622.94
363.203	615.94
363.429	599.94
363.656	588.94
363.882	623.94
364.109	617.94
364.335	615.94
364.562	632.94
364.788	592.94
365.015	616.94
365.241	613.94
365.468	598.94
365.694	606.94
365.92	610.94
366.147	609.94
366.373	607.94
366.599	605.94
366.826	598.94
367.052	604.94
367.278	636.94
367.505	607.94
367.731	618.94
367.957	613.94
368.184	614.94
368.41	610.94
368.636	625.94
368.862	627.94
369.089	632.94
369.315	632.94
369.541	650.94
369.767	657.94
369.993	626.94
370.219	638.94
370.445	637.94
370.672	644.94
370.898	637.94
371.124	682.94
371.35	660.94
371.576	667.94
371.802	660.94
372.028	674.94
372.254	669.94
372.48	666.94
372.706	688.94
372.932	718.94
373.158	705.94
373.384	680.94
373.61	664.94
373.835	672.94
374.061	665.94
374.287	673.94
374.513	687.94
374.739	732.94
374.965	724.94
375.191	736.94
375.416	734.94
375.642	710.94
375.868	724.94
376.094	709.94
376.319	676.94
376.545	696.94
376.771	658.94
376.997	667.94
377.222	683.94
377.448	670.94
377.674	689.94
377.899	681.94
378.125	656.94
378.35	646.94
378.576	679.94
378.802	651.94
379.027	665.94
379.253	669.94
379.478	664.94
379.704	637.94
379.929	646.94
380.155	674.94
380.38	667.94
380.606	656.94
380.831	644.94
381.057	640.94
381.282	626.94
381.507	664.94
381.733	672.94
381.958	679.94
382.184	715.94
382.409	703.94
382.634	703.94
382.86	718.94
383.085	698.94
383.31	708.94
383.535	738.94
383.761	735.94
383.986	762.94
384.211	770.94
384.436	784.94
384.662	803.94
384.887	809.94
385.112	810.94
385.337	802.94
385.562	831.94
385.787	807.94
386.013	851.94
386.238	825.94
386.463	817.94
386.688	840.94
386.913	804.94
387.138	804.94
387.363	773.94
387.588	799.94
387.813	776.94
388.038	794.94
388.263	794.94
388.488	807.94
388.713	800.94
388.938	786.94
389.163	760.94
389.387	776.94
389.612	767.94
389.837	801.94
390.062	747.94
390.287	778.94
390.512	795.94
390.736	788.94
390.961	783.94
391.186	807.94
391.411	850.94
391.636	863.94
391.86	864.94
392.085	908.94
392.31	913.94
392.534	862.94
392.759	866.94
392.984	854.94
393.208	850.94
393.433	867.94
393.658	823.94
393.882	844.94
394.107	840.94
394.331	867.94
394.556	863.94
394.78	890.94
395.005	882.94
395.229	868.94
395.454	900.94
395.678	904.94
395.903	906.94
396.127	872.94
396.352	850.94
396.576	857.94
396.801	820.94
397.025	859.94
397.249	858.94
397.474	892.94
397.698	890.94
397.922	868.94
398.147	878.94
398.371	890.94
398.595	916.94
398.82	960.94
399.044	1047.94
399.268	1152.94
399.492	1355.94
399.717	1569.94
399.941	1574.94
400.165	1366.94
400.389	1206.94
400.613	1110.94
400.837	1055.94
401.062	996.94
401.286	1011.94
401.51	999.94
401.734	984.94
401.958	1027.94
402.182	1029.94
402.406	1032.94
402.63	1061.94
402.854	1070.94
403.078	1094.94
403.302	1128.94
403.526	1146.94
403.75	1159.94
403.974	1179.94
404.198	1180.94
404.422	1202.94
404.645	1192.94
404.869	1165.94
405.093	1145.94
405.317	1123.94
405.541	1102.94
405.765	1111.94
405.988	1081.94
406.212	1099.94
406.436	1075.94
406.66	1136.94
406.883	1168.94
407.107	1190.94
407.331	1258.94
407.555	1343.94
407.778	1319.94
408.002	1266.94
408.226	1221.94
408.449	1192.94
408.673	1156.94
408.896	1152.94
409.12	1109.94
409.344	1147.94
409.567	1109.94
409.791	1158.94
410.014	1150.94
410.238	1131.94
410.461	1138.94
410.685	1120.94
410.908	1108.94
411.132	1092.94
411.355	1042.94
411.578	1058.94
411.802	1048.94
412.025	1030.94
412.249	1064.94
412.472	1066.94
412.695	1019.94
412.919	1030.94
413.142	1002.94
413.365	1013.94
413.589	1043.94
413.812	987.94
414.035	982.94
414.258	983.94
414.482	995.94
414.705	1042.94
414.928	1035.94
415.151	1042.94
415.374	1029.94
415.597	1018.94
415.821	1029.94
416.044	971.94
416.267	994.94
416.49	993.94
416.713	951.94
416.936	1012.94
417.159	972.94
417.382	999.94
417.605	981.94
417.828	1012.94
418.051	991.94
418.274	1002.94
418.497	986.94
418.72	1001.94
418.943	1003.94
419.166	1122.94
419.389	1144.94
419.611	1161.94
419.834	1073.94
420.057	1080.94
420.28	1001.94
420.503	1008.94
420.726	1012.94
420.948	947.94
421.171	997.94
421.394	971.94
421.617	973.94
421.839	1011.94
422.062	1010.94
422.285	986.94
422.507	1030.94
422.73	1010.94
422.953	1029.94
423.175	1046.94
423.398	1088.94
423.621	1061.94
423.843	1083.94
424.066	1063.94
424.288	1062.94
424.511	1097.94
424.733	1050.94
424.956	1034.94
425.178	999.94
425.401	982.94
425.623	1009.94
425.846	988.94
426.068	960.94
426.291	951.94
426.513	949.94
426.735	940.94
426.958	915.94
427.18	906.94
427.402	904.94
427.625	922.94
427.847	885.94
428.069	896.94
428.292	879.94
428.514	887.94
428.736	881.94
428.958	920.94
429.181	872.94
429.403	865.94
429.625	889.94
429.847	892.94
430.069	869.94
430.292	858.94
430.514	876.94
430.736	841.94
430.958	880.94
431.18	854.94
431.402	885.94
431.624	864.94
431.846	881.94
432.068	924.94
432.29	932.94
432.512	873.94
432.734	912.94
432.956	875.94
433.178	915.94
433.4	910.94
433.622	892.94
433.844	911.94
434.066	896.94
434.287	926.94
434.509	930.94
434.731	948.94
434.953	1002.94
435.175	1033.94
435.397	1005.94
435.618	976.94
435.84	918.94
436.062	914.94
436.284	877.94
436.505	862.94
436.727	865.94
436.949	858.94
437.17	892.94
437.392	867.94
437.614	880.94
437.835	864.94
438.057	864.94
438.278	849.94
438.5	853.94
438.721	862.94
438.943	845.94
439.165	867.94
439.386	844.94
439.608	900.94
439.829	884.94
440.05	856.94
440.272	898.94
440.493	916.94
440.715	903.94
440.936	931.94
441.158	956.94
441.379	956.94
441.6	1004.94
441.822	1019.94
442.043	1026.94
442.264	979.94
442.486	984.94
442.707	998.94
442.928	965.94
443.149	995.94
443.371	988.94
443.592	990.94
443.813	1003.94
444.034	1004.94
444.255	1055.94
444.476	1105.94
444.698	1154.94
444.919	1243.94
445.14	1290.94
445.361	1172.94
445.582	1042.94
445.803	961.94
446.024	959.94
446.245	960.94
446.466	910.94
446.687	890.94
446.908	870.94
447.129	895.94
447.35	857.94
447.571	866.94
447.792	832.94
448.013	829.94
448.234	845.94
448.455	824.94
448.675	842.94
448.896	815.94
449.117	808.94
449.338	831.94
449.559	800.94
449.779	783.94
450	811.94
450.221	808.94
450.442	834.94
450.662	823.94
450.883	828.94
451.104	866.94
451.324	864.94
451.545	848.94
451.766	873.94
451.986	828.94
452.207	812.94
452.428	830.94
452.648	807.94
452.869	806.94
453.089	806.94
453.31	809.94
453.53	816.94
453.751	798.94
453.971	809.94
454.192	803.94
454.412	788.94
454.633	778.94
454.853	800.94
455.073	771.94
455.294	791.94
455.514	760.94
455.734	775.94
455.955	768.94
456.175	770.94
456.395	759.94
456.616	774.94
456.836	770.94
457.056	767.94
457.276	736.94
457.497	745.94
457.717	774.94
457.937	786.94
458.157	793.94
458.377	786.94
458.598	812.94
458.818	821.94
459.038	843.94
459.258	888.94
459.478	928.94
459.698	906.94
459.918	962.94
460.138	968.94
460.358	1059.94
460.578	1061.94
460.798	1074.94
461.018	1086.94
461.238	1047.94
461.458	1067.94
461.678	1055.94
461.898	1040.94
462.118	1076.94
462.338	1117.94
462.558	1140.94
462.777	1199.94
462.997	1294.94
463.217	1444.94
463.437	1492.94
463.657	1341.94
463.876	1243.94
464.096	1250.94
464.316	1237.94
464.536	1250.94
464.755	1206.94
464.975	1146.94
465.195	1129.94
465.414	1078.94
465.634	996.94
465.854	922.94
466.073	917.94
466.293	912.94
466.512	881.94
466.732	861.94
466.951	856.94
467.171	869.94
467.391	878.94
467.61	884.94
467.829	858.94
468.049	850.94
468.268	843.94
468.488	810.94
468.707	810.94
468.927	795.94
469.146	819.94
469.365	854.94
469.585	827.94
469.804	878.94
470.023	876.94
470.243	892.94
470.462	890.94
470.681	883.94
470.901	901.94
471.12	871.94
471.339	868.94
471.558	889.94
471.777	846.94
471.997	860.94
472.216	825.94
472.435	826.94
472.654	823.94
472.873	796.94
473.092	793.94
473.311	825.94
473.53	801.94
473.749	799.94
473.968	791.94
474.187	779.94
474.406	783.94
474.625	791.94
474.844	826.94
475.063	807.94
475.282	815.94
475.501	832.94
475.72	833.94
475.939	840.94
476.158	810.94
476.377	860.94
476.596	812.94
476.814	841.94
477.033	857.94
477.252	863.94
477.471	867.94
477.69	873.94
477.908	914.94
478.127	976.94
478.346	960.94
478.564	987.94
478.783	996.94
479.002	995.94
479.22	977.94
479.439	993.94
479.658	1000.94
479.876	989.94
480.095	1019.94
480.313	1082.94
480.532	1080.94
480.751	1102.94
480.969	1037.94
481.188	994.94
481.406	976.94
481.624	944.94
481.843	930.94
482.061	917.94
482.28	929.94
482.498	913.94
482.717	894.94
482.935	900.94
483.153	899.94
483.372	911.94
483.59	919.94
483.808	909.94
484.027	892.94
484.245	932.94
484.463	946.94
484.681	935.94
484.9	948.94
485.118	954.94
485.336	946.94
485.554	998.94
485.772	952.94
485.99	972.94
486.209	994.94
486.427	995.94
486.645	978.94
486.863	999.94
487.081	995.94
487.299	974.94
487.517	961.94
487.735	960.94
487.953	973.94
488.171	974.94
488.389	963.94
488.607	959.94
488.825	924.94
489.043	955.94
489.261	942.94
489.479	963.94
489.696	925.94
489.914	943.94
490.132	981.94
490.35	948.94
490.568	984.94
490.786	950.94
491.003	960.94
491.221	975.94
491.439	975.94
491.657	953.94
491.874	990.94
492.092	944.94
492.31	976.94
492.527	995.94
492.745	990.94
492.963	978.94
493.18	987.94
493.398	1012.94
493.615	1030.94
493.833	997.94
494.05	1013.94
494.268	996.94
494.485	1023.94
494.703	1016.94
494.92	998.94
495.138	978.94
495.355	1003.94
495.573	989.94
495.79	1008.94
496.008	1044.94
496.225	1023.94
496.442	1047.94
496.66	1047.94
496.877	1051.94
497.094	1060.94
497.312	1108.94
497.529	1104.94
497.746	1161.94
497.963	1200.94
498.181	1230.94
498.398	1270.94
498.615	1347.94
498.832	1415.94
499.049	1548.94
499.267	1628.94
