Data from Ni(NO3)2@0.5M.TitratingCurve.Agarose3%dH2O.NegLispCup.LampEnergy10.LIBS07252019_HRD10591_18-00-12-564.txt Node
Date: Thu Jul 25 18:00:12 EDT 2019
User: cochatt
Spectrometer: HR+D1059
Trigger mode: 1
Integration Time (sec): 1.000000E-1
Scans to average: 1
Electric dark correction enabled: true
Nonlinearity correction enabled: false
Boxcar width: 0
XAxis mode: Wavelengths
Number of Pixels in Spectrum: 2048
>>>>>Begin Spectral Data<<<<<
223.165	-18.38
223.4	-18.38
223.635	-18.38
223.869	-16.38
224.104	-30.38
224.338	-13.38
224.573	-14.38
224.808	-3.38
225.042	-5.38
225.277	-5.38
225.511	-5.38
225.746	7.62
225.98	10.62
226.215	-5.38
226.449	13.62
226.683	25.62
226.918	24.62
227.152	35.62
227.387	30.62
227.621	35.62
227.856	26.62
228.09	44.62
228.324	56.62
228.559	46.62
228.793	72.62
229.027	138.62
229.262	148.62
229.496	140.62
229.73	151.62
229.964	164.62
230.199	199.62
230.433	190.62
230.667	191.62
230.901	203.62
231.136	154.62
231.37	166.62
231.604	166.62
231.838	194.62
232.072	200.62
232.306	194.62
232.541	179.62
232.775	178.62
233.009	170.62
233.243	182.62
233.477	178.62
233.711	181.62
233.945	176.62
234.179	182.62
234.413	183.62
234.647	186.62
234.881	170.62
235.115	183.62
235.349	174.62
235.583	186.62
235.817	174.62
236.051	176.62
236.285	188.62
236.519	173.62
236.753	186.62
236.987	170.62
237.221	178.62
237.455	182.62
237.689	183.62
237.922	204.62
238.156	174.62
238.39	186.62
238.624	193.62
238.858	208.62
239.091	201.62
239.325	204.62
239.559	215.62
239.793	236.62
240.027	222.62
240.26	211.62
240.494	220.62
240.728	208.62
240.961	221.62
241.195	214.62
241.429	241.62
241.662	226.62
241.896	251.62
242.13	255.62
242.363	240.62
242.597	244.62
242.83	227.62
243.064	229.62
243.298	214.62
243.531	251.62
243.765	242.62
243.998	251.62
244.232	252.62
244.465	252.62
244.699	252.62
244.932	259.62
245.166	246.62
245.399	238.62
245.633	256.62
245.866	254.62
246.099	267.62
246.333	259.62
246.566	272.62
246.8	269.62
247.033	264.62
247.266	269.62
247.5	266.62
247.733	259.62
247.966	278.62
248.2	252.62
248.433	304.62
248.666	281.62
248.899	299.62
249.133	294.62
249.366	286.62
249.599	281.62
249.832	294.62
250.066	308.62
250.299	290.62
250.532	304.62
250.765	318.62
250.998	303.62
251.231	331.62
251.465	333.62
251.698	346.62
251.931	324.62
252.164	309.62
252.397	309.62
252.63	330.62
252.863	324.62
253.096	316.62
253.329	335.62
253.562	326.62
253.795	340.62
254.028	337.62
254.261	331.62
254.494	338.62
254.727	361.62
254.96	337.62
255.193	361.62
255.426	344.62
255.659	349.62
255.892	352.62
256.124	346.62
256.357	359.62
256.59	380.62
256.823	369.62
257.056	364.62
257.289	376.62
257.521	386.62
257.754	374.62
257.987	372.62
258.22	366.62
258.452	356.62
258.685	378.62
258.918	390.62
259.151	392.62
259.383	375.62
259.616	377.62
259.849	393.62
260.081	409.62
260.314	414.62
260.547	413.62
260.779	402.62
261.012	397.62
261.244	423.62
261.477	419.62
261.71	402.62
261.942	405.62
262.175	423.62
262.407	412.62
262.64	410.62
262.872	409.62
263.105	419.62
263.337	412.62
263.57	425.62
263.802	414.62
264.035	432.62
264.267	428.62
264.499	426.62
264.732	437.62
264.964	448.62
265.197	441.62
265.429	444.62
265.661	437.62
265.894	442.62
266.126	443.62
266.358	457.62
266.591	452.62
266.823	444.62
267.055	442.62
267.287	476.62
267.52	460.62
267.752	468.62
267.984	475.62
268.216	455.62
268.448	471.62
268.681	483.62
268.913	485.62
269.145	479.62
269.377	466.62
269.609	481.62
269.841	496.62
270.073	496.62
270.306	474.62
270.538	488.62
270.77	478.62
271.002	506.62
271.234	486.62
271.466	485.62
271.698	478.62
271.93	497.62
272.162	491.62
272.394	489.62
272.626	518.62
272.858	514.62
273.09	496.62
273.322	499.62
273.553	516.62
273.785	519.62
274.017	515.62
274.249	515.62
274.481	518.62
274.713	517.62
274.945	525.62
275.176	521.62
275.408	524.62
275.64	547.62
275.872	522.62
276.104	541.62
276.335	530.62
276.567	548.62
276.799	539.62
277.031	549.62
277.262	531.62
277.494	544.62
277.726	566.62
277.957	562.62
278.189	545.62
278.421	569.62
278.652	555.62
278.884	564.62
279.115	576.62
279.347	592.62
279.579	551.62
279.81	574.62
280.042	564.62
280.273	579.62
280.505	593.62
280.736	578.62
280.968	583.62
281.199	585.62
281.431	596.62
281.662	588.62
281.894	580.62
282.125	599.62
282.356	607.62
282.588	585.62
282.819	583.62
283.051	606.62
283.282	576.62
283.513	601.62
283.745	606.62
283.976	604.62
284.207	616.62
284.439	595.62
284.67	627.62
284.901	621.62
285.132	615.62
285.364	606.62
285.595	636.62
285.826	612.62
286.057	635.62
286.288	617.62
286.52	633.62
286.751	626.62
286.982	642.62
287.213	645.62
287.444	643.62
287.675	611.62
287.906	630.62
288.138	649.62
288.369	674.62
288.6	640.62
288.831	639.62
289.062	636.62
289.293	648.62
289.524	665.62
289.755	673.62
289.986	644.62
290.217	658.62
290.448	642.62
290.679	676.62
290.91	645.62
291.141	640.62
291.371	656.62
291.602	656.62
291.833	676.62
292.064	668.62
292.295	643.62
292.526	667.62
292.757	645.62
292.987	638.62
293.218	658.62
293.449	682.62
293.68	676.62
293.91	666.62
294.141	658.62
294.372	649.62
294.603	700.62
294.833	661.62
295.064	670.62
295.295	708.62
295.525	676.62
295.756	667.62
295.987	660.62
296.217	677.62
296.448	677.62
296.679	687.62
296.909	692.62
297.14	690.62
297.37	701.62
297.601	702.62
297.831	705.62
298.062	694.62
298.292	689.62
298.523	730.62
298.753	716.62
298.984	708.62
299.214	709.62
299.445	733.62
299.675	716.62
299.905	735.62
300.136	736.62
300.366	736.62
300.597	740.62
300.827	740.62
301.057	753.62
301.288	757.62
301.518	748.62
301.748	730.62
301.979	770.62
302.209	745.62
302.439	743.62
302.669	745.62
302.9	759.62
303.13	741.62
303.36	765.62
303.59	738.62
303.82	778.62
304.051	774.62
304.281	792.62
304.511	755.62
304.741	776.62
304.971	765.62
305.201	782.62
305.431	804.62
305.661	770.62
305.891	777.62
306.121	775.62
306.352	773.62
306.582	764.62
306.812	739.62
307.042	762.62
307.272	780.62
307.502	736.62
307.731	774.62
307.961	762.62
308.191	759.62
308.421	756.62
308.651	780.62
308.881	740.62
309.111	770.62
309.341	756.62
309.571	786.62
309.8	786.62
310.03	793.62
310.26	816.62
310.49	840.62
310.72	794.62
310.949	778.62
311.179	784.62
311.409	783.62
311.639	766.62
311.868	802.62
312.098	798.62
312.328	778.62
312.557	787.62
312.787	798.62
313.017	786.62
313.246	793.62
313.476	816.62
313.706	849.62
313.935	831.62
314.165	824.62
314.394	802.62
314.624	842.62
314.853	823.62
315.083	829.62
315.312	847.62
315.542	840.62
315.771	825.62
316.001	806.62
316.23	836.62
316.46	816.62
316.689	832.62
316.919	811.62
317.148	832.62
317.377	849.62
317.607	847.62
317.836	839.62
318.065	815.62
318.295	850.62
318.524	853.62
318.753	811.62
318.983	861.62
319.212	855.62
319.441	854.62
319.67	841.62
319.9	872.62
320.129	835.62
320.358	849.62
320.587	872.62
320.816	866.62
321.046	856.62
321.275	871.62
321.504	887.62
321.733	843.62
321.962	853.62
322.191	864.62
322.42	894.62
322.649	882.62
322.878	863.62
323.108	855.62
323.337	869.62
323.566	923.62
323.795	938.62
324.024	890.62
324.253	889.62
324.482	857.62
324.71	912.62
324.939	929.62
325.168	911.62
325.397	886.62
325.626	901.62
325.855	904.62
326.084	907.62
326.313	927.62
326.542	914.62
326.77	965.62
326.999	912.62
327.228	918.62
327.457	933.62
327.686	923.62
327.914	921.62
328.143	939.62
328.372	942.62
328.6	938.62
328.829	942.62
329.058	928.62
329.287	938.62
329.515	956.62
329.744	940.62
329.972	949.62
330.201	967.62
330.43	936.62
330.658	953.62
330.887	944.62
331.115	983.62
331.344	985.62
331.572	992.62
331.801	1006.62
332.03	1027.62
332.258	1012.62
332.486	1019.62
332.715	1039.62
332.943	1082.62
333.172	1079.62
333.4	1113.62
333.629	1100.62
333.857	1110.62
334.085	1128.62
334.314	1139.62
334.542	1134.62
334.771	1148.62
334.999	1162.62
335.227	1157.62
335.455	1141.62
335.684	1124.62
335.912	1145.62
336.14	1104.62
336.369	1122.62
336.597	1111.62
336.825	1086.62
337.053	1119.62
337.281	1142.62
337.51	1092.62
337.738	1085.62
337.966	1065.62
338.194	1108.62
338.422	1074.62
338.65	1033.62
338.878	1068.62
339.106	1068.62
339.334	1073.62
339.562	1083.62
339.79	1052.62
340.018	1037.62
340.246	1006.62
340.474	999.62
340.702	994.62
340.93	1014.62
341.158	1019.62
341.386	1068.62
341.614	1092.62
341.842	1107.62
342.07	978.62
342.298	990.62
342.526	1029.62
342.754	1004.62
342.981	992.62
343.209	1014.62
343.437	1054.62
343.665	1082.62
343.893	1110.62
344.12	1129.62
344.348	1112.62
344.576	1092.62
344.804	1121.62
345.031	1062.62
345.259	1062.62
345.487	1058.62
345.714	1044.62
345.942	1047.62
346.17	1083.62
346.397	1034.62
346.625	1001.62
346.853	1007.62
347.08	975.62
347.308	1040.62
347.535	1002.62
347.763	986.62
347.99	983.62
348.218	988.62
348.445	978.62
348.673	976.62
348.9	962.62
349.128	976.62
349.355	1007.62
349.583	1009.62
349.81	968.62
350.037	946.62
350.265	952.62
350.492	918.62
350.72	955.62
350.947	951.62
351.174	972.62
351.402	992.62
351.629	992.62
351.856	1001.62
352.083	1001.62
352.311	992.62
352.538	1011.62
352.765	1031.62
352.992	954.62
353.22	958.62
353.447	925.62
353.674	939.62
353.901	957.62
354.128	950.62
354.355	916.62
354.583	932.62
354.81	919.62
355.037	916.62
355.264	952.62
355.491	934.62
355.718	967.62
355.945	934.62
356.172	954.62
356.399	950.62
356.626	982.62
356.853	974.62
357.08	969.62
357.307	930.62
357.534	942.62
357.761	950.62
357.988	951.62
358.215	944.62
358.441	931.62
358.668	948.62
358.895	949.62
359.122	959.62
359.349	945.62
359.576	967.62
359.802	971.62
360.029	936.62
360.256	974.62
360.483	962.62
360.709	928.62
360.936	979.62
361.163	967.62
361.39	985.62
361.616	966.62
361.843	976.62
362.07	1026.62
362.296	1004.62
362.523	970.62
362.749	976.62
362.976	959.62
363.203	944.62
363.429	963.62
363.656	944.62
363.882	939.62
364.109	962.62
364.335	959.62
364.562	946.62
364.788	964.62
365.015	943.62
365.241	959.62
365.468	958.62
365.694	954.62
365.92	966.62
366.147	937.62
366.373	946.62
366.599	985.62
366.826	945.62
367.052	964.62
367.278	960.62
367.505	978.62
367.731	963.62
367.957	956.62
368.184	972.62
368.41	972.62
368.636	959.62
368.862	975.62
369.089	995.62
369.315	1029.62
369.541	998.62
369.767	979.62
369.993	1010.62
370.219	991.62
370.445	1010.62
370.672	987.62
370.898	1008.62
371.124	1008.62
371.35	1015.62
371.576	1027.62
371.802	1014.62
372.028	1061.62
372.254	1027.62
372.48	1025.62
372.706	1066.62
372.932	1067.62
373.158	1039.62
373.384	1015.62
373.61	1022.62
373.835	1056.62
374.061	1028.62
374.287	1063.62
374.513	1073.62
374.739	1026.62
374.965	1089.62
375.191	1075.62
375.416	1086.62
375.642	1051.62
375.868	1058.62
376.094	1051.62
376.319	1053.62
376.545	1050.62
376.771	1018.62
376.997	989.62
377.222	1020.62
377.448	1027.62
377.674	1007.62
377.899	1011.62
378.125	1031.62
378.35	1030.62
378.576	988.62
378.802	1035.62
379.027	1001.62
379.253	1040.62
379.478	1003.62
379.704	1028.62
379.929	1044.62
380.155	1027.62
380.38	1017.62
380.606	1003.62
380.831	1031.62
381.057	1002.62
381.282	1010.62
381.507	996.62
381.733	1070.62
381.958	1036.62
382.184	1067.62
382.409	1049.62
382.634	1055.62
382.86	1074.62
383.085	1038.62
383.31	1070.62
383.535	1087.62
383.761	1107.62
383.986	1092.62
384.211	1100.62
384.436	1123.62
384.662	1112.62
384.887	1166.62
385.112	1113.62
385.337	1144.62
385.562	1150.62
385.787	1169.62
386.013	1166.62
386.238	1191.62
386.463	1142.62
386.688	1175.62
386.913	1150.62
387.138	1194.62
387.363	1159.62
387.588	1165.62
387.813	1156.62
388.038	1166.62
388.263	1204.62
388.488	1160.62
388.713	1164.62
388.938	1166.62
389.163	1190.62
389.387	1188.62
389.612	1175.62
389.837	1198.62
390.062	1194.62
390.287	1198.62
390.512	1168.62
390.736	1212.62
390.961	1225.62
391.186	1210.62
391.411	1243.62
391.636	1266.62
391.86	1273.62
392.085	1267.62
392.31	1275.62
392.534	1275.62
392.759	1233.62
392.984	1247.62
393.208	1222.62
393.433	1248.62
393.658	1227.62
393.882	1224.62
394.107	1235.62
394.331	1272.62
394.556	1218.62
394.78	1288.62
395.005	1258.62
395.229	1253.62
395.454	1254.62
395.678	1276.62
395.903	1273.62
396.127	1270.62
396.352	1233.62
396.576	1286.62
396.801	1253.62
397.025	1290.62
397.249	1304.62
397.474	1336.62
397.698	1356.62
397.922	1393.62
398.147	1310.62
398.371	1378.62
398.595	1393.62
398.82	1418.62
399.044	1522.62
399.268	1546.62
399.492	1657.62
399.717	1748.62
399.941	1762.62
400.165	1682.62
400.389	1655.62
400.613	1554.62
400.837	1547.62
401.062	1473.62
401.286	1471.62
401.51	1447.62
401.734	1454.62
401.958	1435.62
402.182	1441.62
402.406	1420.62
402.63	1421.62
402.854	1456.62
403.078	1448.62
403.302	1476.62
403.526	1464.62
403.75	1463.62
403.974	1507.62
404.198	1468.62
404.422	1516.62
404.645	1465.62
404.869	1459.62
405.093	1471.62
405.317	1502.62
405.541	1550.62
405.765	1523.62
405.988	1489.62
406.212	1528.62
406.436	1531.62
406.66	1576.62
406.883	1571.62
407.107	1636.62
407.331	1642.62
407.555	1694.62
407.778	1710.62
408.002	1685.62
408.226	1666.62
408.449	1663.62
408.673	1610.62
408.896	1615.62
409.12	1584.62
409.344	1608.62
409.567	1570.62
409.791	1541.62
410.014	1552.62
410.238	1530.62
410.461	1521.62
410.685	1518.62
410.908	1538.62
411.132	1486.62
411.355	1456.62
411.578	1508.62
411.802	1484.62
412.025	1478.62
412.249	1492.62
412.472	1490.62
412.695	1469.62
412.919	1488.62
413.142	1457.62
413.365	1455.62
413.589	1448.62
413.812	1471.62
414.035	1424.62
414.258	1416.62
414.482	1434.62
414.705	1414.62
414.928	1427.62
415.151	1428.62
415.374	1465.62
415.597	1415.62
415.821	1432.62
416.044	1382.62
416.267	1383.62
416.49	1402.62
416.713	1366.62
416.936	1383.62
417.159	1367.62
417.382	1357.62
417.605	1363.62
417.828	1371.62
418.051	1397.62
418.274	1390.62
418.497	1359.62
418.72	1395.62
418.943	1390.62
419.166	1449.62
419.389	1546.62
419.611	1515.62
419.834	1530.62
420.057	1421.62
420.28	1385.62
420.503	1376.62
420.726	1328.62
420.948	1362.62
421.171	1400.62
421.394	1346.62
421.617	1398.62
421.839	1400.62
422.062	1413.62
422.285	1334.62
422.507	1382.62
422.73	1393.62
422.953	1392.62
423.175	1368.62
423.398	1393.62
423.621	1383.62
423.843	1376.62
424.066	1395.62
424.288	1400.62
424.511	1380.62
424.733	1360.62
424.956	1355.62
425.178	1372.62
425.401	1355.62
425.623	1353.62
425.846	1342.62
426.068	1346.62
426.291	1320.62
426.513	1360.62
426.735	1320.62
426.958	1337.62
427.18	1282.62
427.402	1295.62
427.625	1311.62
427.847	1304.62
428.069	1284.62
428.292	1316.62
428.514	1267.62
428.736	1307.62
428.958	1301.62
429.181	1282.62
429.403	1280.62
429.625	1291.62
429.847	1272.62
430.069	1260.62
430.292	1262.62
430.514	1282.62
430.736	1267.62
430.958	1293.62
431.18	1292.62
431.402	1322.62
431.624	1294.62
431.846	1280.62
432.068	1298.62
432.29	1310.62
432.512	1282.62
432.734	1305.62
432.956	1327.62
433.178	1286.62
433.4	1315.62
433.622	1345.62
433.844	1328.62
434.066	1299.62
434.287	1319.62
434.509	1359.62
434.731	1345.62
434.953	1382.62
435.175	1392.62
435.397	1428.62
435.618	1354.62
435.84	1331.62
436.062	1273.62
436.284	1298.62
436.505	1314.62
436.727	1311.62
436.949	1260.62
437.17	1302.62
437.392	1282.62
437.614	1252.62
437.835	1225.62
438.057	1234.62
438.278	1234.62
438.5	1210.62
438.721	1227.62
438.943	1246.62
439.165	1248.62
439.386	1253.62
439.608	1249.62
439.829	1265.62
440.05	1239.62
440.272	1257.62
440.493	1267.62
440.715	1319.62
440.936	1296.62
441.158	1313.62
441.379	1336.62
441.6	1378.62
441.822	1368.62
442.043	1394.62
442.264	1387.62
442.486	1362.62
442.707	1337.62
442.928	1374.62
443.149	1378.62
443.371	1374.62
443.592	1434.62
443.813	1413.62
444.034	1391.62
444.255	1455.62
444.476	1436.62
444.698	1491.62
444.919	1493.62
445.14	1598.62
445.361	1510.62
445.582	1416.62
445.803	1358.62
446.024	1360.62
446.245	1334.62
446.466	1304.62
446.687	1250.62
446.908	1264.62
447.129	1278.62
447.35	1260.62
447.571	1231.62
447.792	1203.62
448.013	1191.62
448.234	1174.62
448.455	1143.62
448.675	1147.62
448.896	1186.62
449.117	1171.62
449.338	1170.62
449.559	1173.62
449.779	1120.62
450	1148.62
450.221	1156.62
450.442	1190.62
450.662	1181.62
450.883	1169.62
451.104	1209.62
451.324	1174.62
451.545	1145.62
451.766	1154.62
451.986	1128.62
452.207	1124.62
452.428	1119.62
452.648	1147.62
452.869	1130.62
453.089	1138.62
453.31	1170.62
453.53	1109.62
453.751	1125.62
453.971	1136.62
454.192	1148.62
454.412	1147.62
454.633	1127.62
454.853	1090.62
455.073	1102.62
455.294	1139.62
455.514	1133.62
455.734	1141.62
455.955	1132.62
456.175	1139.62
456.395	1123.62
456.616	1082.62
456.836	1096.62
457.056	1080.62
457.276	1107.62
457.497	1151.62
457.717	1140.62
457.937	1163.62
458.157	1145.62
458.377	1146.62
458.598	1159.62
458.818	1230.62
459.038	1215.62
459.258	1246.62
459.478	1295.62
459.698	1390.62
459.918	1375.62
460.138	1387.62
460.358	1402.62
460.578	1393.62
460.798	1459.62
461.018	1451.62
461.238	1408.62
461.458	1404.62
461.678	1384.62
461.898	1406.62
462.118	1406.62
462.338	1476.62
462.558	1545.62
462.777	1582.62
462.997	1663.62
463.217	1682.62
463.437	1720.62
463.657	1675.62
463.876	1620.62
464.096	1584.62
464.316	1588.62
464.536	1545.62
464.755	1516.62
464.975	1487.62
465.195	1439.62
465.414	1400.62
465.634	1341.62
465.854	1288.62
466.073	1322.62
466.293	1274.62
466.512	1252.62
466.732	1247.62
466.951	1236.62
467.171	1265.62
467.391	1264.62
467.61	1225.62
467.829	1246.62
468.049	1221.62
468.268	1204.62
468.488	1195.62
468.707	1214.62
468.927	1190.62
469.146	1195.62
469.365	1198.62
469.585	1214.62
469.804	1206.62
470.023	1225.62
470.243	1225.62
470.462	1229.62
470.681	1234.62
470.901	1235.62
471.12	1227.62
471.339	1243.62
471.558	1215.62
471.777	1223.62
471.997	1243.62
472.216	1217.62
472.435	1205.62
472.654	1211.62
472.873	1174.62
473.092	1160.62
473.311	1194.62
473.53	1202.62
473.749	1198.62
473.968	1204.62
474.187	1218.62
474.406	1207.62
474.625	1181.62
474.844	1206.62
475.063	1199.62
475.282	1211.62
475.501	1209.62
475.72	1233.62
475.939	1229.62
476.158	1273.62
476.377	1253.62
476.596	1264.62
476.814	1261.62
477.033	1284.62
477.252	1290.62
477.471	1332.62
477.69	1354.62
477.908	1399.62
478.127	1362.62
478.346	1375.62
478.564	1397.62
478.783	1446.62
479.002	1482.62
479.22	1455.62
479.439	1468.62
479.658	1496.62
479.876	1456.62
480.095	1473.62
480.313	1508.62
480.532	1501.62
480.751	1520.62
480.969	1488.62
481.188	1452.62
481.406	1470.62
481.624	1451.62
481.843	1411.62
482.061	1431.62
482.28	1432.62
482.498	1387.62
482.717	1410.62
482.935	1402.62
483.153	1440.62
483.372	1459.62
483.59	1483.62
483.808	1433.62
484.027	1435.62
484.245	1444.62
484.463	1463.62
484.681	1461.62
484.9	1465.62
485.118	1480.62
485.336	1480.62
485.554	1489.62
485.772	1485.62
485.99	1454.62
486.209	1487.62
486.427	1471.62
486.645	1486.62
486.863	1487.62
487.081	1473.62
487.299	1518.62
487.517	1480.62
487.735	1518.62
487.953	1483.62
488.171	1493.62
488.389	1499.62
488.607	1468.62
488.825	1470.62
489.043	1452.62
489.261	1462.62
489.479	1475.62
489.696	1468.62
489.914	1485.62
490.132	1456.62
490.35	1475.62
490.568	1441.62
490.786	1480.62
491.003	1466.62
491.221	1483.62
491.439	1492.62
491.657	1490.62
491.874	1497.62
492.092	1489.62
492.31	1503.62
492.527	1499.62
492.745	1498.62
492.963	1504.62
