Data from Ni(NO3)2Standard.Agarose3%.GreenCap.LampEnergy5.5.E.O_HRD10591_14-40-09-188.txt Node
Date: Mon Jul 22 14:40:09 EDT 2019
User: cochatt
Spectrometer: HR+D1059
Trigger mode: 1
Integration Time (sec): 1.000000E-1
Scans to average: 1
Electric dark correction enabled: true
Nonlinearity correction enabled: false
Boxcar width: 0
XAxis mode: Wavelengths
Number of Pixels in Spectrum: 2048
>>>>>Begin Spectral Data<<<<<
223.165	-26.19
223.4	-26.19
223.635	-26.19
223.869	-25.19
224.104	-12.19
224.338	-19.19
224.573	-7.19
224.808	-0.19
225.042	-13.19
225.277	-10.19
225.511	8.81
225.746	-2.19
225.98	7.81
226.215	-2.19
226.449	6.81
226.683	32.81
226.918	37.81
227.152	23.81
227.387	36.81
227.621	34.81
227.856	37.81
228.09	47.81
228.324	37.81
228.559	58.81
228.793	52.81
229.027	47.81
229.262	69.81
229.496	76.81
229.73	78.81
229.964	63.81
230.199	72.81
230.433	72.81
230.667	74.81
230.901	79.81
231.136	66.81
231.37	76.81
231.604	68.81
231.838	79.81
232.072	82.81
232.306	87.81
232.541	78.81
232.775	77.81
233.009	89.81
233.243	70.81
233.477	79.81
233.711	86.81
233.945	71.81
234.179	83.81
234.413	71.81
234.647	61.81
234.881	70.81
235.115	87.81
235.349	82.81
235.583	70.81
235.817	75.81
236.051	80.81
236.285	76.81
236.519	68.81
236.753	61.81
236.987	77.81
237.221	81.81
237.455	85.81
237.689	84.81
237.922	66.81
238.156	68.81
238.39	68.81
238.624	75.81
238.858	67.81
239.091	58.81
239.325	69.81
239.559	70.81
239.793	85.81
240.027	68.81
240.26	66.81
240.494	71.81
240.728	70.81
240.961	86.81
241.195	88.81
241.429	75.81
241.662	99.81
241.896	64.81
242.13	64.81
242.363	74.81
242.597	71.81
242.83	45.81
243.064	74.81
243.298	69.81
243.531	67.81
243.765	79.81
243.998	69.81
244.232	82.81
244.465	78.81
244.699	92.81
244.932	70.81
245.166	69.81
245.399	71.81
245.633	73.81
245.866	63.81
246.099	76.81
246.333	79.81
246.566	71.81
246.8	91.81
247.033	66.81
247.266	73.81
247.5	71.81
247.733	81.81
247.966	69.81
248.2	86.81
248.433	79.81
248.666	69.81
248.899	84.81
249.133	79.81
249.366	85.81
249.599	71.81
249.832	87.81
250.066	73.81
250.299	73.81
250.532	93.81
250.765	79.81
250.998	80.81
251.231	75.81
251.465	69.81
251.698	72.81
251.931	73.81
252.164	83.81
252.397	75.81
252.63	74.81
252.863	76.81
253.096	79.81
253.329	77.81
253.562	75.81
253.795	81.81
254.028	81.81
254.261	68.81
254.494	92.81
254.727	81.81
254.96	84.81
255.193	78.81
255.426	84.81
255.659	77.81
255.892	93.81
256.124	69.81
256.357	84.81
256.59	81.81
256.823	87.81
257.056	71.81
257.289	80.81
257.521	98.81
257.754	94.81
257.987	82.81
258.22	72.81
258.452	79.81
258.685	81.81
258.918	80.81
259.151	76.81
259.383	76.81
259.616	88.81
259.849	71.81
260.081	87.81
260.314	73.81
260.547	81.81
260.779	91.81
261.012	82.81
261.244	72.81
261.477	89.81
261.71	82.81
261.942	84.81
262.175	86.81
262.407	79.81
262.64	85.81
262.872	66.81
263.105	67.81
263.337	79.81
263.57	81.81
263.802	85.81
264.035	80.81
264.267	74.81
264.499	93.81
264.732	85.81
264.964	92.81
265.197	91.81
265.429	71.81
265.661	76.81
265.894	91.81
266.126	83.81
266.358	71.81
266.591	80.81
266.823	73.81
267.055	87.81
267.287	84.81
267.52	76.81
267.752	78.81
267.984	84.81
268.216	70.81
268.448	83.81
268.681	86.81
268.913	81.81
269.145	73.81
269.377	87.81
269.609	74.81
269.841	72.81
270.073	84.81
270.306	70.81
270.538	90.81
270.77	99.81
271.002	82.81
271.234	72.81
271.466	91.81
271.698	81.81
271.93	81.81
272.162	77.81
272.394	79.81
272.626	86.81
272.858	87.81
273.09	87.81
273.322	91.81
273.553	87.81
273.785	69.81
274.017	81.81
274.249	68.81
274.481	82.81
274.713	84.81
274.945	81.81
275.176	72.81
275.408	72.81
275.64	81.81
275.872	102.81
276.104	88.81
276.335	63.81
276.567	89.81
276.799	85.81
277.031	85.81
277.262	86.81
277.494	69.81
277.726	83.81
277.957	74.81
278.189	83.81
278.421	80.81
278.652	87.81
278.884	94.81
279.115	72.81
279.347	74.81
279.579	86.81
279.81	84.81
280.042	77.81
280.273	84.81
280.505	92.81
280.736	81.81
280.968	74.81
281.199	77.81
281.431	80.81
281.662	81.81
281.894	74.81
282.125	74.81
282.356	90.81
282.588	79.81
282.819	79.81
283.051	79.81
283.282	86.81
283.513	80.81
283.745	82.81
283.976	99.81
284.207	82.81
284.439	94.81
284.67	85.81
284.901	80.81
285.132	73.81
285.364	74.81
285.595	93.81
285.826	91.81
286.057	86.81
286.288	82.81
286.52	94.81
286.751	79.81
286.982	96.81
287.213	71.81
287.444	83.81
287.675	95.81
287.906	73.81
288.138	91.81
288.369	91.81
288.6	75.81
288.831	84.81
289.062	84.81
289.293	84.81
289.524	89.81
289.755	71.81
289.986	81.81
290.217	83.81
290.448	85.81
290.679	95.81
290.91	73.81
291.141	79.81
291.371	85.81
291.602	94.81
291.833	72.81
292.064	82.81
292.295	88.81
292.526	78.81
292.757	99.81
292.987	63.81
293.218	80.81
293.449	87.81
293.68	75.81
293.91	84.81
294.141	92.81
294.372	83.81
294.603	83.81
294.833	78.81
295.064	71.81
295.295	74.81
295.525	86.81
295.756	74.81
295.987	74.81
296.217	75.81
296.448	90.81
296.679	82.81
296.909	78.81
297.14	91.81
297.37	69.81
297.601	76.81
297.831	80.81
298.062	76.81
298.292	83.81
298.523	74.81
298.753	75.81
298.984	76.81
299.214	81.81
299.445	76.81
299.675	77.81
299.905	77.81
300.136	84.81
300.366	82.81
300.597	76.81
300.827	70.81
301.057	70.81
301.288	93.81
301.518	86.81
301.748	80.81
301.979	81.81
302.209	92.81
302.439	97.81
302.669	80.81
302.9	76.81
303.13	72.81
303.36	88.81
303.59	79.81
303.82	83.81
304.051	82.81
304.281	78.81
304.511	92.81
304.741	84.81
304.971	77.81
305.201	90.81
305.431	88.81
305.661	86.81
305.891	78.81
306.121	91.81
306.352	76.81
306.582	80.81
306.812	93.81
307.042	76.81
307.272	74.81
307.502	95.81
307.731	87.81
307.961	89.81
308.191	76.81
308.421	86.81
308.651	65.81
308.881	83.81
309.111	76.81
309.341	83.81
309.571	82.81
309.8	87.81
310.03	74.81
310.26	86.81
310.49	80.81
310.72	66.81
310.949	89.81
311.179	83.81
311.409	74.81
311.639	96.81
311.868	101.81
312.098	86.81
312.328	85.81
312.557	71.81
312.787	68.81
313.017	85.81
313.246	84.81
313.476	74.81
313.706	80.81
313.935	87.81
314.165	76.81
314.394	65.81
314.624	77.81
314.853	68.81
315.083	88.81
315.312	94.81
315.542	85.81
315.771	94.81
316.001	91.81
316.23	96.81
316.46	85.81
316.689	88.81
316.919	85.81
317.148	69.81
317.377	74.81
317.607	81.81
317.836	101.81
318.065	88.81
318.295	79.81
318.524	74.81
318.753	82.81
318.983	88.81
319.212	93.81
319.441	79.81
319.67	78.81
319.9	81.81
320.129	90.81
320.358	82.81
320.587	87.81
320.816	80.81
321.046	91.81
321.275	84.81
321.504	73.81
321.733	70.81
321.962	85.81
322.191	89.81
322.42	76.81
322.649	76.81
322.878	76.81
323.108	78.81
323.337	104.81
323.566	73.81
323.795	85.81
324.024	80.81
324.253	87.81
324.482	85.81
324.71	89.81
324.939	96.81
325.168	89.81
325.397	79.81
325.626	90.81
325.855	95.81
326.084	83.81
326.313	96.81
326.542	79.81
326.77	75.81
326.999	81.81
327.228	93.81
327.457	84.81
327.686	86.81
327.914	84.81
328.143	64.81
328.372	87.81
328.6	83.81
328.829	73.81
329.058	81.81
329.287	76.81
329.515	92.81
329.744	81.81
329.972	79.81
330.201	97.81
330.43	77.81
330.658	99.81
330.887	87.81
331.115	87.81
331.344	71.81
331.572	94.81
331.801	77.81
332.03	70.81
332.258	69.81
332.486	89.81
332.715	86.81
332.943	79.81
333.172	77.81
333.4	80.81
333.629	96.81
333.857	95.81
334.085	85.81
334.314	95.81
334.542	85.81
334.771	86.81
334.999	92.81
335.227	68.81
335.455	83.81
335.684	82.81
335.912	98.81
336.14	87.81
336.369	75.81
336.597	84.81
336.825	77.81
337.053	85.81
337.281	84.81
337.51	86.81
337.738	68.81
337.966	80.81
338.194	73.81
338.422	78.81
338.65	78.81
338.878	92.81
339.106	80.81
339.334	76.81
339.562	57.81
339.79	80.81
340.018	85.81
340.246	72.81
340.474	83.81
340.702	83.81
340.93	88.81
341.158	84.81
341.386	81.81
341.614	74.81
341.842	86.81
342.07	90.81
342.298	87.81
342.526	86.81
342.754	81.81
342.981	85.81
343.209	66.81
343.437	77.81
343.665	88.81
343.893	86.81
344.12	98.81
344.348	95.81
344.576	83.81
344.804	78.81
345.031	82.81
345.259	89.81
345.487	84.81
345.714	73.81
345.942	83.81
346.17	93.81
346.397	84.81
346.625	87.81
346.853	77.81
347.08	82.81
347.308	64.81
347.535	78.81
347.763	76.81
347.99	79.81
348.218	92.81
348.445	85.81
348.673	71.81
348.9	84.81
349.128	74.81
349.355	93.81
349.583	83.81
349.81	71.81
350.037	78.81
350.265	90.81
350.492	94.81
350.72	82.81
350.947	93.81
351.174	79.81
351.402	86.81
351.629	89.81
351.856	87.81
352.083	90.81
352.311	96.81
352.538	80.81
352.765	75.81
352.992	80.81
353.22	77.81
353.447	73.81
353.674	84.81
353.901	68.81
354.128	83.81
354.355	77.81
354.583	75.81
354.81	72.81
355.037	67.81
355.264	96.81
355.491	79.81
355.718	76.81
355.945	84.81
356.172	85.81
356.399	86.81
356.626	73.81
356.853	76.81
357.08	83.81
357.307	84.81
357.534	80.81
357.761	78.81
357.988	81.81
358.215	81.81
358.441	87.81
358.668	98.81
358.895	86.81
359.122	78.81
359.349	81.81
359.576	81.81
359.802	78.81
360.029	75.81
360.256	83.81
360.483	70.81
360.709	90.81
360.936	93.81
361.163	93.81
361.39	75.81
361.616	70.81
361.843	82.81
362.07	78.81
362.296	83.81
362.523	84.81
362.749	73.81
362.976	82.81
363.203	95.81
363.429	81.81
363.656	85.81
363.882	71.81
364.109	88.81
364.335	73.81
364.562	80.81
364.788	81.81
365.015	78.81
365.241	80.81
365.468	89.81
365.694	67.81
365.92	79.81
366.147	68.81
366.373	76.81
366.599	72.81
366.826	85.81
367.052	80.81
367.278	74.81
367.505	90.81
367.731	97.81
367.957	82.81
368.184	92.81
368.41	76.81
368.636	82.81
368.862	94.81
369.089	71.81
369.315	76.81
369.541	88.81
369.767	78.81
369.993	74.81
370.219	77.81
370.445	76.81
370.672	66.81
370.898	87.81
371.124	93.81
371.35	79.81
371.576	83.81
371.802	93.81
372.028	81.81
372.254	93.81
372.48	93.81
372.706	93.81
372.932	88.81
373.158	78.81
373.384	78.81
373.61	77.81
373.835	70.81
374.061	87.81
374.287	74.81
374.513	95.81
374.739	78.81
374.965	90.81
375.191	84.81
375.416	88.81
375.642	72.81
375.868	87.81
376.094	91.81
376.319	77.81
376.545	78.81
376.771	84.81
376.997	84.81
377.222	72.81
377.448	77.81
377.674	96.81
377.899	80.81
378.125	87.81
378.35	92.81
378.576	80.81
378.802	66.81
379.027	87.81
379.253	82.81
379.478	83.81
379.704	78.81
379.929	87.81
380.155	82.81
380.38	93.81
380.606	84.81
380.831	80.81
381.057	89.81
381.282	82.81
381.507	78.81
381.733	81.81
381.958	80.81
382.184	75.81
382.409	79.81
382.634	74.81
382.86	68.81
383.085	75.81
383.31	73.81
383.535	79.81
383.761	86.81
383.986	86.81
384.211	81.81
384.436	74.81
384.662	87.81
384.887	81.81
385.112	88.81
385.337	84.81
385.562	77.81
385.787	77.81
386.013	96.81
386.238	75.81
386.463	71.81
386.688	81.81
386.913	82.81
387.138	89.81
387.363	89.81
387.588	89.81
387.813	70.81
388.038	70.81
388.263	77.81
388.488	71.81
388.713	79.81
388.938	91.81
389.163	84.81
389.387	92.81
389.612	68.81
389.837	79.81
390.062	83.81
390.287	71.81
390.512	79.81
390.736	88.81
390.961	81.81
391.186	83.81
391.411	83.81
391.636	86.81
391.86	84.81
392.085	89.81
392.31	77.81
392.534	80.81
392.759	87.81
392.984	92.81
393.208	79.81
393.433	78.81
393.658	91.81
393.882	87.81
394.107	82.81
394.331	92.81
394.556	86.81
394.78	82.81
395.005	74.81
395.229	78.81
395.454	84.81
395.678	71.81
395.903	88.81
396.127	72.81
396.352	83.81
396.576	82.81
396.801	89.81
397.025	65.81
397.249	67.81
397.474	72.81
397.698	83.81
397.922	73.81
398.147	70.81
398.371	80.81
398.595	84.81
398.82	92.81
399.044	78.81
399.268	81.81
399.492	82.81
399.717	80.81
399.941	96.81
400.165	85.81
400.389	71.81
400.613	75.81
400.837	79.81
401.062	90.81
401.286	80.81
401.51	82.81
401.734	73.81
401.958	78.81
402.182	76.81
402.406	102.81
402.63	79.81
402.854	86.81
403.078	91.81
403.302	77.81
403.526	79.81
403.75	96.81
403.974	85.81
404.198	88.81
404.422	84.81
404.645	74.81
404.869	86.81
405.093	81.81
405.317	84.81
405.541	90.81
405.765	87.81
405.988	74.81
406.212	84.81
406.436	76.81
406.66	88.81
406.883	84.81
407.107	82.81
407.331	67.81
407.555	75.81
407.778	85.81
408.002	84.81
408.226	90.81
408.449	82.81
408.673	76.81
408.896	84.81
409.12	95.81
409.344	91.81
409.567	85.81
409.791	81.81
410.014	82.81
410.238	81.81
410.461	74.81
410.685	85.81
410.908	65.81
411.132	97.81
411.355	85.81
411.578	72.81
411.802	77.81
412.025	80.81
412.249	73.81
412.472	98.81
412.695	78.81
412.919	90.81
413.142	87.81
413.365	82.81
413.589	80.81
413.812	74.81
414.035	86.81
414.258	81.81
414.482	95.81
414.705	89.81
414.928	100.81
415.151	106.81
415.374	85.81
415.597	89.81
415.821	89.81
416.044	82.81
416.267	94.81
416.49	83.81
416.713	76.81
416.936	88.81
417.159	78.81
417.382	76.81
417.605	96.81
417.828	93.81
418.051	88.81
418.274	93.81
418.497	94.81
418.72	88.81
418.943	70.81
419.166	80.81
419.389	83.81
419.611	78.81
419.834	87.81
420.057	76.81
420.28	71.81
420.503	91.81
420.726	78.81
420.948	86.81
421.171	86.81
421.394	70.81
421.617	90.81
421.839	86.81
422.062	84.81
422.285	82.81
422.507	87.81
422.73	84.81
422.953	70.81
423.175	87.81
423.398	80.81
423.621	90.81
423.843	103.81
424.066	84.81
424.288	72.81
424.511	86.81
424.733	75.81
424.956	79.81
425.178	83.81
425.401	86.81
425.623	85.81
425.846	88.81
426.068	82.81
426.291	77.81
426.513	85.81
426.735	83.81
426.958	85.81
427.18	85.81
427.402	88.81
427.625	94.81
427.847	76.81
428.069	83.81
428.292	92.81
428.514	94.81
428.736	82.81
428.958	65.81
429.181	97.81
429.403	93.81
429.625	75.81
429.847	81.81
430.069	86.81
430.292	97.81
430.514	88.81
430.736	90.81
430.958	78.81
431.18	104.81
431.402	90.81
431.624	82.81
431.846	81.81
432.068	72.81
432.29	92.81
432.512	92.81
432.734	86.81
432.956	90.81
433.178	98.81
433.4	87.81
433.622	77.81
433.844	101.81
434.066	88.81
434.287	77.81
434.509	86.81
434.731	89.81
434.953	89.81
435.175	78.81
435.397	92.81
435.618	72.81
435.84	67.81
436.062	85.81
436.284	82.81
436.505	84.81
436.727	84.81
436.949	88.81
437.17	85.81
437.392	79.81
437.614	80.81
437.835	75.81
438.057	87.81
438.278	85.81
438.5	91.81
438.721	96.81
438.943	81.81
439.165	89.81
439.386	75.81
439.608	92.81
439.829	77.81
440.05	81.81
440.272	88.81
440.493	86.81
440.715	74.81
440.936	78.81
441.158	72.81
441.379	81.81
441.6	79.81
441.822	76.81
442.043	69.81
442.264	80.81
442.486	88.81
442.707	71.81
442.928	80.81
443.149	81.81
443.371	82.81
443.592	80.81
443.813	83.81
444.034	96.81
444.255	85.81
444.476	80.81
444.698	86.81
444.919	83.81
445.14	226.81
445.361	144.81
445.582	81.81
445.803	92.81
446.024	87.81
446.245	96.81
446.466	73.81
446.687	80.81
446.908	83.81
447.129	87.81
447.35	80.81
447.571	78.81
447.792	94.81
448.013	79.81
448.234	84.81
448.455	75.81
448.675	72.81
448.896	72.81
449.117	88.81
449.338	87.81
449.559	90.81
449.779	91.81
450	90.81
450.221	73.81
450.442	72.81
450.662	87.81
450.883	95.81
451.104	80.81
451.324	74.81
451.545	84.81
451.766	86.81
451.986	85.81
452.207	91.81
452.428	88.81
452.648	78.81
452.869	85.81
453.089	85.81
453.31	85.81
453.53	85.81
453.751	91.81
453.971	86.81
454.192	85.81
454.412	87.81
454.633	81.81
454.853	83.81
455.073	88.81
455.294	83.81
455.514	94.81
455.734	75.81
455.955	85.81
456.175	83.81
456.395	97.81
456.616	74.81
456.836	84.81
457.056	88.81
457.276	86.81
457.497	93.81
457.717	71.81
457.937	83.81
458.157	93.81
458.377	75.81
458.598	91.81
458.818	84.81
459.038	77.81
459.258	88.81
459.478	84.81
459.698	96.81
459.918	90.81
460.138	86.81
460.358	87.81
460.578	89.81
460.798	97.81
461.018	83.81
461.238	77.81
461.458	84.81
461.678	82.81
461.898	89.81
462.118	78.81
462.338	80.81
462.558	90.81
462.777	78.81
462.997	73.81
463.217	82.81
463.437	94.81
463.657	84.81
463.876	82.81
464.096	93.81
464.316	83.81
464.536	81.81
464.755	97.81
464.975	75.81
465.195	88.81
465.414	89.81
465.634	85.81
465.854	82.81
466.073	96.81
466.293	73.81
466.512	83.81
466.732	99.81
466.951	88.81
467.171	85.81
467.391	87.81
467.61	89.81
467.829	79.81
468.049	89.81
468.268	81.81
468.488	93.81
468.707	84.81
468.927	74.81
469.146	64.81
469.365	87.81
469.585	78.81
469.804	76.81
470.023	94.81
470.243	82.81
470.462	79.81
470.681	92.81
470.901	84.81
471.12	102.81
471.339	87.81
471.558	77.81
471.777	80.81
471.997	82.81
472.216	101.81
472.435	79.81
472.654	79.81
472.873	93.81
473.092	92.81
473.311	74.81
473.53	80.81
473.749	92.81
473.968	94.81
474.187	85.81
474.406	85.81
474.625	78.81
474.844	81.81
475.063	98.81
475.282	88.81
475.501	89.81
475.72	87.81
475.939	68.81
476.158	89.81
476.377	92.81
476.596	86.81
476.814	88.81
477.033	89.81
477.252	79.81
477.471	95.81
477.69	82.81
477.908	97.81
478.127	86.81
478.346	84.81
478.564	81.81
478.783	97.81
479.002	97.81
479.22	75.81
479.439	84.81
479.658	89.81
479.876	80.81
480.095	89.81
480.313	92.81
480.532	86.81
480.751	105.81
480.969	102.81
481.188	92.81
481.406	95.81
481.624	95.81
481.843	86.81
482.061	88.81
482.28	84.81
482.498	94.81
482.717	91.81
482.935	92.81
483.153	93.81
483.372	92.81
483.59	78.81
483.808	96.81
484.027	87.81
484.245	95.81
484.463	90.81
484.681	94.81
484.9	96.81
485.118	100.81
485.336	86.81
485.554	92.81
485.772	88.81
485.99	95.81
486.209	94.81
486.427	87.81
486.645	90.81
486.863	92.81
487.081	101.81
487.299	90.81
487.517	105.81
487.735	86.81
487.953	91.81
488.171	84.81
488.389	92.81
488.607	87.81
488.825	80.81
489.043	96.81
489.261	88.81
489.479	104.81
489.696	97.81
489.914	93.81
490.132	96.81
490.35	102.81
490.568	90.81
490.786	92.81
491.003	95.81
491.221	94.81
491.439	80.81
491.657	90.81
491.874	101.81
492.092	103.81
492.31	88.81
492.527	100.81
492.745	95.81
492.963	94.81
493.18	92.81
493.398	93.81
493.615	104.81
493.833	98.81
494.05	109.81
494.268	95.81
494.485	86.81
494.703	94.81
494.92	106.81
495.138	102.81
495.355	87.81
495.573	87.81
495.79	81.81
496.008	96.81
496.225	90.81
496.442	94.81
496.66	100.81
496.877	94.81
497.094	87.81
497.312	90.81
497.529	96.81
497.746	87.81
497.963	90.81
498.181	99.81
498.398	95.81
498.615	89.81
498.832	88.81
499.049	98.81
499.267	101.81
499.484	92.81
499.701	91.81
499.918	105.81
500.135	106.81
500.352	108.81
500.569	110.81
500.786	102.81
501.003	115.81
501.22	95.81
501.437	103.81
501.654	98.81
501.871	96.81
502.088	91.81
502.305	97.81
502.522	100.81
502.739	102.81
502.956	92.81
503.172	88.81
503.389	103.81
503.606	79.81
503.823	97.81
504.04	89.81
504.256	100.81
504.473	90.81
504.69	90.81
504.907	108.81
505.123	97.81
505.34	95.81
505.557	93.81
505.773	94.81
505.99	105.81
506.207	94.81
506.423	86.81
506.64	91.81
506.856	109.81
507.073	97.81
507.289	88.81
507.506	89.81
507.722	81.81
507.939	105.81
508.155	89.81
508.372	77.81
508.588	102.81
508.805	99.81
509.021	88.81
509.238	91.81
509.454	94.81
509.67	94.81
509.887	101.81
510.103	82.81
510.319	82.81
510.536	94.81
510.752	85.81
510.968	70.81
511.184	92.81
511.401	90.81
511.617	96.81
511.833	80.81
512.049	91.81
512.265	92.81
512.481	95.81
512.698	87.81
512.914	81.81
513.13	89.81
513.346	89.81
513.562	79.81
513.778	105.81
513.994	89.81
514.21	79.81
514.426	90.81
514.642	95.81
514.858	80.81
515.074	94.81
515.29	106.81
515.506	86.81
515.721	88.81
515.937	94.81
516.153	91.81
516.369	78.81
516.585	84.81
516.801	97.81
517.016	104.81
517.232	93.81
517.448	98.81
517.664	88.81
517.879	95.81
518.095	95.81
518.311	93.81
518.527	94.81
518.742	94.81
