Data from Ni(NO3)2@0.0625M.TitratingCurve.Agarose3%dH2O.NegLispCup.LampEnergy10.LIBS07252019_HRD10591_18-14-28-570.txt Node
Date: Thu Jul 25 18:14:28 EDT 2019
User: cochatt
Spectrometer: HR+D1059
Trigger mode: 1
Integration Time (sec): 1.000000E-1
Scans to average: 1
Electric dark correction enabled: true
Nonlinearity correction enabled: false
Boxcar width: 0
XAxis mode: Wavelengths
Number of Pixels in Spectrum: 2048
>>>>>Begin Spectral Data<<<<<
223.165	-9.81
223.4	-9.81
223.635	-9.81
223.869	-20.81
224.104	-27.81
224.338	-14.81
224.573	-8.81
224.808	-14.81
225.042	11.19
225.277	-12.81
225.511	-9.81
225.746	-0.81
225.98	11.19
226.215	19.19
226.449	2.19
226.683	16.19
226.918	32.19
227.152	28.19
227.387	39.19
227.621	36.19
227.856	38.19
228.09	46.19
228.324	42.19
228.559	45.19
228.793	75.19
229.027	104.19
229.262	104.19
229.496	128.19
229.73	97.19
229.964	124.19
230.199	126.19
230.433	128.19
230.667	132.19
230.901	129.19
231.136	128.19
231.37	132.19
231.604	141.19
231.838	136.19
232.072	144.19
232.306	142.19
232.541	146.19
232.775	139.19
233.009	138.19
233.243	146.19
233.477	141.19
233.711	142.19
233.945	161.19
234.179	142.19
234.413	141.19
234.647	152.19
234.881	152.19
235.115	148.19
235.349	150.19
235.583	156.19
235.817	157.19
236.051	146.19
236.285	158.19
236.519	155.19
236.753	157.19
236.987	161.19
237.221	158.19
237.455	158.19
237.689	143.19
237.922	149.19
238.156	154.19
238.39	152.19
238.624	160.19
238.858	146.19
239.091	160.19
239.325	157.19
239.559	142.19
239.793	160.19
240.027	177.19
240.26	158.19
240.494	188.19
240.728	173.19
240.961	178.19
241.195	200.19
241.429	184.19
241.662	190.19
241.896	177.19
242.13	193.19
242.363	180.19
242.597	174.19
242.83	190.19
243.064	184.19
243.298	200.19
243.531	196.19
243.765	201.19
243.998	197.19
244.232	198.19
244.465	199.19
244.699	216.19
244.932	198.19
245.166	197.19
245.399	201.19
245.633	214.19
245.866	203.19
246.099	217.19
246.333	206.19
246.566	212.19
246.8	221.19
247.033	213.19
247.266	215.19
247.5	214.19
247.733	226.19
247.966	225.19
248.2	232.19
248.433	220.19
248.666	213.19
248.899	232.19
249.133	231.19
249.366	222.19
249.599	240.19
249.832	227.19
250.066	224.19
250.299	228.19
250.532	244.19
250.765	233.19
250.998	237.19
251.231	250.19
251.465	237.19
251.698	228.19
251.931	243.19
252.164	268.19
252.397	260.19
252.63	251.19
252.863	256.19
253.096	266.19
253.329	246.19
253.562	271.19
253.795	276.19
254.028	248.19
254.261	240.19
254.494	274.19
254.727	260.19
254.96	261.19
255.193	257.19
255.426	283.19
255.659	262.19
255.892	283.19
256.124	284.19
256.357	268.19
256.59	261.19
256.823	280.19
257.056	288.19
257.289	290.19
257.521	293.19
257.754	274.19
257.987	270.19
258.22	280.19
258.452	274.19
258.685	292.19
258.918	299.19
259.151	301.19
259.383	282.19
259.616	288.19
259.849	292.19
260.081	298.19
260.314	305.19
260.547	298.19
260.779	294.19
261.012	310.19
261.244	297.19
261.477	303.19
261.71	304.19
261.942	321.19
262.175	299.19
262.407	310.19
262.64	312.19
262.872	314.19
263.105	332.19
263.337	316.19
263.57	315.19
263.802	321.19
264.035	320.19
264.267	322.19
264.499	325.19
264.732	314.19
264.964	313.19
265.197	323.19
265.429	331.19
265.661	344.19
265.894	328.19
266.126	319.19
266.358	339.19
266.591	331.19
266.823	332.19
267.055	335.19
267.287	349.19
267.52	344.19
267.752	342.19
267.984	350.19
268.216	339.19
268.448	352.19
268.681	355.19
268.913	344.19
269.145	346.19
269.377	365.19
269.609	342.19
269.841	350.19
270.073	358.19
270.306	369.19
270.538	360.19
270.77	348.19
271.002	354.19
271.234	376.19
271.466	340.19
271.698	372.19
271.93	351.19
272.162	351.19
272.394	358.19
272.626	370.19
272.858	372.19
273.09	377.19
273.322	370.19
273.553	352.19
273.785	380.19
274.017	379.19
274.249	388.19
274.481	378.19
274.713	378.19
274.945	383.19
275.176	405.19
275.408	392.19
275.64	414.19
275.872	394.19
276.104	387.19
276.335	385.19
276.567	375.19
276.799	394.19
277.031	396.19
277.262	402.19
277.494	390.19
277.726	411.19
277.957	396.19
278.189	398.19
278.421	381.19
278.652	410.19
278.884	416.19
279.115	407.19
279.347	426.19
279.579	410.19
279.81	422.19
280.042	421.19
280.273	417.19
280.505	403.19
280.736	442.19
280.968	430.19
281.199	425.19
281.431	442.19
281.662	428.19
281.894	430.19
282.125	432.19
282.356	435.19
282.588	428.19
282.819	420.19
283.051	437.19
283.282	425.19
283.513	441.19
283.745	448.19
283.976	456.19
284.207	462.19
284.439	466.19
284.67	468.19
284.901	458.19
285.132	465.19
285.364	452.19
285.595	466.19
285.826	475.19
286.057	482.19
286.288	456.19
286.52	467.19
286.751	458.19
286.982	475.19
287.213	465.19
287.444	461.19
287.675	476.19
287.906	486.19
288.138	473.19
288.369	467.19
288.6	466.19
288.831	498.19
289.062	454.19
289.293	485.19
289.524	482.19
289.755	459.19
289.986	480.19
290.217	488.19
290.448	491.19
290.679	508.19
290.91	486.19
291.141	510.19
291.371	496.19
291.602	492.19
291.833	472.19
292.064	483.19
292.295	505.19
292.526	504.19
292.757	490.19
292.987	471.19
293.218	493.19
293.449	500.19
293.68	492.19
293.91	508.19
294.141	500.19
294.372	493.19
294.603	526.19
294.833	498.19
295.064	493.19
295.295	527.19
295.525	510.19
295.756	488.19
295.987	514.19
296.217	509.19
296.448	518.19
296.679	514.19
296.909	499.19
297.14	527.19
297.37	534.19
297.601	532.19
297.831	558.19
298.062	528.19
298.292	532.19
298.523	549.19
298.753	553.19
298.984	542.19
299.214	541.19
299.445	535.19
299.675	534.19
299.905	531.19
300.136	525.19
300.366	546.19
300.597	542.19
300.827	564.19
301.057	553.19
301.288	570.19
301.518	556.19
301.748	588.19
301.979	579.19
302.209	559.19
302.439	556.19
302.669	564.19
302.9	584.19
303.13	554.19
303.36	550.19
303.59	551.19
303.82	553.19
304.051	570.19
304.281	562.19
304.511	566.19
304.741	560.19
304.971	557.19
305.201	545.19
305.431	576.19
305.661	546.19
305.891	532.19
306.121	538.19
306.352	553.19
306.582	561.19
306.812	544.19
307.042	558.19
307.272	548.19
307.502	576.19
307.731	547.19
307.961	540.19
308.191	526.19
308.421	541.19
308.651	561.19
308.881	514.19
309.111	536.19
309.341	532.19
309.571	535.19
309.8	540.19
310.03	567.19
310.26	544.19
310.49	520.19
310.72	539.19
310.949	574.19
311.179	573.19
311.409	543.19
311.639	572.19
311.868	540.19
312.098	574.19
312.328	566.19
312.557	571.19
312.787	582.19
313.017	585.19
313.246	599.19
313.476	558.19
313.706	576.19
313.935	593.19
314.165	575.19
314.394	580.19
314.624	574.19
314.853	576.19
315.083	579.19
315.312	562.19
315.542	576.19
315.771	583.19
316.001	599.19
316.23	564.19
316.46	574.19
316.689	565.19
316.919	571.19
317.148	585.19
317.377	573.19
317.607	578.19
317.836	553.19
318.065	580.19
318.295	566.19
318.524	583.19
318.753	560.19
318.983	589.19
319.212	569.19
319.441	562.19
319.67	573.19
319.9	573.19
320.129	557.19
320.358	562.19
320.587	552.19
320.816	568.19
321.046	580.19
321.275	568.19
321.504	583.19
321.733	583.19
321.962	577.19
322.191	577.19
322.42	604.19
322.649	565.19
322.878	595.19
323.108	590.19
323.337	601.19
323.566	607.19
323.795	579.19
324.024	585.19
324.253	582.19
324.482	602.19
324.71	576.19
324.939	586.19
325.168	609.19
325.397	623.19
325.626	604.19
325.855	610.19
326.084	614.19
326.313	642.19
326.542	631.19
326.77	643.19
326.999	615.19
327.228	624.19
327.457	628.19
327.686	637.19
327.914	644.19
328.143	632.19
328.372	628.19
328.6	644.19
328.829	632.19
329.058	619.19
329.287	607.19
329.515	666.19
329.744	637.19
329.972	651.19
330.201	636.19
330.43	644.19
330.658	634.19
330.887	648.19
331.115	639.19
331.344	661.19
331.572	661.19
331.801	682.19
332.03	685.19
332.258	722.19
332.486	740.19
332.715	741.19
332.943	776.19
333.172	806.19
333.4	877.19
333.629	876.19
333.857	890.19
334.085	875.19
334.314	846.19
334.542	822.19
334.771	800.19
334.999	781.19
335.227	795.19
335.455	794.19
335.684	794.19
335.912	789.19
336.14	776.19
336.369	752.19
336.597	763.19
336.825	753.19
337.053	749.19
337.281	738.19
337.51	706.19
337.738	702.19
337.966	730.19
338.194	706.19
338.422	680.19
338.65	694.19
338.878	695.19
339.106	702.19
339.334	692.19
339.562	684.19
339.79	678.19
340.018	648.19
340.246	648.19
340.474	659.19
340.702	644.19
340.93	646.19
341.158	647.19
341.386	658.19
341.614	676.19
341.842	669.19
342.07	635.19
342.298	634.19
342.526	655.19
342.754	662.19
342.981	662.19
343.209	679.19
343.437	708.19
343.665	750.19
343.893	834.19
344.12	846.19
344.348	802.19
344.576	732.19
344.804	710.19
345.031	692.19
345.259	677.19
345.487	672.19
345.714	672.19
345.942	653.19
346.17	656.19
346.397	642.19
346.625	649.19
346.853	643.19
347.08	631.19
347.308	631.19
347.535	635.19
347.763	646.19
347.99	651.19
348.218	651.19
348.445	661.19
348.673	653.19
348.9	637.19
349.128	626.19
349.355	638.19
349.583	650.19
349.81	621.19
350.037	636.19
350.265	618.19
350.492	624.19
350.72	620.19
350.947	615.19
351.174	602.19
351.402	616.19
351.629	610.19
351.856	597.19
352.083	608.19
352.311	606.19
352.538	608.19
352.765	600.19
352.992	622.19
353.22	609.19
353.447	600.19
353.674	609.19
353.901	631.19
354.128	633.19
354.355	620.19
354.583	610.19
354.81	603.19
355.037	617.19
355.264	626.19
355.491	622.19
355.718	608.19
355.945	606.19
356.172	620.19
356.399	609.19
356.626	626.19
356.853	629.19
357.08	623.19
357.307	644.19
357.534	627.19
357.761	632.19
357.988	633.19
358.215	605.19
358.441	629.19
358.668	604.19
358.895	617.19
359.122	616.19
359.349	602.19
359.576	609.19
359.802	614.19
360.029	613.19
360.256	632.19
360.483	598.19
360.709	615.19
360.936	611.19
361.163	606.19
361.39	630.19
361.616	633.19
361.843	614.19
362.07	594.19
362.296	622.19
362.523	604.19
362.749	605.19
362.976	600.19
363.203	624.19
363.429	586.19
363.656	632.19
363.882	619.19
364.109	626.19
364.335	612.19
364.562	624.19
364.788	608.19
365.015	624.19
365.241	616.19
365.468	611.19
365.694	620.19
365.92	613.19
366.147	596.19
366.373	636.19
366.599	625.19
366.826	629.19
367.052	624.19
367.278	607.19
367.505	611.19
367.731	636.19
367.957	637.19
368.184	625.19
368.41	635.19
368.636	621.19
368.862	605.19
369.089	645.19
369.315	642.19
369.541	636.19
369.767	630.19
369.993	633.19
370.219	663.19
370.445	658.19
370.672	655.19
370.898	654.19
371.124	643.19
371.35	682.19
371.576	683.19
371.802	664.19
372.028	666.19
372.254	654.19
372.48	709.19
372.706	688.19
372.932	707.19
373.158	708.19
373.384	658.19
373.61	673.19
373.835	673.19
374.061	693.19
374.287	677.19
374.513	677.19
374.739	701.19
374.965	737.19
375.191	736.19
375.416	746.19
375.642	731.19
375.868	711.19
376.094	719.19
376.319	688.19
376.545	678.19
376.771	674.19
376.997	660.19
377.222	676.19
377.448	673.19
377.674	664.19
377.899	685.19
378.125	660.19
378.35	672.19
378.576	650.19
378.802	673.19
379.027	663.19
379.253	680.19
379.478	636.19
379.704	658.19
379.929	679.19
380.155	672.19
380.38	638.19
380.606	647.19
380.831	668.19
381.057	683.19
381.282	667.19
381.507	660.19
381.733	647.19
381.958	684.19
382.184	672.19
382.409	685.19
382.634	698.19
382.86	690.19
383.085	719.19
383.31	729.19
383.535	740.19
383.761	740.19
383.986	772.19
384.211	787.19
384.436	794.19
384.662	791.19
384.887	805.19
385.112	793.19
385.337	809.19
385.562	791.19
385.787	799.19
386.013	841.19
386.238	818.19
386.463	808.19
386.688	817.19
386.913	841.19
387.138	776.19
387.363	786.19
387.588	782.19
387.813	784.19
388.038	791.19
388.263	806.19
388.488	797.19
388.713	810.19
388.938	785.19
389.163	776.19
389.387	787.19
389.612	786.19
389.837	790.19
390.062	801.19
390.287	768.19
390.512	763.19
390.736	768.19
390.961	808.19
391.186	802.19
391.411	833.19
391.636	860.19
391.86	888.19
392.085	926.19
392.31	891.19
392.534	878.19
392.759	880.19
392.984	862.19
393.208	860.19
393.433	862.19
393.658	860.19
393.882	843.19
394.107	862.19
394.331	882.19
394.556	844.19
394.78	876.19
395.005	866.19
395.229	864.19
395.454	895.19
395.678	888.19
395.903	900.19
396.127	898.19
396.352	862.19
396.576	862.19
396.801	833.19
397.025	850.19
397.249	865.19
397.474	890.19
397.698	872.19
397.922	876.19
398.147	849.19
398.371	914.19
398.595	942.19
398.82	995.19
399.044	1073.19
399.268	1165.19
399.492	1372.19
399.717	1621.19
399.941	1610.19
400.165	1368.19
400.389	1221.19
400.613	1098.19
400.837	1065.19
401.062	1004.19
401.286	1007.19
401.51	992.19
401.734	995.19
401.958	991.19
402.182	1038.19
402.406	1035.19
402.63	1060.19
402.854	1100.19
403.078	1104.19
403.302	1112.19
403.526	1161.19
403.75	1192.19
403.974	1180.19
404.198	1203.19
404.422	1206.19
404.645	1209.19
404.869	1160.19
405.093	1160.19
405.317	1114.19
405.541	1115.19
405.765	1101.19
405.988	1086.19
406.212	1101.19
406.436	1094.19
406.66	1150.19
406.883	1131.19
407.107	1229.19
407.331	1272.19
407.555	1346.19
407.778	1321.19
408.002	1331.19
408.226	1246.19
408.449	1208.19
408.673	1171.19
408.896	1168.19
409.12	1126.19
409.344	1144.19
409.567	1156.19
409.791	1164.19
410.014	1156.19
410.238	1126.19
410.461	1150.19
410.685	1117.19
410.908	1071.19
411.132	1084.19
411.355	1041.19
411.578	1047.19
411.802	1057.19
412.025	1070.19
412.249	1083.19
412.472	1076.19
412.695	1039.19
412.919	1031.19
413.142	992.19
413.365	984.19
413.589	998.19
413.812	1015.19
414.035	997.19
414.258	1001.19
414.482	1003.19
414.705	1034.19
414.928	1016.19
415.151	1056.19
415.374	1042.19
415.597	999.19
415.821	996.19
416.044	947.19
416.267	970.19
416.49	954.19
416.713	985.19
416.936	973.19
417.159	1010.19
417.382	1017.19
417.605	964.19
417.828	1000.19
418.051	978.19
418.274	1014.19
418.497	1025.19
418.72	1038.19
418.943	1050.19
419.166	1093.19
419.389	1166.19
419.611	1133.19
419.834	1079.19
420.057	1048.19
420.28	1000.19
420.503	1005.19
420.726	973.19
420.948	1003.19
421.171	974.19
421.394	986.19
421.617	1020.19
421.839	1016.19
422.062	986.19
422.285	983.19
422.507	1012.19
422.73	1058.19
422.953	1036.19
423.175	1062.19
423.398	1067.19
423.621	1049.19
423.843	1080.19
424.066	1092.19
424.288	1090.19
424.511	1050.19
424.733	1031.19
424.956	1048.19
425.178	1008.19
425.401	1010.19
425.623	1012.19
425.846	953.19
426.068	968.19
426.291	950.19
426.513	935.19
426.735	947.19
426.958	894.19
427.18	872.19
427.402	896.19
427.625	910.19
427.847	896.19
428.069	872.19
428.292	894.19
428.514	884.19
428.736	860.19
428.958	896.19
429.181	870.19
429.403	852.19
429.625	861.19
429.847	864.19
430.069	876.19
430.292	894.19
430.514	869.19
430.736	854.19
430.958	841.19
431.18	820.19
431.402	853.19
431.624	869.19
431.846	892.19
432.068	897.19
432.29	939.19
432.512	882.19
432.734	866.19
432.956	840.19
433.178	891.19
433.4	894.19
433.622	896.19
433.844	918.19
434.066	912.19
434.287	891.19
434.509	938.19
434.731	989.19
434.953	988.19
435.175	1006.19
435.397	1018.19
435.618	969.19
435.84	912.19
436.062	900.19
436.284	897.19
436.505	876.19
436.727	897.19
436.949	894.19
437.17	881.19
437.392	868.19
437.614	849.19
437.835	838.19
438.057	857.19
438.278	846.19
438.5	838.19
438.721	863.19
438.943	859.19
439.165	852.19
439.386	827.19
439.608	877.19
439.829	870.19
440.05	867.19
440.272	908.19
440.493	898.19
440.715	925.19
440.936	916.19
441.158	930.19
441.379	930.19
441.6	973.19
441.822	1001.19
442.043	1012.19
442.264	996.19
442.486	978.19
442.707	964.19
442.928	984.19
443.149	988.19
443.371	972.19
443.592	1017.19
443.813	1012.19
444.034	1015.19
444.255	1048.19
444.476	1086.19
444.698	1162.19
444.919	1242.19
445.14	1259.19
445.361	1121.19
445.582	1025.19
445.803	977.19
446.024	945.19
446.245	925.19
446.466	905.19
446.687	874.19
446.908	908.19
447.129	870.19
447.35	861.19
447.571	850.19
447.792	827.19
448.013	804.19
448.234	821.19
448.455	807.19
448.675	836.19
448.896	806.19
449.117	809.19
449.338	816.19
449.559	810.19
449.779	807.19
450	818.19
450.221	788.19
450.442	826.19
450.662	804.19
450.883	836.19
451.104	856.19
451.324	871.19
451.545	839.19
451.766	831.19
451.986	823.19
452.207	824.19
452.428	824.19
452.648	821.19
452.869	804.19
453.089	765.19
453.31	814.19
453.53	802.19
453.751	817.19
453.971	786.19
454.192	771.19
454.412	788.19
454.633	779.19
454.853	760.19
455.073	782.19
455.294	779.19
455.514	770.19
455.734	782.19
455.955	761.19
456.175	761.19
456.395	744.19
456.616	724.19
456.836	766.19
457.056	762.19
457.276	727.19
457.497	774.19
457.717	710.19
457.937	762.19
458.157	776.19
458.377	786.19
458.598	802.19
458.818	820.19
459.038	835.19
459.258	877.19
459.478	908.19
459.698	920.19
459.918	940.19
460.138	1008.19
460.358	1046.19
460.578	1032.19
460.798	1082.19
461.018	1070.19
461.238	1035.19
461.458	1035.19
461.678	1020.19
461.898	1061.19
462.118	1035.19
462.338	1109.19
462.558	1143.19
462.777	1190.19
462.997	1294.19
463.217	1469.19
463.437	1482.19
463.657	1305.19
463.876	1214.19
464.096	1235.19
464.316	1237.19
464.536	1244.19
464.755	1203.19
464.975	1134.19
465.195	1111.19
465.414	1039.19
465.634	970.19
465.854	932.19
466.073	924.19
466.293	908.19
466.512	875.19
466.732	874.19
466.951	847.19
467.171	827.19
467.391	851.19
467.61	859.19
467.829	844.19
468.049	853.19
468.268	822.19
468.488	805.19
468.707	806.19
468.927	785.19
469.146	793.19
469.365	821.19
469.585	835.19
469.804	836.19
470.023	857.19
470.243	878.19
470.462	883.19
470.681	872.19
470.901	883.19
471.12	858.19
471.339	850.19
471.558	818.19
471.777	828.19
471.997	806.19
472.216	813.19
472.435	802.19
472.654	808.19
472.873	798.19
473.092	783.19
473.311	796.19
473.53	798.19
473.749	774.19
473.968	774.19
474.187	776.19
474.406	775.19
474.625	795.19
474.844	790.19
475.063	801.19
475.282	790.19
475.501	789.19
475.72	787.19
475.939	762.19
476.158	802.19
476.377	831.19
476.596	819.19
476.814	821.19
477.033	842.19
477.252	868.19
477.471	867.19
477.69	888.19
477.908	893.19
478.127	905.19
478.346	942.19
478.564	945.19
478.783	967.19
479.002	988.19
479.22	1011.19
479.439	976.19
479.658	936.19
479.876	970.19
480.095	1011.19
480.313	1044.19
480.532	1076.19
480.751	1052.19
480.969	1048.19
481.188	977.19
481.406	956.19
481.624	932.19
481.843	914.19
482.061	904.19
482.28	888.19
482.498	894.19
482.717	875.19
482.935	890.19
483.153	892.19
483.372	893.19
483.59	881.19
483.808	884.19
484.027	866.19
484.245	886.19
484.463	875.19
484.681	918.19
484.9	924.19
485.118	939.19
485.336	915.19
485.554	925.19
485.772	941.19
485.99	957.19
486.209	977.19
486.427	952.19
486.645	929.19
486.863	940.19
487.081	928.19
487.299	963.19
487.517	938.19
487.735	950.19
487.953	949.19
488.171	945.19
488.389	927.19
488.607	923.19
488.825	929.19
489.043	910.19
489.261	929.19
489.479	932.19
489.696	910.19
489.914	931.19
490.132	928.19
490.35	935.19
490.568	923.19
490.786	913.19
491.003	942.19
491.221	944.19
491.439	938.19
491.657	940.19
491.874	948.19
492.092	953.19
492.31	930.19
492.527	920.19
492.745	968.19
492.963	949.19
493.18	981.19
493.398	971.19
493.615	959.19
493.833	986.19
494.05	981.19
494.268	998.19
494.485	991.19
494.703	988.19
494.92	981.19
495.138	984.19
495.355	973.19
495.573	970.19
495.79	988.19
496.008	1017.19
496.225	1001.19
496.442	1013.19
496.66	1054.19
496.877	1026.19
497.094	1092.19
497.312	1074.19
497.529	1080.19
497.746	1129.19
497.963	1166.19
498.181	1224.19
498.398	1261.19
498.615	1319.19
498.832	1403.19
499.049	1540.19
499.267	1661.19
499.484	1840.19
