Data from Ni(NO3)2@0.125M.TitratingCurve.Agarose3%dH2O.NegLispCup.LampEnergy10.LIBS07252019_HRD10591_18-09-10-568.txt Node
Date: Thu Jul 25 18:09:10 EDT 2019
User: cochatt
Spectrometer: HR+D1059
Trigger mode: 1
Integration Time (sec): 1.000000E-1
Scans to average: 1
Electric dark correction enabled: true
Nonlinearity correction enabled: false
Boxcar width: 0
XAxis mode: Wavelengths
Number of Pixels in Spectrum: 2048
>>>>>Begin Spectral Data<<<<<
223.165	-7.44
223.4	-7.44
223.635	-7.44
223.869	-35.44
224.104	-29.44
224.338	-12.44
224.573	-21.44
224.808	0.56
225.042	-7.44
225.277	6.56
225.511	-7.44
225.746	-11.44
225.98	15.56
226.215	8.56
226.449	24.56
226.683	13.56
226.918	26.56
227.152	36.56
227.387	24.56
227.621	43.56
227.856	48.56
228.09	54.56
228.324	33.56
228.559	44.56
228.793	49.56
229.027	92.56
229.262	105.56
229.496	98.56
229.73	96.56
229.964	101.56
230.199	125.56
230.433	111.56
230.667	113.56
230.901	112.56
231.136	124.56
231.37	133.56
231.604	126.56
231.838	137.56
232.072	130.56
232.306	120.56
232.541	128.56
232.775	128.56
233.009	117.56
233.243	123.56
233.477	130.56
233.711	128.56
233.945	138.56
234.179	127.56
234.413	130.56
234.647	125.56
234.881	132.56
235.115	130.56
235.349	132.56
235.583	129.56
235.817	126.56
236.051	137.56
236.285	133.56
236.519	120.56
236.753	114.56
236.987	129.56
237.221	134.56
237.455	131.56
237.689	118.56
237.922	139.56
238.156	143.56
238.39	124.56
238.624	138.56
238.858	139.56
239.091	135.56
239.325	140.56
239.559	149.56
239.793	144.56
240.027	158.56
240.26	134.56
240.494	163.56
240.728	151.56
240.961	149.56
241.195	163.56
241.429	149.56
241.662	152.56
241.896	173.56
242.13	158.56
242.363	154.56
242.597	137.56
242.83	141.56
243.064	157.56
243.298	147.56
243.531	160.56
243.765	181.56
243.998	162.56
244.232	166.56
244.465	186.56
244.699	185.56
244.932	182.56
245.166	167.56
245.399	173.56
245.633	177.56
245.866	182.56
246.099	189.56
246.333	185.56
246.566	185.56
246.8	188.56
247.033	178.56
247.266	186.56
247.5	189.56
247.733	178.56
247.966	198.56
248.2	198.56
248.433	205.56
248.666	191.56
248.899	189.56
249.133	195.56
249.366	218.56
249.599	198.56
249.832	198.56
250.066	204.56
250.299	200.56
250.532	207.56
250.765	208.56
250.998	192.56
251.231	202.56
251.465	210.56
251.698	219.56
251.931	208.56
252.164	210.56
252.397	207.56
252.63	213.56
252.863	222.56
253.096	212.56
253.329	221.56
253.562	225.56
253.795	243.56
254.028	227.56
254.261	220.56
254.494	236.56
254.727	238.56
254.96	217.56
255.193	225.56
255.426	241.56
255.659	254.56
255.892	231.56
256.124	229.56
256.357	237.56
256.59	238.56
256.823	230.56
257.056	246.56
257.289	252.56
257.521	227.56
257.754	242.56
257.987	231.56
258.22	237.56
258.452	236.56
258.685	244.56
258.918	253.56
259.151	244.56
259.383	234.56
259.616	254.56
259.849	247.56
260.081	257.56
260.314	268.56
260.547	260.56
260.779	224.56
261.012	264.56
261.244	266.56
261.477	264.56
261.71	261.56
261.942	244.56
262.175	260.56
262.407	241.56
262.64	269.56
262.872	283.56
263.105	269.56
263.337	260.56
263.57	270.56
263.802	279.56
264.035	278.56
264.267	275.56
264.499	271.56
264.732	272.56
264.964	272.56
265.197	283.56
265.429	283.56
265.661	293.56
265.894	281.56
266.126	300.56
266.358	282.56
266.591	290.56
266.823	297.56
267.055	284.56
267.287	283.56
267.52	289.56
267.752	291.56
267.984	286.56
268.216	310.56
268.448	308.56
268.681	317.56
268.913	307.56
269.145	300.56
269.377	274.56
269.609	304.56
269.841	288.56
270.073	291.56
270.306	313.56
270.538	295.56
270.77	297.56
271.002	315.56
271.234	295.56
271.466	297.56
271.698	309.56
271.93	308.56
272.162	311.56
272.394	292.56
272.626	325.56
272.858	326.56
273.09	313.56
273.322	329.56
273.553	309.56
273.785	298.56
274.017	308.56
274.249	324.56
274.481	309.56
274.713	295.56
274.945	315.56
275.176	320.56
275.408	341.56
275.64	335.56
275.872	321.56
276.104	317.56
276.335	312.56
276.567	334.56
276.799	347.56
277.031	325.56
277.262	325.56
277.494	344.56
277.726	324.56
277.957	322.56
278.189	329.56
278.421	340.56
278.652	330.56
278.884	361.56
279.115	342.56
279.347	343.56
279.579	353.56
279.81	330.56
280.042	355.56
280.273	353.56
280.505	373.56
280.736	358.56
280.968	366.56
281.199	391.56
281.431	355.56
281.662	363.56
281.894	355.56
282.125	342.56
282.356	365.56
282.588	374.56
282.819	376.56
283.051	385.56
283.282	366.56
283.513	375.56
283.745	376.56
283.976	368.56
284.207	369.56
284.439	363.56
284.67	366.56
284.901	372.56
285.132	384.56
285.364	389.56
285.595	357.56
285.826	357.56
286.057	383.56
286.288	374.56
286.52	405.56
286.751	385.56
286.982	397.56
287.213	368.56
287.444	388.56
287.675	392.56
287.906	386.56
288.138	400.56
288.369	405.56
288.6	394.56
288.831	393.56
289.062	385.56
289.293	408.56
289.524	400.56
289.755	409.56
289.986	410.56
290.217	412.56
290.448	397.56
290.679	408.56
290.91	397.56
291.141	406.56
291.371	420.56
291.602	408.56
291.833	406.56
292.064	405.56
292.295	391.56
292.526	412.56
292.757	408.56
292.987	410.56
293.218	399.56
293.449	406.56
293.68	404.56
293.91	411.56
294.141	399.56
294.372	426.56
294.603	399.56
294.833	416.56
295.064	424.56
295.295	421.56
295.525	410.56
295.756	414.56
295.987	426.56
296.217	423.56
296.448	422.56
296.679	432.56
296.909	452.56
297.14	424.56
297.37	424.56
297.601	452.56
297.831	454.56
298.062	445.56
298.292	442.56
298.523	453.56
298.753	476.56
298.984	455.56
299.214	442.56
299.445	444.56
299.675	439.56
299.905	453.56
300.136	453.56
300.366	455.56
300.597	458.56
300.827	468.56
301.057	452.56
301.288	481.56
301.518	466.56
301.748	480.56
301.979	480.56
302.209	477.56
302.439	480.56
302.669	445.56
302.9	459.56
303.13	460.56
303.36	454.56
303.59	465.56
303.82	441.56
304.051	461.56
304.281	458.56
304.511	446.56
304.741	467.56
304.971	466.56
305.201	450.56
305.431	436.56
305.661	456.56
305.891	435.56
306.121	442.56
306.352	454.56
306.582	457.56
306.812	468.56
307.042	436.56
307.272	446.56
307.502	453.56
307.731	473.56
307.961	441.56
308.191	444.56
308.421	431.56
308.651	461.56
308.881	441.56
309.111	443.56
309.341	464.56
309.571	430.56
309.8	450.56
310.03	459.56
310.26	440.56
310.49	454.56
310.72	434.56
310.949	461.56
311.179	443.56
311.409	461.56
311.639	467.56
311.868	446.56
312.098	480.56
312.328	468.56
312.557	462.56
312.787	477.56
313.017	469.56
313.246	482.56
313.476	480.56
313.706	473.56
313.935	478.56
314.165	482.56
314.394	483.56
314.624	490.56
314.853	463.56
315.083	466.56
315.312	488.56
315.542	478.56
315.771	484.56
316.001	492.56
316.23	472.56
316.46	493.56
316.689	498.56
316.919	448.56
317.148	475.56
317.377	481.56
317.607	466.56
317.836	473.56
318.065	465.56
318.295	482.56
318.524	484.56
318.753	466.56
318.983	492.56
319.212	467.56
319.441	476.56
319.67	486.56
319.9	475.56
320.129	506.56
320.358	482.56
320.587	483.56
320.816	479.56
321.046	492.56
321.275	474.56
321.504	480.56
321.733	494.56
321.962	496.56
322.191	490.56
322.42	493.56
322.649	471.56
322.878	483.56
323.108	479.56
323.337	494.56
323.566	492.56
323.795	515.56
324.024	506.56
324.253	507.56
324.482	514.56
324.71	516.56
324.939	508.56
325.168	510.56
325.397	504.56
325.626	506.56
325.855	530.56
326.084	528.56
326.313	546.56
326.542	527.56
326.77	527.56
326.999	521.56
327.228	521.56
327.457	537.56
327.686	530.56
327.914	560.56
328.143	541.56
328.372	544.56
328.6	549.56
328.829	549.56
329.058	561.56
329.287	550.56
329.515	537.56
329.744	562.56
329.972	548.56
330.201	541.56
330.43	551.56
330.658	556.56
330.887	565.56
331.115	558.56
331.344	565.56
331.572	562.56
331.801	574.56
332.03	627.56
332.258	638.56
332.486	650.56
332.715	665.56
332.943	691.56
333.172	717.56
333.4	728.56
333.629	755.56
333.857	772.56
334.085	780.56
334.314	733.56
334.542	699.56
334.771	688.56
334.999	690.56
335.227	660.56
335.455	698.56
335.684	670.56
335.912	688.56
336.14	681.56
336.369	684.56
336.597	666.56
336.825	662.56
337.053	654.56
337.281	633.56
337.51	643.56
337.738	644.56
337.966	605.56
338.194	594.56
338.422	598.56
338.65	597.56
338.878	608.56
339.106	600.56
339.334	599.56
339.562	593.56
339.79	574.56
340.018	603.56
340.246	553.56
340.474	568.56
340.702	562.56
340.93	559.56
341.158	590.56
341.386	567.56
341.614	586.56
341.842	577.56
342.07	565.56
342.298	576.56
342.526	573.56
342.754	574.56
342.981	555.56
343.209	590.56
343.437	596.56
343.665	652.56
343.893	722.56
344.12	738.56
344.348	700.56
344.576	649.56
344.804	644.56
345.031	621.56
345.259	596.56
345.487	599.56
345.714	560.56
345.942	554.56
346.17	567.56
346.397	557.56
346.625	558.56
346.853	560.56
347.08	560.56
347.308	588.56
347.535	558.56
347.763	579.56
347.99	581.56
348.218	576.56
348.445	581.56
348.673	564.56
348.9	569.56
349.128	563.56
349.355	568.56
349.583	563.56
349.81	538.56
350.037	516.56
350.265	522.56
350.492	523.56
350.72	531.56
350.947	534.56
351.174	542.56
351.402	546.56
351.629	530.56
351.856	541.56
352.083	560.56
352.311	543.56
352.538	505.56
352.765	559.56
352.992	530.56
353.22	539.56
353.447	545.56
353.674	526.56
353.901	548.56
354.128	528.56
354.355	517.56
354.583	536.56
354.81	528.56
355.037	551.56
355.264	519.56
355.491	540.56
355.718	555.56
355.945	556.56
356.172	541.56
356.399	537.56
356.626	534.56
356.853	552.56
357.08	538.56
357.307	567.56
357.534	520.56
357.761	560.56
357.988	550.56
358.215	572.56
358.441	538.56
358.668	538.56
358.895	529.56
359.122	543.56
359.349	568.56
359.576	527.56
359.802	547.56
360.029	525.56
360.256	535.56
360.483	564.56
360.709	542.56
360.936	584.56
361.163	536.56
361.39	522.56
361.616	535.56
361.843	539.56
362.07	549.56
362.296	547.56
362.523	541.56
362.749	562.56
362.976	546.56
363.203	524.56
363.429	527.56
363.656	536.56
363.882	523.56
364.109	542.56
364.335	522.56
364.562	524.56
364.788	516.56
365.015	541.56
365.241	524.56
365.468	545.56
365.694	520.56
365.92	525.56
366.147	524.56
366.373	526.56
366.599	533.56
366.826	533.56
367.052	518.56
367.278	546.56
367.505	549.56
367.731	543.56
367.957	538.56
368.184	544.56
368.41	543.56
368.636	535.56
368.862	552.56
369.089	560.56
369.315	557.56
369.541	533.56
369.767	517.56
369.993	562.56
370.219	565.56
370.445	554.56
370.672	574.56
370.898	574.56
371.124	572.56
371.35	585.56
371.576	568.56
371.802	577.56
372.028	576.56
372.254	567.56
372.48	570.56
372.706	602.56
372.932	596.56
373.158	609.56
373.384	589.56
373.61	598.56
373.835	590.56
374.061	574.56
374.287	586.56
374.513	621.56
374.739	612.56
374.965	622.56
375.191	662.56
375.416	634.56
375.642	628.56
375.868	605.56
376.094	620.56
376.319	584.56
376.545	602.56
376.771	587.56
376.997	595.56
377.222	591.56
377.448	595.56
377.674	572.56
377.899	565.56
378.125	558.56
378.35	586.56
378.576	552.56
378.802	556.56
379.027	559.56
379.253	579.56
379.478	568.56
379.704	576.56
379.929	570.56
380.155	533.56
380.38	582.56
380.606	562.56
380.831	570.56
381.057	568.56
381.282	570.56
381.507	575.56
381.733	577.56
381.958	569.56
382.184	586.56
382.409	605.56
382.634	610.56
382.86	621.56
383.085	614.56
383.31	635.56
383.535	632.56
383.761	633.56
383.986	628.56
384.211	656.56
384.436	683.56
384.662	658.56
384.887	699.56
385.112	709.56
385.337	676.56
385.562	716.56
385.787	676.56
386.013	695.56
386.238	704.56
386.463	689.56
386.688	706.56
386.913	668.56
387.138	672.56
387.363	671.56
387.588	681.56
387.813	677.56
388.038	661.56
388.263	681.56
388.488	697.56
388.713	662.56
388.938	661.56
389.163	674.56
389.387	647.56
389.612	663.56
389.837	648.56
390.062	649.56
390.287	667.56
390.512	651.56
390.736	663.56
390.961	671.56
391.186	666.56
391.411	702.56
391.636	736.56
391.86	761.56
392.085	768.56
392.31	786.56
392.534	781.56
392.759	761.56
392.984	738.56
393.208	749.56
393.433	714.56
393.658	729.56
393.882	714.56
394.107	740.56
394.331	744.56
394.556	755.56
394.78	750.56
395.005	731.56
395.229	747.56
395.454	756.56
395.678	800.56
395.903	786.56
396.127	764.56
396.352	734.56
396.576	713.56
396.801	717.56
397.025	712.56
397.249	743.56
397.474	743.56
397.698	761.56
397.922	747.56
398.147	746.56
398.371	782.56
398.595	783.56
398.82	833.56
399.044	905.56
399.268	978.56
399.492	1177.56
399.717	1342.56
399.941	1364.56
400.165	1146.56
400.389	1022.56
400.613	911.56
400.837	888.56
401.062	867.56
401.286	845.56
401.51	838.56
401.734	855.56
401.958	868.56
402.182	893.56
402.406	871.56
402.63	909.56
402.854	926.56
403.078	937.56
403.302	950.56
403.526	991.56
403.75	1051.56
403.974	1028.56
404.198	1027.56
404.422	1033.56
404.645	1025.56
404.869	983.56
405.093	1011.56
405.317	989.56
405.541	966.56
405.765	958.56
405.988	939.56
406.212	944.56
406.436	954.56
406.66	980.56
406.883	1010.56
407.107	1048.56
407.331	1106.56
407.555	1130.56
407.778	1175.56
408.002	1114.56
408.226	1061.56
408.449	1063.56
408.673	1003.56
408.896	1000.56
409.12	998.56
409.344	1017.56
409.567	1000.56
409.791	1040.56
410.014	1001.56
410.238	982.56
410.461	1008.56
410.685	992.56
410.908	937.56
411.132	952.56
411.355	892.56
411.578	894.56
411.802	909.56
412.025	905.56
412.249	902.56
412.472	957.56
412.695	890.56
412.919	844.56
413.142	857.56
413.365	890.56
413.589	880.56
413.812	871.56
414.035	874.56
414.258	862.56
414.482	882.56
414.705	882.56
414.928	866.56
415.151	858.56
415.374	885.56
415.597	876.56
415.821	872.56
416.044	846.56
416.267	828.56
416.49	854.56
416.713	891.56
416.936	866.56
417.159	882.56
417.382	876.56
417.605	871.56
417.828	876.56
418.051	909.56
418.274	881.56
418.497	856.56
418.72	894.56
418.943	917.56
419.166	978.56
419.389	1028.56
419.611	1013.56
419.834	961.56
420.057	922.56
420.28	893.56
420.503	873.56
420.726	855.56
420.948	880.56
421.171	894.56
421.394	878.56
421.617	872.56
421.839	887.56
422.062	864.56
422.285	891.56
422.507	875.56
422.73	904.56
422.953	919.56
423.175	924.56
423.398	926.56
423.621	928.56
423.843	966.56
424.066	950.56
424.288	952.56
424.511	946.56
424.733	938.56
424.956	913.56
425.178	901.56
425.401	917.56
425.623	913.56
425.846	840.56
426.068	859.56
426.291	840.56
426.513	853.56
426.735	812.56
426.958	829.56
427.18	820.56
427.402	805.56
427.625	800.56
427.847	772.56
428.069	801.56
428.292	804.56
428.514	770.56
428.736	785.56
428.958	814.56
429.181	766.56
429.403	772.56
429.625	782.56
429.847	764.56
430.069	769.56
430.292	796.56
430.514	772.56
430.736	782.56
430.958	785.56
431.18	740.56
431.402	784.56
431.624	766.56
431.846	791.56
432.068	797.56
432.29	796.56
432.512	770.56
432.734	805.56
432.956	791.56
433.178	804.56
433.4	787.56
433.622	804.56
433.844	789.56
434.066	834.56
434.287	839.56
434.509	845.56
434.731	889.56
434.953	888.56
435.175	928.56
435.397	920.56
435.618	827.56
435.84	828.56
436.062	810.56
436.284	802.56
436.505	807.56
436.727	812.56
436.949	768.56
437.17	772.56
437.392	783.56
437.614	783.56
437.835	748.56
438.057	778.56
438.278	769.56
438.5	765.56
438.721	749.56
438.943	794.56
439.165	794.56
439.386	785.56
439.608	810.56
439.829	771.56
440.05	809.56
440.272	808.56
440.493	807.56
440.715	823.56
440.936	801.56
441.158	859.56
441.379	884.56
441.6	929.56
441.822	950.56
442.043	950.56
442.264	915.56
442.486	910.56
442.707	906.56
442.928	895.56
443.149	900.56
443.371	902.56
443.592	896.56
443.813	915.56
444.034	957.56
444.255	985.56
444.476	989.56
444.698	1078.56
444.919	1124.56
445.14	1202.56
445.361	1096.56
445.582	940.56
445.803	900.56
446.024	848.56
446.245	847.56
446.466	874.56
446.687	816.56
446.908	806.56
447.129	794.56
447.35	777.56
447.571	794.56
447.792	773.56
448.013	766.56
448.234	764.56
448.455	732.56
448.675	770.56
448.896	760.56
449.117	716.56
449.338	724.56
449.559	739.56
449.779	748.56
450	729.56
450.221	753.56
450.442	759.56
450.662	741.56
450.883	772.56
451.104	795.56
451.324	765.56
451.545	782.56
451.766	762.56
451.986	738.56
452.207	772.56
452.428	753.56
452.648	769.56
452.869	732.56
453.089	729.56
453.31	732.56
453.53	737.56
453.751	726.56
453.971	716.56
454.192	733.56
454.412	700.56
454.633	684.56
454.853	708.56
455.073	708.56
455.294	700.56
455.514	707.56
455.734	713.56
455.955	688.56
456.175	683.56
456.395	682.56
456.616	682.56
456.836	674.56
457.056	684.56
457.276	668.56
457.497	675.56
457.717	696.56
457.937	702.56
458.157	702.56
458.377	696.56
458.598	706.56
458.818	744.56
459.038	772.56
459.258	776.56
459.478	798.56
459.698	834.56
459.918	867.56
460.138	882.56
460.358	926.56
460.578	975.56
460.798	956.56
461.018	962.56
461.238	960.56
461.458	964.56
461.678	917.56
461.898	956.56
462.118	937.56
462.338	1003.56
462.558	1063.56
462.777	1102.56
462.997	1168.56
463.217	1346.56
463.437	1332.56
463.657	1215.56
463.876	1130.56
464.096	1140.56
464.316	1141.56
464.536	1142.56
464.755	1107.56
464.975	1064.56
465.195	990.56
465.414	946.56
465.634	888.56
465.854	820.56
466.073	826.56
466.293	796.56
466.512	800.56
466.732	805.56
466.951	794.56
467.171	776.56
467.391	763.56
467.61	778.56
467.829	764.56
468.049	774.56
468.268	745.56
468.488	767.56
468.707	736.56
468.927	773.56
469.146	732.56
469.365	770.56
469.585	776.56
469.804	777.56
470.023	776.56
470.243	802.56
470.462	821.56
470.681	785.56
470.901	809.56
471.12	828.56
471.339	788.56
471.558	765.56
471.777	736.56
471.997	730.56
472.216	757.56
472.435	707.56
472.654	738.56
472.873	696.56
473.092	723.56
473.311	718.56
473.53	718.56
473.749	718.56
473.968	716.56
474.187	738.56
474.406	688.56
474.625	744.56
474.844	746.56
475.063	744.56
475.282	724.56
475.501	717.56
475.72	724.56
475.939	756.56
476.158	755.56
476.377	756.56
476.596	737.56
476.814	748.56
477.033	761.56
477.252	782.56
477.471	812.56
477.69	820.56
477.908	832.56
478.127	877.56
478.346	855.56
478.564	892.56
478.783	886.56
479.002	896.56
479.22	930.56
479.439	909.56
479.658	900.56
479.876	875.56
480.095	894.56
480.313	940.56
480.532	974.56
480.751	971.56
480.969	913.56
481.188	875.56
481.406	872.56
481.624	847.56
481.843	818.56
482.061	798.56
482.28	829.56
482.498	836.56
482.717	804.56
482.935	830.56
483.153	813.56
483.372	824.56
483.59	825.56
483.808	831.56
484.027	800.56
484.245	798.56
484.463	833.56
484.681	868.56
484.9	854.56
485.118	866.56
485.336	855.56
485.554	843.56
485.772	866.56
485.99	893.56
486.209	909.56
486.427	888.56
486.645	875.56
486.863	912.56
487.081	900.56
487.299	845.56
487.517	857.56
487.735	885.56
487.953	904.56
488.171	873.56
488.389	859.56
488.607	834.56
488.825	836.56
489.043	852.56
489.261	831.56
489.479	874.56
489.696	861.56
489.914	898.56
490.132	844.56
490.35	872.56
490.568	850.56
490.786	892.56
491.003	876.56
491.221	895.56
491.439	867.56
491.657	884.56
491.874	853.56
492.092	902.56
492.31	867.56
492.527	886.56
492.745	935.56
492.963	930.56
493.18	910.56
493.398	920.56
493.615	904.56
493.833	920.56
494.05	886.56
494.268	923.56
494.485	958.56
494.703	932.56
494.92	936.56
495.138	914.56
495.355	895.56
495.573	921.56
495.79	905.56
496.008	916.56
496.225	917.56
496.442	940.56
496.66	948.56
496.877	976.56
497.094	980.56
497.312	972.56
497.529	1009.56
497.746	1034.56
497.963	1085.56
498.181	1122.56
498.398	1166.56
498.615	1240.56
498.832	1316.56
499.049	1428.56
499.267	1530.56
499.484	1690.56
499.701	1904.56
499.918	2118.56
500.135	2422.56
500.352	2830.56
500.569	3007.56
500.786	2990.56
