Data from Ni(NO3)2@0.0625M.TitratingCurve.Agarose3%dH2O.NegLispCup.LampEnergy10.LIBS07252019_HRD10591_18-15-27-569.txt Node
Date: Thu Jul 25 18:15:27 EDT 2019
User: cochatt
Spectrometer: HR+D1059
Trigger mode: 1
Integration Time (sec): 1.000000E-1
Scans to average: 1
Electric dark correction enabled: true
Nonlinearity correction enabled: false
Boxcar width: 0
XAxis mode: Wavelengths
Number of Pixels in Spectrum: 2048
>>>>>Begin Spectral Data<<<<<
223.165	-22.31
223.4	-22.31
223.635	-22.31
223.869	-24.31
224.104	-13.31
224.338	-7.31
224.573	-9.31
224.808	-0.31
225.042	-23.31
225.277	-21.31
225.511	5.69
225.746	0.69
225.98	-0.31
226.215	16.69
226.449	20.69
226.683	20.69
226.918	19.69
227.152	37.69
227.387	41.69
227.621	31.69
227.856	40.69
228.09	51.69
228.324	53.69
228.559	53.69
228.793	62.69
229.027	102.69
229.262	123.69
229.496	110.69
229.73	111.69
229.964	117.69
230.199	148.69
230.433	130.69
230.667	139.69
230.901	148.69
231.136	122.69
231.37	136.69
231.604	131.69
231.838	136.69
232.072	123.69
232.306	152.69
232.541	149.69
232.775	154.69
233.009	147.69
233.243	148.69
233.477	147.69
233.711	146.69
233.945	139.69
234.179	142.69
234.413	130.69
234.647	146.69
234.881	150.69
235.115	161.69
235.349	149.69
235.583	142.69
235.817	147.69
236.051	135.69
236.285	124.69
236.519	165.69
236.753	152.69
236.987	185.69
237.221	158.69
237.455	168.69
237.689	149.69
237.922	155.69
238.156	154.69
238.39	166.69
238.624	149.69
238.858	161.69
239.091	169.69
239.325	184.69
239.559	167.69
239.793	176.69
240.027	178.69
240.26	188.69
240.494	188.69
240.728	180.69
240.961	194.69
241.195	183.69
241.429	183.69
241.662	187.69
241.896	195.69
242.13	179.69
242.363	184.69
242.597	187.69
242.83	210.69
243.064	204.69
243.298	208.69
243.531	201.69
243.765	197.69
243.998	215.69
244.232	207.69
244.465	203.69
244.699	209.69
244.932	208.69
245.166	224.69
245.399	209.69
245.633	208.69
245.866	210.69
246.099	217.69
246.333	214.69
246.566	213.69
246.8	204.69
247.033	222.69
247.266	220.69
247.5	219.69
247.733	234.69
247.966	256.69
248.2	238.69
248.433	235.69
248.666	249.69
248.899	244.69
249.133	220.69
249.366	248.69
249.599	256.69
249.832	246.69
250.066	264.69
250.299	254.69
250.532	264.69
250.765	262.69
250.998	241.69
251.231	245.69
251.465	244.69
251.698	252.69
251.931	244.69
252.164	267.69
252.397	262.69
252.63	281.69
252.863	284.69
253.096	281.69
253.329	284.69
253.562	273.69
253.795	274.69
254.028	267.69
254.261	264.69
254.494	274.69
254.727	267.69
254.96	283.69
255.193	302.69
255.426	272.69
255.659	295.69
255.892	285.69
256.124	283.69
256.357	272.69
256.59	303.69
256.823	286.69
257.056	291.69
257.289	306.69
257.521	296.69
257.754	306.69
257.987	317.69
258.22	310.69
258.452	281.69
258.685	317.69
258.918	325.69
259.151	308.69
259.383	323.69
259.616	311.69
259.849	321.69
260.081	328.69
260.314	305.69
260.547	328.69
260.779	313.69
261.012	338.69
261.244	322.69
261.477	323.69
261.71	321.69
261.942	324.69
262.175	309.69
262.407	322.69
262.64	318.69
262.872	336.69
263.105	328.69
263.337	348.69
263.57	336.69
263.802	345.69
264.035	332.69
264.267	322.69
264.499	346.69
264.732	344.69
264.964	346.69
265.197	344.69
265.429	352.69
265.661	346.69
265.894	358.69
266.126	364.69
266.358	347.69
266.591	342.69
266.823	363.69
267.055	362.69
267.287	378.69
267.52	352.69
267.752	354.69
267.984	383.69
268.216	377.69
268.448	375.69
268.681	373.69
268.913	378.69
269.145	389.69
269.377	374.69
269.609	373.69
269.841	364.69
270.073	378.69
270.306	362.69
270.538	380.69
270.77	363.69
271.002	384.69
271.234	382.69
271.466	377.69
271.698	401.69
271.93	397.69
272.162	414.69
272.394	376.69
272.626	367.69
272.858	399.69
273.09	404.69
273.322	399.69
273.553	402.69
273.785	405.69
274.017	396.69
274.249	405.69
274.481	407.69
274.713	398.69
274.945	400.69
275.176	416.69
275.408	405.69
275.64	418.69
275.872	418.69
276.104	400.69
276.335	407.69
276.567	422.69
276.799	434.69
277.031	437.69
277.262	434.69
277.494	424.69
277.726	423.69
277.957	417.69
278.189	447.69
278.421	431.69
278.652	430.69
278.884	441.69
279.115	452.69
279.347	445.69
279.579	455.69
279.81	435.69
280.042	436.69
280.273	452.69
280.505	447.69
280.736	459.69
280.968	434.69
281.199	436.69
281.431	461.69
281.662	457.69
281.894	476.69
282.125	471.69
282.356	459.69
282.588	456.69
282.819	462.69
283.051	475.69
283.282	459.69
283.513	501.69
283.745	500.69
283.976	476.69
284.207	471.69
284.439	463.69
284.67	490.69
284.901	498.69
285.132	483.69
285.364	466.69
285.595	484.69
285.826	498.69
286.057	509.69
286.288	524.69
286.52	494.69
286.751	491.69
286.982	505.69
287.213	494.69
287.444	499.69
287.675	537.69
287.906	517.69
288.138	513.69
288.369	516.69
288.6	515.69
288.831	527.69
289.062	512.69
289.293	500.69
289.524	498.69
289.755	517.69
289.986	516.69
290.217	522.69
290.448	531.69
290.679	528.69
290.91	524.69
291.141	537.69
291.371	522.69
291.602	530.69
291.833	508.69
292.064	549.69
292.295	511.69
292.526	531.69
292.757	528.69
292.987	522.69
293.218	531.69
293.449	552.69
293.68	536.69
293.91	513.69
294.141	559.69
294.372	542.69
294.603	560.69
294.833	523.69
295.064	548.69
295.295	561.69
295.525	542.69
295.756	544.69
295.987	565.69
296.217	539.69
296.448	548.69
296.679	574.69
296.909	563.69
297.14	539.69
297.37	556.69
297.601	566.69
297.831	559.69
298.062	570.69
298.292	576.69
298.523	572.69
298.753	586.69
298.984	598.69
299.214	566.69
299.445	586.69
299.675	572.69
299.905	599.69
300.136	577.69
300.366	570.69
300.597	594.69
300.827	599.69
301.057	630.69
301.288	604.69
301.518	613.69
301.748	593.69
301.979	611.69
302.209	624.69
302.439	612.69
302.669	600.69
302.9	588.69
303.13	591.69
303.36	611.69
303.59	593.69
303.82	599.69
304.051	590.69
304.281	600.69
304.511	586.69
304.741	592.69
304.971	611.69
305.201	598.69
305.431	587.69
305.661	607.69
305.891	615.69
306.121	576.69
306.352	610.69
306.582	615.69
306.812	567.69
307.042	598.69
307.272	599.69
307.502	588.69
307.731	594.69
307.961	588.69
308.191	572.69
308.421	597.69
308.651	582.69
308.881	570.69
309.111	574.69
309.341	546.69
309.571	580.69
309.8	610.69
310.03	598.69
310.26	601.69
310.49	585.69
310.72	594.69
310.949	607.69
311.179	578.69
311.409	607.69
311.639	598.69
311.868	601.69
312.098	606.69
312.328	631.69
312.557	616.69
312.787	620.69
313.017	626.69
313.246	638.69
313.476	633.69
313.706	635.69
313.935	635.69
314.165	660.69
314.394	660.69
314.624	640.69
314.853	641.69
315.083	643.69
315.312	635.69
315.542	631.69
315.771	638.69
316.001	611.69
316.23	645.69
316.46	619.69
316.689	598.69
316.919	633.69
317.148	638.69
317.377	608.69
317.607	612.69
317.836	616.69
318.065	615.69
318.295	625.69
318.524	625.69
318.753	617.69
318.983	630.69
319.212	606.69
319.441	628.69
319.67	621.69
319.9	609.69
320.129	612.69
320.358	631.69
320.587	630.69
320.816	643.69
321.046	639.69
321.275	627.69
321.504	637.69
321.733	645.69
321.962	628.69
322.191	632.69
322.42	629.69
322.649	641.69
322.878	628.69
323.108	635.69
323.337	654.69
323.566	644.69
323.795	662.69
324.024	672.69
324.253	640.69
324.482	647.69
324.71	656.69
324.939	676.69
325.168	675.69
325.397	660.69
325.626	646.69
325.855	657.69
326.084	694.69
326.313	714.69
326.542	707.69
326.77	692.69
326.999	685.69
327.228	677.69
327.457	676.69
327.686	688.69
327.914	672.69
328.143	674.69
328.372	684.69
328.6	707.69
328.829	696.69
329.058	708.69
329.287	696.69
329.515	692.69
329.744	679.69
329.972	702.69
330.201	698.69
330.43	694.69
330.658	679.69
330.887	730.69
331.115	745.69
331.344	695.69
331.572	727.69
331.801	748.69
332.03	766.69
332.258	784.69
332.486	786.69
332.715	828.69
332.943	862.69
333.172	910.69
333.4	948.69
333.629	947.69
333.857	931.69
334.085	930.69
334.314	903.69
334.542	868.69
334.771	898.69
334.999	886.69
335.227	830.69
335.455	880.69
335.684	852.69
335.912	828.69
336.14	826.69
336.369	843.69
336.597	847.69
336.825	819.69
337.053	849.69
337.281	802.69
337.51	787.69
337.738	792.69
337.966	770.69
338.194	776.69
338.422	788.69
338.65	744.69
338.878	770.69
339.106	754.69
339.334	763.69
339.562	762.69
339.79	729.69
340.018	709.69
340.246	710.69
340.474	719.69
340.702	709.69
340.93	738.69
341.158	743.69
341.386	745.69
341.614	740.69
341.842	734.69
342.07	706.69
342.298	686.69
342.526	707.69
342.754	733.69
342.981	705.69
343.209	718.69
343.437	768.69
343.665	818.69
343.893	892.69
344.12	908.69
344.348	870.69
344.576	826.69
344.804	776.69
345.031	743.69
345.259	746.69
345.487	735.69
345.714	704.69
345.942	723.69
346.17	741.69
346.397	726.69
346.625	723.69
346.853	705.69
347.08	691.69
347.308	699.69
347.535	708.69
347.763	700.69
347.99	695.69
348.218	707.69
348.445	703.69
348.673	695.69
348.9	696.69
349.128	681.69
349.355	684.69
349.583	721.69
349.81	700.69
350.037	687.69
350.265	666.69
350.492	674.69
350.72	675.69
350.947	665.69
351.174	694.69
351.402	663.69
351.629	667.69
351.856	648.69
352.083	680.69
352.311	672.69
352.538	692.69
352.765	665.69
352.992	660.69
353.22	652.69
353.447	653.69
353.674	672.69
353.901	650.69
354.128	676.69
354.355	666.69
354.583	675.69
354.81	697.69
355.037	692.69
355.264	690.69
355.491	661.69
355.718	681.69
355.945	665.69
356.172	678.69
356.399	661.69
356.626	714.69
356.853	696.69
357.08	699.69
357.307	694.69
357.534	683.69
357.761	699.69
357.988	672.69
358.215	658.69
358.441	680.69
358.668	650.69
358.895	662.69
359.122	670.69
359.349	658.69
359.576	675.69
359.802	696.69
360.029	690.69
360.256	683.69
360.483	692.69
360.709	679.69
360.936	678.69
361.163	698.69
361.39	672.69
361.616	672.69
361.843	674.69
362.07	683.69
362.296	693.69
362.523	660.69
362.749	680.69
362.976	679.69
363.203	678.69
363.429	671.69
363.656	680.69
363.882	675.69
364.109	646.69
364.335	670.69
364.562	662.69
364.788	680.69
365.015	666.69
365.241	659.69
365.468	675.69
365.694	665.69
365.92	655.69
366.147	664.69
366.373	683.69
366.599	682.69
366.826	670.69
367.052	660.69
367.278	686.69
367.505	694.69
367.731	663.69
367.957	686.69
368.184	670.69
368.41	694.69
368.636	688.69
368.862	670.69
369.089	699.69
369.315	705.69
369.541	711.69
369.767	715.69
369.993	694.69
370.219	707.69
370.445	716.69
370.672	720.69
370.898	724.69
371.124	725.69
371.35	750.69
371.576	728.69
371.802	736.69
372.028	735.69
372.254	761.69
372.48	751.69
372.706	746.69
372.932	771.69
373.158	764.69
373.384	762.69
373.61	720.69
373.835	722.69
374.061	733.69
374.287	764.69
374.513	774.69
374.739	769.69
374.965	791.69
375.191	820.69
375.416	797.69
375.642	783.69
375.868	799.69
376.094	761.69
376.319	726.69
376.545	732.69
376.771	753.69
376.997	752.69
377.222	755.69
377.448	746.69
377.674	740.69
377.899	734.69
378.125	736.69
378.35	739.69
378.576	711.69
378.802	703.69
379.027	739.69
379.253	725.69
379.478	741.69
379.704	740.69
379.929	725.69
380.155	726.69
380.38	726.69
380.606	728.69
380.831	738.69
381.057	746.69
381.282	750.69
381.507	725.69
381.733	744.69
381.958	748.69
382.184	777.69
382.409	779.69
382.634	787.69
382.86	772.69
383.085	807.69
383.31	790.69
383.535	816.69
383.761	849.69
383.986	844.69
384.211	862.69
384.436	858.69
384.662	861.69
384.887	891.69
385.112	890.69
385.337	895.69
385.562	887.69
385.787	898.69
386.013	925.69
386.238	886.69
386.463	888.69
386.688	921.69
386.913	896.69
387.138	883.69
387.363	865.69
387.588	894.69
387.813	856.69
388.038	872.69
388.263	850.69
388.488	881.69
388.713	863.69
388.938	874.69
389.163	843.69
389.387	856.69
389.612	834.69
389.837	847.69
390.062	855.69
390.287	870.69
390.512	862.69
390.736	866.69
390.961	899.69
391.186	906.69
391.411	949.69
391.636	969.69
391.86	991.69
392.085	998.69
392.31	999.69
392.534	969.69
392.759	954.69
392.984	959.69
393.208	933.69
393.433	927.69
393.658	937.69
393.882	953.69
394.107	956.69
394.331	960.69
394.556	943.69
394.78	970.69
395.005	969.69
395.229	969.69
395.454	991.69
395.678	1008.69
395.903	1011.69
396.127	1000.69
396.352	926.69
396.576	925.69
396.801	931.69
397.025	954.69
397.249	952.69
397.474	985.69
397.698	978.69
397.922	992.69
398.147	963.69
398.371	972.69
398.595	1018.69
398.82	1074.69
399.044	1181.69
399.268	1290.69
399.492	1507.69
399.717	1752.69
399.941	1723.69
400.165	1490.69
400.389	1305.69
400.613	1216.69
400.837	1134.69
401.062	1104.69
401.286	1112.69
401.51	1111.69
401.734	1092.69
401.958	1129.69
402.182	1130.69
402.406	1124.69
402.63	1175.69
402.854	1208.69
403.078	1220.69
403.302	1255.69
403.526	1229.69
403.75	1267.69
403.974	1298.69
404.198	1316.69
404.422	1311.69
404.645	1257.69
404.869	1262.69
405.093	1233.69
405.317	1190.69
405.541	1238.69
405.765	1231.69
405.988	1148.69
406.212	1223.69
406.436	1232.69
406.66	1242.69
406.883	1240.69
407.107	1353.69
407.331	1371.69
407.555	1470.69
407.778	1448.69
408.002	1417.69
408.226	1365.69
408.449	1308.69
408.673	1255.69
408.896	1259.69
409.12	1230.69
409.344	1262.69
409.567	1232.69
409.791	1276.69
410.014	1267.69
410.238	1232.69
410.461	1224.69
410.685	1225.69
410.908	1211.69
411.132	1207.69
411.355	1164.69
411.578	1165.69
411.802	1151.69
412.025	1145.69
412.249	1138.69
412.472	1164.69
412.695	1127.69
412.919	1129.69
413.142	1115.69
413.365	1099.69
413.589	1154.69
413.812	1073.69
414.035	1093.69
414.258	1113.69
414.482	1087.69
414.705	1129.69
414.928	1142.69
415.151	1127.69
415.374	1067.69
415.597	1118.69
415.821	1075.69
416.044	1066.69
416.267	1072.69
416.49	1054.69
416.713	1095.69
416.936	1093.69
417.159	1062.69
417.382	1061.69
417.605	1083.69
417.828	1091.69
418.051	1101.69
418.274	1142.69
418.497	1108.69
418.72	1118.69
418.943	1129.69
419.166	1148.69
419.389	1275.69
419.611	1257.69
419.834	1177.69
420.057	1157.69
420.28	1120.69
420.503	1070.69
420.726	1082.69
420.948	1078.69
421.171	1106.69
421.394	1086.69
421.617	1072.69
421.839	1102.69
422.062	1084.69
422.285	1068.69
422.507	1108.69
422.73	1087.69
422.953	1132.69
423.175	1148.69
423.398	1169.69
423.621	1131.69
423.843	1152.69
424.066	1172.69
424.288	1183.69
424.511	1174.69
424.733	1153.69
424.956	1104.69
425.178	1113.69
425.401	1091.69
425.623	1110.69
425.846	1067.69
426.068	1052.69
426.291	1031.69
426.513	1015.69
426.735	1014.69
426.958	1028.69
427.18	985.69
427.402	978.69
427.625	993.69
427.847	979.69
428.069	956.69
428.292	964.69
428.514	935.69
428.736	934.69
428.958	937.69
429.181	937.69
429.403	953.69
429.625	947.69
429.847	903.69
430.069	936.69
430.292	930.69
430.514	935.69
430.736	946.69
430.958	963.69
431.18	936.69
431.402	939.69
431.624	955.69
431.846	983.69
432.068	983.69
432.29	985.69
432.512	937.69
432.734	970.69
432.956	978.69
433.178	976.69
433.4	977.69
433.622	969.69
433.844	997.69
434.066	992.69
434.287	994.69
434.509	1032.69
434.731	1054.69
434.953	1117.69
435.175	1109.69
435.397	1120.69
435.618	1058.69
435.84	1033.69
436.062	998.69
436.284	962.69
436.505	936.69
436.727	997.69
436.949	966.69
437.17	952.69
437.392	943.69
437.614	952.69
437.835	927.69
438.057	934.69
438.278	916.69
438.5	916.69
438.721	910.69
438.943	929.69
439.165	935.69
439.386	942.69
439.608	969.69
439.829	976.69
440.05	964.69
440.272	979.69
440.493	982.69
440.715	1014.69
440.936	970.69
441.158	1023.69
441.379	1038.69
441.6	1087.69
441.822	1132.69
442.043	1099.69
442.264	1093.69
442.486	1054.69
442.707	1046.69
442.928	1084.69
443.149	1081.69
443.371	1056.69
443.592	1052.69
443.813	1054.69
444.034	1100.69
444.255	1137.69
444.476	1177.69
444.698	1278.69
444.919	1339.69
445.14	1410.69
445.361	1230.69
445.582	1127.69
445.803	1064.69
446.024	1025.69
446.245	999.69
446.466	1013.69
446.687	942.69
446.908	968.69
447.129	961.69
447.35	914.69
447.571	922.69
447.792	919.69
448.013	926.69
448.234	862.69
448.455	882.69
448.675	894.69
448.896	892.69
449.117	886.69
449.338	884.69
449.559	872.69
449.779	887.69
450	857.69
450.221	863.69
450.442	892.69
450.662	921.69
450.883	897.69
451.104	948.69
451.324	900.69
451.545	901.69
451.766	896.69
451.986	896.69
452.207	903.69
452.428	914.69
452.648	900.69
452.869	852.69
453.089	858.69
453.31	882.69
453.53	878.69
453.751	875.69
453.971	869.69
454.192	850.69
454.412	854.69
454.633	864.69
454.853	867.69
455.073	823.69
455.294	830.69
455.514	838.69
455.734	835.69
455.955	826.69
456.175	816.69
456.395	817.69
456.616	822.69
456.836	831.69
457.056	808.69
457.276	801.69
457.497	835.69
457.717	826.69
457.937	828.69
458.157	867.69
458.377	824.69
458.598	842.69
458.818	888.69
459.038	942.69
459.258	968.69
459.478	993.69
459.698	1057.69
459.918	1048.69
460.138	1068.69
460.358	1130.69
460.578	1129.69
460.798	1137.69
461.018	1154.69
461.238	1114.69
461.458	1154.69
461.678	1135.69
461.898	1132.69
462.118	1160.69
462.338	1211.69
462.558	1252.69
462.777	1281.69
462.997	1388.69
463.217	1539.69
463.437	1615.69
463.657	1425.69
463.876	1368.69
464.096	1390.69
464.316	1368.69
464.536	1397.69
464.755	1298.69
464.975	1257.69
465.195	1180.69
465.414	1126.69
465.634	1047.69
465.854	1028.69
466.073	980.69
466.293	964.69
466.512	942.69
466.732	938.69
466.951	924.69
467.171	909.69
467.391	915.69
467.61	931.69
467.829	931.69
468.049	913.69
468.268	896.69
468.488	858.69
468.707	852.69
468.927	883.69
469.146	875.69
469.365	905.69
469.585	894.69
469.804	939.69
470.023	937.69
470.243	931.69
470.462	966.69
470.681	938.69
470.901	960.69
471.12	963.69
471.339	935.69
471.558	905.69
471.777	907.69
471.997	918.69
472.216	880.69
472.435	875.69
472.654	863.69
472.873	851.69
473.092	870.69
473.311	864.69
473.53	850.69
473.749	854.69
473.968	863.69
474.187	830.69
474.406	836.69
474.625	864.69
474.844	895.69
475.063	876.69
475.282	898.69
475.501	878.69
475.72	883.69
475.939	886.69
476.158	882.69
476.377	920.69
476.596	917.69
476.814	921.69
477.033	915.69
477.252	959.69
477.471	955.69
477.69	996.69
477.908	974.69
478.127	1026.69
478.346	1082.69
478.564	1057.69
478.783	1066.69
479.002	1098.69
479.22	1108.69
479.439	1112.69
479.658	1089.69
479.876	1089.69
480.095	1115.69
480.313	1140.69
480.532	1179.69
480.751	1190.69
480.969	1146.69
481.188	1096.69
481.406	1067.69
481.624	1046.69
481.843	1035.69
482.061	1002.69
482.28	998.69
482.498	1001.69
482.717	968.69
482.935	1007.69
483.153	998.69
483.372	965.69
483.59	995.69
483.808	998.69
484.027	985.69
484.245	1029.69
484.463	1024.69
484.681	1055.69
484.9	1023.69
485.118	1046.69
485.336	1042.69
485.554	1023.69
485.772	1066.69
485.99	1060.69
486.209	1076.69
486.427	1082.69
486.645	1074.69
486.863	1057.69
487.081	1028.69
487.299	1044.69
487.517	1062.69
487.735	1030.69
487.953	1060.69
488.171	1059.69
488.389	1062.69
488.607	1028.69
488.825	1012.69
489.043	1053.69
489.261	1026.69
489.479	1013.69
489.696	1061.69
489.914	1073.69
490.132	1042.69
490.35	1049.69
490.568	1019.69
490.786	1063.69
491.003	1030.69
491.221	1024.69
491.439	1053.69
491.657	1054.69
491.874	1043.69
492.092	1018.69
492.31	1052.69
492.527	1034.69
492.745	1094.69
492.963	1052.69
493.18	1074.69
493.398	1041.69
493.615	1086.69
493.833	1099.69
494.05	1078.69
494.268	1120.69
494.485	1101.69
494.703	1094.69
494.92	1148.69
495.138	1076.69
495.355	1087.69
495.573	1097.69
495.79	1111.69
496.008	1122.69
496.225	1118.69
496.442	1110.69
496.66	1161.69
496.877	1149.69
497.094	1150.69
497.312	1161.69
497.529	1205.69
497.746	1256.69
