Data from Ni(NO3)2@0.0625M.TitratingCurve.Agarose3%dH2O.NegLispCup.LampEnergy10.LIBS07252019_HRD10591_18-16-01-569.txt Node
Date: Thu Jul 25 18:16:01 EDT 2019
User: cochatt
Spectrometer: HR+D1059
Trigger mode: 1
Integration Time (sec): 1.000000E-1
Scans to average: 1
Electric dark correction enabled: true
Nonlinearity correction enabled: false
Boxcar width: 0
XAxis mode: Wavelengths
Number of Pixels in Spectrum: 2048
>>>>>Begin Spectral Data<<<<<
223.165	-18.69
223.4	-18.69
223.635	-18.69
223.869	-12.69
224.104	-26.69
224.338	-20.69
224.573	-13.69
224.808	-14.69
225.042	-14.69
225.277	-7.69
225.511	-9.69
225.746	19.31
225.98	21.31
226.215	15.31
226.449	4.31
226.683	9.31
226.918	33.31
227.152	36.31
227.387	21.31
227.621	40.31
227.856	36.31
228.09	45.31
228.324	49.31
228.559	64.31
228.793	58.31
229.027	88.31
229.262	92.31
229.496	109.31
229.73	115.31
229.964	106.31
230.199	116.31
230.433	130.31
230.667	120.31
230.901	123.31
231.136	112.31
231.37	126.31
231.604	130.31
231.838	121.31
232.072	112.31
232.306	130.31
232.541	124.31
232.775	119.31
233.009	132.31
233.243	129.31
233.477	128.31
233.711	123.31
233.945	120.31
234.179	119.31
234.413	129.31
234.647	121.31
234.881	145.31
235.115	142.31
235.349	128.31
235.583	133.31
235.817	128.31
236.051	126.31
236.285	135.31
236.519	140.31
236.753	142.31
236.987	124.31
237.221	124.31
237.455	118.31
237.689	144.31
237.922	140.31
238.156	133.31
238.39	141.31
238.624	149.31
238.858	134.31
239.091	148.31
239.325	125.31
239.559	148.31
239.793	144.31
240.027	148.31
240.26	140.31
240.494	142.31
240.728	144.31
240.961	133.31
241.195	162.31
241.429	144.31
241.662	149.31
241.896	142.31
242.13	133.31
242.363	160.31
242.597	134.31
242.83	164.31
243.064	161.31
243.298	167.31
243.531	151.31
243.765	142.31
243.998	164.31
244.232	167.31
244.465	139.31
244.699	164.31
244.932	156.31
245.166	158.31
245.399	185.31
245.633	173.31
245.866	167.31
246.099	169.31
246.333	177.31
246.566	192.31
246.8	154.31
247.033	182.31
247.266	170.31
247.5	176.31
247.733	172.31
247.966	170.31
248.2	172.31
248.433	184.31
248.666	202.31
248.899	177.31
249.133	183.31
249.366	173.31
249.599	187.31
249.832	190.31
250.066	194.31
250.299	191.31
250.532	186.31
250.765	197.31
250.998	186.31
251.231	201.31
251.465	202.31
251.698	192.31
251.931	192.31
252.164	197.31
252.397	204.31
252.63	196.31
252.863	206.31
253.096	204.31
253.329	197.31
253.562	211.31
253.795	206.31
254.028	205.31
254.261	212.31
254.494	197.31
254.727	209.31
254.96	222.31
255.193	190.31
255.426	211.31
255.659	198.31
255.892	205.31
256.124	215.31
256.357	213.31
256.59	214.31
256.823	211.31
257.056	230.31
257.289	230.31
257.521	217.31
257.754	228.31
257.987	213.31
258.22	220.31
258.452	237.31
258.685	220.31
258.918	232.31
259.151	234.31
259.383	222.31
259.616	228.31
259.849	227.31
260.081	233.31
260.314	248.31
260.547	242.31
260.779	244.31
261.012	237.31
261.244	220.31
261.477	247.31
261.71	244.31
261.942	224.31
262.175	240.31
262.407	240.31
262.64	241.31
262.872	235.31
263.105	246.31
263.337	249.31
263.57	235.31
263.802	239.31
264.035	253.31
264.267	251.31
264.499	236.31
264.732	267.31
264.964	247.31
265.197	269.31
265.429	268.31
265.661	242.31
265.894	260.31
266.126	268.31
266.358	252.31
266.591	243.31
266.823	268.31
267.055	263.31
267.287	264.31
267.52	264.31
267.752	261.31
267.984	251.31
268.216	277.31
268.448	259.31
268.681	277.31
268.913	275.31
269.145	277.31
269.377	258.31
269.609	277.31
269.841	267.31
270.073	265.31
270.306	280.31
270.538	274.31
270.77	277.31
271.002	285.31
271.234	274.31
271.466	266.31
271.698	252.31
271.93	277.31
272.162	282.31
272.394	288.31
272.626	286.31
272.858	274.31
273.09	288.31
273.322	292.31
273.553	288.31
273.785	300.31
274.017	286.31
274.249	294.31
274.481	301.31
274.713	288.31
274.945	300.31
275.176	292.31
275.408	285.31
275.64	299.31
275.872	289.31
276.104	309.31
276.335	304.31
276.567	296.31
276.799	296.31
277.031	299.31
277.262	298.31
277.494	323.31
277.726	311.31
277.957	313.31
278.189	323.31
278.421	312.31
278.652	337.31
278.884	325.31
279.115	315.31
279.347	306.31
279.579	318.31
279.81	314.31
280.042	320.31
280.273	325.31
280.505	337.31
280.736	325.31
280.968	329.31
281.199	317.31
281.431	332.31
281.662	338.31
281.894	323.31
282.125	331.31
282.356	333.31
282.588	339.31
282.819	344.31
283.051	344.31
283.282	346.31
283.513	337.31
283.745	345.31
283.976	344.31
284.207	331.31
284.439	338.31
284.67	359.31
284.901	361.31
285.132	348.31
285.364	334.31
285.595	337.31
285.826	336.31
286.057	353.31
286.288	359.31
286.52	357.31
286.751	370.31
286.982	377.31
287.213	373.31
287.444	351.31
287.675	364.31
287.906	376.31
288.138	356.31
288.369	364.31
288.6	372.31
288.831	373.31
289.062	388.31
289.293	376.31
289.524	351.31
289.755	365.31
289.986	368.31
290.217	370.31
290.448	380.31
290.679	366.31
290.91	392.31
291.141	378.31
291.371	365.31
291.602	370.31
291.833	346.31
292.064	380.31
292.295	371.31
292.526	385.31
292.757	380.31
292.987	388.31
293.218	364.31
293.449	382.31
293.68	380.31
293.91	393.31
294.141	388.31
294.372	380.31
294.603	398.31
294.833	371.31
295.064	391.31
295.295	385.31
295.525	373.31
295.756	390.31
295.987	379.31
296.217	392.31
296.448	393.31
296.679	398.31
296.909	414.31
297.14	408.31
297.37	404.31
297.601	410.31
297.831	403.31
298.062	405.31
298.292	427.31
298.523	421.31
298.753	419.31
298.984	414.31
299.214	408.31
299.445	404.31
299.675	412.31
299.905	405.31
300.136	402.31
300.366	418.31
300.597	412.31
300.827	422.31
301.057	442.31
301.288	446.31
301.518	418.31
301.748	452.31
301.979	440.31
302.209	434.31
302.439	418.31
302.669	423.31
302.9	448.31
303.13	421.31
303.36	444.31
303.59	432.31
303.82	429.31
304.051	435.31
304.281	438.31
304.511	458.31
304.741	423.31
304.971	432.31
305.201	428.31
305.431	437.31
305.661	426.31
305.891	416.31
306.121	414.31
306.352	418.31
306.582	426.31
306.812	408.31
307.042	424.31
307.272	398.31
307.502	417.31
307.731	426.31
307.961	408.31
308.191	423.31
308.421	410.31
308.651	393.31
308.881	408.31
309.111	412.31
309.341	422.31
309.571	416.31
309.8	412.31
310.03	408.31
310.26	438.31
310.49	435.31
310.72	430.31
310.949	413.31
311.179	412.31
311.409	432.31
311.639	438.31
311.868	438.31
312.098	430.31
312.328	429.31
312.557	419.31
312.787	434.31
313.017	446.31
313.246	457.31
313.476	451.31
313.706	451.31
313.935	428.31
314.165	462.31
314.394	439.31
314.624	447.31
314.853	432.31
315.083	440.31
315.312	448.31
315.542	450.31
315.771	429.31
316.001	457.31
316.23	432.31
316.46	437.31
316.689	427.31
316.919	413.31
317.148	438.31
317.377	435.31
317.607	439.31
317.836	435.31
318.065	433.31
318.295	424.31
318.524	448.31
318.753	435.31
318.983	442.31
319.212	448.31
319.441	443.31
319.67	429.31
319.9	439.31
320.129	434.31
320.358	444.31
320.587	442.31
320.816	425.31
321.046	438.31
321.275	452.31
321.504	451.31
321.733	460.31
321.962	445.31
322.191	432.31
322.42	424.31
322.649	430.31
322.878	465.31
323.108	452.31
323.337	442.31
323.566	471.31
323.795	456.31
324.024	474.31
324.253	467.31
324.482	485.31
324.71	471.31
324.939	457.31
325.168	468.31
325.397	458.31
325.626	462.31
325.855	482.31
326.084	490.31
326.313	494.31
326.542	492.31
326.77	503.31
326.999	477.31
327.228	493.31
327.457	472.31
327.686	480.31
327.914	468.31
328.143	514.31
328.372	485.31
328.6	479.31
328.829	481.31
329.058	481.31
329.287	484.31
329.515	491.31
329.744	496.31
329.972	485.31
330.201	483.31
330.43	516.31
330.658	496.31
330.887	489.31
331.115	494.31
331.344	525.31
331.572	516.31
331.801	521.31
332.03	526.31
332.258	544.31
332.486	536.31
332.715	578.31
332.943	572.31
333.172	603.31
333.4	644.31
333.629	650.31
333.857	652.31
334.085	640.31
334.314	632.31
334.542	608.31
334.771	629.31
334.999	609.31
335.227	604.31
335.455	588.31
335.684	562.31
335.912	594.31
336.14	578.31
336.369	576.31
336.597	590.31
336.825	586.31
337.053	580.31
337.281	568.31
337.51	584.31
337.738	554.31
337.966	539.31
338.194	553.31
338.422	545.31
338.65	534.31
338.878	521.31
339.106	530.31
339.334	552.31
339.562	542.31
339.79	493.31
340.018	494.31
340.246	499.31
340.474	504.31
340.702	514.31
340.93	520.31
341.158	530.31
341.386	505.31
341.614	515.31
341.842	530.31
342.07	520.31
342.298	484.31
342.526	498.31
342.754	507.31
342.981	504.31
343.209	504.31
343.437	546.31
343.665	564.31
343.893	620.31
344.12	652.31
344.348	600.31
344.576	586.31
344.804	562.31
345.031	549.31
345.259	522.31
345.487	535.31
345.714	539.31
345.942	523.31
346.17	513.31
346.397	485.31
346.625	520.31
346.853	504.31
347.08	513.31
347.308	505.31
347.535	508.31
347.763	493.31
347.99	514.31
348.218	512.31
348.445	506.31
348.673	540.31
348.9	501.31
349.128	500.31
349.355	506.31
349.583	501.31
349.81	501.31
350.037	482.31
350.265	466.31
350.492	492.31
350.72	497.31
350.947	473.31
351.174	493.31
351.402	506.31
351.629	504.31
351.856	507.31
352.083	475.31
352.311	476.31
352.538	487.31
352.765	470.31
352.992	505.31
353.22	496.31
353.447	487.31
353.674	473.31
353.901	448.31
354.128	484.31
354.355	475.31
354.583	482.31
354.81	505.31
355.037	494.31
355.264	484.31
355.491	471.31
355.718	497.31
355.945	476.31
356.172	498.31
356.399	501.31
356.626	496.31
356.853	492.31
357.08	477.31
357.307	496.31
357.534	496.31
357.761	488.31
357.988	493.31
358.215	489.31
358.441	475.31
358.668	471.31
358.895	492.31
359.122	493.31
359.349	478.31
359.576	496.31
359.802	471.31
360.029	486.31
360.256	485.31
360.483	474.31
360.709	480.31
360.936	480.31
361.163	475.31
361.39	504.31
361.616	459.31
361.843	483.31
362.07	491.31
362.296	482.31
362.523	481.31
362.749	482.31
362.976	466.31
363.203	474.31
363.429	488.31
363.656	483.31
363.882	505.31
364.109	484.31
364.335	474.31
364.562	475.31
364.788	447.31
365.015	467.31
365.241	465.31
365.468	491.31
365.694	453.31
365.92	471.31
366.147	485.31
366.373	477.31
366.599	488.31
366.826	481.31
367.052	502.31
367.278	491.31
367.505	512.31
367.731	468.31
367.957	481.31
368.184	479.31
368.41	522.31
368.636	481.31
368.862	492.31
369.089	498.31
369.315	483.31
369.541	502.31
369.767	504.31
369.993	469.31
370.219	512.31
370.445	520.31
370.672	502.31
370.898	505.31
371.124	532.31
371.35	536.31
371.576	527.31
371.802	531.31
372.028	544.31
372.254	541.31
372.48	512.31
372.706	544.31
372.932	533.31
373.158	551.31
373.384	533.31
373.61	520.31
373.835	520.31
374.061	539.31
374.287	550.31
374.513	536.31
374.739	545.31
374.965	562.31
375.191	579.31
375.416	590.31
375.642	570.31
375.868	568.31
376.094	556.31
376.319	536.31
376.545	535.31
376.771	519.31
376.997	525.31
377.222	535.31
377.448	560.31
377.674	527.31
377.899	532.31
378.125	523.31
378.35	493.31
378.576	533.31
378.802	497.31
379.027	522.31
379.253	521.31
379.478	499.31
379.704	517.31
379.929	504.31
380.155	515.31
380.38	526.31
380.606	500.31
380.831	512.31
381.057	536.31
381.282	536.31
381.507	536.31
381.733	536.31
381.958	532.31
382.184	522.31
382.409	532.31
382.634	536.31
382.86	548.31
383.085	577.31
383.31	560.31
383.535	591.31
383.761	576.31
383.986	598.31
384.211	601.31
384.436	608.31
384.662	616.31
384.887	624.31
385.112	621.31
385.337	626.31
385.562	642.31
385.787	615.31
386.013	634.31
386.238	634.31
386.463	636.31
386.688	657.31
386.913	624.31
387.138	608.31
387.363	614.31
387.588	608.31
387.813	599.31
388.038	612.31
388.263	618.31
388.488	602.31
388.713	616.31
388.938	597.31
389.163	625.31
389.387	598.31
389.612	586.31
389.837	620.31
390.062	616.31
390.287	601.31
390.512	602.31
390.736	625.31
390.961	626.31
391.186	632.31
391.411	640.31
391.636	657.31
391.86	694.31
392.085	710.31
392.31	691.31
392.534	684.31
392.759	662.31
392.984	661.31
393.208	648.31
393.433	645.31
393.658	683.31
393.882	686.31
394.107	656.31
394.331	664.31
394.556	673.31
394.78	665.31
395.005	660.31
395.229	688.31
395.454	669.31
395.678	698.31
395.903	688.31
396.127	701.31
396.352	670.31
396.576	656.31
396.801	628.31
397.025	649.31
397.249	652.31
397.474	692.31
397.698	703.31
397.922	708.31
398.147	681.31
398.371	682.31
398.595	756.31
398.82	746.31
399.044	806.31
399.268	914.31
399.492	1009.31
399.717	1172.31
399.941	1173.31
400.165	1025.31
400.389	913.31
400.613	850.31
400.837	840.31
401.062	771.31
401.286	781.31
401.51	787.31
401.734	759.31
401.958	765.31
402.182	801.31
402.406	809.31
402.63	811.31
402.854	819.31
403.078	841.31
403.302	884.31
403.526	894.31
403.75	892.31
403.974	894.31
404.198	911.31
404.422	926.31
404.645	905.31
404.869	866.31
405.093	886.31
405.317	873.31
405.541	876.31
405.765	850.31
405.988	847.31
406.212	850.31
406.436	841.31
406.66	866.31
406.883	887.31
407.107	922.31
407.331	965.31
407.555	1020.31
407.778	987.31
408.002	970.31
408.226	951.31
408.449	904.31
408.673	876.31
408.896	878.31
409.12	888.31
409.344	884.31
409.567	876.31
409.791	914.31
410.014	894.31
410.238	892.31
410.461	865.31
410.685	866.31
410.908	843.31
411.132	868.31
411.355	808.31
411.578	794.31
411.802	797.31
412.025	821.31
412.249	811.31
412.472	811.31
412.695	796.31
412.919	771.31
413.142	794.31
413.365	753.31
413.589	768.31
413.812	745.31
414.035	752.31
414.258	738.31
414.482	784.31
414.705	800.31
414.928	788.31
415.151	778.31
415.374	784.31
415.597	749.31
415.821	753.31
416.044	768.31
416.267	750.31
416.49	734.31
416.713	763.31
416.936	767.31
417.159	754.31
417.382	738.31
417.605	757.31
417.828	765.31
418.051	763.31
418.274	786.31
418.497	796.31
418.72	786.31
418.943	807.31
419.166	833.31
419.389	871.31
419.611	856.31
419.834	810.31
420.057	810.31
420.28	803.31
420.503	737.31
420.726	793.31
420.948	758.31
421.171	782.31
421.394	772.31
421.617	766.31
421.839	763.31
422.062	777.31
422.285	770.31
422.507	760.31
422.73	777.31
422.953	761.31
423.175	805.31
423.398	811.31
423.621	809.31
423.843	820.31
424.066	819.31
424.288	821.31
424.511	810.31
424.733	790.31
424.956	780.31
425.178	775.31
425.401	795.31
425.623	794.31
425.846	762.31
426.068	741.31
426.291	738.31
426.513	708.31
426.735	731.31
426.958	717.31
427.18	716.31
427.402	678.31
427.625	696.31
427.847	677.31
428.069	701.31
428.292	715.31
428.514	683.31
428.736	699.31
428.958	672.31
429.181	704.31
429.403	704.31
429.625	653.31
429.847	667.31
430.069	677.31
430.292	662.31
430.514	702.31
430.736	663.31
430.958	696.31
431.18	683.31
431.402	701.31
431.624	681.31
431.846	700.31
432.068	698.31
432.29	712.31
432.512	681.31
432.734	704.31
432.956	672.31
433.178	725.31
433.4	699.31
433.622	710.31
433.844	711.31
434.066	705.31
434.287	703.31
434.509	720.31
434.731	780.31
434.953	785.31
435.175	816.31
435.397	770.31
435.618	757.31
435.84	714.31
436.062	716.31
436.284	702.31
436.505	682.31
436.727	696.31
436.949	710.31
437.17	684.31
437.392	690.31
437.614	674.31
437.835	656.31
438.057	698.31
438.278	671.31
438.5	658.31
438.721	678.31
438.943	697.31
439.165	690.31
439.386	664.31
439.608	704.31
439.829	694.31
440.05	706.31
440.272	713.31
440.493	702.31
440.715	712.31
440.936	713.31
441.158	733.31
441.379	754.31
441.6	808.31
441.822	787.31
442.043	788.31
442.264	799.31
442.486	782.31
442.707	772.31
442.928	783.31
443.149	778.31
443.371	772.31
443.592	784.31
443.813	764.31
444.034	782.31
444.255	811.31
444.476	841.31
444.698	900.31
444.919	938.31
445.14	1003.31
445.361	882.31
445.582	796.31
445.803	760.31
446.024	743.31
446.245	731.31
446.466	712.31
446.687	716.31
446.908	712.31
447.129	690.31
447.35	674.31
447.571	650.31
447.792	643.31
448.013	665.31
448.234	653.31
448.455	650.31
448.675	659.31
448.896	652.31
449.117	625.31
449.338	640.31
449.559	631.31
449.779	651.31
450	646.31
450.221	622.31
450.442	658.31
450.662	661.31
450.883	657.31
451.104	665.31
451.324	666.31
451.545	679.31
451.766	677.31
451.986	660.31
452.207	655.31
452.428	672.31
452.648	633.31
452.869	629.31
453.089	625.31
453.31	664.31
453.53	638.31
453.751	618.31
453.971	617.31
454.192	629.31
454.412	616.31
454.633	623.31
454.853	636.31
455.073	621.31
455.294	589.31
455.514	627.31
455.734	609.31
455.955	608.31
456.175	608.31
456.395	608.31
456.616	597.31
456.836	605.31
457.056	586.31
457.276	566.31
457.497	602.31
457.717	617.31
457.937	611.31
458.157	632.31
458.377	622.31
458.598	629.31
458.818	648.31
459.038	638.31
459.258	688.31
459.478	719.31
459.698	724.31
459.918	773.31
460.138	760.31
460.358	787.31
460.578	821.31
460.798	847.31
461.018	838.31
461.238	805.31
461.458	805.31
461.678	819.31
461.898	810.31
462.118	838.31
462.338	881.31
462.558	901.31
462.777	908.31
462.997	1010.31
463.217	1108.31
463.437	1121.31
463.657	1040.31
463.876	978.31
464.096	972.31
464.316	985.31
464.536	988.31
464.755	936.31
464.975	888.31
465.195	857.31
465.414	808.31
465.634	742.31
465.854	745.31
466.073	740.31
466.293	739.31
466.512	672.31
466.732	675.31
466.951	693.31
467.171	662.31
467.391	692.31
467.61	676.31
467.829	674.31
468.049	680.31
468.268	618.31
468.488	628.31
468.707	639.31
468.927	657.31
469.146	660.31
469.365	642.31
469.585	646.31
469.804	674.31
470.023	691.31
470.243	690.31
470.462	697.31
470.681	701.31
470.901	700.31
471.12	688.31
471.339	661.31
471.558	670.31
471.777	645.31
471.997	638.31
472.216	615.31
472.435	667.31
472.654	666.31
472.873	629.31
473.092	632.31
473.311	649.31
473.53	644.31
473.749	635.31
473.968	652.31
474.187	637.31
474.406	629.31
474.625	644.31
474.844	633.31
475.063	657.31
475.282	647.31
475.501	660.31
475.72	650.31
475.939	617.31
476.158	650.31
476.377	680.31
476.596	664.31
476.814	677.31
477.033	679.31
477.252	696.31
477.471	677.31
477.69	720.31
477.908	760.31
478.127	742.31
478.346	756.31
478.564	758.31
478.783	773.31
479.002	803.31
479.22	812.31
479.439	792.31
479.658	779.31
479.876	808.31
480.095	777.31
480.313	834.31
480.532	869.31
480.751	870.31
480.969	833.31
481.188	812.31
481.406	764.31
481.624	734.31
481.843	731.31
482.061	728.31
482.28	737.31
482.498	726.31
482.717	746.31
482.935	723.31
483.153	737.31
483.372	750.31
483.59	740.31
483.808	742.31
484.027	748.31
484.245	736.31
484.463	736.31
484.681	752.31
484.9	770.31
485.118	754.31
485.336	752.31
485.554	781.31
485.772	778.31
485.99	781.31
486.209	773.31
486.427	797.31
486.645	782.31
486.863	780.31
487.081	801.31
487.299	780.31
487.517	786.31
487.735	757.31
487.953	744.31
488.171	777.31
488.389	753.31
488.607	790.31
488.825	739.31
489.043	745.31
489.261	770.31
489.479	744.31
489.696	761.31
489.914	747.31
490.132	782.31
490.35	770.31
490.568	744.31
490.786	750.31
491.003	782.31
491.221	783.31
491.439	749.31
491.657	773.31
491.874	757.31
492.092	782.31
492.31	761.31
492.527	783.31
492.745	789.31
492.963	793.31
493.18	782.31
493.398	781.31
493.615	806.31
493.833	809.31
494.05	791.31
494.268	791.31
494.485	798.31
494.703	835.31
494.92	830.31
495.138	821.31
495.355	834.31
495.573	797.31
495.79	809.31
496.008	805.31
496.225	796.31
496.442	803.31
496.66	824.31
496.877	835.31
497.094	864.31
497.312	890.31
497.529	882.31
497.746	889.31
497.963	904.31
498.181	948.31
498.398	1016.31
498.615	1063.31
498.832	1112.31
499.049	1201.31
499.267	1304.31
499.484	1412.31
499.701	1538.31
499.918	1748.31
500.135	1965.31
500.352	2288.31
500.569	2413.31
500.786	2375.31
501.003	2235.31
501.22	1979.31
