Data from Ni(NO3)2@0.0625M.TitratingCurve.Agarose3%dH2O.NegLispCup.LampEnergy10.LIBS07252019_HRD10591_18-14-23-569.txt Node
Date: Thu Jul 25 18:14:23 EDT 2019
User: cochatt
Spectrometer: HR+D1059
Trigger mode: 1
Integration Time (sec): 1.000000E-1
Scans to average: 1
Electric dark correction enabled: true
Nonlinearity correction enabled: false
Boxcar width: 0
XAxis mode: Wavelengths
Number of Pixels in Spectrum: 2048
>>>>>Begin Spectral Data<<<<<
223.165	0.44
223.4	0.44
223.635	0.44
223.869	-17.56
224.104	-31.56
224.338	-6.56
224.573	-18.56
224.808	-20.56
225.042	7.44
225.277	3.44
225.511	-8.56
225.746	-8.56
225.98	0.44
226.215	10.44
226.449	16.44
226.683	29.44
226.918	17.44
227.152	26.44
227.387	49.44
227.621	46.44
227.856	56.44
228.09	65.44
228.324	53.44
228.559	46.44
228.793	79.44
229.027	98.44
229.262	114.44
229.496	126.44
229.73	124.44
229.964	127.44
230.199	149.44
230.433	133.44
230.667	133.44
230.901	157.44
231.136	136.44
231.37	151.44
231.604	137.44
231.838	156.44
232.072	155.44
232.306	138.44
232.541	146.44
232.775	140.44
233.009	153.44
233.243	165.44
233.477	145.44
233.711	166.44
233.945	147.44
234.179	161.44
234.413	164.44
234.647	155.44
234.881	166.44
235.115	153.44
235.349	158.44
235.583	142.44
235.817	157.44
236.051	155.44
236.285	159.44
236.519	148.44
236.753	174.44
236.987	156.44
237.221	151.44
237.455	159.44
237.689	164.44
237.922	186.44
238.156	167.44
238.39	163.44
238.624	174.44
238.858	188.44
239.091	172.44
239.325	189.44
239.559	184.44
239.793	181.44
240.027	170.44
240.26	190.44
240.494	185.44
240.728	169.44
240.961	170.44
241.195	190.44
241.429	201.44
241.662	212.44
241.896	191.44
242.13	195.44
242.363	206.44
242.597	189.44
242.83	216.44
243.064	198.44
243.298	211.44
243.531	225.44
243.765	219.44
243.998	235.44
244.232	233.44
244.465	229.44
244.699	222.44
244.932	231.44
245.166	221.44
245.399	234.44
245.633	226.44
245.866	225.44
246.099	253.44
246.333	240.44
246.566	227.44
246.8	231.44
247.033	237.44
247.266	241.44
247.5	254.44
247.733	255.44
247.966	258.44
248.2	254.44
248.433	249.44
248.666	245.44
248.899	249.44
249.133	272.44
249.366	259.44
249.599	259.44
249.832	265.44
250.066	265.44
250.299	281.44
250.532	258.44
250.765	264.44
250.998	277.44
251.231	261.44
251.465	285.44
251.698	292.44
251.931	282.44
252.164	286.44
252.397	294.44
252.63	303.44
252.863	290.44
253.096	294.44
253.329	286.44
253.562	289.44
253.795	293.44
254.028	309.44
254.261	312.44
254.494	300.44
254.727	296.44
254.96	307.44
255.193	299.44
255.426	302.44
255.659	319.44
255.892	310.44
256.124	307.44
256.357	311.44
256.59	314.44
256.823	310.44
257.056	292.44
257.289	302.44
257.521	315.44
257.754	327.44
257.987	322.44
258.22	313.44
258.452	321.44
258.685	324.44
258.918	311.44
259.151	345.44
259.383	337.44
259.616	330.44
259.849	330.44
260.081	330.44
260.314	325.44
260.547	325.44
260.779	342.44
261.012	332.44
261.244	334.44
261.477	342.44
261.71	332.44
261.942	363.44
262.175	329.44
262.407	350.44
262.64	333.44
262.872	375.44
263.105	358.44
263.337	337.44
263.57	354.44
263.802	366.44
264.035	357.44
264.267	364.44
264.499	349.44
264.732	363.44
264.964	375.44
265.197	370.44
265.429	381.44
265.661	381.44
265.894	369.44
266.126	376.44
266.358	394.44
266.591	373.44
266.823	402.44
267.055	383.44
267.287	381.44
267.52	372.44
267.752	387.44
267.984	390.44
268.216	409.44
268.448	393.44
268.681	383.44
268.913	395.44
269.145	395.44
269.377	386.44
269.609	391.44
269.841	403.44
270.073	401.44
270.306	411.44
270.538	382.44
270.77	398.44
271.002	410.44
271.234	406.44
271.466	422.44
271.698	390.44
271.93	416.44
272.162	413.44
272.394	425.44
272.626	417.44
272.858	415.44
273.09	419.44
273.322	414.44
273.553	417.44
273.785	421.44
274.017	416.44
274.249	440.44
274.481	437.44
274.713	433.44
274.945	420.44
275.176	447.44
275.408	453.44
275.64	441.44
275.872	440.44
276.104	476.44
276.335	457.44
276.567	439.44
276.799	451.44
277.031	462.44
277.262	467.44
277.494	454.44
277.726	444.44
277.957	439.44
278.189	441.44
278.421	461.44
278.652	458.44
278.884	458.44
279.115	439.44
279.347	474.44
279.579	463.44
279.81	480.44
280.042	484.44
280.273	482.44
280.505	505.44
280.736	482.44
280.968	481.44
281.199	488.44
281.431	493.44
281.662	488.44
281.894	478.44
282.125	499.44
282.356	489.44
282.588	497.44
282.819	514.44
283.051	515.44
283.282	500.44
283.513	517.44
283.745	502.44
283.976	499.44
284.207	515.44
284.439	523.44
284.67	526.44
284.901	533.44
285.132	519.44
285.364	524.44
285.595	537.44
285.826	514.44
286.057	516.44
286.288	519.44
286.52	503.44
286.751	535.44
286.982	549.44
287.213	552.44
287.444	535.44
287.675	539.44
287.906	530.44
288.138	568.44
288.369	555.44
288.6	527.44
288.831	543.44
289.062	536.44
289.293	553.44
289.524	547.44
289.755	563.44
289.986	557.44
290.217	555.44
290.448	578.44
290.679	577.44
290.91	564.44
291.141	567.44
291.371	547.44
291.602	568.44
291.833	543.44
292.064	541.44
292.295	583.44
292.526	569.44
292.757	579.44
292.987	543.44
293.218	574.44
293.449	554.44
293.68	576.44
293.91	560.44
294.141	558.44
294.372	563.44
294.603	561.44
294.833	561.44
295.064	566.44
295.295	571.44
295.525	599.44
295.756	587.44
295.987	583.44
296.217	592.44
296.448	587.44
296.679	577.44
296.909	586.44
297.14	600.44
297.37	599.44
297.601	625.44
297.831	613.44
298.062	597.44
298.292	604.44
298.523	623.44
298.753	631.44
298.984	631.44
299.214	611.44
299.445	598.44
299.675	598.44
299.905	626.44
300.136	623.44
300.366	611.44
300.597	633.44
300.827	625.44
301.057	651.44
301.288	630.44
301.518	618.44
301.748	651.44
301.979	653.44
302.209	636.44
302.439	660.44
302.669	672.44
302.9	640.44
303.13	643.44
303.36	642.44
303.59	645.44
303.82	655.44
304.051	662.44
304.281	631.44
304.511	656.44
304.741	615.44
304.971	625.44
305.201	614.44
305.431	636.44
305.661	620.44
305.891	638.44
306.121	623.44
306.352	639.44
306.582	628.44
306.812	612.44
307.042	615.44
307.272	625.44
307.502	613.44
307.731	621.44
307.961	622.44
308.191	618.44
308.421	636.44
308.651	630.44
308.881	615.44
309.111	630.44
309.341	613.44
309.571	631.44
309.8	608.44
310.03	621.44
310.26	615.44
310.49	620.44
310.72	640.44
310.949	601.44
311.179	625.44
311.409	639.44
311.639	631.44
311.868	643.44
312.098	644.44
312.328	638.44
312.557	628.44
312.787	641.44
313.017	646.44
313.246	671.44
313.476	633.44
313.706	703.44
313.935	649.44
314.165	693.44
314.394	666.44
314.624	655.44
314.853	674.44
315.083	626.44
315.312	675.44
315.542	663.44
315.771	644.44
316.001	643.44
316.23	659.44
316.46	638.44
316.689	636.44
316.919	647.44
317.148	641.44
317.377	649.44
317.607	665.44
317.836	665.44
318.065	623.44
318.295	627.44
318.524	614.44
318.753	643.44
318.983	655.44
319.212	654.44
319.441	633.44
319.67	648.44
319.9	668.44
320.129	633.44
320.358	650.44
320.587	629.44
320.816	661.44
321.046	658.44
321.275	651.44
321.504	660.44
321.733	645.44
321.962	681.44
322.191	669.44
322.42	659.44
322.649	629.44
322.878	678.44
323.108	662.44
323.337	654.44
323.566	667.44
323.795	683.44
324.024	669.44
324.253	663.44
324.482	680.44
324.71	651.44
324.939	685.44
325.168	691.44
325.397	666.44
325.626	690.44
325.855	683.44
326.084	709.44
326.313	710.44
326.542	717.44
326.77	727.44
326.999	697.44
327.228	698.44
327.457	690.44
327.686	719.44
327.914	694.44
328.143	721.44
328.372	702.44
328.6	713.44
328.829	708.44
329.058	696.44
329.287	737.44
329.515	721.44
329.744	706.44
329.972	725.44
330.201	737.44
330.43	718.44
330.658	739.44
330.887	729.44
331.115	735.44
331.344	753.44
331.572	769.44
331.801	770.44
332.03	790.44
332.258	782.44
332.486	844.44
332.715	869.44
332.943	899.44
333.172	911.44
333.4	974.44
333.629	987.44
333.857	1005.44
334.085	988.44
334.314	968.44
334.542	938.44
334.771	908.44
334.999	869.44
335.227	879.44
335.455	893.44
335.684	915.44
335.912	889.44
336.14	877.44
336.369	860.44
336.597	850.44
336.825	836.44
337.053	882.44
337.281	857.44
337.51	829.44
337.738	798.44
337.966	787.44
338.194	814.44
338.422	791.44
338.65	794.44
338.878	751.44
339.106	803.44
339.334	783.44
339.562	788.44
339.79	749.44
340.018	764.44
340.246	742.44
340.474	749.44
340.702	720.44
340.93	769.44
341.158	772.44
341.386	762.44
341.614	725.44
341.842	751.44
342.07	747.44
342.298	730.44
342.526	736.44
342.754	745.44
342.981	737.44
343.209	738.44
343.437	796.44
343.665	852.44
343.893	935.44
344.12	965.44
344.348	901.44
344.576	834.44
344.804	812.44
345.031	780.44
345.259	755.44
345.487	756.44
345.714	738.44
345.942	728.44
346.17	743.44
346.397	721.44
346.625	715.44
346.853	746.44
347.08	719.44
347.308	744.44
347.535	726.44
347.763	755.44
347.99	737.44
348.218	750.44
348.445	737.44
348.673	732.44
348.9	740.44
349.128	738.44
349.355	713.44
349.583	705.44
349.81	708.44
350.037	707.44
350.265	693.44
350.492	696.44
350.72	705.44
350.947	700.44
351.174	662.44
351.402	699.44
351.629	683.44
351.856	693.44
352.083	706.44
352.311	709.44
352.538	683.44
352.765	693.44
352.992	683.44
353.22	698.44
353.447	678.44
353.674	658.44
353.901	689.44
354.128	692.44
354.355	694.44
354.583	718.44
354.81	698.44
355.037	698.44
355.264	700.44
355.491	702.44
355.718	680.44
355.945	714.44
356.172	702.44
356.399	690.44
356.626	698.44
356.853	699.44
357.08	704.44
357.307	695.44
357.534	706.44
357.761	702.44
357.988	705.44
358.215	681.44
358.441	689.44
358.668	691.44
358.895	707.44
359.122	697.44
359.349	700.44
359.576	690.44
359.802	718.44
360.029	676.44
360.256	702.44
360.483	695.44
360.709	695.44
360.936	707.44
361.163	675.44
361.39	690.44
361.616	709.44
361.843	696.44
362.07	703.44
362.296	662.44
362.523	681.44
362.749	705.44
362.976	673.44
363.203	679.44
363.429	681.44
363.656	697.44
363.882	696.44
364.109	682.44
364.335	702.44
364.562	686.44
364.788	670.44
365.015	695.44
365.241	695.44
365.468	700.44
365.694	665.44
365.92	678.44
366.147	705.44
366.373	714.44
366.599	683.44
366.826	709.44
367.052	703.44
367.278	683.44
367.505	688.44
367.731	712.44
367.957	697.44
368.184	722.44
368.41	705.44
368.636	693.44
368.862	707.44
369.089	689.44
369.315	711.44
369.541	716.44
369.767	731.44
369.993	707.44
370.219	748.44
370.445	707.44
370.672	729.44
370.898	740.44
371.124	755.44
371.35	761.44
371.576	762.44
371.802	755.44
372.028	746.44
372.254	744.44
372.48	776.44
372.706	783.44
372.932	831.44
373.158	794.44
373.384	789.44
373.61	771.44
373.835	757.44
374.061	754.44
374.287	761.44
374.513	772.44
374.739	823.44
374.965	803.44
375.191	875.44
375.416	840.44
375.642	819.44
375.868	810.44
376.094	776.44
376.319	774.44
376.545	792.44
376.771	756.44
376.997	732.44
377.222	743.44
377.448	733.44
377.674	771.44
377.899	767.44
378.125	753.44
378.35	744.44
378.576	745.44
378.802	711.44
379.027	747.44
379.253	733.44
379.478	730.44
379.704	753.44
379.929	771.44
380.155	770.44
380.38	733.44
380.606	729.44
380.831	776.44
381.057	747.44
381.282	760.44
381.507	760.44
381.733	768.44
381.958	762.44
382.184	765.44
382.409	798.44
382.634	789.44
382.86	779.44
383.085	793.44
383.31	837.44
383.535	819.44
383.761	847.44
383.986	872.44
384.211	884.44
384.436	897.44
384.662	913.44
384.887	927.44
385.112	910.44
385.337	958.44
385.562	892.44
385.787	912.44
386.013	951.44
386.238	939.44
386.463	942.44
386.688	927.44
386.913	909.44
387.138	904.44
387.363	895.44
387.588	910.44
387.813	910.44
388.038	921.44
388.263	908.44
388.488	899.44
388.713	896.44
388.938	896.44
389.163	876.44
389.387	913.44
389.612	894.44
389.837	896.44
390.062	913.44
390.287	909.44
390.512	895.44
390.736	898.44
390.961	900.44
391.186	925.44
391.411	946.44
391.636	983.44
391.86	1044.44
392.085	1057.44
392.31	1075.44
392.534	1039.44
392.759	970.44
392.984	948.44
393.208	956.44
393.433	946.44
393.658	961.44
393.882	982.44
394.107	966.44
394.331	954.44
394.556	949.44
394.78	977.44
395.005	990.44
395.229	993.44
395.454	1007.44
395.678	1042.44
395.903	1026.44
396.127	995.44
396.352	965.44
396.576	941.44
396.801	933.44
397.025	954.44
397.249	1009.44
397.474	1036.44
397.698	1015.44
397.922	1028.44
398.147	993.44
398.371	1025.44
398.595	1079.44
398.82	1100.44
399.044	1185.44
399.268	1308.44
399.492	1582.44
399.717	1834.44
399.941	1819.44
400.165	1566.44
400.389	1411.44
400.613	1285.44
400.837	1188.44
401.062	1159.44
401.286	1147.44
401.51	1138.44
401.734	1115.44
401.958	1153.44
402.182	1148.44
402.406	1223.44
402.63	1201.44
402.854	1222.44
403.078	1245.44
403.302	1288.44
403.526	1324.44
403.75	1359.44
403.974	1363.44
404.198	1383.44
404.422	1379.44
404.645	1343.44
404.869	1315.44
405.093	1303.44
405.317	1302.44
405.541	1261.44
405.765	1273.44
405.988	1262.44
406.212	1272.44
406.436	1274.44
406.66	1322.44
406.883	1294.44
407.107	1399.44
407.331	1450.44
407.555	1536.44
407.778	1510.44
408.002	1473.44
408.226	1393.44
408.449	1373.44
408.673	1341.44
408.896	1313.44
409.12	1274.44
409.344	1324.44
409.567	1329.44
409.791	1332.44
410.014	1325.44
410.238	1267.44
410.461	1301.44
410.685	1281.44
410.908	1238.44
411.132	1270.44
411.355	1218.44
411.578	1211.44
411.802	1181.44
412.025	1206.44
412.249	1233.44
412.472	1209.44
412.695	1172.44
412.919	1132.44
413.142	1128.44
413.365	1134.44
413.589	1166.44
413.812	1138.44
414.035	1109.44
414.258	1117.44
414.482	1161.44
414.705	1175.44
414.928	1162.44
415.151	1153.44
415.374	1160.44
415.597	1154.44
415.821	1163.44
416.044	1150.44
416.267	1124.44
416.49	1080.44
416.713	1103.44
416.936	1120.44
417.159	1107.44
417.382	1138.44
417.605	1122.44
417.828	1109.44
418.051	1137.44
418.274	1185.44
418.497	1146.44
418.72	1185.44
418.943	1166.44
419.166	1230.44
419.389	1318.44
419.611	1313.44
419.834	1251.44
420.057	1173.44
420.28	1153.44
420.503	1151.44
420.726	1126.44
420.948	1139.44
421.171	1130.44
421.394	1128.44
421.617	1127.44
421.839	1147.44
422.062	1127.44
422.285	1120.44
422.507	1162.44
422.73	1177.44
422.953	1189.44
423.175	1186.44
423.398	1225.44
423.621	1210.44
423.843	1221.44
424.066	1274.44
424.288	1213.44
424.511	1247.44
424.733	1190.44
424.956	1193.44
425.178	1172.44
425.401	1159.44
425.623	1129.44
425.846	1101.44
426.068	1071.44
426.291	1046.44
426.513	1070.44
426.735	1040.44
426.958	1051.44
427.18	1025.44
427.402	1016.44
427.625	1029.44
427.847	1016.44
428.069	1029.44
428.292	1013.44
428.514	1012.44
428.736	1011.44
428.958	1028.44
429.181	981.44
429.403	1008.44
429.625	965.44
429.847	971.44
430.069	962.44
430.292	985.44
430.514	982.44
430.736	997.44
430.958	975.44
431.18	967.44
431.402	986.44
431.624	973.44
431.846	1000.44
432.068	1029.44
432.29	1015.44
432.512	974.44
432.734	1029.44
432.956	993.44
433.178	982.44
433.4	981.44
433.622	1011.44
433.844	1000.44
434.066	1018.44
434.287	1042.44
434.509	1057.44
434.731	1115.44
434.953	1160.44
435.175	1162.44
435.397	1157.44
435.618	1054.44
435.84	1064.44
436.062	1000.44
436.284	991.44
436.505	993.44
436.727	988.44
436.949	1021.44
437.17	1023.44
437.392	993.44
437.614	1009.44
437.835	953.44
438.057	969.44
438.278	948.44
438.5	963.44
438.721	982.44
438.943	985.44
439.165	980.44
439.386	966.44
439.608	983.44
439.829	1022.44
440.05	1004.44
440.272	990.44
440.493	1036.44
440.715	1057.44
440.936	1082.44
441.158	1057.44
441.379	1089.44
441.6	1145.44
441.822	1169.44
442.043	1175.44
442.264	1138.44
442.486	1119.44
442.707	1108.44
442.928	1118.44
443.149	1142.44
443.371	1093.44
443.592	1141.44
443.813	1132.44
444.034	1154.44
444.255	1213.44
444.476	1272.44
444.698	1311.44
444.919	1421.44
445.14	1471.44
445.361	1315.44
445.582	1195.44
445.803	1112.44
446.024	1093.44
446.245	1066.44
446.466	1041.44
446.687	1028.44
446.908	1031.44
447.129	1017.44
447.35	963.44
447.571	971.44
447.792	940.44
448.013	973.44
448.234	959.44
448.455	908.44
448.675	927.44
448.896	930.44
449.117	925.44
449.338	952.44
449.559	927.44
449.779	915.44
450	899.44
450.221	900.44
450.442	964.44
450.662	945.44
450.883	979.44
451.104	947.44
451.324	966.44
451.545	949.44
451.766	914.44
451.986	933.44
452.207	939.44
452.428	955.44
452.648	932.44
452.869	899.44
453.089	909.44
453.31	981.44
453.53	916.44
453.751	942.44
453.971	882.44
454.192	903.44
454.412	876.44
454.633	862.44
454.853	905.44
455.073	905.44
455.294	877.44
455.514	872.44
455.734	853.44
455.955	878.44
456.175	875.44
456.395	867.44
456.616	869.44
456.836	863.44
457.056	865.44
457.276	857.44
457.497	830.44
457.717	862.44
457.937	874.44
458.157	859.44
458.377	919.44
458.598	927.44
458.818	951.44
459.038	955.44
459.258	990.44
459.478	1021.44
459.698	1064.44
459.918	1075.44
460.138	1123.44
460.358	1210.44
460.578	1215.44
460.798	1222.44
461.018	1221.44
461.238	1217.44
461.458	1208.44
461.678	1171.44
461.898	1195.44
462.118	1209.44
462.338	1255.44
462.558	1301.44
462.777	1384.44
462.997	1477.44
463.217	1626.44
463.437	1698.44
463.657	1521.44
463.876	1447.44
464.096	1422.44
464.316	1434.44
464.536	1422.44
464.755	1414.44
464.975	1318.44
465.195	1246.44
465.414	1204.44
465.634	1091.44
465.854	1090.44
466.073	1045.44
466.293	1030.44
466.512	983.44
466.732	1002.44
466.951	967.44
467.171	982.44
467.391	986.44
467.61	959.44
467.829	981.44
468.049	959.44
468.268	928.44
468.488	932.44
468.707	895.44
468.927	938.44
469.146	925.44
469.365	948.44
469.585	947.44
469.804	966.44
470.023	969.44
470.243	996.44
470.462	1016.44
470.681	1024.44
470.901	1060.44
471.12	982.44
471.339	960.44
471.558	985.44
471.777	946.44
471.997	945.44
472.216	933.44
472.435	909.44
472.654	910.44
472.873	912.44
473.092	901.44
473.311	907.44
473.53	899.44
473.749	894.44
473.968	892.44
474.187	909.44
474.406	905.44
474.625	901.44
474.844	900.44
475.063	910.44
475.282	926.44
475.501	948.44
475.72	922.44
475.939	907.44
476.158	954.44
476.377	964.44
476.596	940.44
476.814	949.44
477.033	927.44
477.252	980.44
477.471	976.44
477.69	1001.44
477.908	1049.44
478.127	1065.44
478.346	1067.44
478.564	1089.44
478.783	1117.44
479.002	1172.44
479.22	1137.44
479.439	1143.44
479.658	1125.44
479.876	1124.44
480.095	1150.44
480.313	1198.44
480.532	1249.44
480.751	1257.44
480.969	1187.44
481.188	1151.44
481.406	1066.44
481.624	1064.44
481.843	1061.44
482.061	1067.44
482.28	997.44
482.498	1007.44
482.717	1005.44
482.935	1044.44
483.153	988.44
483.372	996.44
483.59	1057.44
483.808	1049.44
484.027	1011.44
484.245	1043.44
484.463	1019.44
484.681	1066.44
484.9	1051.44
485.118	1065.44
485.336	1066.44
485.554	1078.44
485.772	1081.44
485.99	1124.44
486.209	1098.44
486.427	1097.44
486.645	1131.44
486.863	1095.44
487.081	1100.44
487.299	1071.44
487.517	1066.44
487.735	1063.44
487.953	1087.44
488.171	1113.44
488.389	1074.44
488.607	1056.44
488.825	1064.44
489.043	1037.44
489.261	1040.44
489.479	1058.44
489.696	1038.44
489.914	1082.44
490.132	1070.44
490.35	1083.44
490.568	1065.44
490.786	1063.44
491.003	1061.44
491.221	1067.44
491.439	1083.44
491.657	1084.44
491.874	1105.44
492.092	1105.44
492.31	1090.44
492.527	1099.44
492.745	1114.44
492.963	1093.44
493.18	1115.44
493.398	1114.44
493.615	1134.44
493.833	1141.44
494.05	1117.44
494.268	1139.44
494.485	1171.44
494.703	1146.44
494.92	1160.44
495.138	1132.44
495.355	1145.44
495.573	1151.44
495.79	1179.44
496.008	1163.44
496.225	1149.44
496.442	1131.44
496.66	1170.44
496.877	1198.44
497.094	1208.44
497.312	1249.44
