Data from Ni(NO3)2Standard.Agarose3%.GreenCap.LampEnergy5.5.E.O_HRD10591_14-40-55-188.txt Node
Date: Mon Jul 22 14:40:55 EDT 2019
User: cochatt
Spectrometer: HR+D1059
Trigger mode: 1
Integration Time (sec): 1.000000E-1
Scans to average: 1
Electric dark correction enabled: true
Nonlinearity correction enabled: false
Boxcar width: 0
XAxis mode: Wavelengths
Number of Pixels in Spectrum: 2048
>>>>>Begin Spectral Data<<<<<
223.165	-17.06
223.4	-17.06
223.635	-17.06
223.869	0.94
224.104	-34.06
224.338	-13.06
224.573	-20.06
224.808	0.94
225.042	-10.06
225.277	-7.06
225.511	-9.06
225.746	-11.06
225.98	18.94
226.215	-5.06
226.449	4.94
226.683	18.94
226.918	35.94
227.152	45.94
227.387	26.94
227.621	35.94
227.856	34.94
228.09	30.94
228.324	41.94
228.559	44.94
228.793	68.94
229.027	64.94
229.262	71.94
229.496	67.94
229.73	68.94
229.964	86.94
230.199	77.94
230.433	73.94
230.667	66.94
230.901	74.94
231.136	69.94
231.37	77.94
231.604	88.94
231.838	73.94
232.072	68.94
232.306	74.94
232.541	88.94
232.775	81.94
233.009	87.94
233.243	81.94
233.477	67.94
233.711	74.94
233.945	66.94
234.179	75.94
234.413	72.94
234.647	78.94
234.881	78.94
235.115	75.94
235.349	66.94
235.583	96.94
235.817	87.94
236.051	87.94
236.285	73.94
236.519	74.94
236.753	74.94
236.987	73.94
237.221	76.94
237.455	83.94
237.689	78.94
237.922	83.94
238.156	60.94
238.39	78.94
238.624	70.94
238.858	82.94
239.091	73.94
239.325	79.94
239.559	69.94
239.793	80.94
240.027	86.94
240.26	77.94
240.494	76.94
240.728	82.94
240.961	88.94
241.195	82.94
241.429	78.94
241.662	81.94
241.896	87.94
242.13	80.94
242.363	70.94
242.597	76.94
242.83	86.94
243.064	80.94
243.298	82.94
243.531	71.94
243.765	72.94
243.998	69.94
244.232	74.94
244.465	79.94
244.699	82.94
244.932	83.94
245.166	85.94
245.399	88.94
245.633	88.94
245.866	87.94
246.099	68.94
246.333	91.94
246.566	73.94
246.8	71.94
247.033	72.94
247.266	88.94
247.5	65.94
247.733	84.94
247.966	77.94
248.2	77.94
248.433	88.94
248.666	81.94
248.899	81.94
249.133	79.94
249.366	70.94
249.599	71.94
249.832	70.94
250.066	84.94
250.299	68.94
250.532	88.94
250.765	92.94
250.998	82.94
251.231	96.94
251.465	98.94
251.698	72.94
251.931	88.94
252.164	73.94
252.397	82.94
252.63	75.94
252.863	69.94
253.096	85.94
253.329	69.94
253.562	79.94
253.795	78.94
254.028	78.94
254.261	79.94
254.494	67.94
254.727	94.94
254.96	76.94
255.193	81.94
255.426	83.94
255.659	86.94
255.892	86.94
256.124	81.94
256.357	76.94
256.59	92.94
256.823	85.94
257.056	90.94
257.289	80.94
257.521	80.94
257.754	83.94
257.987	84.94
258.22	97.94
258.452	75.94
258.685	89.94
258.918	69.94
259.151	86.94
259.383	82.94
259.616	89.94
259.849	86.94
260.081	96.94
260.314	79.94
260.547	101.94
260.779	85.94
261.012	86.94
261.244	85.94
261.477	81.94
261.71	85.94
261.942	78.94
262.175	73.94
262.407	69.94
262.64	89.94
262.872	83.94
263.105	84.94
263.337	90.94
263.57	82.94
263.802	93.94
264.035	83.94
264.267	86.94
264.499	86.94
264.732	92.94
264.964	95.94
265.197	94.94
265.429	69.94
265.661	85.94
265.894	87.94
266.126	86.94
266.358	105.94
266.591	83.94
266.823	95.94
267.055	88.94
267.287	85.94
267.52	84.94
267.752	85.94
267.984	89.94
268.216	85.94
268.448	87.94
268.681	88.94
268.913	87.94
269.145	93.94
269.377	79.94
269.609	68.94
269.841	86.94
270.073	76.94
270.306	73.94
270.538	76.94
270.77	74.94
271.002	91.94
271.234	75.94
271.466	89.94
271.698	90.94
271.93	96.94
272.162	96.94
272.394	91.94
272.626	71.94
272.858	74.94
273.09	75.94
273.322	90.94
273.553	89.94
273.785	78.94
274.017	87.94
274.249	82.94
274.481	86.94
274.713	97.94
274.945	89.94
275.176	76.94
275.408	82.94
275.64	90.94
275.872	76.94
276.104	92.94
276.335	79.94
276.567	86.94
276.799	83.94
277.031	80.94
277.262	89.94
277.494	84.94
277.726	89.94
277.957	82.94
278.189	75.94
278.421	86.94
278.652	90.94
278.884	82.94
279.115	97.94
279.347	90.94
279.579	86.94
279.81	70.94
280.042	96.94
280.273	70.94
280.505	90.94
280.736	81.94
280.968	86.94
281.199	92.94
281.431	89.94
281.662	86.94
281.894	93.94
282.125	96.94
282.356	102.94
282.588	81.94
282.819	86.94
283.051	73.94
283.282	86.94
283.513	92.94
283.745	87.94
283.976	84.94
284.207	77.94
284.439	84.94
284.67	90.94
284.901	87.94
285.132	84.94
285.364	79.94
285.595	85.94
285.826	79.94
286.057	100.94
286.288	101.94
286.52	89.94
286.751	82.94
286.982	85.94
287.213	80.94
287.444	77.94
287.675	64.94
287.906	91.94
288.138	71.94
288.369	98.94
288.6	79.94
288.831	70.94
289.062	92.94
289.293	95.94
289.524	93.94
289.755	91.94
289.986	93.94
290.217	97.94
290.448	98.94
290.679	78.94
290.91	76.94
291.141	88.94
291.371	84.94
291.602	80.94
291.833	96.94
292.064	80.94
292.295	69.94
292.526	72.94
292.757	89.94
292.987	95.94
293.218	86.94
293.449	80.94
293.68	81.94
293.91	83.94
294.141	85.94
294.372	79.94
294.603	84.94
294.833	79.94
295.064	77.94
295.295	96.94
295.525	88.94
295.756	87.94
295.987	85.94
296.217	95.94
296.448	89.94
296.679	84.94
296.909	88.94
297.14	78.94
297.37	96.94
297.601	101.94
297.831	75.94
298.062	98.94
298.292	97.94
298.523	103.94
298.753	81.94
298.984	87.94
299.214	84.94
299.445	82.94
299.675	78.94
299.905	88.94
300.136	93.94
300.366	83.94
300.597	88.94
300.827	88.94
301.057	96.94
301.288	95.94
301.518	85.94
301.748	94.94
301.979	78.94
302.209	87.94
302.439	87.94
302.669	87.94
302.9	77.94
303.13	92.94
303.36	89.94
303.59	91.94
303.82	88.94
304.051	84.94
304.281	85.94
304.511	92.94
304.741	80.94
304.971	84.94
305.201	86.94
305.431	78.94
305.661	88.94
305.891	87.94
306.121	96.94
306.352	87.94
306.582	84.94
306.812	83.94
307.042	86.94
307.272	88.94
307.502	84.94
307.731	81.94
307.961	94.94
308.191	84.94
308.421	78.94
308.651	87.94
308.881	99.94
309.111	69.94
309.341	93.94
309.571	81.94
309.8	77.94
310.03	89.94
310.26	97.94
310.49	77.94
310.72	87.94
310.949	85.94
311.179	82.94
311.409	90.94
311.639	97.94
311.868	77.94
312.098	88.94
312.328	96.94
312.557	72.94
312.787	93.94
313.017	81.94
313.246	89.94
313.476	90.94
313.706	89.94
313.935	89.94
314.165	83.94
314.394	81.94
314.624	82.94
314.853	98.94
315.083	98.94
315.312	81.94
315.542	77.94
315.771	82.94
316.001	71.94
316.23	77.94
316.46	81.94
316.689	92.94
316.919	94.94
317.148	85.94
317.377	87.94
317.607	94.94
317.836	80.94
318.065	93.94
318.295	118.94
318.524	82.94
318.753	85.94
318.983	96.94
319.212	84.94
319.441	103.94
319.67	91.94
319.9	103.94
320.129	76.94
320.358	74.94
320.587	75.94
320.816	84.94
321.046	74.94
321.275	94.94
321.504	96.94
321.733	79.94
321.962	83.94
322.191	79.94
322.42	81.94
322.649	83.94
322.878	83.94
323.108	98.94
323.337	82.94
323.566	91.94
323.795	71.94
324.024	76.94
324.253	78.94
324.482	91.94
324.71	84.94
324.939	97.94
325.168	84.94
325.397	91.94
325.626	83.94
325.855	88.94
326.084	87.94
326.313	77.94
326.542	91.94
326.77	100.94
326.999	96.94
327.228	86.94
327.457	84.94
327.686	84.94
327.914	88.94
328.143	77.94
328.372	100.94
328.6	96.94
328.829	86.94
329.058	91.94
329.287	97.94
329.515	87.94
329.744	88.94
329.972	97.94
330.201	77.94
330.43	84.94
330.658	83.94
330.887	100.94
331.115	88.94
331.344	92.94
331.572	84.94
331.801	83.94
332.03	81.94
332.258	87.94
332.486	88.94
332.715	88.94
332.943	93.94
333.172	92.94
333.4	90.94
333.629	83.94
333.857	100.94
334.085	95.94
334.314	93.94
334.542	91.94
334.771	105.94
334.999	94.94
335.227	84.94
335.455	73.94
335.684	91.94
335.912	107.94
336.14	86.94
336.369	86.94
336.597	97.94
336.825	72.94
337.053	86.94
337.281	86.94
337.51	85.94
337.738	87.94
337.966	97.94
338.194	93.94
338.422	102.94
338.65	97.94
338.878	84.94
339.106	97.94
339.334	100.94
339.562	97.94
339.79	83.94
340.018	90.94
340.246	82.94
340.474	97.94
340.702	84.94
340.93	90.94
341.158	79.94
341.386	96.94
341.614	80.94
341.842	90.94
342.07	88.94
342.298	76.94
342.526	87.94
342.754	84.94
342.981	103.94
343.209	85.94
343.437	89.94
343.665	73.94
343.893	88.94
344.12	103.94
344.348	91.94
344.576	86.94
344.804	91.94
345.031	76.94
345.259	86.94
345.487	94.94
345.714	75.94
345.942	84.94
346.17	81.94
346.397	84.94
346.625	96.94
346.853	90.94
347.08	65.94
347.308	88.94
347.535	89.94
347.763	83.94
347.99	86.94
348.218	88.94
348.445	102.94
348.673	89.94
348.9	82.94
349.128	89.94
349.355	96.94
349.583	97.94
349.81	80.94
350.037	80.94
350.265	88.94
350.492	89.94
350.72	77.94
350.947	95.94
351.174	84.94
351.402	82.94
351.629	82.94
351.856	84.94
352.083	93.94
352.311	86.94
352.538	87.94
352.765	84.94
352.992	92.94
353.22	85.94
353.447	86.94
353.674	76.94
353.901	76.94
354.128	84.94
354.355	90.94
354.583	73.94
354.81	90.94
355.037	104.94
355.264	83.94
355.491	92.94
355.718	82.94
355.945	81.94
356.172	91.94
356.399	81.94
356.626	80.94
356.853	78.94
357.08	89.94
357.307	96.94
357.534	70.94
357.761	89.94
357.988	84.94
358.215	78.94
358.441	76.94
358.668	86.94
358.895	87.94
359.122	85.94
359.349	73.94
359.576	73.94
359.802	92.94
360.029	89.94
360.256	79.94
360.483	84.94
360.709	89.94
360.936	91.94
361.163	92.94
361.39	85.94
361.616	88.94
361.843	86.94
362.07	82.94
362.296	88.94
362.523	83.94
362.749	70.94
362.976	82.94
363.203	87.94
363.429	78.94
363.656	97.94
363.882	83.94
364.109	88.94
364.335	89.94
364.562	90.94
364.788	85.94
365.015	73.94
365.241	85.94
365.468	89.94
365.694	81.94
365.92	98.94
366.147	77.94
366.373	91.94
366.599	93.94
366.826	89.94
367.052	86.94
367.278	84.94
367.505	89.94
367.731	86.94
367.957	97.94
368.184	79.94
368.41	96.94
368.636	96.94
368.862	94.94
369.089	88.94
369.315	86.94
369.541	81.94
369.767	86.94
369.993	86.94
370.219	85.94
370.445	78.94
370.672	89.94
370.898	86.94
371.124	79.94
371.35	97.94
371.576	83.94
371.802	73.94
372.028	89.94
372.254	100.94
372.48	80.94
372.706	79.94
372.932	86.94
373.158	94.94
373.384	100.94
373.61	91.94
373.835	80.94
374.061	81.94
374.287	90.94
374.513	76.94
374.739	111.94
374.965	75.94
375.191	72.94
375.416	88.94
375.642	82.94
375.868	97.94
376.094	85.94
376.319	85.94
376.545	81.94
376.771	92.94
376.997	85.94
377.222	96.94
377.448	85.94
377.674	93.94
377.899	69.94
378.125	65.94
378.35	84.94
378.576	75.94
378.802	90.94
379.027	83.94
379.253	82.94
379.478	91.94
379.704	88.94
379.929	84.94
380.155	85.94
380.38	93.94
380.606	80.94
380.831	85.94
381.057	86.94
381.282	78.94
381.507	80.94
381.733	97.94
381.958	79.94
382.184	89.94
382.409	91.94
382.634	85.94
382.86	74.94
383.085	87.94
383.31	88.94
383.535	96.94
383.761	80.94
383.986	81.94
384.211	82.94
384.436	87.94
384.662	66.94
384.887	83.94
385.112	74.94
385.337	94.94
385.562	80.94
385.787	85.94
386.013	97.94
386.238	97.94
386.463	74.94
386.688	90.94
386.913	84.94
387.138	84.94
387.363	78.94
387.588	99.94
387.813	81.94
388.038	82.94
388.263	82.94
388.488	74.94
388.713	69.94
388.938	76.94
389.163	78.94
389.387	77.94
389.612	85.94
389.837	90.94
390.062	84.94
390.287	90.94
390.512	81.94
390.736	80.94
390.961	87.94
391.186	85.94
391.411	88.94
391.636	91.94
391.86	80.94
392.085	83.94
392.31	94.94
392.534	88.94
392.759	68.94
392.984	84.94
393.208	90.94
393.433	80.94
393.658	93.94
393.882	91.94
394.107	83.94
394.331	77.94
394.556	73.94
394.78	95.94
395.005	79.94
395.229	88.94
395.454	76.94
395.678	86.94
395.903	84.94
396.127	91.94
396.352	88.94
396.576	86.94
396.801	93.94
397.025	93.94
397.249	80.94
397.474	91.94
397.698	82.94
397.922	95.94
398.147	85.94
398.371	72.94
398.595	78.94
398.82	80.94
399.044	75.94
399.268	79.94
399.492	104.94
399.717	81.94
399.941	75.94
400.165	87.94
400.389	81.94
400.613	85.94
400.837	84.94
401.062	73.94
401.286	87.94
401.51	97.94
401.734	80.94
401.958	83.94
402.182	90.94
402.406	82.94
402.63	86.94
402.854	90.94
403.078	95.94
403.302	87.94
403.526	98.94
403.75	77.94
403.974	90.94
404.198	79.94
404.422	74.94
404.645	78.94
404.869	79.94
405.093	77.94
405.317	78.94
405.541	83.94
405.765	95.94
405.988	85.94
406.212	93.94
406.436	94.94
406.66	81.94
406.883	100.94
407.107	88.94
407.331	92.94
407.555	74.94
407.778	84.94
408.002	81.94
408.226	86.94
408.449	82.94
408.673	97.94
408.896	81.94
409.12	78.94
409.344	92.94
409.567	85.94
409.791	79.94
410.014	87.94
410.238	92.94
410.461	78.94
410.685	84.94
410.908	69.94
411.132	97.94
411.355	96.94
411.578	85.94
411.802	75.94
412.025	77.94
412.249	96.94
412.472	93.94
412.695	97.94
412.919	85.94
413.142	77.94
413.365	98.94
413.589	78.94
413.812	89.94
414.035	98.94
414.258	79.94
414.482	76.94
414.705	89.94
414.928	87.94
415.151	87.94
415.374	83.94
415.597	87.94
415.821	100.94
416.044	94.94
416.267	94.94
416.49	93.94
416.713	110.94
416.936	96.94
417.159	83.94
417.382	93.94
417.605	91.94
417.828	87.94
418.051	78.94
418.274	90.94
418.497	84.94
418.72	91.94
418.943	101.94
419.166	77.94
419.389	83.94
419.611	102.94
419.834	87.94
420.057	93.94
420.28	82.94
420.503	84.94
420.726	87.94
420.948	90.94
421.171	89.94
421.394	84.94
421.617	84.94
421.839	89.94
422.062	83.94
422.285	81.94
422.507	77.94
422.73	73.94
422.953	97.94
423.175	89.94
423.398	84.94
423.621	84.94
423.843	71.94
424.066	84.94
424.288	96.94
424.511	101.94
424.733	95.94
424.956	84.94
425.178	98.94
425.401	88.94
425.623	79.94
425.846	84.94
426.068	86.94
426.291	85.94
426.513	69.94
426.735	81.94
426.958	67.94
427.18	81.94
427.402	91.94
427.625	83.94
427.847	93.94
428.069	85.94
428.292	77.94
428.514	87.94
428.736	72.94
428.958	87.94
429.181	74.94
429.403	83.94
429.625	82.94
429.847	92.94
430.069	88.94
430.292	93.94
430.514	89.94
430.736	86.94
430.958	79.94
431.18	84.94
431.402	80.94
431.624	75.94
431.846	91.94
432.068	91.94
432.29	78.94
432.512	73.94
432.734	73.94
432.956	90.94
433.178	96.94
433.4	94.94
433.622	89.94
433.844	76.94
434.066	85.94
434.287	98.94
434.509	87.94
434.731	83.94
434.953	84.94
435.175	92.94
435.397	98.94
435.618	82.94
435.84	88.94
436.062	74.94
436.284	97.94
436.505	88.94
436.727	75.94
436.949	99.94
437.17	82.94
437.392	85.94
437.614	82.94
437.835	84.94
438.057	80.94
438.278	88.94
438.5	85.94
438.721	104.94
438.943	82.94
439.165	78.94
439.386	93.94
439.608	84.94
439.829	85.94
440.05	81.94
440.272	88.94
440.493	92.94
440.715	95.94
440.936	91.94
441.158	95.94
441.379	76.94
441.6	79.94
441.822	84.94
442.043	95.94
442.264	83.94
442.486	99.94
442.707	100.94
442.928	92.94
443.149	81.94
443.371	78.94
443.592	87.94
443.813	79.94
444.034	87.94
444.255	74.94
444.476	88.94
444.698	89.94
444.919	88.94
445.14	240.94
445.361	141.94
445.582	94.94
445.803	86.94
446.024	89.94
446.245	87.94
446.466	81.94
446.687	92.94
446.908	102.94
447.129	87.94
447.35	95.94
447.571	98.94
447.792	82.94
448.013	83.94
448.234	72.94
448.455	69.94
448.675	74.94
448.896	98.94
449.117	93.94
449.338	71.94
449.559	78.94
449.779	91.94
450	79.94
450.221	100.94
450.442	74.94
450.662	75.94
450.883	85.94
451.104	84.94
451.324	99.94
451.545	83.94
451.766	93.94
451.986	80.94
452.207	81.94
452.428	77.94
452.648	81.94
452.869	92.94
453.089	84.94
453.31	92.94
453.53	81.94
453.751	74.94
453.971	92.94
454.192	88.94
454.412	104.94
454.633	87.94
454.853	77.94
455.073	86.94
455.294	90.94
455.514	82.94
455.734	88.94
455.955	78.94
456.175	78.94
456.395	87.94
456.616	89.94
456.836	83.94
457.056	75.94
457.276	81.94
457.497	58.94
457.717	93.94
457.937	94.94
458.157	77.94
458.377	87.94
458.598	85.94
458.818	97.94
459.038	71.94
459.258	93.94
459.478	91.94
459.698	88.94
459.918	77.94
460.138	81.94
460.358	82.94
460.578	86.94
460.798	77.94
461.018	74.94
461.238	94.94
461.458	83.94
461.678	96.94
461.898	83.94
462.118	86.94
462.338	91.94
462.558	92.94
462.777	92.94
462.997	97.94
463.217	74.94
463.437	78.94
463.657	90.94
463.876	72.94
464.096	90.94
464.316	87.94
464.536	82.94
464.755	97.94
464.975	83.94
465.195	77.94
465.414	100.94
465.634	84.94
465.854	93.94
466.073	82.94
466.293	92.94
466.512	89.94
466.732	75.94
466.951	77.94
467.171	95.94
467.391	97.94
467.61	88.94
467.829	83.94
468.049	81.94
468.268	93.94
468.488	88.94
468.707	88.94
468.927	97.94
469.146	78.94
469.365	91.94
469.585	91.94
469.804	91.94
470.023	102.94
470.243	96.94
470.462	89.94
470.681	90.94
470.901	88.94
471.12	84.94
471.339	85.94
471.558	90.94
471.777	99.94
471.997	74.94
472.216	82.94
472.435	90.94
472.654	104.94
472.873	99.94
473.092	91.94
473.311	87.94
473.53	89.94
473.749	86.94
473.968	82.94
474.187	83.94
474.406	71.94
474.625	92.94
474.844	85.94
475.063	73.94
475.282	80.94
475.501	84.94
475.72	81.94
475.939	87.94
476.158	75.94
476.377	85.94
476.596	81.94
476.814	78.94
477.033	94.94
477.252	98.94
477.471	84.94
477.69	66.94
477.908	90.94
478.127	87.94
478.346	84.94
478.564	89.94
478.783	98.94
479.002	85.94
479.22	68.94
479.439	81.94
479.658	89.94
479.876	90.94
480.095	88.94
480.313	97.94
480.532	89.94
480.751	86.94
480.969	93.94
481.188	82.94
481.406	101.94
481.624	89.94
481.843	99.94
482.061	80.94
482.28	85.94
482.498	101.94
482.717	85.94
482.935	89.94
483.153	91.94
483.372	85.94
483.59	92.94
483.808	98.94
484.027	91.94
484.245	94.94
484.463	92.94
484.681	91.94
484.9	90.94
485.118	100.94
485.336	85.94
485.554	80.94
485.772	87.94
485.99	96.94
486.209	104.94
486.427	88.94
486.645	94.94
486.863	93.94
487.081	82.94
487.299	100.94
487.517	90.94
487.735	93.94
487.953	90.94
488.171	106.94
488.389	87.94
488.607	94.94
488.825	101.94
489.043	85.94
489.261	101.94
489.479	96.94
489.696	93.94
489.914	90.94
490.132	96.94
490.35	84.94
490.568	92.94
490.786	109.94
491.003	91.94
491.221	101.94
491.439	92.94
491.657	108.94
491.874	103.94
492.092	97.94
492.31	116.94
492.527	103.94
492.745	86.94
492.963	96.94
493.18	107.94
493.398	80.94
493.615	89.94
493.833	100.94
494.05	98.94
494.268	87.94
494.485	95.94
494.703	85.94
494.92	97.94
495.138	92.94
495.355	100.94
495.573	82.94
495.79	99.94
496.008	108.94
496.225	99.94
496.442	94.94
496.66	105.94
496.877	88.94
497.094	93.94
497.312	115.94
497.529	95.94
497.746	90.94
497.963	91.94
498.181	84.94
498.398	97.94
498.615	78.94
498.832	92.94
499.049	97.94
499.267	104.94
499.484	97.94
499.701	106.94
499.918	120.94
500.135	103.94
500.352	107.94
500.569	113.94
500.786	123.94
501.003	104.94
501.22	98.94
501.437	94.94
501.654	101.94
501.871	114.94
502.088	110.94
502.305	96.94
502.522	105.94
502.739	104.94
502.956	97.94
503.172	94.94
503.389	103.94
503.606	86.94
503.823	92.94
504.04	91.94
504.256	109.94
504.473	100.94
504.69	94.94
504.907	99.94
505.123	96.94
505.34	84.94
505.557	101.94
505.773	98.94
505.99	97.94
506.207	109.94
506.423	84.94
506.64	100.94
506.856	97.94
507.073	88.94
507.289	94.94
507.506	84.94
507.722	85.94
507.939	90.94
508.155	109.94
508.372	97.94
508.588	103.94
508.805	88.94
509.021	82.94
509.238	108.94
509.454	104.94
509.67	100.94
509.887	94.94
510.103	96.94
510.319	96.94
510.536	97.94
510.752	94.94
510.968	72.94
511.184	93.94
511.401	78.94
511.617	89.94
511.833	103.94
512.049	79.94
512.265	84.94
512.481	97.94
512.698	100.94
512.914	96.94
513.13	103.94
513.346	95.94
513.562	89.94
513.778	95.94
513.994	80.94
514.21	90.94
514.426	77.94
514.642	88.94
514.858	89.94
515.074	97.94
515.29	94.94
515.506	83.94
515.721	91.94
515.937	92.94
516.153	94.94
516.369	106.94
516.585	83.94
516.801	81.94
517.016	94.94
517.232	95.94
517.448	103.94
517.664	112.94
517.879	92.94
518.095	92.94
