Data from Ni(NO3)2Standard.Agarose3%.GreenCap.LampEnergy5.5.E.O_HRD10591_14-42-18-188.txt Node
Date: Mon Jul 22 14:42:18 EDT 2019
User: cochatt
Spectrometer: HR+D1059
Trigger mode: 1
Integration Time (sec): 1.000000E-1
Scans to average: 1
Electric dark correction enabled: true
Nonlinearity correction enabled: false
Boxcar width: 0
XAxis mode: Wavelengths
Number of Pixels in Spectrum: 2048
>>>>>Begin Spectral Data<<<<<
223.165	-29.31
223.4	-29.31
223.635	-29.31
223.869	-42.31
224.104	-28.31
224.338	-21.31
224.573	-10.31
224.808	-14.31
225.042	4.69
225.277	-12.31
225.511	2.69
225.746	16.69
225.98	12.69
226.215	13.69
226.449	23.69
226.683	25.69
226.918	26.69
227.152	31.69
227.387	41.69
227.621	42.69
227.856	40.69
228.09	61.69
228.324	49.69
228.559	57.69
228.793	61.69
229.027	66.69
229.262	67.69
229.496	73.69
229.73	79.69
229.964	62.69
230.199	59.69
230.433	88.69
230.667	71.69
230.901	70.69
231.136	80.69
231.37	74.69
231.604	99.69
231.838	75.69
232.072	80.69
232.306	87.69
232.541	80.69
232.775	76.69
233.009	85.69
233.243	91.69
233.477	81.69
233.711	92.69
233.945	87.69
234.179	80.69
234.413	114.69
234.647	95.69
234.881	69.69
235.115	73.69
235.349	77.69
235.583	81.69
235.817	71.69
236.051	68.69
236.285	78.69
236.519	64.69
236.753	68.69
236.987	73.69
237.221	73.69
237.455	83.69
237.689	75.69
237.922	77.69
238.156	84.69
238.39	64.69
238.624	81.69
238.858	69.69
239.091	83.69
239.325	74.69
239.559	76.69
239.793	73.69
240.027	77.69
240.26	80.69
240.494	58.69
240.728	93.69
240.961	81.69
241.195	78.69
241.429	87.69
241.662	89.69
241.896	88.69
242.13	77.69
242.363	72.69
242.597	70.69
242.83	80.69
243.064	74.69
243.298	70.69
243.531	72.69
243.765	76.69
243.998	79.69
244.232	73.69
244.465	85.69
244.699	85.69
244.932	68.69
245.166	84.69
245.399	82.69
245.633	70.69
245.866	74.69
246.099	73.69
246.333	79.69
246.566	89.69
246.8	83.69
247.033	85.69
247.266	85.69
247.5	90.69
247.733	82.69
247.966	91.69
248.2	82.69
248.433	65.69
248.666	73.69
248.899	73.69
249.133	76.69
249.366	73.69
249.599	88.69
249.832	92.69
250.066	87.69
250.299	69.69
250.532	70.69
250.765	91.69
250.998	72.69
251.231	99.69
251.465	91.69
251.698	85.69
251.931	74.69
252.164	78.69
252.397	81.69
252.63	83.69
252.863	83.69
253.096	89.69
253.329	89.69
253.562	78.69
253.795	89.69
254.028	88.69
254.261	84.69
254.494	89.69
254.727	61.69
254.96	82.69
255.193	82.69
255.426	79.69
255.659	86.69
255.892	87.69
256.124	76.69
256.357	94.69
256.59	89.69
256.823	84.69
257.056	73.69
257.289	96.69
257.521	77.69
257.754	83.69
257.987	75.69
258.22	91.69
258.452	81.69
258.685	76.69
258.918	85.69
259.151	92.69
259.383	81.69
259.616	72.69
259.849	83.69
260.081	85.69
260.314	97.69
260.547	87.69
260.779	75.69
261.012	82.69
261.244	85.69
261.477	91.69
261.71	78.69
261.942	92.69
262.175	91.69
262.407	81.69
262.64	87.69
262.872	84.69
263.105	75.69
263.337	88.69
263.57	78.69
263.802	80.69
264.035	82.69
264.267	79.69
264.499	80.69
264.732	74.69
264.964	87.69
265.197	74.69
265.429	68.69
265.661	88.69
265.894	93.69
266.126	89.69
266.358	74.69
266.591	84.69
266.823	77.69
267.055	78.69
267.287	75.69
267.52	86.69
267.752	81.69
267.984	73.69
268.216	84.69
268.448	79.69
268.681	71.69
268.913	88.69
269.145	96.69
269.377	76.69
269.609	90.69
269.841	89.69
270.073	92.69
270.306	99.69
270.538	98.69
270.77	99.69
271.002	89.69
271.234	83.69
271.466	79.69
271.698	103.69
271.93	84.69
272.162	83.69
272.394	96.69
272.626	90.69
272.858	99.69
273.09	86.69
273.322	74.69
273.553	84.69
273.785	84.69
274.017	86.69
274.249	78.69
274.481	76.69
274.713	97.69
274.945	78.69
275.176	90.69
275.408	82.69
275.64	84.69
275.872	94.69
276.104	95.69
276.335	82.69
276.567	92.69
276.799	79.69
277.031	81.69
277.262	78.69
277.494	86.69
277.726	88.69
277.957	85.69
278.189	73.69
278.421	85.69
278.652	83.69
278.884	88.69
279.115	94.69
279.347	86.69
279.579	90.69
279.81	99.69
280.042	75.69
280.273	82.69
280.505	71.69
280.736	91.69
280.968	89.69
281.199	83.69
281.431	97.69
281.662	89.69
281.894	88.69
282.125	72.69
282.356	82.69
282.588	87.69
282.819	88.69
283.051	93.69
283.282	70.69
283.513	87.69
283.745	78.69
283.976	87.69
284.207	86.69
284.439	82.69
284.67	90.69
284.901	84.69
285.132	108.69
285.364	94.69
285.595	87.69
285.826	100.69
286.057	90.69
286.288	83.69
286.52	84.69
286.751	82.69
286.982	75.69
287.213	84.69
287.444	94.69
287.675	87.69
287.906	80.69
288.138	86.69
288.369	93.69
288.6	95.69
288.831	80.69
289.062	88.69
289.293	92.69
289.524	91.69
289.755	85.69
289.986	69.69
290.217	79.69
290.448	77.69
290.679	88.69
290.91	88.69
291.141	93.69
291.371	86.69
291.602	89.69
291.833	94.69
292.064	92.69
292.295	89.69
292.526	86.69
292.757	99.69
292.987	100.69
293.218	97.69
293.449	86.69
293.68	87.69
293.91	77.69
294.141	90.69
294.372	76.69
294.603	76.69
294.833	92.69
295.064	94.69
295.295	84.69
295.525	85.69
295.756	73.69
295.987	82.69
296.217	81.69
296.448	86.69
296.679	85.69
296.909	89.69
297.14	87.69
297.37	97.69
297.601	85.69
297.831	94.69
298.062	60.69
298.292	86.69
298.523	89.69
298.753	97.69
298.984	91.69
299.214	100.69
299.445	87.69
299.675	86.69
299.905	80.69
300.136	99.69
300.366	98.69
300.597	90.69
300.827	82.69
301.057	80.69
301.288	75.69
301.518	89.69
301.748	97.69
301.979	96.69
302.209	94.69
302.439	77.69
302.669	78.69
302.9	84.69
303.13	91.69
303.36	85.69
303.59	80.69
303.82	88.69
304.051	94.69
304.281	83.69
304.511	90.69
304.741	92.69
304.971	84.69
305.201	75.69
305.431	77.69
305.661	94.69
305.891	71.69
306.121	82.69
306.352	86.69
306.582	95.69
306.812	92.69
307.042	96.69
307.272	86.69
307.502	91.69
307.731	82.69
307.961	83.69
308.191	87.69
308.421	87.69
308.651	79.69
308.881	87.69
309.111	101.69
309.341	68.69
309.571	79.69
309.8	93.69
310.03	95.69
310.26	85.69
310.49	85.69
310.72	76.69
310.949	92.69
311.179	92.69
311.409	81.69
311.639	88.69
311.868	78.69
312.098	83.69
312.328	92.69
312.557	88.69
312.787	83.69
313.017	99.69
313.246	79.69
313.476	68.69
313.706	98.69
313.935	68.69
314.165	85.69
314.394	113.69
314.624	100.69
314.853	88.69
315.083	84.69
315.312	73.69
315.542	72.69
315.771	93.69
316.001	86.69
316.23	74.69
316.46	78.69
316.689	78.69
316.919	66.69
317.148	84.69
317.377	75.69
317.607	96.69
317.836	77.69
318.065	96.69
318.295	77.69
318.524	84.69
318.753	90.69
318.983	88.69
319.212	85.69
319.441	71.69
319.67	72.69
319.9	84.69
320.129	92.69
320.358	89.69
320.587	98.69
320.816	81.69
321.046	82.69
321.275	94.69
321.504	86.69
321.733	76.69
321.962	82.69
322.191	85.69
322.42	90.69
322.649	102.69
322.878	101.69
323.108	86.69
323.337	89.69
323.566	87.69
323.795	77.69
324.024	89.69
324.253	83.69
324.482	73.69
324.71	75.69
324.939	85.69
325.168	95.69
325.397	86.69
325.626	87.69
325.855	72.69
326.084	83.69
326.313	88.69
326.542	83.69
326.77	84.69
326.999	86.69
327.228	84.69
327.457	88.69
327.686	96.69
327.914	91.69
328.143	89.69
328.372	91.69
328.6	80.69
328.829	83.69
329.058	91.69
329.287	91.69
329.515	86.69
329.744	82.69
329.972	95.69
330.201	92.69
330.43	91.69
330.658	71.69
330.887	93.69
331.115	82.69
331.344	88.69
331.572	80.69
331.801	85.69
332.03	77.69
332.258	86.69
332.486	81.69
332.715	68.69
332.943	92.69
333.172	82.69
333.4	81.69
333.629	92.69
333.857	88.69
334.085	89.69
334.314	91.69
334.542	96.69
334.771	82.69
334.999	103.69
335.227	86.69
335.455	98.69
335.684	89.69
335.912	86.69
336.14	87.69
336.369	86.69
336.597	80.69
336.825	85.69
337.053	82.69
337.281	80.69
337.51	87.69
337.738	83.69
337.966	88.69
338.194	92.69
338.422	100.69
338.65	94.69
338.878	86.69
339.106	91.69
339.334	100.69
339.562	84.69
339.79	96.69
340.018	84.69
340.246	95.69
340.474	92.69
340.702	92.69
340.93	85.69
341.158	84.69
341.386	83.69
341.614	104.69
341.842	97.69
342.07	91.69
342.298	74.69
342.526	85.69
342.754	85.69
342.981	84.69
343.209	80.69
343.437	93.69
343.665	104.69
343.893	79.69
344.12	86.69
344.348	94.69
344.576	83.69
344.804	91.69
345.031	88.69
345.259	93.69
345.487	91.69
345.714	94.69
345.942	92.69
346.17	109.69
346.397	84.69
346.625	93.69
346.853	82.69
347.08	88.69
347.308	96.69
347.535	91.69
347.763	98.69
347.99	92.69
348.218	98.69
348.445	93.69
348.673	98.69
348.9	86.69
349.128	86.69
349.355	85.69
349.583	91.69
349.81	101.69
350.037	95.69
350.265	87.69
350.492	72.69
350.72	88.69
350.947	97.69
351.174	80.69
351.402	82.69
351.629	89.69
351.856	81.69
352.083	78.69
352.311	102.69
352.538	90.69
352.765	91.69
352.992	99.69
353.22	77.69
353.447	85.69
353.674	85.69
353.901	94.69
354.128	90.69
354.355	82.69
354.583	85.69
354.81	91.69
355.037	88.69
355.264	96.69
355.491	89.69
355.718	88.69
355.945	86.69
356.172	84.69
356.399	77.69
356.626	85.69
356.853	88.69
357.08	84.69
357.307	80.69
357.534	98.69
357.761	83.69
357.988	95.69
358.215	101.69
358.441	79.69
358.668	92.69
358.895	87.69
359.122	88.69
359.349	102.69
359.576	79.69
359.802	84.69
360.029	76.69
360.256	76.69
360.483	91.69
360.709	74.69
360.936	87.69
361.163	83.69
361.39	80.69
361.616	93.69
361.843	87.69
362.07	80.69
362.296	96.69
362.523	90.69
362.749	70.69
362.976	92.69
363.203	80.69
363.429	86.69
363.656	77.69
363.882	82.69
364.109	101.69
364.335	89.69
364.562	88.69
364.788	91.69
365.015	87.69
365.241	93.69
365.468	78.69
365.694	76.69
365.92	97.69
366.147	77.69
366.373	93.69
366.599	83.69
366.826	99.69
367.052	82.69
367.278	84.69
367.505	85.69
367.731	77.69
367.957	82.69
368.184	95.69
368.41	87.69
368.636	83.69
368.862	83.69
369.089	71.69
369.315	88.69
369.541	96.69
369.767	83.69
369.993	80.69
370.219	92.69
370.445	85.69
370.672	91.69
370.898	81.69
371.124	87.69
371.35	81.69
371.576	90.69
371.802	93.69
372.028	95.69
372.254	104.69
372.48	76.69
372.706	84.69
372.932	84.69
373.158	83.69
373.384	100.69
373.61	88.69
373.835	90.69
374.061	70.69
374.287	86.69
374.513	96.69
374.739	85.69
374.965	86.69
375.191	89.69
375.416	84.69
375.642	82.69
375.868	85.69
376.094	95.69
376.319	91.69
376.545	81.69
376.771	81.69
376.997	94.69
377.222	81.69
377.448	76.69
377.674	83.69
377.899	84.69
378.125	86.69
378.35	87.69
378.576	80.69
378.802	81.69
379.027	72.69
379.253	96.69
379.478	95.69
379.704	77.69
379.929	87.69
380.155	88.69
380.38	90.69
380.606	75.69
380.831	94.69
381.057	95.69
381.282	84.69
381.507	88.69
381.733	91.69
381.958	85.69
382.184	74.69
382.409	84.69
382.634	92.69
382.86	91.69
383.085	91.69
383.31	88.69
383.535	82.69
383.761	85.69
383.986	83.69
384.211	75.69
384.436	82.69
384.662	76.69
384.887	87.69
385.112	84.69
385.337	72.69
385.562	76.69
385.787	83.69
386.013	98.69
386.238	78.69
386.463	81.69
386.688	83.69
386.913	77.69
387.138	96.69
387.363	91.69
387.588	72.69
387.813	77.69
388.038	74.69
388.263	58.69
388.488	74.69
388.713	86.69
388.938	80.69
389.163	82.69
389.387	92.69
389.612	81.69
389.837	76.69
390.062	79.69
390.287	73.69
390.512	89.69
390.736	87.69
390.961	92.69
391.186	84.69
391.411	76.69
391.636	86.69
391.86	80.69
392.085	83.69
392.31	92.69
392.534	87.69
392.759	84.69
392.984	72.69
393.208	103.69
393.433	80.69
393.658	98.69
393.882	90.69
394.107	89.69
394.331	88.69
394.556	94.69
394.78	88.69
395.005	100.69
395.229	88.69
395.454	84.69
395.678	79.69
395.903	91.69
396.127	80.69
396.352	91.69
396.576	91.69
396.801	73.69
397.025	64.69
397.249	79.69
397.474	96.69
397.698	78.69
397.922	97.69
398.147	87.69
398.371	80.69
398.595	89.69
398.82	86.69
399.044	97.69
399.268	93.69
399.492	75.69
399.717	92.69
399.941	96.69
400.165	98.69
400.389	92.69
400.613	91.69
400.837	84.69
401.062	69.69
401.286	84.69
401.51	84.69
401.734	77.69
401.958	83.69
402.182	80.69
402.406	86.69
402.63	86.69
402.854	76.69
403.078	90.69
403.302	99.69
403.526	115.69
403.75	85.69
403.974	92.69
404.198	83.69
404.422	89.69
404.645	96.69
404.869	82.69
405.093	64.69
405.317	75.69
405.541	90.69
405.765	87.69
405.988	89.69
406.212	87.69
406.436	100.69
406.66	93.69
406.883	81.69
407.107	74.69
407.331	79.69
407.555	91.69
407.778	83.69
408.002	94.69
408.226	107.69
408.449	92.69
408.673	81.69
408.896	87.69
409.12	94.69
409.344	90.69
409.567	86.69
409.791	92.69
410.014	94.69
410.238	104.69
410.461	74.69
410.685	95.69
410.908	94.69
411.132	82.69
411.355	101.69
411.578	94.69
411.802	84.69
412.025	81.69
412.249	96.69
412.472	83.69
412.695	91.69
412.919	76.69
413.142	80.69
413.365	85.69
413.589	81.69
413.812	97.69
414.035	95.69
414.258	92.69
414.482	97.69
414.705	84.69
414.928	85.69
415.151	81.69
415.374	89.69
415.597	75.69
415.821	85.69
416.044	82.69
416.267	83.69
416.49	88.69
416.713	81.69
416.936	83.69
417.159	80.69
417.382	91.69
417.605	76.69
417.828	93.69
418.051	78.69
418.274	99.69
418.497	76.69
418.72	100.69
418.943	97.69
419.166	77.69
419.389	89.69
419.611	77.69
419.834	74.69
420.057	71.69
420.28	81.69
420.503	86.69
420.726	84.69
420.948	78.69
421.171	84.69
421.394	85.69
421.617	93.69
421.839	96.69
422.062	93.69
422.285	93.69
422.507	86.69
422.73	82.69
422.953	83.69
423.175	78.69
423.398	93.69
423.621	84.69
423.843	82.69
424.066	85.69
424.288	89.69
424.511	73.69
424.733	88.69
424.956	83.69
425.178	85.69
425.401	85.69
425.623	93.69
425.846	81.69
426.068	81.69
426.291	96.69
426.513	86.69
426.735	86.69
426.958	82.69
427.18	83.69
427.402	78.69
427.625	85.69
427.847	84.69
428.069	82.69
428.292	82.69
428.514	89.69
428.736	66.69
428.958	81.69
429.181	89.69
429.403	90.69
429.625	87.69
429.847	81.69
430.069	77.69
430.292	91.69
430.514	76.69
430.736	72.69
430.958	98.69
431.18	95.69
431.402	87.69
431.624	82.69
431.846	81.69
432.068	82.69
432.29	74.69
432.512	77.69
432.734	80.69
432.956	79.69
433.178	89.69
433.4	85.69
433.622	89.69
433.844	96.69
434.066	77.69
434.287	77.69
434.509	97.69
434.731	73.69
434.953	97.69
435.175	73.69
435.397	81.69
435.618	95.69
435.84	98.69
436.062	71.69
436.284	74.69
436.505	85.69
436.727	102.69
436.949	83.69
437.17	92.69
437.392	91.69
437.614	89.69
437.835	88.69
438.057	82.69
438.278	77.69
438.5	80.69
438.721	92.69
438.943	89.69
439.165	71.69
439.386	83.69
439.608	86.69
439.829	87.69
440.05	92.69
440.272	88.69
440.493	99.69
440.715	90.69
440.936	94.69
441.158	105.69
441.379	84.69
441.6	87.69
441.822	85.69
442.043	88.69
442.264	88.69
442.486	89.69
442.707	76.69
442.928	80.69
443.149	99.69
443.371	84.69
443.592	84.69
443.813	86.69
444.034	68.69
444.255	85.69
444.476	83.69
444.698	89.69
444.919	86.69
445.14	197.69
445.361	141.69
445.582	84.69
445.803	86.69
446.024	89.69
446.245	86.69
446.466	88.69
446.687	79.69
446.908	77.69
447.129	93.69
447.35	88.69
447.571	75.69
447.792	72.69
448.013	81.69
448.234	72.69
448.455	86.69
448.675	89.69
448.896	83.69
449.117	75.69
449.338	94.69
449.559	75.69
449.779	92.69
450	97.69
450.221	86.69
450.442	106.69
450.662	86.69
450.883	85.69
451.104	81.69
451.324	95.69
451.545	84.69
451.766	93.69
451.986	89.69
452.207	83.69
452.428	101.69
452.648	75.69
452.869	77.69
453.089	89.69
453.31	84.69
453.53	72.69
453.751	80.69
453.971	85.69
454.192	97.69
454.412	90.69
454.633	81.69
454.853	78.69
455.073	79.69
455.294	82.69
455.514	85.69
455.734	82.69
455.955	91.69
456.175	80.69
456.395	82.69
456.616	78.69
456.836	88.69
457.056	82.69
457.276	81.69
457.497	84.69
457.717	70.69
457.937	82.69
458.157	88.69
458.377	77.69
458.598	86.69
458.818	86.69
459.038	79.69
459.258	73.69
459.478	88.69
459.698	85.69
459.918	90.69
460.138	77.69
460.358	75.69
460.578	84.69
460.798	86.69
461.018	96.69
461.238	87.69
461.458	92.69
461.678	100.69
461.898	90.69
462.118	66.69
462.338	88.69
462.558	86.69
462.777	88.69
462.997	94.69
463.217	95.69
463.437	112.69
463.657	92.69
463.876	85.69
464.096	93.69
464.316	85.69
464.536	88.69
464.755	86.69
464.975	94.69
465.195	105.69
465.414	82.69
465.634	76.69
465.854	75.69
466.073	81.69
466.293	80.69
466.512	86.69
466.732	84.69
466.951	106.69
467.171	79.69
467.391	84.69
467.61	84.69
467.829	86.69
468.049	76.69
468.268	77.69
468.488	74.69
468.707	84.69
468.927	79.69
469.146	94.69
469.365	81.69
469.585	88.69
469.804	89.69
470.023	92.69
470.243	114.69
470.462	88.69
470.681	88.69
470.901	85.69
471.12	91.69
471.339	96.69
471.558	76.69
471.777	71.69
471.997	63.69
472.216	78.69
472.435	100.69
472.654	89.69
472.873	79.69
473.092	95.69
473.311	84.69
473.53	94.69
473.749	91.69
473.968	83.69
474.187	88.69
474.406	75.69
474.625	82.69
474.844	84.69
475.063	102.69
475.282	99.69
475.501	86.69
475.72	85.69
475.939	82.69
476.158	78.69
476.377	80.69
476.596	89.69
476.814	92.69
477.033	91.69
477.252	92.69
477.471	96.69
477.69	87.69
477.908	90.69
478.127	99.69
478.346	91.69
478.564	89.69
478.783	88.69
479.002	92.69
479.22	102.69
479.439	87.69
479.658	92.69
479.876	76.69
480.095	105.69
480.313	79.69
480.532	84.69
480.751	95.69
480.969	84.69
481.188	84.69
481.406	92.69
481.624	98.69
481.843	92.69
482.061	102.69
482.28	94.69
482.498	85.69
482.717	89.69
482.935	72.69
483.153	95.69
483.372	84.69
483.59	91.69
483.808	88.69
484.027	100.69
484.245	87.69
484.463	100.69
484.681	103.69
484.9	103.69
485.118	91.69
485.336	88.69
485.554	76.69
485.772	82.69
485.99	92.69
486.209	98.69
486.427	90.69
486.645	92.69
486.863	88.69
487.081	87.69
487.299	91.69
487.517	85.69
487.735	104.69
487.953	104.69
488.171	100.69
488.389	83.69
488.607	90.69
488.825	96.69
489.043	101.69
489.261	88.69
489.479	82.69
489.696	86.69
489.914	92.69
490.132	85.69
490.35	96.69
490.568	86.69
490.786	100.69
491.003	98.69
491.221	90.69
491.439	92.69
491.657	94.69
491.874	91.69
492.092	105.69
492.31	100.69
492.527	90.69
492.745	84.69
492.963	91.69
493.18	93.69
493.398	91.69
493.615	100.69
493.833	100.69
494.05	96.69
494.268	86.69
494.485	106.69
494.703	82.69
494.92	85.69
495.138	97.69
495.355	94.69
495.573	102.69
495.79	94.69
496.008	81.69
496.225	102.69
496.442	99.69
496.66	101.69
496.877	98.69
497.094	86.69
497.312	97.69
497.529	96.69
497.746	93.69
497.963	92.69
498.181	91.69
498.398	84.69
498.615	99.69
498.832	84.69
499.049	95.69
499.267	102.69
499.484	98.69
499.701	105.69
499.918	108.69
500.135	117.69
500.352	114.69
500.569	109.69
500.786	108.69
501.003	77.69
501.22	114.69
501.437	116.69
501.654	103.69
501.871	87.69
502.088	94.69
502.305	105.69
502.522	99.69
502.739	92.69
502.956	91.69
503.172	85.69
503.389	95.69
503.606	101.69
503.823	97.69
504.04	111.69
504.256	81.69
504.473	93.69
504.69	94.69
504.907	94.69
505.123	103.69
505.34	96.69
505.557	108.69
505.773	90.69
505.99	90.69
506.207	89.69
506.423	90.69
506.64	97.69
506.856	88.69
507.073	97.69
507.289	101.69
507.506	82.69
507.722	92.69
507.939	102.69
508.155	105.69
508.372	94.69
508.588	95.69
508.805	86.69
509.021	93.69
509.238	83.69
509.454	100.69
509.67	78.69
509.887	90.69
510.103	95.69
510.319	100.69
510.536	102.69
510.752	103.69
510.968	100.69
511.184	78.69
511.401	86.69
511.617	79.69
511.833	90.69
512.049	94.69
512.265	91.69
512.481	103.69
512.698	87.69
512.914	105.69
513.13	92.69
513.346	93.69
513.562	103.69
513.778	100.69
513.994	88.69
514.21	85.69
514.426	98.69
514.642	99.69
514.858	88.69
515.074	89.69
515.29	85.69
515.506	93.69
515.721	102.69
515.937	93.69
516.153	93.69
516.369	89.69
516.585	81.69
516.801	115.69
517.016	92.69
517.232	85.69
517.448	97.69
517.664	88.69
517.879	76.69
518.095	85.69
