Data from Ni(NO3)2@0.25M.TitratingCurve.Agarose3%dH2O.NegLispCup.LampEnergy10.LIBS07252019_HRD10591_18-04-47-566.txt Node
Date: Thu Jul 25 18:04:47 EDT 2019
User: cochatt
Spectrometer: HR+D1059
Trigger mode: 1
Integration Time (sec): 1.000000E-1
Scans to average: 1
Electric dark correction enabled: true
Nonlinearity correction enabled: false
Boxcar width: 0
XAxis mode: Wavelengths
Number of Pixels in Spectrum: 2048
>>>>>Begin Spectral Data<<<<<
223.165	-22.31
223.4	-22.31
223.635	-22.31
223.869	-20.31
224.104	-27.31
224.338	-23.31
224.573	-22.31
224.808	-1.31
225.042	-10.31
225.277	16.69
225.511	-10.31
225.746	-4.31
225.98	5.69
226.215	15.69
226.449	17.69
226.683	20.69
226.918	23.69
227.152	41.69
227.387	36.69
227.621	46.69
227.856	49.69
228.09	47.69
228.324	43.69
228.559	44.69
228.793	68.69
229.027	100.69
229.262	119.69
229.496	97.69
229.73	122.69
229.964	109.69
230.199	119.69
230.433	124.69
230.667	145.69
230.901	133.69
231.136	141.69
231.37	126.69
231.604	126.69
231.838	143.69
232.072	132.69
232.306	145.69
232.541	145.69
232.775	153.69
233.009	142.69
233.243	135.69
233.477	149.69
233.711	139.69
233.945	151.69
234.179	156.69
234.413	155.69
234.647	145.69
234.881	160.69
235.115	135.69
235.349	143.69
235.583	149.69
235.817	154.69
236.051	142.69
236.285	155.69
236.519	166.69
236.753	168.69
236.987	141.69
237.221	149.69
237.455	163.69
237.689	169.69
237.922	151.69
238.156	153.69
238.39	167.69
238.624	157.69
238.858	165.69
239.091	163.69
239.325	160.69
239.559	179.69
239.793	167.69
240.027	169.69
240.26	182.69
240.494	169.69
240.728	169.69
240.961	188.69
241.195	173.69
241.429	195.69
241.662	185.69
241.896	179.69
242.13	196.69
242.363	185.69
242.597	197.69
242.83	185.69
243.064	179.69
243.298	187.69
243.531	197.69
243.765	192.69
243.998	199.69
244.232	205.69
244.465	225.69
244.699	203.69
244.932	213.69
245.166	199.69
245.399	200.69
245.633	200.69
245.866	215.69
246.099	217.69
246.333	208.69
246.566	221.69
246.8	201.69
247.033	222.69
247.266	228.69
247.5	215.69
247.733	223.69
247.966	234.69
248.2	245.69
248.433	232.69
248.666	221.69
248.899	240.69
249.133	237.69
249.366	256.69
249.599	257.69
249.832	265.69
250.066	237.69
250.299	263.69
250.532	244.69
250.765	253.69
250.998	279.69
251.231	268.69
251.465	270.69
251.698	273.69
251.931	278.69
252.164	279.69
252.397	290.69
252.63	283.69
252.863	279.69
253.096	278.69
253.329	282.69
253.562	289.69
253.795	299.69
254.028	299.69
254.261	310.69
254.494	310.69
254.727	302.69
254.96	283.69
255.193	324.69
255.426	305.69
255.659	318.69
255.892	310.69
256.124	312.69
256.357	316.69
256.59	330.69
256.823	317.69
257.056	332.69
257.289	331.69
257.521	343.69
257.754	354.69
257.987	315.69
258.22	333.69
258.452	335.69
258.685	356.69
258.918	355.69
259.151	364.69
259.383	367.69
259.616	351.69
259.849	349.69
260.081	368.69
260.314	371.69
260.547	358.69
260.779	360.69
261.012	345.69
261.244	353.69
261.477	384.69
261.71	355.69
261.942	353.69
262.175	377.69
262.407	369.69
262.64	362.69
262.872	379.69
263.105	368.69
263.337	395.69
263.57	383.69
263.802	384.69
264.035	379.69
264.267	383.69
264.499	373.69
264.732	371.69
264.964	387.69
265.197	415.69
265.429	393.69
265.661	390.69
265.894	407.69
266.126	410.69
266.358	394.69
266.591	422.69
266.823	420.69
267.055	402.69
267.287	415.69
267.52	396.69
267.752	420.69
267.984	393.69
268.216	407.69
268.448	422.69
268.681	407.69
268.913	422.69
269.145	389.69
269.377	417.69
269.609	423.69
269.841	432.69
270.073	409.69
270.306	425.69
270.538	428.69
270.77	424.69
271.002	436.69
271.234	437.69
271.466	445.69
271.698	440.69
271.93	456.69
272.162	436.69
272.394	436.69
272.626	439.69
272.858	443.69
273.09	446.69
273.322	442.69
273.553	425.69
273.785	455.69
274.017	433.69
274.249	455.69
274.481	456.69
274.713	452.69
274.945	463.69
275.176	452.69
275.408	471.69
275.64	473.69
275.872	465.69
276.104	459.69
276.335	481.69
276.567	466.69
276.799	453.69
277.031	488.69
277.262	477.69
277.494	484.69
277.726	467.69
277.957	473.69
278.189	475.69
278.421	491.69
278.652	495.69
278.884	486.69
279.115	472.69
279.347	505.69
279.579	489.69
279.81	507.69
280.042	465.69
280.273	497.69
280.505	495.69
280.736	493.69
280.968	488.69
281.199	506.69
281.431	489.69
281.662	499.69
281.894	519.69
282.125	535.69
282.356	525.69
282.588	494.69
282.819	506.69
283.051	524.69
283.282	504.69
283.513	533.69
283.745	517.69
283.976	526.69
284.207	552.69
284.439	531.69
284.67	528.69
284.901	526.69
285.132	527.69
285.364	526.69
285.595	539.69
285.826	540.69
286.057	504.69
286.288	513.69
286.52	540.69
286.751	532.69
286.982	543.69
287.213	542.69
287.444	538.69
287.675	552.69
287.906	552.69
288.138	557.69
288.369	545.69
288.6	538.69
288.831	538.69
289.062	549.69
289.293	558.69
289.524	537.69
289.755	551.69
289.986	555.69
290.217	574.69
290.448	567.69
290.679	563.69
290.91	571.69
291.141	547.69
291.371	559.69
291.602	555.69
291.833	561.69
292.064	580.69
292.295	535.69
292.526	523.69
292.757	556.69
292.987	572.69
293.218	543.69
293.449	555.69
293.68	570.69
293.91	558.69
294.141	567.69
294.372	561.69
294.603	557.69
294.833	566.69
295.064	567.69
295.295	567.69
295.525	552.69
295.756	584.69
295.987	553.69
296.217	553.69
296.448	569.69
296.679	553.69
296.909	601.69
297.14	584.69
297.37	578.69
297.601	597.69
297.831	605.69
298.062	575.69
298.292	607.69
298.523	599.69
298.753	595.69
298.984	586.69
299.214	575.69
299.445	604.69
299.675	573.69
299.905	611.69
300.136	601.69
300.366	609.69
300.597	627.69
300.827	614.69
301.057	597.69
301.288	616.69
301.518	614.69
301.748	608.69
301.979	632.69
302.209	618.69
302.439	613.69
302.669	630.69
302.9	631.69
303.13	612.69
303.36	629.69
303.59	648.69
303.82	652.69
304.051	639.69
304.281	604.69
304.511	627.69
304.741	641.69
304.971	623.69
305.201	647.69
305.431	633.69
305.661	643.69
305.891	634.69
306.121	633.69
306.352	625.69
306.582	629.69
306.812	606.69
307.042	620.69
307.272	629.69
307.502	620.69
307.731	635.69
307.961	661.69
308.191	645.69
308.421	622.69
308.651	640.69
308.881	620.69
309.111	623.69
309.341	637.69
309.571	634.69
309.8	651.69
310.03	639.69
310.26	653.69
310.49	665.69
310.72	650.69
310.949	649.69
311.179	624.69
311.409	675.69
311.639	674.69
311.868	642.69
312.098	652.69
312.328	666.69
312.557	655.69
312.787	663.69
313.017	673.69
313.246	706.69
313.476	699.69
313.706	735.69
313.935	696.69
314.165	696.69
314.394	689.69
314.624	729.69
314.853	700.69
315.083	719.69
315.312	677.69
315.542	703.69
315.771	729.69
316.001	703.69
316.23	700.69
316.46	710.69
316.689	704.69
316.919	715.69
317.148	724.69
317.377	712.69
317.607	711.69
317.836	719.69
318.065	731.69
318.295	711.69
318.524	740.69
318.753	723.69
318.983	721.69
319.212	720.69
319.441	727.69
319.67	729.69
319.9	731.69
320.129	729.69
320.358	764.69
320.587	749.69
320.816	741.69
321.046	727.69
321.275	738.69
321.504	757.69
321.733	749.69
321.962	762.69
322.191	740.69
322.42	758.69
322.649	779.69
322.878	789.69
323.108	762.69
323.337	777.69
323.566	794.69
323.795	795.69
324.024	795.69
324.253	795.69
324.482	788.69
324.71	803.69
324.939	805.69
325.168	798.69
325.397	819.69
325.626	836.69
325.855	829.69
326.084	859.69
326.313	830.69
326.542	842.69
326.77	849.69
326.999	823.69
327.228	833.69
327.457	835.69
327.686	855.69
327.914	856.69
328.143	851.69
328.372	873.69
328.6	871.69
328.829	863.69
329.058	868.69
329.287	867.69
329.515	849.69
329.744	888.69
329.972	881.69
330.201	887.69
330.43	908.69
330.658	899.69
330.887	895.69
331.115	900.69
331.344	941.69
331.572	923.69
331.801	951.69
332.03	961.69
332.258	961.69
332.486	988.69
332.715	1000.69
332.943	1034.69
333.172	1018.69
333.4	1070.69
333.629	1083.69
333.857	1100.69
334.085	1127.69
334.314	1142.69
334.542	1115.69
334.771	1118.69
334.999	1111.69
335.227	1143.69
335.455	1131.69
335.684	1153.69
335.912	1127.69
336.14	1108.69
336.369	1083.69
336.597	1085.69
336.825	1106.69
337.053	1092.69
337.281	1102.69
337.51	1078.69
337.738	1082.69
337.966	1055.69
338.194	1063.69
338.422	1050.69
338.65	1006.69
338.878	976.69
339.106	978.69
339.334	1031.69
339.562	1010.69
339.79	973.69
340.018	929.69
340.246	947.69
340.474	979.69
340.702	975.69
340.93	977.69
341.158	937.69
341.386	983.69
341.614	1008.69
341.842	996.69
342.07	970.69
342.298	959.69
342.526	969.69
342.754	969.69
342.981	966.69
343.209	1004.69
343.437	1018.69
343.665	1039.69
343.893	1073.69
344.12	1102.69
344.348	1091.69
344.576	1069.69
344.804	1069.69
345.031	1026.69
345.259	987.69
345.487	1012.69
345.714	979.69
345.942	973.69
346.17	1004.69
346.397	976.69
346.625	952.69
346.853	934.69
347.08	926.69
347.308	941.69
347.535	929.69
347.763	913.69
347.99	954.69
348.218	927.69
348.445	913.69
348.673	924.69
348.9	937.69
349.128	939.69
349.355	926.69
349.583	941.69
349.81	914.69
350.037	919.69
350.265	893.69
350.492	896.69
350.72	917.69
350.947	878.69
351.174	909.69
351.402	901.69
351.629	908.69
351.856	898.69
352.083	896.69
352.311	903.69
352.538	932.69
352.765	947.69
352.992	876.69
353.22	886.69
353.447	860.69
353.674	888.69
353.901	878.69
354.128	896.69
354.355	871.69
354.583	869.69
354.81	891.69
355.037	891.69
355.264	871.69
355.491	879.69
355.718	879.69
355.945	901.69
356.172	873.69
356.399	868.69
356.626	899.69
356.853	951.69
357.08	902.69
357.307	878.69
357.534	899.69
357.761	861.69
357.988	904.69
358.215	893.69
358.441	870.69
358.668	895.69
358.895	887.69
359.122	907.69
359.349	907.69
359.576	912.69
359.802	880.69
360.029	897.69
360.256	913.69
360.483	884.69
360.709	914.69
360.936	924.69
361.163	881.69
361.39	924.69
361.616	893.69
361.843	920.69
362.07	943.69
362.296	927.69
362.523	903.69
362.749	906.69
362.976	875.69
363.203	880.69
363.429	872.69
363.656	895.69
363.882	901.69
364.109	895.69
364.335	883.69
364.562	863.69
364.788	901.69
365.015	903.69
365.241	903.69
365.468	875.69
365.694	896.69
365.92	867.69
366.147	872.69
366.373	895.69
366.599	867.69
366.826	868.69
367.052	873.69
367.278	859.69
367.505	891.69
367.731	912.69
367.957	897.69
368.184	903.69
368.41	928.69
368.636	904.69
368.862	898.69
369.089	899.69
369.315	892.69
369.541	883.69
369.767	911.69
369.993	897.69
370.219	912.69
370.445	907.69
370.672	886.69
370.898	911.69
371.124	913.69
371.35	933.69
371.576	929.69
371.802	920.69
372.028	937.69
372.254	924.69
372.48	947.69
372.706	959.69
372.932	962.69
373.158	978.69
373.384	931.69
373.61	925.69
373.835	947.69
374.061	956.69
374.287	969.69
374.513	970.69
374.739	979.69
374.965	980.69
375.191	1026.69
375.416	991.69
375.642	999.69
375.868	970.69
376.094	976.69
376.319	935.69
376.545	948.69
376.771	933.69
376.997	939.69
377.222	957.69
377.448	924.69
377.674	938.69
377.899	951.69
378.125	923.69
378.35	933.69
378.576	904.69
378.802	890.69
379.027	936.69
379.253	895.69
379.478	895.69
379.704	933.69
379.929	905.69
380.155	899.69
380.38	908.69
380.606	905.69
380.831	948.69
381.057	928.69
381.282	914.69
381.507	938.69
381.733	908.69
381.958	923.69
382.184	934.69
382.409	953.69
382.634	941.69
382.86	960.69
383.085	975.69
383.31	955.69
383.535	965.69
383.761	995.69
383.986	998.69
384.211	1001.69
384.436	1012.69
384.662	1027.69
384.887	1051.69
385.112	1046.69
385.337	1040.69
385.562	1080.69
385.787	1050.69
386.013	1104.69
386.238	1121.69
386.463	1075.69
386.688	1085.69
386.913	1101.69
387.138	1050.69
387.363	1063.69
387.588	1057.69
387.813	1100.69
388.038	1071.69
388.263	1075.69
388.488	1078.69
388.713	1059.69
388.938	1098.69
389.163	1093.69
389.387	1104.69
389.612	1056.69
389.837	1092.69
390.062	1092.69
390.287	1078.69
390.512	1096.69
390.736	1116.69
390.961	1113.69
391.186	1083.69
391.411	1113.69
391.636	1173.69
391.86	1177.69
392.085	1193.69
392.31	1170.69
392.534	1179.69
392.759	1166.69
392.984	1149.69
393.208	1160.69
393.433	1155.69
393.658	1140.69
393.882	1141.69
394.107	1143.69
394.331	1165.69
394.556	1171.69
394.78	1159.69
395.005	1157.69
395.229	1168.69
395.454	1228.69
395.678	1228.69
395.903	1215.69
396.127	1235.69
396.352	1211.69
396.576	1183.69
396.801	1220.69
397.025	1241.69
397.249	1223.69
397.474	1274.69
397.698	1294.69
397.922	1307.69
398.147	1286.69
398.371	1289.69
398.595	1372.69
398.82	1385.69
399.044	1470.69
399.268	1555.69
399.492	1699.69
399.717	1779.69
399.941	1810.69
400.165	1720.69
400.389	1653.69
400.613	1539.69
400.837	1514.69
401.062	1450.69
401.286	1439.69
401.51	1398.69
401.734	1424.69
401.958	1390.69
402.182	1384.69
402.406	1371.69
402.63	1385.69
402.854	1395.69
403.078	1444.69
403.302	1443.69
403.526	1455.69
403.75	1466.69
403.974	1469.69
404.198	1444.69
404.422	1472.69
404.645	1439.69
404.869	1460.69
405.093	1466.69
405.317	1450.69
405.541	1475.69
405.765	1502.69
405.988	1455.69
406.212	1493.69
406.436	1503.69
406.66	1519.69
406.883	1576.69
407.107	1565.69
407.331	1641.69
407.555	1693.69
407.778	1683.69
408.002	1659.69
408.226	1657.69
408.449	1643.69
408.673	1555.69
408.896	1513.69
409.12	1542.69
409.344	1557.69
409.567	1537.69
409.791	1570.69
410.014	1543.69
410.238	1529.69
410.461	1502.69
410.685	1485.69
410.908	1497.69
411.132	1505.69
411.355	1441.69
411.578	1467.69
411.802	1446.69
412.025	1435.69
412.249	1437.69
412.472	1452.69
412.695	1427.69
412.919	1416.69
413.142	1430.69
413.365	1439.69
413.589	1427.69
413.812	1383.69
414.035	1389.69
414.258	1394.69
414.482	1435.69
414.705	1423.69
414.928	1440.69
415.151	1417.69
415.374	1393.69
415.597	1398.69
415.821	1357.69
416.044	1390.69
416.267	1399.69
416.49	1395.69
416.713	1375.69
416.936	1373.69
417.159	1344.69
417.382	1364.69
417.605	1339.69
417.828	1365.69
418.051	1351.69
418.274	1357.69
418.497	1365.69
418.72	1387.69
418.943	1402.69
419.166	1476.69
419.389	1575.69
419.611	1545.69
419.834	1483.69
420.057	1445.69
420.28	1418.69
420.503	1378.69
420.726	1367.69
420.948	1364.69
421.171	1364.69
421.394	1379.69
421.617	1372.69
421.839	1378.69
422.062	1403.69
422.285	1376.69
422.507	1377.69
422.73	1402.69
422.953	1350.69
423.175	1395.69
423.398	1381.69
423.621	1395.69
423.843	1387.69
424.066	1401.69
424.288	1361.69
424.511	1401.69
424.733	1415.69
424.956	1398.69
425.178	1408.69
425.401	1423.69
425.623	1420.69
425.846	1335.69
426.068	1351.69
426.291	1353.69
426.513	1378.69
426.735	1329.69
426.958	1343.69
427.18	1310.69
427.402	1303.69
427.625	1301.69
427.847	1294.69
428.069	1261.69
428.292	1262.69
428.514	1302.69
428.736	1295.69
428.958	1332.69
429.181	1239.69
429.403	1240.69
429.625	1308.69
429.847	1247.69
430.069	1306.69
430.292	1241.69
430.514	1262.69
430.736	1296.69
430.958	1287.69
431.18	1260.69
431.402	1274.69
431.624	1271.69
431.846	1299.69
432.068	1276.69
432.29	1293.69
432.512	1296.69
432.734	1292.69
432.956	1318.69
433.178	1315.69
433.4	1339.69
433.622	1310.69
433.844	1321.69
434.066	1332.69
434.287	1324.69
434.509	1334.69
434.731	1399.69
434.953	1384.69
435.175	1429.69
435.397	1384.69
435.618	1379.69
435.84	1343.69
436.062	1285.69
436.284	1323.69
436.505	1329.69
436.727	1292.69
436.949	1322.69
437.17	1287.69
437.392	1285.69
437.614	1242.69
437.835	1243.69
438.057	1247.69
438.278	1214.69
438.5	1271.69
438.721	1247.69
438.943	1256.69
439.165	1252.69
439.386	1264.69
439.608	1261.69
439.829	1250.69
440.05	1303.69
440.272	1277.69
440.493	1339.69
440.715	1332.69
440.936	1379.69
441.158	1346.69
441.379	1353.69
441.6	1404.69
441.822	1419.69
442.043	1413.69
442.264	1404.69
442.486	1407.69
442.707	1423.69
442.928	1359.69
443.149	1361.69
443.371	1388.69
443.592	1378.69
443.813	1433.69
444.034	1445.69
444.255	1496.69
444.476	1513.69
444.698	1565.69
444.919	1529.69
445.14	1606.69
445.361	1503.69
445.582	1491.69
445.803	1417.69
446.024	1410.69
446.245	1372.69
446.466	1383.69
446.687	1324.69
446.908	1319.69
447.129	1284.69
447.35	1273.69
447.571	1240.69
447.792	1259.69
448.013	1226.69
448.234	1214.69
448.455	1206.69
448.675	1191.69
448.896	1240.69
449.117	1191.69
449.338	1214.69
449.559	1177.69
449.779	1207.69
450	1189.69
450.221	1216.69
450.442	1200.69
450.662	1201.69
450.883	1211.69
451.104	1203.69
451.324	1198.69
451.545	1164.69
451.766	1201.69
451.986	1198.69
452.207	1165.69
452.428	1177.69
452.648	1163.69
452.869	1157.69
453.089	1147.69
453.31	1147.69
453.53	1117.69
453.751	1134.69
453.971	1138.69
454.192	1102.69
454.412	1111.69
454.633	1170.69
454.853	1104.69
455.073	1120.69
455.294	1129.69
455.514	1128.69
455.734	1117.69
455.955	1125.69
456.175	1088.69
456.395	1093.69
456.616	1085.69
456.836	1139.69
457.056	1126.69
457.276	1121.69
457.497	1142.69
457.717	1135.69
457.937	1128.69
458.157	1135.69
458.377	1150.69
458.598	1192.69
458.818	1227.69
459.038	1225.69
459.258	1259.69
459.478	1324.69
459.698	1331.69
459.918	1369.69
460.138	1387.69
460.358	1421.69
460.578	1421.69
460.798	1444.69
461.018	1450.69
461.238	1484.69
461.458	1478.69
461.678	1470.69
461.898	1522.69
462.118	1549.69
462.338	1622.69
462.558	1664.69
462.777	1646.69
462.997	1756.69
463.217	1786.69
463.437	1822.69
463.657	1777.69
463.876	1713.69
464.096	1685.69
464.316	1690.69
464.536	1677.69
464.755	1619.69
464.975	1619.69
465.195	1531.69
465.414	1430.69
465.634	1406.69
465.854	1394.69
466.073	1328.69
466.293	1335.69
466.512	1283.69
466.732	1312.69
466.951	1261.69
467.171	1228.69
467.391	1273.69
467.61	1221.69
467.829	1205.69
468.049	1253.69
468.268	1215.69
468.488	1177.69
468.707	1199.69
468.927	1232.69
469.146	1223.69
469.365	1219.69
469.585	1248.69
469.804	1239.69
470.023	1278.69
470.243	1257.69
470.462	1246.69
470.681	1267.69
470.901	1280.69
471.12	1272.69
471.339	1263.69
471.558	1231.69
471.777	1225.69
471.997	1219.69
472.216	1192.69
472.435	1212.69
472.654	1227.69
472.873	1207.69
473.092	1180.69
473.311	1213.69
473.53	1191.69
473.749	1196.69
473.968	1221.69
474.187	1190.69
474.406	1215.69
474.625	1208.69
474.844	1169.69
475.063	1228.69
475.282	1213.69
475.501	1199.69
475.72	1208.69
475.939	1231.69
476.158	1281.69
476.377	1264.69
476.596	1263.69
476.814	1236.69
477.033	1269.69
477.252	1306.69
477.471	1272.69
477.69	1341.69
477.908	1335.69
478.127	1377.69
478.346	1376.69
478.564	1412.69
478.783	1435.69
479.002	1455.69
479.22	1449.69
479.439	1456.69
479.658	1460.69
479.876	1459.69
480.095	1460.69
480.313	1494.69
480.532	1493.69
480.751	1512.69
480.969	1454.69
481.188	1424.69
481.406	1439.69
481.624	1379.69
481.843	1371.69
482.061	1359.69
482.28	1364.69
482.498	1355.69
482.717	1343.69
482.935	1373.69
483.153	1366.69
483.372	1371.69
483.59	1404.69
483.808	1433.69
484.027	1381.69
484.245	1383.69
484.463	1393.69
484.681	1428.69
484.9	1409.69
485.118	1393.69
485.336	1374.69
485.554	1408.69
485.772	1401.69
485.99	1374.69
486.209	1397.69
486.427	1409.69
486.645	1418.69
486.863	1410.69
487.081	1466.69
487.299	1431.69
487.517	1442.69
487.735	1412.69
487.953	1423.69
488.171	1438.69
488.389	1410.69
488.607	1433.69
488.825	1411.69
489.043	1399.69
489.261	1437.69
489.479	1408.69
489.696	1428.69
489.914	1451.69
490.132	1471.69
490.35	1439.69
490.568	1463.69
490.786	1465.69
491.003	1448.69
491.221	1475.69
491.439	1471.69
491.657	1468.69
491.874	1489.69
492.092	1477.69
492.31	1474.69
492.527	1510.69
492.745	1499.69
492.963	1471.69
493.18	1525.69
493.398	1499.69
493.615	1517.69
493.833	1545.69
494.05	1518.69
494.268	1571.69
