Data from Ni(NO3)2@0.0625M.TitratingCurve.Agarose3%dH2O.NegLispCup.LampEnergy10.LIBS07252019_HRD10591_18-14-36-572.txt Node
Date: Thu Jul 25 18:14:36 EDT 2019
User: cochatt
Spectrometer: HR+D1059
Trigger mode: 1
Integration Time (sec): 1.000000E-1
Scans to average: 1
Electric dark correction enabled: true
Nonlinearity correction enabled: false
Boxcar width: 0
XAxis mode: Wavelengths
Number of Pixels in Spectrum: 2048
>>>>>Begin Spectral Data<<<<<
223.165	-35.81
223.4	-35.81
223.635	-35.81
223.869	-23.81
224.104	-14.81
224.338	-16.81
224.573	-9.81
224.808	-2.81
225.042	-14.81
225.277	-2.81
225.511	-7.81
225.746	3.19
225.98	12.19
226.215	19.19
226.449	20.19
226.683	19.19
226.918	26.19
227.152	29.19
227.387	18.19
227.621	42.19
227.856	42.19
228.09	39.19
228.324	49.19
228.559	56.19
228.793	75.19
229.027	99.19
229.262	109.19
229.496	116.19
229.73	114.19
229.964	101.19
230.199	116.19
230.433	120.19
230.667	124.19
230.901	134.19
231.136	121.19
231.37	127.19
231.604	120.19
231.838	126.19
232.072	137.19
232.306	142.19
232.541	133.19
232.775	125.19
233.009	124.19
233.243	128.19
233.477	138.19
233.711	136.19
233.945	120.19
234.179	137.19
234.413	144.19
234.647	138.19
234.881	148.19
235.115	139.19
235.349	140.19
235.583	139.19
235.817	146.19
236.051	144.19
236.285	138.19
236.519	150.19
236.753	140.19
236.987	149.19
237.221	147.19
237.455	155.19
237.689	150.19
237.922	144.19
238.156	148.19
238.39	147.19
238.624	150.19
238.858	151.19
239.091	156.19
239.325	157.19
239.559	145.19
239.793	138.19
240.027	150.19
240.26	137.19
240.494	160.19
240.728	168.19
240.961	175.19
241.195	156.19
241.429	166.19
241.662	160.19
241.896	154.19
242.13	174.19
242.363	162.19
242.597	177.19
242.83	192.19
243.064	181.19
243.298	175.19
243.531	190.19
243.765	173.19
243.998	187.19
244.232	195.19
244.465	183.19
244.699	203.19
244.932	182.19
245.166	214.19
245.399	177.19
245.633	204.19
245.866	206.19
246.099	184.19
246.333	201.19
246.566	197.19
246.8	213.19
247.033	187.19
247.266	200.19
247.5	201.19
247.733	206.19
247.966	197.19
248.2	215.19
248.433	218.19
248.666	210.19
248.899	211.19
249.133	213.19
249.366	216.19
249.599	202.19
249.832	201.19
250.066	213.19
250.299	240.19
250.532	219.19
250.765	222.19
250.998	223.19
251.231	229.19
251.465	230.19
251.698	236.19
251.931	250.19
252.164	236.19
252.397	245.19
252.63	239.19
252.863	246.19
253.096	229.19
253.329	228.19
253.562	238.19
253.795	227.19
254.028	258.19
254.261	252.19
254.494	245.19
254.727	232.19
254.96	221.19
255.193	242.19
255.426	231.19
255.659	240.19
255.892	264.19
256.124	258.19
256.357	256.19
256.59	257.19
256.823	269.19
257.056	249.19
257.289	230.19
257.521	276.19
257.754	267.19
257.987	256.19
258.22	268.19
258.452	265.19
258.685	273.19
258.918	256.19
259.151	275.19
259.383	288.19
259.616	258.19
259.849	264.19
260.081	264.19
260.314	271.19
260.547	282.19
260.779	276.19
261.012	268.19
261.244	267.19
261.477	293.19
261.71	291.19
261.942	287.19
262.175	277.19
262.407	290.19
262.64	296.19
262.872	294.19
263.105	312.19
263.337	289.19
263.57	293.19
263.802	286.19
264.035	305.19
264.267	280.19
264.499	286.19
264.732	293.19
264.964	309.19
265.197	320.19
265.429	323.19
265.661	317.19
265.894	312.19
266.126	319.19
266.358	302.19
266.591	288.19
266.823	309.19
267.055	312.19
267.287	321.19
267.52	314.19
267.752	294.19
267.984	312.19
268.216	295.19
268.448	327.19
268.681	313.19
268.913	332.19
269.145	321.19
269.377	299.19
269.609	308.19
269.841	317.19
270.073	309.19
270.306	315.19
270.538	314.19
270.77	328.19
271.002	337.19
271.234	310.19
271.466	326.19
271.698	329.19
271.93	325.19
272.162	321.19
272.394	328.19
272.626	351.19
272.858	340.19
273.09	345.19
273.322	343.19
273.553	328.19
273.785	343.19
274.017	338.19
274.249	326.19
274.481	340.19
274.713	339.19
274.945	349.19
275.176	342.19
275.408	336.19
275.64	365.19
275.872	344.19
276.104	349.19
276.335	350.19
276.567	357.19
276.799	350.19
277.031	349.19
277.262	359.19
277.494	365.19
277.726	357.19
277.957	364.19
278.189	348.19
278.421	355.19
278.652	374.19
278.884	368.19
279.115	370.19
279.347	382.19
279.579	379.19
279.81	366.19
280.042	374.19
280.273	378.19
280.505	388.19
280.736	361.19
280.968	395.19
281.199	383.19
281.431	397.19
281.662	395.19
281.894	395.19
282.125	398.19
282.356	391.19
282.588	406.19
282.819	394.19
283.051	408.19
283.282	405.19
283.513	400.19
283.745	410.19
283.976	407.19
284.207	416.19
284.439	421.19
284.67	400.19
284.901	408.19
285.132	414.19
285.364	405.19
285.595	409.19
285.826	420.19
286.057	427.19
286.288	416.19
286.52	419.19
286.751	408.19
286.982	418.19
287.213	420.19
287.444	414.19
287.675	432.19
287.906	449.19
288.138	419.19
288.369	440.19
288.6	428.19
288.831	453.19
289.062	434.19
289.293	428.19
289.524	434.19
289.755	448.19
289.986	437.19
290.217	462.19
290.448	444.19
290.679	456.19
290.91	446.19
291.141	450.19
291.371	432.19
291.602	442.19
291.833	449.19
292.064	437.19
292.295	442.19
292.526	455.19
292.757	444.19
292.987	439.19
293.218	430.19
293.449	420.19
293.68	453.19
293.91	459.19
294.141	458.19
294.372	426.19
294.603	458.19
294.833	468.19
295.064	443.19
295.295	471.19
295.525	467.19
295.756	466.19
295.987	477.19
296.217	471.19
296.448	465.19
296.679	444.19
296.909	463.19
297.14	466.19
297.37	478.19
297.601	483.19
297.831	468.19
298.062	477.19
298.292	492.19
298.523	503.19
298.753	500.19
298.984	475.19
299.214	503.19
299.445	485.19
299.675	491.19
299.905	481.19
300.136	470.19
300.366	473.19
300.597	526.19
300.827	503.19
301.057	504.19
301.288	531.19
301.518	527.19
301.748	527.19
301.979	520.19
302.209	509.19
302.439	516.19
302.669	514.19
302.9	503.19
303.13	508.19
303.36	484.19
303.59	492.19
303.82	478.19
304.051	496.19
304.281	498.19
304.511	511.19
304.741	499.19
304.971	507.19
305.201	499.19
305.431	497.19
305.661	494.19
305.891	503.19
306.121	502.19
306.352	479.19
306.582	499.19
306.812	515.19
307.042	485.19
307.272	489.19
307.502	488.19
307.731	496.19
307.961	480.19
308.191	476.19
308.421	488.19
308.651	496.19
308.881	468.19
309.111	474.19
309.341	489.19
309.571	497.19
309.8	502.19
310.03	493.19
310.26	505.19
310.49	496.19
310.72	491.19
310.949	486.19
311.179	483.19
311.409	470.19
311.639	517.19
311.868	491.19
312.098	512.19
312.328	498.19
312.557	521.19
312.787	528.19
313.017	505.19
313.246	529.19
313.476	503.19
313.706	521.19
313.935	516.19
314.165	528.19
314.394	532.19
314.624	520.19
314.853	506.19
315.083	512.19
315.312	535.19
315.542	511.19
315.771	502.19
316.001	521.19
316.23	512.19
316.46	522.19
316.689	526.19
316.919	499.19
317.148	494.19
317.377	521.19
317.607	508.19
317.836	518.19
318.065	513.19
318.295	532.19
318.524	505.19
318.753	504.19
318.983	486.19
319.212	505.19
319.441	520.19
319.67	493.19
319.9	510.19
320.129	512.19
320.358	497.19
320.587	504.19
320.816	541.19
321.046	501.19
321.275	525.19
321.504	518.19
321.733	530.19
321.962	510.19
322.191	519.19
322.42	506.19
322.649	517.19
322.878	529.19
323.108	547.19
323.337	530.19
323.566	495.19
323.795	509.19
324.024	552.19
324.253	554.19
324.482	540.19
324.71	523.19
324.939	532.19
325.168	530.19
325.397	551.19
325.626	525.19
325.855	556.19
326.084	554.19
326.313	574.19
326.542	567.19
326.77	591.19
326.999	563.19
327.228	570.19
327.457	590.19
327.686	568.19
327.914	563.19
328.143	549.19
328.372	564.19
328.6	579.19
328.829	570.19
329.058	579.19
329.287	579.19
329.515	581.19
329.744	591.19
329.972	580.19
330.201	593.19
330.43	579.19
330.658	597.19
330.887	557.19
331.115	595.19
331.344	594.19
331.572	585.19
331.801	631.19
332.03	622.19
332.258	618.19
332.486	668.19
332.715	674.19
332.943	712.19
333.172	727.19
333.4	796.19
333.629	789.19
333.857	791.19
334.085	780.19
334.314	750.19
334.542	714.19
334.771	705.19
334.999	726.19
335.227	696.19
335.455	718.19
335.684	695.19
335.912	672.19
336.14	703.19
336.369	670.19
336.597	686.19
336.825	701.19
337.053	704.19
337.281	661.19
337.51	654.19
337.738	640.19
337.966	603.19
338.194	632.19
338.422	620.19
338.65	608.19
338.878	624.19
339.106	603.19
339.334	640.19
339.562	592.19
339.79	581.19
340.018	599.19
340.246	580.19
340.474	584.19
340.702	593.19
340.93	591.19
341.158	588.19
341.386	588.19
341.614	605.19
341.842	583.19
342.07	612.19
342.298	594.19
342.526	594.19
342.754	584.19
342.981	594.19
343.209	613.19
343.437	630.19
343.665	668.19
343.893	714.19
344.12	754.19
344.348	739.19
344.576	656.19
344.804	627.19
345.031	628.19
345.259	606.19
345.487	589.19
345.714	606.19
345.942	587.19
346.17	605.19
346.397	596.19
346.625	600.19
346.853	588.19
347.08	588.19
347.308	585.19
347.535	606.19
347.763	597.19
347.99	587.19
348.218	591.19
348.445	599.19
348.673	598.19
348.9	564.19
349.128	594.19
349.355	586.19
349.583	569.19
349.81	563.19
350.037	558.19
350.265	583.19
350.492	556.19
350.72	555.19
350.947	593.19
351.174	560.19
351.402	564.19
351.629	579.19
351.856	561.19
352.083	554.19
352.311	533.19
352.538	554.19
352.765	555.19
352.992	525.19
353.22	546.19
353.447	548.19
353.674	540.19
353.901	555.19
354.128	552.19
354.355	534.19
354.583	556.19
354.81	575.19
355.037	546.19
355.264	561.19
355.491	574.19
355.718	576.19
355.945	536.19
356.172	568.19
356.399	532.19
356.626	555.19
356.853	561.19
357.08	558.19
357.307	551.19
357.534	555.19
357.761	583.19
357.988	546.19
358.215	538.19
358.441	569.19
358.668	565.19
358.895	556.19
359.122	538.19
359.349	562.19
359.576	536.19
359.802	552.19
360.029	568.19
360.256	571.19
360.483	547.19
360.709	521.19
360.936	562.19
361.163	570.19
361.39	554.19
361.616	525.19
361.843	571.19
362.07	554.19
362.296	559.19
362.523	561.19
362.749	552.19
362.976	562.19
363.203	554.19
363.429	533.19
363.656	542.19
363.882	573.19
364.109	539.19
364.335	562.19
364.562	550.19
364.788	541.19
365.015	542.19
365.241	542.19
365.468	547.19
365.694	552.19
365.92	565.19
366.147	565.19
366.373	553.19
366.599	546.19
366.826	540.19
367.052	541.19
367.278	527.19
367.505	564.19
367.731	548.19
367.957	561.19
368.184	564.19
368.41	555.19
368.636	566.19
368.862	557.19
369.089	558.19
369.315	558.19
369.541	574.19
369.767	584.19
369.993	568.19
370.219	558.19
370.445	590.19
370.672	581.19
370.898	593.19
371.124	608.19
371.35	606.19
371.576	600.19
371.802	613.19
372.028	613.19
372.254	584.19
372.48	627.19
372.706	603.19
372.932	644.19
373.158	636.19
373.384	629.19
373.61	605.19
373.835	609.19
374.061	616.19
374.287	601.19
374.513	609.19
374.739	633.19
374.965	653.19
375.191	676.19
375.416	685.19
375.642	625.19
375.868	656.19
376.094	613.19
376.319	624.19
376.545	625.19
376.771	606.19
376.997	608.19
377.222	596.19
377.448	588.19
377.674	604.19
377.899	616.19
378.125	590.19
378.35	604.19
378.576	602.19
378.802	576.19
379.027	591.19
379.253	602.19
379.478	583.19
379.704	574.19
379.929	606.19
380.155	587.19
380.38	583.19
380.606	616.19
380.831	588.19
381.057	601.19
381.282	602.19
381.507	604.19
381.733	621.19
381.958	597.19
382.184	639.19
382.409	611.19
382.634	610.19
382.86	624.19
383.085	636.19
383.31	642.19
383.535	672.19
383.761	692.19
383.986	706.19
384.211	696.19
384.436	703.19
384.662	712.19
384.887	725.19
385.112	724.19
385.337	761.19
385.562	749.19
385.787	719.19
386.013	764.19
386.238	749.19
386.463	746.19
386.688	738.19
386.913	717.19
387.138	726.19
387.363	723.19
387.588	711.19
387.813	716.19
388.038	716.19
388.263	738.19
388.488	718.19
388.713	728.19
388.938	713.19
389.163	716.19
389.387	687.19
389.612	707.19
389.837	698.19
390.062	723.19
390.287	690.19
390.512	690.19
390.736	714.19
390.961	737.19
391.186	753.19
391.411	762.19
391.636	756.19
391.86	820.19
392.085	844.19
392.31	822.19
392.534	791.19
392.759	796.19
392.984	782.19
393.208	752.19
393.433	776.19
393.658	762.19
393.882	760.19
394.107	781.19
394.331	775.19
394.556	764.19
394.78	778.19
395.005	774.19
395.229	805.19
395.454	801.19
395.678	806.19
395.903	849.19
396.127	796.19
396.352	764.19
396.576	761.19
396.801	775.19
397.025	759.19
397.249	793.19
397.474	810.19
397.698	796.19
397.922	800.19
398.147	768.19
398.371	814.19
398.595	857.19
398.82	875.19
399.044	938.19
399.268	1019.19
399.492	1238.19
399.717	1424.19
399.941	1464.19
400.165	1246.19
400.389	1092.19
400.613	985.19
400.837	964.19
401.062	890.19
401.286	899.19
401.51	895.19
401.734	896.19
401.958	899.19
402.182	886.19
402.406	952.19
402.63	960.19
402.854	969.19
403.078	997.19
403.302	1008.19
403.526	1026.19
403.75	1060.19
403.974	1090.19
404.198	1072.19
404.422	1098.19
404.645	1072.19
404.869	1049.19
405.093	1033.19
405.317	1045.19
405.541	1010.19
405.765	995.19
405.988	986.19
406.212	1019.19
406.436	986.19
406.66	1015.19
406.883	1045.19
407.107	1060.19
407.331	1160.19
407.555	1220.19
407.778	1216.19
408.002	1209.19
408.226	1110.19
408.449	1095.19
408.673	1060.19
408.896	1064.19
409.12	1028.19
409.344	1068.19
409.567	1039.19
409.791	1034.19
410.014	1043.19
410.238	1043.19
410.461	1041.19
410.685	1005.19
410.908	1002.19
411.132	988.19
411.355	973.19
411.578	978.19
411.802	934.19
412.025	920.19
412.249	960.19
412.472	951.19
412.695	907.19
412.919	916.19
413.142	907.19
413.365	901.19
413.589	935.19
413.812	894.19
414.035	884.19
414.258	908.19
414.482	937.19
414.705	922.19
414.928	931.19
415.151	915.19
415.374	923.19
415.597	899.19
415.821	894.19
416.044	908.19
416.267	889.19
416.49	893.19
416.713	873.19
416.936	908.19
417.159	902.19
417.382	916.19
417.605	891.19
417.828	935.19
418.051	936.19
418.274	913.19
418.497	920.19
418.72	905.19
418.943	940.19
419.166	986.19
419.389	1045.19
419.611	1012.19
419.834	988.19
420.057	927.19
420.28	918.19
420.503	883.19
420.726	920.19
420.948	892.19
421.171	900.19
421.394	888.19
421.617	889.19
421.839	887.19
422.062	895.19
422.285	913.19
422.507	915.19
422.73	962.19
422.953	932.19
423.175	954.19
423.398	968.19
423.621	961.19
423.843	958.19
424.066	962.19
424.288	971.19
424.511	973.19
424.733	946.19
424.956	933.19
425.178	918.19
425.401	913.19
425.623	920.19
425.846	871.19
426.068	904.19
426.291	852.19
426.513	849.19
426.735	830.19
426.958	872.19
427.18	842.19
427.402	829.19
427.625	792.19
427.847	824.19
428.069	820.19
428.292	841.19
428.514	793.19
428.736	781.19
428.958	831.19
429.181	786.19
429.403	784.19
429.625	804.19
429.847	795.19
430.069	797.19
430.292	804.19
430.514	755.19
430.736	764.19
430.958	776.19
431.18	772.19
431.402	775.19
431.624	805.19
431.846	800.19
432.068	800.19
432.29	834.19
432.512	820.19
432.734	828.19
432.956	817.19
433.178	833.19
433.4	797.19
433.622	820.19
433.844	833.19
434.066	824.19
434.287	849.19
434.509	875.19
434.731	888.19
434.953	926.19
435.175	937.19
435.397	913.19
435.618	877.19
435.84	844.19
436.062	838.19
436.284	827.19
436.505	816.19
436.727	832.19
436.949	812.19
437.17	804.19
437.392	798.19
437.614	800.19
437.835	777.19
438.057	805.19
438.278	772.19
438.5	755.19
438.721	769.19
438.943	796.19
439.165	770.19
439.386	776.19
439.608	818.19
439.829	797.19
440.05	826.19
440.272	796.19
440.493	808.19
440.715	827.19
440.936	858.19
441.158	832.19
441.379	875.19
441.6	907.19
441.822	916.19
442.043	946.19
442.264	945.19
442.486	873.19
442.707	895.19
442.928	906.19
443.149	928.19
443.371	910.19
443.592	917.19
443.813	942.19
444.034	917.19
444.255	960.19
444.476	1010.19
444.698	1084.19
444.919	1139.19
445.14	1186.19
445.361	1039.19
445.582	943.19
445.803	907.19
446.024	864.19
446.245	872.19
446.466	833.19
446.687	810.19
446.908	841.19
447.129	797.19
447.35	783.19
447.571	794.19
447.792	762.19
448.013	759.19
448.234	758.19
448.455	756.19
448.675	742.19
448.896	748.19
449.117	728.19
449.338	742.19
449.559	744.19
449.779	730.19
450	739.19
450.221	755.19
450.442	760.19
450.662	772.19
450.883	778.19
451.104	805.19
451.324	761.19
451.545	779.19
451.766	768.19
451.986	744.19
452.207	757.19
452.428	774.19
452.648	748.19
452.869	765.19
453.089	732.19
453.31	737.19
453.53	749.19
453.751	753.19
453.971	740.19
454.192	728.19
454.412	712.19
454.633	698.19
454.853	732.19
455.073	722.19
455.294	724.19
455.514	704.19
455.734	722.19
455.955	691.19
456.175	672.19
456.395	676.19
456.616	664.19
456.836	710.19
457.056	702.19
457.276	670.19
457.497	693.19
457.717	678.19
457.937	710.19
458.157	724.19
458.377	704.19
458.598	722.19
458.818	731.19
459.038	774.19
459.258	792.19
459.478	834.19
459.698	846.19
459.918	859.19
460.138	915.19
460.358	938.19
460.578	967.19
460.798	976.19
461.018	1011.19
461.238	969.19
461.458	963.19
461.678	973.19
461.898	969.19
462.118	981.19
462.338	1056.19
462.558	1060.19
462.777	1068.19
462.997	1204.19
463.217	1317.19
463.437	1354.19
463.657	1238.19
463.876	1128.19
464.096	1132.19
464.316	1112.19
464.536	1162.19
464.755	1118.19
464.975	1023.19
465.195	1016.19
465.414	937.19
465.634	884.19
465.854	857.19
466.073	846.19
466.293	845.19
466.512	792.19
466.732	820.19
466.951	808.19
467.171	776.19
467.391	804.19
467.61	785.19
467.829	765.19
468.049	793.19
468.268	768.19
468.488	761.19
468.707	730.19
468.927	761.19
469.146	748.19
469.365	740.19
469.585	754.19
469.804	774.19
470.023	807.19
470.243	799.19
470.462	835.19
470.681	836.19
470.901	833.19
471.12	800.19
471.339	800.19
471.558	781.19
471.777	757.19
471.997	728.19
472.216	761.19
472.435	726.19
472.654	711.19
472.873	711.19
473.092	717.19
473.311	713.19
473.53	713.19
473.749	707.19
473.968	748.19
474.187	714.19
474.406	727.19
474.625	749.19
474.844	723.19
475.063	738.19
475.282	729.19
475.501	751.19
475.72	752.19
475.939	755.19
476.158	739.19
476.377	759.19
476.596	757.19
476.814	783.19
477.033	772.19
477.252	765.19
477.471	807.19
477.69	839.19
477.908	845.19
478.127	852.19
478.346	903.19
478.564	886.19
478.783	893.19
479.002	922.19
479.22	909.19
479.439	923.19
479.658	918.19
479.876	914.19
480.095	926.19
480.313	946.19
480.532	1014.19
480.751	961.19
480.969	921.19
481.188	926.19
481.406	886.19
481.624	853.19
481.843	811.19
482.061	845.19
482.28	828.19
482.498	817.19
482.717	837.19
482.935	848.19
483.153	833.19
483.372	829.19
483.59	829.19
483.808	839.19
484.027	855.19
484.245	811.19
484.463	846.19
484.681	853.19
484.9	861.19
485.118	854.19
485.336	849.19
485.554	874.19
485.772	891.19
485.99	898.19
486.209	911.19
486.427	880.19
486.645	883.19
486.863	917.19
487.081	890.19
487.299	885.19
487.517	889.19
487.735	870.19
487.953	900.19
488.171	872.19
488.389	841.19
488.607	864.19
488.825	850.19
489.043	872.19
489.261	853.19
489.479	856.19
489.696	842.19
489.914	844.19
490.132	871.19
490.35	874.19
490.568	886.19
490.786	889.19
491.003	875.19
491.221	856.19
491.439	883.19
491.657	882.19
491.874	912.19
492.092	867.19
492.31	875.19
492.527	892.19
492.745	900.19
492.963	893.19
493.18	905.19
493.398	899.19
493.615	908.19
493.833	910.19
494.05	920.19
494.268	945.19
494.485	922.19
494.703	926.19
494.92	940.19
495.138	924.19
495.355	917.19
495.573	938.19
495.79	933.19
496.008	920.19
496.225	925.19
496.442	933.19
496.66	955.19
496.877	953.19
497.094	987.19
497.312	1002.19
497.529	995.19
497.746	1024.19
497.963	1078.19
498.181	1084.19
498.398	1165.19
498.615	1253.19
498.832	1296.19
499.049	1412.19
499.267	1522.19
499.484	1672.19
499.701	1906.19
499.918	2091.19
500.135	2377.19
500.352	2820.19
500.569	2971.19
