Data from Ni(NO3)2@0.125M.TitratingCurve.Agarose3%dH2O.NegLispCup.LampEnergy10.LIBS07252019_HRD10591_18-10-46-569.txt Node
Date: Thu Jul 25 18:10:46 EDT 2019
User: cochatt
Spectrometer: HR+D1059
Trigger mode: 1
Integration Time (sec): 1.000000E-1
Scans to average: 1
Electric dark correction enabled: true
Nonlinearity correction enabled: false
Boxcar width: 0
XAxis mode: Wavelengths
Number of Pixels in Spectrum: 2048
>>>>>Begin Spectral Data<<<<<
223.165	-16.38
223.4	-16.38
223.635	-16.38
223.869	-8.38
224.104	-20.38
224.338	-25.38
224.573	-8.38
224.808	-12.38
225.042	-6.38
225.277	8.62
225.511	8.62
225.746	4.62
225.98	-18.38
226.215	6.62
226.449	15.62
226.683	28.62
226.918	17.62
227.152	25.62
227.387	41.62
227.621	46.62
227.856	51.62
228.09	56.62
228.324	56.62
228.559	58.62
228.793	73.62
229.027	93.62
229.262	115.62
229.496	99.62
229.73	113.62
229.964	119.62
230.199	117.62
230.433	110.62
230.667	121.62
230.901	130.62
231.136	103.62
231.37	111.62
231.604	116.62
231.838	117.62
232.072	118.62
232.306	137.62
232.541	116.62
232.775	122.62
233.009	128.62
233.243	128.62
233.477	119.62
233.711	113.62
233.945	127.62
234.179	123.62
234.413	126.62
234.647	128.62
234.881	125.62
235.115	128.62
235.349	126.62
235.583	112.62
235.817	126.62
236.051	121.62
236.285	134.62
236.519	127.62
236.753	131.62
236.987	122.62
237.221	129.62
237.455	125.62
237.689	120.62
237.922	124.62
238.156	136.62
238.39	120.62
238.624	134.62
238.858	128.62
239.091	131.62
239.325	133.62
239.559	136.62
239.793	151.62
240.027	159.62
240.26	149.62
240.494	133.62
240.728	130.62
240.961	159.62
241.195	151.62
241.429	151.62
241.662	143.62
241.896	148.62
242.13	143.62
242.363	137.62
242.597	164.62
242.83	153.62
243.064	153.62
243.298	163.62
243.531	163.62
243.765	160.62
243.998	143.62
244.232	165.62
244.465	152.62
244.699	163.62
244.932	156.62
245.166	160.62
245.399	159.62
245.633	160.62
245.866	171.62
246.099	176.62
246.333	176.62
246.566	173.62
246.8	172.62
247.033	171.62
247.266	175.62
247.5	165.62
247.733	166.62
247.966	176.62
248.2	180.62
248.433	182.62
248.666	189.62
248.899	191.62
249.133	192.62
249.366	196.62
249.599	171.62
249.832	187.62
250.066	189.62
250.299	194.62
250.532	185.62
250.765	192.62
250.998	194.62
251.231	189.62
251.465	192.62
251.698	203.62
251.931	180.62
252.164	192.62
252.397	201.62
252.63	207.62
252.863	188.62
253.096	208.62
253.329	206.62
253.562	203.62
253.795	204.62
254.028	201.62
254.261	203.62
254.494	206.62
254.727	187.62
254.96	210.62
255.193	210.62
255.426	195.62
255.659	209.62
255.892	217.62
256.124	201.62
256.357	220.62
256.59	209.62
256.823	224.62
257.056	221.62
257.289	217.62
257.521	217.62
257.754	225.62
257.987	212.62
258.22	232.62
258.452	239.62
258.685	226.62
258.918	228.62
259.151	223.62
259.383	210.62
259.616	224.62
259.849	220.62
260.081	223.62
260.314	228.62
260.547	239.62
260.779	233.62
261.012	241.62
261.244	237.62
261.477	240.62
261.71	241.62
261.942	245.62
262.175	237.62
262.407	237.62
262.64	234.62
262.872	228.62
263.105	251.62
263.337	229.62
263.57	243.62
263.802	237.62
264.035	238.62
264.267	244.62
264.499	245.62
264.732	237.62
264.964	248.62
265.197	241.62
265.429	245.62
265.661	261.62
265.894	239.62
266.126	277.62
266.358	271.62
266.591	289.62
266.823	254.62
267.055	271.62
267.287	270.62
267.52	266.62
267.752	252.62
267.984	251.62
268.216	258.62
268.448	267.62
268.681	272.62
268.913	255.62
269.145	285.62
269.377	265.62
269.609	260.62
269.841	270.62
270.073	259.62
270.306	267.62
270.538	281.62
270.77	270.62
271.002	294.62
271.234	263.62
271.466	274.62
271.698	266.62
271.93	267.62
272.162	274.62
272.394	269.62
272.626	280.62
272.858	284.62
273.09	273.62
273.322	276.62
273.553	267.62
273.785	286.62
274.017	276.62
274.249	299.62
274.481	287.62
274.713	284.62
274.945	295.62
275.176	280.62
275.408	292.62
275.64	289.62
275.872	288.62
276.104	301.62
276.335	310.62
276.567	295.62
276.799	315.62
277.031	298.62
277.262	311.62
277.494	300.62
277.726	299.62
277.957	301.62
278.189	301.62
278.421	299.62
278.652	296.62
278.884	307.62
279.115	299.62
279.347	315.62
279.579	312.62
279.81	313.62
280.042	321.62
280.273	295.62
280.505	311.62
280.736	325.62
280.968	331.62
281.199	317.62
281.431	302.62
281.662	315.62
281.894	328.62
282.125	309.62
282.356	319.62
282.588	350.62
282.819	331.62
283.051	336.62
283.282	320.62
283.513	342.62
283.745	317.62
283.976	337.62
284.207	318.62
284.439	329.62
284.67	328.62
284.901	334.62
285.132	338.62
285.364	349.62
285.595	333.62
285.826	316.62
286.057	340.62
286.288	332.62
286.52	352.62
286.751	345.62
286.982	355.62
287.213	356.62
287.444	335.62
287.675	335.62
287.906	353.62
288.138	371.62
288.369	340.62
288.6	361.62
288.831	353.62
289.062	355.62
289.293	369.62
289.524	342.62
289.755	348.62
289.986	362.62
290.217	361.62
290.448	375.62
290.679	377.62
290.91	343.62
291.141	350.62
291.371	360.62
291.602	361.62
291.833	359.62
292.064	351.62
292.295	361.62
292.526	344.62
292.757	365.62
292.987	343.62
293.218	357.62
293.449	364.62
293.68	375.62
293.91	383.62
294.141	373.62
294.372	364.62
294.603	356.62
294.833	373.62
295.064	387.62
295.295	384.62
295.525	389.62
295.756	367.62
295.987	354.62
296.217	374.62
296.448	398.62
296.679	396.62
296.909	379.62
297.14	378.62
297.37	405.62
297.601	382.62
297.831	393.62
298.062	372.62
298.292	394.62
298.523	401.62
298.753	423.62
298.984	397.62
299.214	385.62
299.445	389.62
299.675	404.62
299.905	423.62
300.136	392.62
300.366	400.62
300.597	410.62
300.827	402.62
301.057	405.62
301.288	410.62
301.518	407.62
301.748	411.62
301.979	412.62
302.209	397.62
302.439	400.62
302.669	416.62
302.9	417.62
303.13	415.62
303.36	402.62
303.59	411.62
303.82	413.62
304.051	395.62
304.281	405.62
304.511	382.62
304.741	419.62
304.971	409.62
305.201	402.62
305.431	393.62
305.661	384.62
305.891	389.62
306.121	401.62
306.352	394.62
306.582	388.62
306.812	385.62
307.042	408.62
307.272	427.62
307.502	381.62
307.731	418.62
307.961	403.62
308.191	386.62
308.421	403.62
308.651	401.62
308.881	415.62
309.111	384.62
309.341	391.62
309.571	400.62
309.8	408.62
310.03	408.62
310.26	396.62
310.49	406.62
310.72	387.62
310.949	401.62
311.179	417.62
311.409	416.62
311.639	416.62
311.868	404.62
312.098	407.62
312.328	419.62
312.557	421.62
312.787	420.62
313.017	420.62
313.246	421.62
313.476	429.62
313.706	421.62
313.935	448.62
314.165	430.62
314.394	431.62
314.624	406.62
314.853	413.62
315.083	416.62
315.312	417.62
315.542	432.62
315.771	420.62
316.001	428.62
316.23	406.62
316.46	405.62
316.689	420.62
316.919	425.62
317.148	415.62
317.377	414.62
317.607	430.62
317.836	422.62
318.065	410.62
318.295	413.62
318.524	434.62
318.753	401.62
318.983	400.62
319.212	412.62
319.441	407.62
319.67	426.62
319.9	437.62
320.129	423.62
320.358	416.62
320.587	419.62
320.816	405.62
321.046	429.62
321.275	422.62
321.504	435.62
321.733	441.62
321.962	451.62
322.191	424.62
322.42	419.62
322.649	407.62
322.878	423.62
323.108	420.62
323.337	441.62
323.566	422.62
323.795	453.62
324.024	445.62
324.253	435.62
324.482	429.62
324.71	442.62
324.939	429.62
325.168	431.62
325.397	412.62
325.626	447.62
325.855	456.62
326.084	471.62
326.313	483.62
326.542	461.62
326.77	476.62
326.999	459.62
327.228	455.62
327.457	457.62
327.686	468.62
327.914	458.62
328.143	453.62
328.372	464.62
328.6	451.62
328.829	452.62
329.058	446.62
329.287	478.62
329.515	486.62
329.744	468.62
329.972	464.62
330.201	459.62
330.43	480.62
330.658	484.62
330.887	464.62
331.115	477.62
331.344	472.62
331.572	501.62
331.801	499.62
332.03	500.62
332.258	510.62
332.486	537.62
332.715	569.62
332.943	579.62
333.172	593.62
333.4	635.62
333.629	609.62
333.857	645.62
334.085	601.62
334.314	585.62
334.542	604.62
334.771	613.62
334.999	578.62
335.227	583.62
335.455	580.62
335.684	581.62
335.912	584.62
336.14	563.62
336.369	555.62
336.597	544.62
336.825	554.62
337.053	576.62
337.281	552.62
337.51	536.62
337.738	517.62
337.966	530.62
338.194	529.62
338.422	495.62
338.65	509.62
338.878	507.62
339.106	476.62
339.334	518.62
339.562	483.62
339.79	486.62
340.018	481.62
340.246	467.62
340.474	460.62
340.702	499.62
340.93	478.62
341.158	488.62
341.386	480.62
341.614	489.62
341.842	482.62
342.07	488.62
342.298	498.62
342.526	480.62
342.754	481.62
342.981	485.62
343.209	477.62
343.437	501.62
343.665	546.62
343.893	600.62
344.12	609.62
344.348	567.62
344.576	527.62
344.804	511.62
345.031	511.62
345.259	494.62
345.487	505.62
345.714	495.62
345.942	461.62
346.17	476.62
346.397	484.62
346.625	487.62
346.853	484.62
347.08	472.62
347.308	485.62
347.535	479.62
347.763	491.62
347.99	471.62
348.218	491.62
348.445	476.62
348.673	477.62
348.9	472.62
349.128	477.62
349.355	449.62
349.583	466.62
349.81	451.62
350.037	454.62
350.265	461.62
350.492	439.62
350.72	458.62
350.947	437.62
351.174	457.62
351.402	462.62
351.629	438.62
351.856	438.62
352.083	468.62
352.311	464.62
352.538	463.62
352.765	474.62
352.992	457.62
353.22	467.62
353.447	447.62
353.674	453.62
353.901	453.62
354.128	451.62
354.355	439.62
354.583	447.62
354.81	464.62
355.037	488.62
355.264	454.62
355.491	455.62
355.718	465.62
355.945	465.62
356.172	458.62
356.399	458.62
356.626	478.62
356.853	484.62
357.08	416.62
357.307	450.62
357.534	448.62
357.761	450.62
357.988	444.62
358.215	460.62
358.441	435.62
358.668	468.62
358.895	449.62
359.122	448.62
359.349	452.62
359.576	453.62
359.802	440.62
360.029	444.62
360.256	452.62
360.483	454.62
360.709	478.62
360.936	454.62
361.163	445.62
361.39	469.62
361.616	452.62
361.843	438.62
362.07	437.62
362.296	445.62
362.523	455.62
362.749	445.62
362.976	431.62
363.203	428.62
363.429	452.62
363.656	446.62
363.882	427.62
364.109	433.62
364.335	455.62
364.562	453.62
364.788	459.62
365.015	424.62
365.241	449.62
365.468	465.62
365.694	452.62
365.92	461.62
366.147	444.62
366.373	466.62
366.599	473.62
366.826	458.62
367.052	454.62
367.278	456.62
367.505	462.62
367.731	462.62
367.957	465.62
368.184	458.62
368.41	463.62
368.636	463.62
368.862	464.62
369.089	437.62
369.315	464.62
369.541	461.62
369.767	476.62
369.993	481.62
370.219	461.62
370.445	464.62
370.672	472.62
370.898	506.62
371.124	483.62
371.35	473.62
371.576	510.62
371.802	507.62
372.028	480.62
372.254	505.62
372.48	496.62
372.706	490.62
372.932	516.62
373.158	505.62
373.384	515.62
373.61	501.62
373.835	476.62
374.061	494.62
374.287	488.62
374.513	507.62
374.739	529.62
374.965	558.62
375.191	541.62
375.416	549.62
375.642	542.62
375.868	525.62
376.094	526.62
376.319	522.62
376.545	507.62
376.771	489.62
376.997	497.62
377.222	525.62
377.448	498.62
377.674	493.62
377.899	484.62
378.125	476.62
378.35	501.62
378.576	472.62
378.802	464.62
379.027	504.62
379.253	485.62
379.478	486.62
379.704	478.62
379.929	476.62
380.155	497.62
380.38	485.62
380.606	488.62
380.831	459.62
381.057	493.62
381.282	476.62
381.507	477.62
381.733	467.62
381.958	481.62
382.184	521.62
382.409	535.62
382.634	505.62
382.86	508.62
383.085	522.62
383.31	540.62
383.535	568.62
383.761	544.62
383.986	536.62
384.211	543.62
384.436	581.62
384.662	571.62
384.887	592.62
385.112	590.62
385.337	593.62
385.562	584.62
385.787	592.62
386.013	609.62
386.238	569.62
386.463	590.62
386.688	588.62
386.913	601.62
387.138	597.62
387.363	578.62
387.588	564.62
387.813	570.62
388.038	575.62
388.263	590.62
388.488	568.62
388.713	582.62
388.938	550.62
389.163	597.62
389.387	586.62
389.612	559.62
389.837	540.62
390.062	583.62
390.287	564.62
390.512	564.62
390.736	570.62
390.961	567.62
391.186	597.62
391.411	596.62
391.636	631.62
391.86	653.62
392.085	683.62
392.31	659.62
392.534	643.62
392.759	632.62
392.984	615.62
393.208	605.62
393.433	611.62
393.658	617.62
393.882	629.62
394.107	665.62
394.331	616.62
394.556	626.62
394.78	605.62
395.005	632.62
395.229	627.62
395.454	635.62
395.678	633.62
395.903	649.62
396.127	651.62
396.352	616.62
396.576	610.62
396.801	604.62
397.025	594.62
397.249	639.62
397.474	621.62
397.698	657.62
397.922	644.62
398.147	625.62
398.371	664.62
398.595	666.62
398.82	694.62
399.044	773.62
399.268	808.62
399.492	981.62
399.717	1105.62
399.941	1095.62
400.165	949.62
400.389	872.62
400.613	788.62
400.837	735.62
401.062	720.62
401.286	716.62
401.51	712.62
401.734	706.62
401.958	726.62
402.182	735.62
402.406	727.62
402.63	759.62
402.854	785.62
403.078	785.62
403.302	824.62
403.526	829.62
403.75	831.62
403.974	846.62
404.198	859.62
404.422	864.62
404.645	841.62
404.869	850.62
405.093	833.62
405.317	810.62
405.541	835.62
405.765	810.62
405.988	792.62
406.212	809.62
406.436	779.62
406.66	832.62
406.883	825.62
407.107	865.62
407.331	911.62
407.555	955.62
407.778	941.62
408.002	925.62
408.226	854.62
408.449	873.62
408.673	824.62
408.896	835.62
409.12	827.62
409.344	833.62
409.567	859.62
409.791	845.62
410.014	865.62
410.238	829.62
410.461	814.62
410.685	819.62
410.908	799.62
411.132	793.62
411.355	758.62
411.578	765.62
411.802	729.62
412.025	740.62
412.249	788.62
412.472	781.62
412.695	763.62
412.919	734.62
413.142	745.62
413.365	744.62
413.589	745.62
413.812	743.62
414.035	700.62
414.258	716.62
414.482	739.62
414.705	731.62
414.928	738.62
415.151	759.62
415.374	734.62
415.597	728.62
415.821	703.62
416.044	728.62
416.267	707.62
416.49	713.62
416.713	700.62
416.936	720.62
417.159	745.62
417.382	727.62
417.605	713.62
417.828	749.62
418.051	730.62
418.274	738.62
418.497	756.62
418.72	735.62
418.943	759.62
419.166	803.62
419.389	863.62
419.611	829.62
419.834	796.62
420.057	779.62
420.28	788.62
420.503	739.62
420.726	720.62
420.948	696.62
421.171	736.62
421.394	717.62
421.617	700.62
421.839	699.62
422.062	734.62
422.285	722.62
422.507	750.62
422.73	757.62
422.953	773.62
423.175	776.62
423.398	742.62
423.621	785.62
423.843	783.62
424.066	807.62
424.288	791.62
424.511	772.62
424.733	739.62
424.956	760.62
425.178	741.62
425.401	756.62
425.623	731.62
425.846	699.62
426.068	724.62
426.291	689.62
426.513	699.62
426.735	679.62
426.958	695.62
427.18	689.62
427.402	672.62
427.625	658.62
427.847	648.62
428.069	656.62
428.292	669.62
428.514	656.62
428.736	674.62
428.958	650.62
429.181	637.62
429.403	633.62
429.625	624.62
429.847	637.62
430.069	639.62
430.292	646.62
430.514	636.62
430.736	627.62
430.958	639.62
431.18	639.62
431.402	644.62
431.624	637.62
431.846	668.62
432.068	652.62
432.29	654.62
432.512	661.62
432.734	668.62
432.956	657.62
433.178	635.62
433.4	657.62
433.622	657.62
433.844	662.62
434.066	664.62
434.287	680.62
434.509	703.62
434.731	703.62
434.953	759.62
435.175	757.62
435.397	752.62
435.618	693.62
435.84	696.62
436.062	661.62
436.284	625.62
436.505	652.62
436.727	691.62
436.949	654.62
437.17	680.62
437.392	667.62
437.614	655.62
437.835	643.62
438.057	645.62
438.278	633.62
438.5	631.62
438.721	640.62
438.943	663.62
439.165	649.62
439.386	644.62
439.608	650.62
439.829	659.62
440.05	665.62
440.272	665.62
440.493	677.62
440.715	661.62
440.936	701.62
441.158	696.62
441.379	733.62
441.6	752.62
441.822	766.62
442.043	739.62
442.264	737.62
442.486	731.62
442.707	737.62
442.928	720.62
443.149	725.62
443.371	712.62
443.592	738.62
443.813	736.62
444.034	772.62
444.255	770.62
444.476	798.62
444.698	872.62
444.919	913.62
445.14	977.62
445.361	850.62
445.582	776.62
445.803	726.62
446.024	705.62
446.245	700.62
446.466	672.62
446.687	686.62
446.908	649.62
447.129	666.62
447.35	641.62
447.571	655.62
447.792	629.62
448.013	647.62
448.234	607.62
448.455	620.62
448.675	613.62
448.896	608.62
449.117	612.62
449.338	610.62
449.559	625.62
449.779	612.62
450	615.62
450.221	611.62
450.442	615.62
450.662	631.62
450.883	648.62
451.104	651.62
451.324	635.62
451.545	637.62
451.766	640.62
451.986	620.62
452.207	630.62
452.428	623.62
452.648	617.62
452.869	615.62
453.089	604.62
453.31	620.62
453.53	612.62
453.751	610.62
453.971	604.62
454.192	583.62
454.412	597.62
454.633	592.62
454.853	586.62
455.073	586.62
455.294	559.62
455.514	598.62
455.734	577.62
455.955	578.62
456.175	555.62
456.395	592.62
456.616	571.62
456.836	577.62
457.056	556.62
457.276	569.62
457.497	597.62
457.717	563.62
457.937	591.62
458.157	573.62
458.377	585.62
458.598	589.62
458.818	611.62
459.038	646.62
459.258	661.62
459.478	701.62
459.698	699.62
459.918	700.62
460.138	726.62
460.358	785.62
460.578	778.62
460.798	796.62
461.018	805.62
461.238	791.62
461.458	762.62
461.678	763.62
461.898	786.62
462.118	797.62
462.338	815.62
462.558	868.62
462.777	899.62
462.997	984.62
463.217	1035.62
463.437	1072.62
463.657	995.62
463.876	942.62
464.096	912.62
464.316	919.62
464.536	917.62
464.755	913.62
464.975	879.62
465.195	840.62
465.414	771.62
465.634	738.62
465.854	715.62
466.073	669.62
466.293	683.62
466.512	638.62
466.732	627.62
466.951	643.62
467.171	655.62
467.391	649.62
467.61	645.62
467.829	662.62
468.049	616.62
468.268	600.62
468.488	613.62
468.707	614.62
468.927	591.62
469.146	610.62
469.365	607.62
469.585	624.62
469.804	639.62
470.023	664.62
470.243	661.62
470.462	675.62
470.681	684.62
470.901	711.62
471.12	647.62
471.339	634.62
471.558	648.62
471.777	627.62
471.997	620.62
472.216	615.62
472.435	595.62
472.654	590.62
472.873	587.62
473.092	600.62
473.311	604.62
473.53	599.62
473.749	601.62
473.968	607.62
474.187	579.62
474.406	621.62
474.625	593.62
474.844	586.62
475.063	595.62
475.282	605.62
475.501	619.62
475.72	599.62
475.939	608.62
476.158	613.62
476.377	621.62
476.596	623.62
476.814	623.62
477.033	645.62
477.252	638.62
477.471	626.62
477.69	654.62
477.908	689.62
478.127	725.62
478.346	733.62
478.564	700.62
478.783	726.62
479.002	734.62
479.22	773.62
479.439	734.62
479.658	737.62
479.876	740.62
480.095	731.62
480.313	766.62
480.532	797.62
480.751	787.62
480.969	748.62
481.188	735.62
481.406	702.62
481.624	684.62
481.843	676.62
482.061	683.62
482.28	670.62
482.498	655.62
482.717	677.62
482.935	700.62
483.153	677.62
483.372	673.62
483.59	719.62
483.808	685.62
484.027	691.62
484.245	718.62
484.463	682.62
484.681	681.62
484.9	718.62
485.118	699.62
485.336	695.62
485.554	716.62
485.772	739.62
485.99	721.62
486.209	729.62
486.427	723.62
486.645	721.62
486.863	761.62
487.081	720.62
487.299	727.62
487.517	731.62
487.735	714.62
487.953	719.62
488.171	715.62
488.389	708.62
488.607	692.62
488.825	699.62
489.043	695.62
489.261	721.62
489.479	702.62
489.696	701.62
489.914	729.62
490.132	698.62
490.35	719.62
490.568	721.62
490.786	713.62
491.003	742.62
491.221	715.62
491.439	720.62
491.657	707.62
491.874	733.62
492.092	750.62
492.31	733.62
492.527	735.62
492.745	739.62
492.963	752.62
493.18	722.62
493.398	748.62
493.615	750.62
493.833	733.62
494.05	752.62
494.268	743.62
494.485	787.62
494.703	750.62
494.92	770.62
495.138	738.62
495.355	744.62
495.573	728.62
495.79	738.62
496.008	742.62
496.225	768.62
496.442	780.62
496.66	800.62
496.877	796.62
497.094	823.62
497.312	847.62
497.529	824.62
497.746	856.62
497.963	889.62
498.181	880.62
498.398	897.62
498.615	981.62
498.832	1060.62
499.049	1159.62
499.267	1224.62
499.484	1352.62
499.701	1484.62
499.918	1641.62
500.135	1916.62
500.352	2211.62
500.569	2371.62
500.786	2337.62
501.003	2135.62
501.22	1896.62
501.437	1623.62
