Data from Ni(NO3)2Standard.Agarose3%.GreenCap.LampEnergy5.5.E.O_HRD10591_14-42-53-188.txt Node
Date: Mon Jul 22 14:42:53 EDT 2019
User: cochatt
Spectrometer: HR+D1059
Trigger mode: 1
Integration Time (sec): 1.000000E-1
Scans to average: 1
Electric dark correction enabled: true
Nonlinearity correction enabled: false
Boxcar width: 0
XAxis mode: Wavelengths
Number of Pixels in Spectrum: 2048
>>>>>Begin Spectral Data<<<<<
223.165	-10.56
223.4	-10.56
223.635	-10.56
223.869	-20.56
224.104	-26.56
224.338	-24.56
224.573	-13.56
224.808	12.44
225.042	-11.56
225.277	-6.56
225.511	1.44
225.746	1.44
225.98	3.44
226.215	10.44
226.449	8.44
226.683	21.44
226.918	25.44
227.152	29.44
227.387	32.44
227.621	38.44
227.856	46.44
228.09	33.44
228.324	44.44
228.559	64.44
228.793	60.44
229.027	56.44
229.262	69.44
229.496	69.44
229.73	77.44
229.964	68.44
230.199	66.44
230.433	65.44
230.667	75.44
230.901	83.44
231.136	81.44
231.37	83.44
231.604	87.44
231.838	75.44
232.072	84.44
232.306	96.44
232.541	97.44
232.775	75.44
233.009	80.44
233.243	83.44
233.477	78.44
233.711	69.44
233.945	63.44
234.179	73.44
234.413	78.44
234.647	79.44
234.881	77.44
235.115	75.44
235.349	76.44
235.583	81.44
235.817	75.44
236.051	71.44
236.285	87.44
236.519	79.44
236.753	84.44
236.987	77.44
237.221	70.44
237.455	73.44
237.689	78.44
237.922	85.44
238.156	76.44
238.39	75.44
238.624	70.44
238.858	57.44
239.091	73.44
239.325	74.44
239.559	80.44
239.793	90.44
240.027	80.44
240.26	81.44
240.494	77.44
240.728	78.44
240.961	71.44
241.195	76.44
241.429	85.44
241.662	73.44
241.896	67.44
242.13	82.44
242.363	81.44
242.597	92.44
242.83	87.44
243.064	71.44
243.298	72.44
243.531	74.44
243.765	74.44
243.998	79.44
244.232	68.44
244.465	62.44
244.699	72.44
244.932	85.44
245.166	77.44
245.399	71.44
245.633	71.44
245.866	77.44
246.099	76.44
246.333	83.44
246.566	86.44
246.8	77.44
247.033	72.44
247.266	74.44
247.5	82.44
247.733	74.44
247.966	63.44
248.2	68.44
248.433	82.44
248.666	70.44
248.899	78.44
249.133	70.44
249.366	97.44
249.599	77.44
249.832	85.44
250.066	81.44
250.299	82.44
250.532	72.44
250.765	83.44
250.998	71.44
251.231	84.44
251.465	77.44
251.698	81.44
251.931	68.44
252.164	79.44
252.397	72.44
252.63	83.44
252.863	70.44
253.096	79.44
253.329	86.44
253.562	82.44
253.795	76.44
254.028	79.44
254.261	79.44
254.494	73.44
254.727	88.44
254.96	84.44
255.193	87.44
255.426	74.44
255.659	66.44
255.892	87.44
256.124	72.44
256.357	77.44
256.59	89.44
256.823	77.44
257.056	66.44
257.289	77.44
257.521	94.44
257.754	92.44
257.987	99.44
258.22	96.44
258.452	67.44
258.685	79.44
258.918	82.44
259.151	88.44
259.383	87.44
259.616	78.44
259.849	89.44
260.081	78.44
260.314	78.44
260.547	92.44
260.779	84.44
261.012	89.44
261.244	65.44
261.477	76.44
261.71	79.44
261.942	89.44
262.175	88.44
262.407	89.44
262.64	87.44
262.872	77.44
263.105	78.44
263.337	74.44
263.57	81.44
263.802	84.44
264.035	96.44
264.267	79.44
264.499	73.44
264.732	78.44
264.964	97.44
265.197	94.44
265.429	87.44
265.661	76.44
265.894	77.44
266.126	78.44
266.358	74.44
266.591	67.44
266.823	70.44
267.055	75.44
267.287	76.44
267.52	72.44
267.752	76.44
267.984	82.44
268.216	75.44
268.448	86.44
268.681	76.44
268.913	84.44
269.145	87.44
269.377	74.44
269.609	84.44
269.841	97.44
270.073	82.44
270.306	101.44
270.538	81.44
270.77	72.44
271.002	74.44
271.234	78.44
271.466	81.44
271.698	76.44
271.93	105.44
272.162	97.44
272.394	72.44
272.626	93.44
272.858	88.44
273.09	93.44
273.322	108.44
273.553	85.44
273.785	81.44
274.017	80.44
274.249	88.44
274.481	80.44
274.713	91.44
274.945	99.44
275.176	78.44
275.408	90.44
275.64	88.44
275.872	74.44
276.104	86.44
276.335	86.44
276.567	81.44
276.799	61.44
277.031	83.44
277.262	86.44
277.494	104.44
277.726	83.44
277.957	87.44
278.189	90.44
278.421	91.44
278.652	92.44
278.884	75.44
279.115	85.44
279.347	78.44
279.579	85.44
279.81	79.44
280.042	90.44
280.273	81.44
280.505	92.44
280.736	81.44
280.968	75.44
281.199	95.44
281.431	74.44
281.662	74.44
281.894	87.44
282.125	79.44
282.356	98.44
282.588	75.44
282.819	89.44
283.051	73.44
283.282	75.44
283.513	74.44
283.745	76.44
283.976	88.44
284.207	86.44
284.439	80.44
284.67	93.44
284.901	77.44
285.132	79.44
285.364	89.44
285.595	78.44
285.826	77.44
286.057	85.44
286.288	72.44
286.52	83.44
286.751	93.44
286.982	78.44
287.213	81.44
287.444	88.44
287.675	99.44
287.906	84.44
288.138	89.44
288.369	74.44
288.6	92.44
288.831	90.44
289.062	87.44
289.293	78.44
289.524	81.44
289.755	86.44
289.986	75.44
290.217	80.44
290.448	87.44
290.679	82.44
290.91	88.44
291.141	79.44
291.371	85.44
291.602	86.44
291.833	94.44
292.064	87.44
292.295	82.44
292.526	82.44
292.757	71.44
292.987	87.44
293.218	81.44
293.449	95.44
293.68	81.44
293.91	89.44
294.141	74.44
294.372	85.44
294.603	74.44
294.833	81.44
295.064	82.44
295.295	78.44
295.525	81.44
295.756	90.44
295.987	100.44
296.217	88.44
296.448	73.44
296.679	82.44
296.909	84.44
297.14	100.44
297.37	83.44
297.601	88.44
297.831	85.44
298.062	79.44
298.292	88.44
298.523	73.44
298.753	87.44
298.984	88.44
299.214	105.44
299.445	79.44
299.675	91.44
299.905	95.44
300.136	87.44
300.366	59.44
300.597	81.44
300.827	82.44
301.057	85.44
301.288	85.44
301.518	93.44
301.748	92.44
301.979	81.44
302.209	87.44
302.439	75.44
302.669	88.44
302.9	85.44
303.13	81.44
303.36	77.44
303.59	101.44
303.82	86.44
304.051	85.44
304.281	81.44
304.511	84.44
304.741	87.44
304.971	86.44
305.201	86.44
305.431	91.44
305.661	100.44
305.891	74.44
306.121	86.44
306.352	69.44
306.582	86.44
306.812	76.44
307.042	86.44
307.272	94.44
307.502	101.44
307.731	90.44
307.961	89.44
308.191	92.44
308.421	93.44
308.651	84.44
308.881	79.44
309.111	91.44
309.341	82.44
309.571	90.44
309.8	85.44
310.03	102.44
310.26	92.44
310.49	89.44
310.72	80.44
310.949	86.44
311.179	85.44
311.409	86.44
311.639	83.44
311.868	100.44
312.098	99.44
312.328	86.44
312.557	77.44
312.787	96.44
313.017	84.44
313.246	66.44
313.476	83.44
313.706	97.44
313.935	79.44
314.165	73.44
314.394	84.44
314.624	78.44
314.853	77.44
315.083	99.44
315.312	91.44
315.542	68.44
315.771	79.44
316.001	89.44
316.23	90.44
316.46	72.44
316.689	89.44
316.919	85.44
317.148	91.44
317.377	86.44
317.607	98.44
317.836	92.44
318.065	88.44
318.295	85.44
318.524	84.44
318.753	73.44
318.983	79.44
319.212	83.44
319.441	87.44
319.67	82.44
319.9	79.44
320.129	77.44
320.358	91.44
320.587	79.44
320.816	85.44
321.046	82.44
321.275	85.44
321.504	84.44
321.733	98.44
321.962	80.44
322.191	90.44
322.42	98.44
322.649	88.44
322.878	89.44
323.108	71.44
323.337	81.44
323.566	93.44
323.795	89.44
324.024	91.44
324.253	97.44
324.482	84.44
324.71	81.44
324.939	98.44
325.168	84.44
325.397	85.44
325.626	95.44
325.855	107.44
326.084	68.44
326.313	99.44
326.542	71.44
326.77	87.44
326.999	87.44
327.228	83.44
327.457	86.44
327.686	81.44
327.914	85.44
328.143	90.44
328.372	85.44
328.6	99.44
328.829	85.44
329.058	79.44
329.287	78.44
329.515	95.44
329.744	88.44
329.972	83.44
330.201	87.44
330.43	87.44
330.658	84.44
330.887	74.44
331.115	79.44
331.344	79.44
331.572	94.44
331.801	80.44
332.03	93.44
332.258	96.44
332.486	93.44
332.715	87.44
332.943	84.44
333.172	95.44
333.4	91.44
333.629	90.44
333.857	88.44
334.085	92.44
334.314	98.44
334.542	97.44
334.771	99.44
334.999	81.44
335.227	89.44
335.455	79.44
335.684	87.44
335.912	85.44
336.14	89.44
336.369	90.44
336.597	93.44
336.825	84.44
337.053	75.44
337.281	95.44
337.51	84.44
337.738	85.44
337.966	85.44
338.194	91.44
338.422	93.44
338.65	89.44
338.878	88.44
339.106	69.44
339.334	80.44
339.562	83.44
339.79	84.44
340.018	89.44
340.246	87.44
340.474	81.44
340.702	78.44
340.93	80.44
341.158	73.44
341.386	88.44
341.614	85.44
341.842	88.44
342.07	84.44
342.298	74.44
342.526	87.44
342.754	88.44
342.981	87.44
343.209	79.44
343.437	87.44
343.665	92.44
343.893	95.44
344.12	97.44
344.348	72.44
344.576	76.44
344.804	88.44
345.031	83.44
345.259	98.44
345.487	92.44
345.714	84.44
345.942	78.44
346.17	73.44
346.397	90.44
346.625	93.44
346.853	91.44
347.08	88.44
347.308	86.44
347.535	80.44
347.763	83.44
347.99	91.44
348.218	71.44
348.445	74.44
348.673	83.44
348.9	98.44
349.128	95.44
349.355	73.44
349.583	88.44
349.81	84.44
350.037	78.44
350.265	89.44
350.492	74.44
350.72	78.44
350.947	82.44
351.174	92.44
351.402	93.44
351.629	89.44
351.856	85.44
352.083	93.44
352.311	88.44
352.538	74.44
352.765	78.44
352.992	93.44
353.22	92.44
353.447	88.44
353.674	77.44
353.901	86.44
354.128	92.44
354.355	82.44
354.583	84.44
354.81	92.44
355.037	100.44
355.264	87.44
355.491	67.44
355.718	83.44
355.945	90.44
356.172	86.44
356.399	79.44
356.626	93.44
356.853	90.44
357.08	90.44
357.307	80.44
357.534	72.44
357.761	101.44
357.988	85.44
358.215	78.44
358.441	79.44
358.668	87.44
358.895	81.44
359.122	78.44
359.349	89.44
359.576	77.44
359.802	76.44
360.029	88.44
360.256	79.44
360.483	97.44
360.709	96.44
360.936	89.44
361.163	86.44
361.39	100.44
361.616	87.44
361.843	87.44
362.07	86.44
362.296	95.44
362.523	87.44
362.749	88.44
362.976	73.44
363.203	87.44
363.429	95.44
363.656	95.44
363.882	80.44
364.109	89.44
364.335	88.44
364.562	91.44
364.788	91.44
365.015	96.44
365.241	90.44
365.468	76.44
365.694	78.44
365.92	81.44
366.147	82.44
366.373	79.44
366.599	78.44
366.826	75.44
367.052	91.44
367.278	93.44
367.505	85.44
367.731	86.44
367.957	88.44
368.184	96.44
368.41	81.44
368.636	77.44
368.862	95.44
369.089	86.44
369.315	80.44
369.541	84.44
369.767	79.44
369.993	91.44
370.219	95.44
370.445	98.44
370.672	92.44
370.898	85.44
371.124	104.44
371.35	88.44
371.576	83.44
371.802	84.44
372.028	81.44
372.254	94.44
372.48	86.44
372.706	85.44
372.932	90.44
373.158	87.44
373.384	89.44
373.61	73.44
373.835	93.44
374.061	91.44
374.287	87.44
374.513	91.44
374.739	74.44
374.965	83.44
375.191	102.44
375.416	90.44
375.642	80.44
375.868	86.44
376.094	91.44
376.319	99.44
376.545	88.44
376.771	92.44
376.997	83.44
377.222	87.44
377.448	83.44
377.674	86.44
377.899	87.44
378.125	84.44
378.35	88.44
378.576	81.44
378.802	79.44
379.027	62.44
379.253	97.44
379.478	77.44
379.704	95.44
379.929	77.44
380.155	76.44
380.38	76.44
380.606	93.44
380.831	100.44
381.057	85.44
381.282	79.44
381.507	81.44
381.733	81.44
381.958	70.44
382.184	71.44
382.409	84.44
382.634	79.44
382.86	89.44
383.085	87.44
383.31	88.44
383.535	79.44
383.761	93.44
383.986	77.44
384.211	77.44
384.436	84.44
384.662	76.44
384.887	84.44
385.112	84.44
385.337	85.44
385.562	93.44
385.787	93.44
386.013	89.44
386.238	74.44
386.463	84.44
386.688	88.44
386.913	76.44
387.138	76.44
387.363	86.44
387.588	85.44
387.813	82.44
388.038	92.44
388.263	88.44
388.488	87.44
388.713	88.44
388.938	90.44
389.163	78.44
389.387	89.44
389.612	79.44
389.837	78.44
390.062	87.44
390.287	65.44
390.512	81.44
390.736	80.44
390.961	89.44
391.186	91.44
391.411	89.44
391.636	84.44
391.86	76.44
392.085	83.44
392.31	93.44
392.534	82.44
392.759	96.44
392.984	76.44
393.208	85.44
393.433	71.44
393.658	89.44
393.882	83.44
394.107	90.44
394.331	80.44
394.556	94.44
394.78	93.44
395.005	94.44
395.229	82.44
395.454	98.44
395.678	90.44
395.903	85.44
396.127	86.44
396.352	83.44
396.576	87.44
396.801	90.44
397.025	91.44
397.249	89.44
397.474	86.44
397.698	85.44
397.922	82.44
398.147	72.44
398.371	98.44
398.595	103.44
398.82	97.44
399.044	81.44
399.268	68.44
399.492	90.44
399.717	87.44
399.941	77.44
400.165	73.44
400.389	95.44
400.613	86.44
400.837	97.44
401.062	95.44
401.286	104.44
401.51	77.44
401.734	103.44
401.958	74.44
402.182	103.44
402.406	88.44
402.63	94.44
402.854	83.44
403.078	95.44
403.302	77.44
403.526	81.44
403.75	87.44
403.974	92.44
404.198	82.44
404.422	82.44
404.645	74.44
404.869	83.44
405.093	87.44
405.317	79.44
405.541	91.44
405.765	83.44
405.988	88.44
406.212	101.44
406.436	88.44
406.66	78.44
406.883	78.44
407.107	94.44
407.331	79.44
407.555	83.44
407.778	92.44
408.002	83.44
408.226	103.44
408.449	96.44
408.673	92.44
408.896	90.44
409.12	86.44
409.344	101.44
409.567	89.44
409.791	103.44
410.014	77.44
410.238	78.44
410.461	84.44
410.685	84.44
410.908	89.44
411.132	80.44
411.355	78.44
411.578	84.44
411.802	80.44
412.025	82.44
412.249	86.44
412.472	87.44
412.695	85.44
412.919	90.44
413.142	89.44
413.365	88.44
413.589	91.44
413.812	88.44
414.035	86.44
414.258	87.44
414.482	83.44
414.705	88.44
414.928	85.44
415.151	87.44
415.374	89.44
415.597	88.44
415.821	87.44
416.044	79.44
416.267	86.44
416.49	76.44
416.713	80.44
416.936	99.44
417.159	90.44
417.382	82.44
417.605	90.44
417.828	91.44
418.051	88.44
418.274	92.44
418.497	99.44
418.72	94.44
418.943	82.44
419.166	75.44
419.389	93.44
419.611	91.44
419.834	81.44
420.057	87.44
420.28	87.44
420.503	88.44
420.726	89.44
420.948	87.44
421.171	88.44
421.394	78.44
421.617	90.44
421.839	77.44
422.062	80.44
422.285	89.44
422.507	88.44
422.73	81.44
422.953	83.44
423.175	92.44
423.398	83.44
423.621	80.44
423.843	80.44
424.066	72.44
424.288	86.44
424.511	85.44
424.733	68.44
424.956	76.44
425.178	90.44
425.401	84.44
425.623	80.44
425.846	86.44
426.068	83.44
426.291	81.44
426.513	68.44
426.735	92.44
426.958	88.44
427.18	83.44
427.402	74.44
427.625	84.44
427.847	76.44
428.069	87.44
428.292	80.44
428.514	87.44
428.736	63.44
428.958	89.44
429.181	89.44
429.403	90.44
429.625	78.44
429.847	85.44
430.069	92.44
430.292	71.44
430.514	90.44
430.736	91.44
430.958	75.44
431.18	72.44
431.402	88.44
431.624	90.44
431.846	83.44
432.068	76.44
432.29	90.44
432.512	86.44
432.734	72.44
432.956	91.44
433.178	89.44
433.4	86.44
433.622	98.44
433.844	79.44
434.066	85.44
434.287	73.44
434.509	85.44
434.731	85.44
434.953	71.44
435.175	87.44
435.397	96.44
435.618	82.44
435.84	75.44
436.062	83.44
436.284	86.44
436.505	68.44
436.727	72.44
436.949	89.44
437.17	93.44
437.392	91.44
437.614	86.44
437.835	96.44
438.057	76.44
438.278	68.44
438.5	90.44
438.721	90.44
438.943	95.44
439.165	86.44
439.386	106.44
439.608	80.44
439.829	102.44
440.05	86.44
440.272	95.44
440.493	86.44
440.715	93.44
440.936	73.44
441.158	85.44
441.379	90.44
441.6	84.44
441.822	80.44
442.043	77.44
442.264	77.44
442.486	84.44
442.707	87.44
442.928	85.44
443.149	88.44
443.371	88.44
443.592	89.44
443.813	84.44
444.034	81.44
444.255	79.44
444.476	95.44
444.698	83.44
444.919	80.44
445.14	214.44
445.361	145.44
445.582	86.44
445.803	74.44
446.024	84.44
446.245	94.44
446.466	90.44
446.687	101.44
446.908	90.44
447.129	78.44
447.35	88.44
447.571	85.44
447.792	100.44
448.013	64.44
448.234	80.44
448.455	90.44
448.675	77.44
448.896	72.44
449.117	94.44
449.338	80.44
449.559	96.44
449.779	84.44
450	84.44
450.221	75.44
450.442	83.44
450.662	91.44
450.883	88.44
451.104	91.44
451.324	86.44
451.545	81.44
451.766	75.44
451.986	93.44
452.207	86.44
452.428	80.44
452.648	88.44
452.869	96.44
453.089	97.44
453.31	66.44
453.53	86.44
453.751	84.44
453.971	87.44
454.192	87.44
454.412	98.44
454.633	77.44
454.853	80.44
455.073	80.44
455.294	100.44
455.514	92.44
455.734	91.44
455.955	92.44
456.175	79.44
456.395	95.44
456.616	86.44
456.836	84.44
457.056	97.44
457.276	93.44
457.497	90.44
457.717	82.44
457.937	85.44
458.157	75.44
458.377	81.44
458.598	74.44
458.818	76.44
459.038	94.44
459.258	81.44
459.478	75.44
459.698	88.44
459.918	101.44
460.138	77.44
460.358	84.44
460.578	83.44
460.798	84.44
461.018	93.44
461.238	93.44
461.458	91.44
461.678	89.44
461.898	80.44
462.118	84.44
462.338	104.44
462.558	96.44
462.777	84.44
462.997	70.44
463.217	92.44
463.437	80.44
463.657	82.44
463.876	82.44
464.096	83.44
464.316	82.44
464.536	93.44
464.755	93.44
464.975	80.44
465.195	79.44
465.414	75.44
465.634	75.44
465.854	87.44
466.073	95.44
466.293	81.44
466.512	93.44
466.732	82.44
466.951	84.44
467.171	87.44
467.391	73.44
467.61	88.44
467.829	97.44
468.049	87.44
468.268	81.44
468.488	97.44
468.707	81.44
468.927	79.44
469.146	84.44
469.365	96.44
469.585	77.44
469.804	94.44
470.023	93.44
470.243	83.44
470.462	86.44
470.681	98.44
470.901	92.44
471.12	88.44
471.339	87.44
471.558	89.44
471.777	96.44
471.997	95.44
472.216	94.44
472.435	85.44
472.654	73.44
472.873	84.44
473.092	73.44
473.311	83.44
473.53	89.44
473.749	101.44
473.968	90.44
474.187	83.44
474.406	95.44
474.625	86.44
474.844	84.44
475.063	90.44
475.282	95.44
475.501	87.44
475.72	95.44
475.939	96.44
476.158	98.44
476.377	75.44
476.596	87.44
476.814	95.44
477.033	92.44
477.252	95.44
477.471	87.44
477.69	83.44
477.908	74.44
478.127	84.44
478.346	87.44
478.564	82.44
478.783	94.44
479.002	84.44
479.22	86.44
479.439	98.44
479.658	106.44
479.876	97.44
480.095	99.44
480.313	88.44
480.532	81.44
480.751	102.44
480.969	90.44
481.188	104.44
481.406	93.44
481.624	82.44
481.843	80.44
482.061	80.44
482.28	85.44
482.498	98.44
482.717	97.44
482.935	95.44
483.153	86.44
483.372	80.44
483.59	102.44
483.808	100.44
484.027	106.44
484.245	100.44
484.463	105.44
484.681	94.44
484.9	95.44
485.118	108.44
485.336	94.44
485.554	106.44
485.772	90.44
485.99	76.44
486.209	88.44
486.427	75.44
486.645	87.44
486.863	93.44
487.081	93.44
487.299	94.44
487.517	104.44
487.735	102.44
487.953	96.44
488.171	109.44
488.389	84.44
488.607	81.44
488.825	90.44
489.043	97.44
489.261	111.44
489.479	100.44
489.696	102.44
489.914	85.44
490.132	110.44
490.35	94.44
490.568	99.44
490.786	89.44
491.003	90.44
491.221	86.44
491.439	84.44
491.657	93.44
491.874	82.44
492.092	99.44
492.31	106.44
492.527	101.44
492.745	98.44
492.963	104.44
493.18	87.44
493.398	103.44
493.615	103.44
493.833	107.44
494.05	100.44
494.268	107.44
494.485	102.44
494.703	94.44
494.92	97.44
495.138	96.44
495.355	83.44
495.573	91.44
495.79	99.44
496.008	99.44
496.225	94.44
496.442	96.44
496.66	105.44
496.877	105.44
497.094	105.44
497.312	110.44
497.529	103.44
497.746	98.44
497.963	109.44
498.181	96.44
498.398	97.44
498.615	85.44
498.832	88.44
499.049	99.44
499.267	118.44
499.484	110.44
499.701	100.44
499.918	115.44
500.135	131.44
500.352	112.44
500.569	119.44
500.786	122.44
501.003	118.44
501.22	106.44
501.437	118.44
501.654	88.44
501.871	106.44
502.088	89.44
502.305	107.44
502.522	98.44
502.739	88.44
502.956	86.44
503.172	82.44
503.389	101.44
503.606	84.44
503.823	104.44
504.04	118.44
504.256	105.44
504.473	89.44
504.69	85.44
504.907	96.44
505.123	99.44
505.34	95.44
505.557	83.44
505.773	95.44
505.99	102.44
506.207	92.44
506.423	89.44
506.64	91.44
506.856	103.44
507.073	82.44
507.289	91.44
507.506	77.44
507.722	93.44
507.939	94.44
508.155	112.44
508.372	91.44
508.588	85.44
508.805	95.44
509.021	89.44
509.238	77.44
509.454	85.44
509.67	91.44
509.887	90.44
510.103	78.44
510.319	97.44
510.536	100.44
510.752	90.44
510.968	87.44
511.184	80.44
511.401	90.44
511.617	87.44
511.833	92.44
512.049	93.44
512.265	98.44
512.481	90.44
512.698	99.44
512.914	95.44
513.13	94.44
513.346	95.44
513.562	100.44
513.778	103.44
513.994	92.44
514.21	85.44
514.426	81.44
514.642	90.44
514.858	87.44
515.074	98.44
515.29	92.44
515.506	101.44
515.721	86.44
515.937	95.44
516.153	83.44
516.369	91.44
516.585	86.44
516.801	93.44
517.016	95.44
517.232	96.44
517.448	87.44
517.664	108.44
517.879	73.44
518.095	97.44
