Data from Ni(NO3)2@0.25M.TitratingCurve.Agarose3%dH2O.NegLispCup.LampEnergy10.LIBS07252019_HRD10591_18-03-48-565.txt Node
Date: Thu Jul 25 18:03:48 EDT 2019
User: cochatt
Spectrometer: HR+D1059
Trigger mode: 1
Integration Time (sec): 1.000000E-1
Scans to average: 1
Electric dark correction enabled: true
Nonlinearity correction enabled: false
Boxcar width: 0
XAxis mode: Wavelengths
Number of Pixels in Spectrum: 2048
>>>>>Begin Spectral Data<<<<<
223.165	-10.69
223.4	-10.69
223.635	-10.69
223.869	-25.69
224.104	-38.69
224.338	-9.69
224.573	-5.69
224.808	-7.69
225.042	-9.69
225.277	4.31
225.511	-1.69
225.746	5.31
225.98	-5.69
226.215	7.31
226.449	15.31
226.683	24.31
226.918	27.31
227.152	31.31
227.387	29.31
227.621	55.31
227.856	41.31
228.09	56.31
228.324	65.31
228.559	84.31
228.793	74.31
229.027	103.31
229.262	84.31
229.496	93.31
229.73	107.31
229.964	90.31
230.199	113.31
230.433	101.31
230.667	108.31
230.901	101.31
231.136	111.31
231.37	126.31
231.604	118.31
231.838	104.31
232.072	94.31
232.306	109.31
232.541	124.31
232.775	116.31
233.009	109.31
233.243	127.31
233.477	128.31
233.711	112.31
233.945	108.31
234.179	105.31
234.413	103.31
234.647	102.31
234.881	117.31
235.115	104.31
235.349	116.31
235.583	117.31
235.817	127.31
236.051	112.31
236.285	102.31
236.519	124.31
236.753	107.31
236.987	121.31
237.221	113.31
237.455	129.31
237.689	115.31
237.922	117.31
238.156	125.31
238.39	117.31
238.624	117.31
238.858	138.31
239.091	126.31
239.325	133.31
239.559	101.31
239.793	120.31
240.027	116.31
240.26	124.31
240.494	111.31
240.728	125.31
240.961	125.31
241.195	136.31
241.429	123.31
241.662	131.31
241.896	123.31
242.13	130.31
242.363	126.31
242.597	127.31
242.83	112.31
243.064	141.31
243.298	127.31
243.531	151.31
243.765	148.31
243.998	134.31
244.232	131.31
244.465	153.31
244.699	138.31
244.932	141.31
245.166	137.31
245.399	131.31
245.633	139.31
245.866	146.31
246.099	136.31
246.333	129.31
246.566	140.31
246.8	145.31
247.033	157.31
247.266	146.31
247.5	150.31
247.733	158.31
247.966	160.31
248.2	147.31
248.433	152.31
248.666	148.31
248.899	150.31
249.133	169.31
249.366	148.31
249.599	154.31
249.832	158.31
250.066	160.31
250.299	158.31
250.532	174.31
250.765	176.31
250.998	175.31
251.231	167.31
251.465	182.31
251.698	169.31
251.931	183.31
252.164	172.31
252.397	175.31
252.63	187.31
252.863	181.31
253.096	185.31
253.329	188.31
253.562	194.31
253.795	184.31
254.028	195.31
254.261	193.31
254.494	195.31
254.727	188.31
254.96	191.31
255.193	187.31
255.426	196.31
255.659	205.31
255.892	212.31
256.124	200.31
256.357	208.31
256.59	193.31
256.823	190.31
257.056	209.31
257.289	203.31
257.521	214.31
257.754	201.31
257.987	201.31
258.22	216.31
258.452	232.31
258.685	193.31
258.918	224.31
259.151	221.31
259.383	254.31
259.616	235.31
259.849	248.31
260.081	239.31
260.314	227.31
260.547	228.31
260.779	231.31
261.012	224.31
261.244	246.31
261.477	238.31
261.71	250.31
261.942	239.31
262.175	243.31
262.407	247.31
262.64	243.31
262.872	260.31
263.105	240.31
263.337	237.31
263.57	251.31
263.802	253.31
264.035	244.31
264.267	243.31
264.499	268.31
264.732	263.31
264.964	265.31
265.197	260.31
265.429	267.31
265.661	258.31
265.894	266.31
266.126	259.31
266.358	268.31
266.591	269.31
266.823	264.31
267.055	267.31
267.287	277.31
267.52	264.31
267.752	265.31
267.984	261.31
268.216	268.31
268.448	263.31
268.681	264.31
268.913	260.31
269.145	269.31
269.377	278.31
269.609	248.31
269.841	261.31
270.073	275.31
270.306	278.31
270.538	263.31
270.77	290.31
271.002	288.31
271.234	272.31
271.466	274.31
271.698	273.31
271.93	272.31
272.162	277.31
272.394	273.31
272.626	272.31
272.858	270.31
273.09	271.31
273.322	265.31
273.553	263.31
273.785	287.31
274.017	299.31
274.249	295.31
274.481	289.31
274.713	281.31
274.945	299.31
275.176	297.31
275.408	313.31
275.64	286.31
275.872	306.31
276.104	307.31
276.335	290.31
276.567	271.31
276.799	288.31
277.031	294.31
277.262	301.31
277.494	297.31
277.726	294.31
277.957	306.31
278.189	299.31
278.421	272.31
278.652	307.31
278.884	289.31
279.115	291.31
279.347	312.31
279.579	300.31
279.81	310.31
280.042	294.31
280.273	311.31
280.505	297.31
280.736	299.31
280.968	322.31
281.199	320.31
281.431	301.31
281.662	317.31
281.894	299.31
282.125	299.31
282.356	301.31
282.588	305.31
282.819	309.31
283.051	316.31
283.282	319.31
283.513	309.31
283.745	304.31
283.976	335.31
284.207	326.31
284.439	321.31
284.67	301.31
284.901	311.31
285.132	316.31
285.364	315.31
285.595	300.31
285.826	302.31
286.057	319.31
286.288	331.31
286.52	338.31
286.751	339.31
286.982	328.31
287.213	304.31
287.444	305.31
287.675	308.31
287.906	324.31
288.138	331.31
288.369	307.31
288.6	310.31
288.831	311.31
289.062	325.31
289.293	331.31
289.524	312.31
289.755	313.31
289.986	326.31
290.217	325.31
290.448	328.31
290.679	325.31
290.91	324.31
291.141	308.31
291.371	318.31
291.602	332.31
291.833	315.31
292.064	325.31
292.295	336.31
292.526	330.31
292.757	324.31
292.987	324.31
293.218	336.31
293.449	328.31
293.68	324.31
293.91	300.31
294.141	314.31
294.372	336.31
294.603	332.31
294.833	330.31
295.064	328.31
295.295	306.31
295.525	346.31
295.756	328.31
295.987	318.31
296.217	339.31
296.448	342.31
296.679	334.31
296.909	341.31
297.14	335.31
297.37	348.31
297.601	348.31
297.831	331.31
298.062	343.31
298.292	353.31
298.523	358.31
298.753	349.31
298.984	343.31
299.214	351.31
299.445	345.31
299.675	351.31
299.905	363.31
300.136	356.31
300.366	348.31
300.597	368.31
300.827	361.31
301.057	359.31
301.288	348.31
301.518	368.31
301.748	370.31
301.979	371.31
302.209	371.31
302.439	360.31
302.669	367.31
302.9	374.31
303.13	366.31
303.36	371.31
303.59	367.31
303.82	364.31
304.051	382.31
304.281	363.31
304.511	369.31
304.741	367.31
304.971	366.31
305.201	369.31
305.431	376.31
305.661	369.31
305.891	375.31
306.121	363.31
306.352	365.31
306.582	389.31
306.812	352.31
307.042	347.31
307.272	368.31
307.502	359.31
307.731	376.31
307.961	352.31
308.191	359.31
308.421	357.31
308.651	368.31
308.881	377.31
309.111	360.31
309.341	360.31
309.571	377.31
309.8	388.31
310.03	378.31
310.26	401.31
310.49	410.31
310.72	397.31
310.949	382.31
311.179	368.31
311.409	389.31
311.639	395.31
311.868	374.31
312.098	392.31
312.328	397.31
312.557	395.31
312.787	400.31
313.017	407.31
313.246	401.31
313.476	421.31
313.706	416.31
313.935	427.31
314.165	424.31
314.394	415.31
314.624	399.31
314.853	416.31
315.083	419.31
315.312	421.31
315.542	424.31
315.771	415.31
316.001	411.31
316.23	407.31
316.46	408.31
316.689	431.31
316.919	436.31
317.148	432.31
317.377	433.31
317.607	452.31
317.836	462.31
318.065	411.31
318.295	447.31
318.524	433.31
318.753	435.31
318.983	449.31
319.212	446.31
319.441	453.31
319.67	450.31
319.9	467.31
320.129	446.31
320.358	453.31
320.587	447.31
320.816	463.31
321.046	447.31
321.275	474.31
321.504	477.31
321.733	474.31
321.962	485.31
322.191	480.31
322.42	475.31
322.649	477.31
322.878	513.31
323.108	477.31
323.337	492.31
323.566	490.31
323.795	499.31
324.024	506.31
324.253	503.31
324.482	505.31
324.71	519.31
324.939	510.31
325.168	515.31
325.397	518.31
325.626	525.31
325.855	547.31
326.084	566.31
326.313	529.31
326.542	522.31
326.77	552.31
326.999	548.31
327.228	528.31
327.457	557.31
327.686	538.31
327.914	554.31
328.143	564.31
328.372	571.31
328.6	561.31
328.829	551.31
329.058	567.31
329.287	559.31
329.515	554.31
329.744	595.31
329.972	573.31
330.201	589.31
330.43	582.31
330.658	584.31
330.887	608.31
331.115	575.31
331.344	617.31
331.572	621.31
331.801	600.31
332.03	605.31
332.258	633.31
332.486	633.31
332.715	628.31
332.943	668.31
333.172	684.31
333.4	662.31
333.629	705.31
333.857	687.31
334.085	689.31
334.314	719.31
334.542	712.31
334.771	719.31
334.999	684.31
335.227	710.31
335.455	709.31
335.684	686.31
335.912	703.31
336.14	695.31
336.369	709.31
336.597	700.31
336.825	727.31
337.053	700.31
337.281	687.31
337.51	676.31
337.738	680.31
337.966	692.31
338.194	697.31
338.422	680.31
338.65	647.31
338.878	671.31
339.106	658.31
339.334	655.31
339.562	670.31
339.79	631.31
340.018	641.31
340.246	647.31
340.474	640.31
340.702	655.31
340.93	635.31
341.158	648.31
341.386	635.31
341.614	659.31
341.842	670.31
342.07	643.31
342.298	635.31
342.526	662.31
342.754	643.31
342.981	648.31
343.209	664.31
343.437	682.31
343.665	722.31
343.893	715.31
344.12	720.31
344.348	710.31
344.576	709.31
344.804	686.31
345.031	676.31
345.259	683.31
345.487	660.31
345.714	642.31
345.942	661.31
346.17	659.31
346.397	645.31
346.625	616.31
346.853	635.31
347.08	613.31
347.308	629.31
347.535	634.31
347.763	628.31
347.99	620.31
348.218	623.31
348.445	627.31
348.673	629.31
348.9	603.31
349.128	617.31
349.355	649.31
349.583	667.31
349.81	624.31
350.037	595.31
350.265	607.31
350.492	599.31
350.72	604.31
350.947	630.31
351.174	642.31
351.402	616.31
351.629	643.31
351.856	616.31
352.083	625.31
352.311	613.31
352.538	617.31
352.765	625.31
352.992	608.31
353.22	605.31
353.447	582.31
353.674	599.31
353.901	603.31
354.128	602.31
354.355	582.31
354.583	597.31
354.81	590.31
355.037	600.31
355.264	605.31
355.491	599.31
355.718	592.31
355.945	597.31
356.172	588.31
356.399	595.31
356.626	599.31
356.853	604.31
357.08	596.31
357.307	613.31
357.534	607.31
357.761	623.31
357.988	601.31
358.215	591.31
358.441	614.31
358.668	611.31
358.895	620.31
359.122	587.31
359.349	581.31
359.576	603.31
359.802	600.31
360.029	614.31
360.256	601.31
360.483	596.31
360.709	604.31
360.936	588.31
361.163	603.31
361.39	609.31
361.616	595.31
361.843	607.31
362.07	634.31
362.296	648.31
362.523	608.31
362.749	589.31
362.976	608.31
363.203	604.31
363.429	565.31
363.656	568.31
363.882	599.31
364.109	591.31
364.335	593.31
364.562	581.31
364.788	571.31
365.015	603.31
365.241	610.31
365.468	598.31
365.694	588.31
365.92	576.31
366.147	591.31
366.373	571.31
366.599	592.31
366.826	597.31
367.052	601.31
367.278	580.31
367.505	580.31
367.731	602.31
367.957	606.31
368.184	585.31
368.41	587.31
368.636	587.31
368.862	579.31
369.089	603.31
369.315	613.31
369.541	566.31
369.767	604.31
369.993	596.31
370.219	588.31
370.445	604.31
370.672	619.31
370.898	601.31
371.124	621.31
371.35	598.31
371.576	611.31
371.802	601.31
372.028	628.31
372.254	613.31
372.48	596.31
372.706	614.31
372.932	628.31
373.158	588.31
373.384	616.31
373.61	618.31
373.835	630.31
374.061	603.31
374.287	610.31
374.513	633.31
374.739	631.31
374.965	643.31
375.191	643.31
375.416	637.31
375.642	632.31
375.868	628.31
376.094	624.31
376.319	590.31
376.545	616.31
376.771	606.31
376.997	607.31
377.222	589.31
377.448	589.31
377.674	600.31
377.899	587.31
378.125	584.31
378.35	602.31
378.576	587.31
378.802	568.31
379.027	570.31
379.253	596.31
379.478	579.31
379.704	588.31
379.929	597.31
380.155	584.31
380.38	577.31
380.606	576.31
380.831	584.31
381.057	581.31
381.282	562.31
381.507	592.31
381.733	605.31
381.958	604.31
382.184	590.31
382.409	609.31
382.634	589.31
382.86	595.31
383.085	629.31
383.31	605.31
383.535	624.31
383.761	627.31
383.986	645.31
384.211	632.31
384.436	636.31
384.662	648.31
384.887	645.31
385.112	664.31
385.337	671.31
385.562	667.31
385.787	655.31
386.013	679.31
386.238	667.31
386.463	687.31
386.688	681.31
386.913	678.31
387.138	667.31
387.363	667.31
387.588	664.31
387.813	669.31
388.038	679.31
388.263	667.31
388.488	677.31
388.713	637.31
388.938	663.31
389.163	667.31
389.387	664.31
389.612	675.31
389.837	666.31
390.062	669.31
390.287	651.31
390.512	681.31
390.736	685.31
390.961	678.31
391.186	677.31
391.411	686.31
391.636	699.31
391.86	691.31
392.085	724.31
392.31	712.31
392.534	699.31
392.759	721.31
392.984	710.31
393.208	707.31
393.433	721.31
393.658	722.31
393.882	703.31
394.107	728.31
394.331	699.31
394.556	692.31
394.78	721.31
395.005	709.31
395.229	708.31
395.454	713.31
395.678	732.31
395.903	736.31
396.127	725.31
396.352	712.31
396.576	712.31
396.801	710.31
397.025	737.31
397.249	751.31
397.474	746.31
397.698	741.31
397.922	764.31
398.147	759.31
398.371	764.31
398.595	800.31
398.82	801.31
399.044	869.31
399.268	883.31
399.492	974.31
399.717	1021.31
399.941	1016.31
400.165	997.31
400.389	922.31
400.613	919.31
400.837	877.31
401.062	848.31
401.286	863.31
401.51	809.31
401.734	827.31
401.958	844.31
402.182	837.31
402.406	826.31
402.63	831.31
402.854	855.31
403.078	844.31
403.302	847.31
403.526	892.31
403.75	877.31
403.974	865.31
404.198	851.31
404.422	864.31
404.645	891.31
404.869	869.31
405.093	878.31
405.317	887.31
405.541	882.31
405.765	889.31
405.988	867.31
406.212	912.31
406.436	890.31
406.66	926.31
406.883	939.31
407.107	976.31
407.331	1011.31
407.555	996.31
407.778	977.31
408.002	1004.31
408.226	968.31
408.449	975.31
408.673	924.31
408.896	935.31
409.12	953.31
409.344	938.31
409.567	935.31
409.791	935.31
410.014	917.31
410.238	909.31
410.461	908.31
410.685	907.31
410.908	897.31
411.132	883.31
411.355	869.31
411.578	873.31
411.802	897.31
412.025	899.31
412.249	896.31
412.472	873.31
412.695	897.31
412.919	880.31
413.142	891.31
413.365	883.31
413.589	886.31
413.812	880.31
414.035	846.31
414.258	876.31
414.482	864.31
414.705	856.31
414.928	880.31
415.151	871.31
415.374	873.31
415.597	877.31
415.821	844.31
416.044	848.31
416.267	844.31
416.49	864.31
416.713	826.31
416.936	841.31
417.159	817.31
417.382	840.31
417.605	871.31
417.828	877.31
418.051	856.31
418.274	846.31
418.497	860.31
418.72	897.31
418.943	883.31
419.166	955.31
419.389	995.31
419.611	926.31
419.834	923.31
420.057	909.31
420.28	875.31
420.503	873.31
420.726	859.31
420.948	852.31
421.171	857.31
421.394	879.31
421.617	840.31
421.839	870.31
422.062	879.31
422.285	865.31
422.507	870.31
422.73	872.31
422.953	861.31
423.175	874.31
423.398	908.31
423.621	874.31
423.843	885.31
424.066	901.31
424.288	897.31
424.511	895.31
424.733	917.31
424.956	884.31
425.178	913.31
425.401	883.31
425.623	912.31
425.846	872.31
426.068	884.31
426.291	857.31
426.513	854.31
426.735	871.31
426.958	848.31
427.18	851.31
427.402	841.31
427.625	868.31
427.847	839.31
428.069	834.31
428.292	839.31
428.514	844.31
428.736	836.31
428.958	864.31
429.181	843.31
429.403	821.31
429.625	811.31
429.847	844.31
430.069	836.31
430.292	827.31
430.514	833.31
430.736	845.31
430.958	846.31
431.18	816.31
431.402	851.31
431.624	837.31
431.846	848.31
432.068	827.31
432.29	869.31
432.512	831.31
432.734	851.31
432.956	865.31
433.178	845.31
433.4	856.31
433.622	868.31
433.844	873.31
434.066	869.31
434.287	858.31
434.509	875.31
434.731	896.31
434.953	913.31
435.175	899.31
435.397	893.31
435.618	851.31
435.84	871.31
436.062	862.31
436.284	837.31
436.505	848.31
436.727	853.31
436.949	833.31
437.17	868.31
437.392	844.31
437.614	835.31
437.835	825.31
438.057	800.31
438.278	799.31
438.5	834.31
438.721	850.31
438.943	838.31
439.165	840.31
439.386	872.31
439.608	854.31
439.829	887.31
440.05	866.31
440.272	887.31
440.493	862.31
440.715	886.31
440.936	899.31
441.158	854.31
441.379	889.31
441.6	919.31
441.822	904.31
442.043	904.31
442.264	924.31
442.486	913.31
442.707	918.31
442.928	912.31
443.149	908.31
443.371	914.31
443.592	947.31
443.813	911.31
444.034	921.31
444.255	922.31
444.476	957.31
444.698	987.31
444.919	986.31
445.14	1078.31
445.361	1015.31
445.582	962.31
445.803	939.31
446.024	908.31
446.245	914.31
446.466	923.31
446.687	860.31
446.908	876.31
447.129	858.31
447.35	836.31
447.571	825.31
447.792	836.31
448.013	826.31
448.234	785.31
448.455	803.31
448.675	811.31
448.896	812.31
449.117	820.31
449.338	777.31
449.559	790.31
449.779	798.31
450	802.31
450.221	811.31
450.442	816.31
450.662	803.31
450.883	819.31
451.104	828.31
451.324	833.31
451.545	824.31
451.766	789.31
451.986	791.31
452.207	798.31
452.428	780.31
452.648	793.31
452.869	748.31
453.089	755.31
453.31	769.31
453.53	784.31
453.751	744.31
453.971	777.31
454.192	769.31
454.412	767.31
454.633	762.31
454.853	771.31
455.073	743.31
455.294	752.31
455.514	735.31
455.734	732.31
455.955	760.31
456.175	756.31
456.395	742.31
456.616	759.31
456.836	769.31
457.056	750.31
457.276	747.31
457.497	742.31
457.717	746.31
457.937	774.31
458.157	761.31
458.377	797.31
458.598	793.31
458.818	814.31
459.038	789.31
459.258	814.31
459.478	860.31
459.698	846.31
459.918	880.31
460.138	908.31
460.358	943.31
460.578	966.31
460.798	933.31
461.018	955.31
461.238	969.31
461.458	948.31
461.678	964.31
461.898	1020.31
462.118	979.31
462.338	1002.31
462.558	1027.31
462.777	1051.31
462.997	1104.31
463.217	1126.31
463.437	1156.31
463.657	1093.31
463.876	1097.31
464.096	1105.31
464.316	1078.31
464.536	1047.31
464.755	1037.31
464.975	1049.31
465.195	976.31
465.414	959.31
465.634	898.31
465.854	909.31
466.073	880.31
466.293	853.31
466.512	856.31
466.732	839.31
466.951	855.31
467.171	831.31
467.391	867.31
467.61	823.31
467.829	827.31
468.049	807.31
468.268	811.31
468.488	807.31
468.707	789.31
468.927	803.31
469.146	795.31
469.365	820.31
469.585	831.31
469.804	822.31
470.023	867.31
470.243	844.31
470.462	853.31
470.681	848.31
470.901	856.31
471.12	854.31
471.339	845.31
471.558	851.31
471.777	843.31
471.997	837.31
472.216	822.31
472.435	831.31
472.654	788.31
472.873	800.31
473.092	816.31
473.311	801.31
473.53	814.31
473.749	809.31
473.968	809.31
474.187	821.31
474.406	827.31
474.625	793.31
474.844	823.31
475.063	832.31
475.282	808.31
475.501	835.31
475.72	855.31
475.939	842.31
476.158	847.31
476.377	879.31
476.596	845.31
476.814	855.31
477.033	860.31
477.252	863.31
477.471	872.31
477.69	889.31
477.908	897.31
478.127	940.31
478.346	933.31
478.564	925.31
478.783	959.31
479.002	961.31
479.22	977.31
479.439	979.31
479.658	985.31
479.876	953.31
480.095	988.31
480.313	992.31
480.532	970.31
480.751	992.31
480.969	986.31
481.188	957.31
481.406	902.31
481.624	941.31
481.843	904.31
482.061	925.31
482.28	934.31
482.498	931.31
482.717	951.31
482.935	925.31
483.153	915.31
483.372	965.31
483.59	949.31
483.808	947.31
484.027	949.31
484.245	910.31
484.463	917.31
484.681	947.31
484.9	968.31
485.118	959.31
485.336	955.31
485.554	956.31
485.772	945.31
485.99	966.31
486.209	938.31
486.427	965.31
486.645	981.31
486.863	975.31
487.081	949.31
487.299	969.31
487.517	965.31
487.735	966.31
487.953	1005.31
488.171	976.31
488.389	979.31
488.607	966.31
488.825	921.31
489.043	950.31
489.261	949.31
489.479	955.31
489.696	965.31
489.914	969.31
490.132	958.31
490.35	1007.31
490.568	991.31
490.786	999.31
491.003	1041.31
491.221	1003.31
491.439	1037.31
491.657	1021.31
491.874	1016.31
492.092	1042.31
492.31	1076.31
492.527	1046.31
492.745	1045.31
492.963	1041.31
493.18	1031.31
493.398	1046.31
493.615	1042.31
493.833	1033.31
494.05	1045.31
494.268	1085.31
494.485	1055.31
494.703	1045.31
494.92	1054.31
495.138	1077.31
495.355	1045.31
495.573	1099.31
495.79	1081.31
496.008	1063.31
496.225	1085.31
496.442	1101.31
496.66	1136.31
496.877	1136.31
497.094	1150.31
497.312	1172.31
497.529	1158.31
497.746	1207.31
497.963	1237.31
498.181	1282.31
498.398	1317.31
498.615	1368.31
498.832	1372.31
499.049	1485.31
499.267	1549.31
499.484	1671.31
499.701	1720.31
499.918	1850.31
500.135	1937.31
500.352	2111.31
500.569	2178.31
500.786	2160.31
