Data from Ni(NO3)2@0.0625M.TitratingCurve.Agarose3%dH2O.NegLispCup.LampEnergy10.LIBS07252019_HRD10591_18-14-08-568.txt Node
Date: Thu Jul 25 18:14:08 EDT 2019
User: cochatt
Spectrometer: HR+D1059
Trigger mode: 1
Integration Time (sec): 1.000000E-1
Scans to average: 1
Electric dark correction enabled: true
Nonlinearity correction enabled: false
Boxcar width: 0
XAxis mode: Wavelengths
Number of Pixels in Spectrum: 2048
>>>>>Begin Spectral Data<<<<<
223.165	-12.75
223.4	-12.75
223.635	-12.75
223.869	-22.75
224.104	-26.75
224.338	-15.75
224.573	-3.75
224.808	-12.75
225.042	-3.75
225.277	-10.75
225.511	6.25
225.746	-3.75
225.98	11.25
226.215	16.25
226.449	19.25
226.683	12.25
226.918	13.25
227.152	34.25
227.387	13.25
227.621	39.25
227.856	42.25
228.09	39.25
228.324	50.25
228.559	41.25
228.793	71.25
229.027	113.25
229.262	102.25
229.496	125.25
229.73	121.25
229.964	106.25
230.199	125.25
230.433	129.25
230.667	122.25
230.901	142.25
231.136	147.25
231.37	153.25
231.604	138.25
231.838	153.25
232.072	162.25
232.306	163.25
232.541	151.25
232.775	135.25
233.009	154.25
233.243	139.25
233.477	150.25
233.711	147.25
233.945	160.25
234.179	153.25
234.413	142.25
234.647	156.25
234.881	144.25
235.115	161.25
235.349	148.25
235.583	157.25
235.817	145.25
236.051	160.25
236.285	153.25
236.519	153.25
236.753	158.25
236.987	166.25
237.221	165.25
237.455	174.25
237.689	159.25
237.922	167.25
238.156	166.25
238.39	175.25
238.624	170.25
238.858	181.25
239.091	192.25
239.325	170.25
239.559	170.25
239.793	190.25
240.027	182.25
240.26	176.25
240.494	170.25
240.728	185.25
240.961	200.25
241.195	197.25
241.429	192.25
241.662	191.25
241.896	189.25
242.13	199.25
242.363	213.25
242.597	183.25
242.83	191.25
243.064	192.25
243.298	201.25
243.531	211.25
243.765	202.25
243.998	216.25
244.232	216.25
244.465	206.25
244.699	205.25
244.932	218.25
245.166	211.25
245.399	234.25
245.633	218.25
245.866	218.25
246.099	228.25
246.333	218.25
246.566	234.25
246.8	228.25
247.033	232.25
247.266	232.25
247.5	222.25
247.733	243.25
247.966	240.25
248.2	247.25
248.433	248.25
248.666	261.25
248.899	244.25
249.133	256.25
249.366	261.25
249.599	251.25
249.832	253.25
250.066	264.25
250.299	279.25
250.532	264.25
250.765	255.25
250.998	263.25
251.231	265.25
251.465	258.25
251.698	267.25
251.931	266.25
252.164	272.25
252.397	291.25
252.63	297.25
252.863	285.25
253.096	273.25
253.329	278.25
253.562	289.25
253.795	264.25
254.028	288.25
254.261	272.25
254.494	277.25
254.727	280.25
254.96	280.25
255.193	310.25
255.426	303.25
255.659	280.25
255.892	303.25
256.124	291.25
256.357	296.25
256.59	307.25
256.823	291.25
257.056	309.25
257.289	315.25
257.521	305.25
257.754	297.25
257.987	299.25
258.22	310.25
258.452	327.25
258.685	317.25
258.918	314.25
259.151	296.25
259.383	318.25
259.616	311.25
259.849	328.25
260.081	325.25
260.314	320.25
260.547	327.25
260.779	323.25
261.012	323.25
261.244	327.25
261.477	340.25
261.71	317.25
261.942	327.25
262.175	316.25
262.407	347.25
262.64	334.25
262.872	349.25
263.105	345.25
263.337	346.25
263.57	353.25
263.802	353.25
264.035	350.25
264.267	340.25
264.499	362.25
264.732	355.25
264.964	351.25
265.197	353.25
265.429	367.25
265.661	349.25
265.894	373.25
266.126	348.25
266.358	335.25
266.591	361.25
266.823	376.25
267.055	365.25
267.287	392.25
267.52	371.25
267.752	362.25
267.984	373.25
268.216	383.25
268.448	397.25
268.681	402.25
268.913	385.25
269.145	392.25
269.377	389.25
269.609	386.25
269.841	385.25
270.073	393.25
270.306	416.25
270.538	401.25
270.77	407.25
271.002	393.25
271.234	392.25
271.466	409.25
271.698	389.25
271.93	385.25
272.162	381.25
272.394	418.25
272.626	410.25
272.858	398.25
273.09	425.25
273.322	415.25
273.553	414.25
273.785	421.25
274.017	431.25
274.249	421.25
274.481	425.25
274.713	406.25
274.945	426.25
275.176	426.25
275.408	410.25
275.64	444.25
275.872	418.25
276.104	434.25
276.335	438.25
276.567	437.25
276.799	439.25
277.031	442.25
277.262	435.25
277.494	438.25
277.726	430.25
277.957	450.25
278.189	432.25
278.421	456.25
278.652	466.25
278.884	456.25
279.115	461.25
279.347	454.25
279.579	457.25
279.81	474.25
280.042	472.25
280.273	446.25
280.505	471.25
280.736	474.25
280.968	463.25
281.199	468.25
281.431	465.25
281.662	470.25
281.894	487.25
282.125	476.25
282.356	510.25
282.588	479.25
282.819	480.25
283.051	485.25
283.282	483.25
283.513	498.25
283.745	498.25
283.976	503.25
284.207	498.25
284.439	491.25
284.67	469.25
284.901	515.25
285.132	506.25
285.364	520.25
285.595	511.25
285.826	496.25
286.057	511.25
286.288	522.25
286.52	491.25
286.751	512.25
286.982	523.25
287.213	537.25
287.444	558.25
287.675	539.25
287.906	553.25
288.138	531.25
288.369	534.25
288.6	530.25
288.831	549.25
289.062	562.25
289.293	545.25
289.524	538.25
289.755	546.25
289.986	535.25
290.217	528.25
290.448	549.25
290.679	543.25
290.91	534.25
291.141	548.25
291.371	533.25
291.602	549.25
291.833	551.25
292.064	540.25
292.295	554.25
292.526	568.25
292.757	568.25
292.987	514.25
293.218	573.25
293.449	562.25
293.68	545.25
293.91	529.25
294.141	559.25
294.372	533.25
294.603	564.25
294.833	536.25
295.064	536.25
295.295	580.25
295.525	548.25
295.756	576.25
295.987	579.25
296.217	569.25
296.448	574.25
296.679	579.25
296.909	590.25
297.14	571.25
297.37	573.25
297.601	610.25
297.831	591.25
298.062	589.25
298.292	588.25
298.523	618.25
298.753	607.25
298.984	579.25
299.214	590.25
299.445	600.25
299.675	600.25
299.905	600.25
300.136	580.25
300.366	603.25
300.597	613.25
300.827	621.25
301.057	621.25
301.288	628.25
301.518	614.25
301.748	643.25
301.979	659.25
302.209	654.25
302.439	645.25
302.669	651.25
302.9	628.25
303.13	611.25
303.36	608.25
303.59	604.25
303.82	604.25
304.051	622.25
304.281	632.25
304.511	630.25
304.741	607.25
304.971	627.25
305.201	607.25
305.431	630.25
305.661	613.25
305.891	613.25
306.121	623.25
306.352	632.25
306.582	617.25
306.812	615.25
307.042	633.25
307.272	621.25
307.502	613.25
307.731	611.25
307.961	608.25
308.191	615.25
308.421	590.25
308.651	599.25
308.881	604.25
309.111	618.25
309.341	621.25
309.571	615.25
309.8	606.25
310.03	615.25
310.26	622.25
310.49	610.25
310.72	617.25
310.949	612.25
311.179	655.25
311.409	629.25
311.639	628.25
311.868	636.25
312.098	619.25
312.328	642.25
312.557	639.25
312.787	618.25
313.017	639.25
313.246	667.25
313.476	675.25
313.706	658.25
313.935	672.25
314.165	647.25
314.394	662.25
314.624	674.25
314.853	647.25
315.083	650.25
315.312	636.25
315.542	665.25
315.771	647.25
316.001	638.25
316.23	667.25
316.46	641.25
316.689	652.25
316.919	655.25
317.148	638.25
317.377	626.25
317.607	623.25
317.836	648.25
318.065	641.25
318.295	630.25
318.524	655.25
318.753	637.25
318.983	650.25
319.212	628.25
319.441	625.25
319.67	641.25
319.9	658.25
320.129	651.25
320.358	627.25
320.587	656.25
320.816	646.25
321.046	661.25
321.275	635.25
321.504	657.25
321.733	651.25
321.962	660.25
322.191	653.25
322.42	662.25
322.649	663.25
322.878	655.25
323.108	664.25
323.337	668.25
323.566	669.25
323.795	661.25
324.024	679.25
324.253	671.25
324.482	655.25
324.71	666.25
324.939	696.25
325.168	696.25
325.397	697.25
325.626	690.25
325.855	705.25
326.084	719.25
326.313	704.25
326.542	713.25
326.77	738.25
326.999	704.25
327.228	678.25
327.457	697.25
327.686	712.25
327.914	715.25
328.143	724.25
328.372	714.25
328.6	738.25
328.829	706.25
329.058	720.25
329.287	709.25
329.515	710.25
329.744	732.25
329.972	727.25
330.201	720.25
330.43	712.25
330.658	751.25
330.887	740.25
331.115	753.25
331.344	780.25
331.572	761.25
331.801	785.25
332.03	806.25
332.258	802.25
332.486	835.25
332.715	842.25
332.943	891.25
333.172	930.25
333.4	970.25
333.629	998.25
333.857	971.25
334.085	957.25
334.314	954.25
334.542	953.25
334.771	926.25
334.999	911.25
335.227	896.25
335.455	869.25
335.684	882.25
335.912	863.25
336.14	852.25
336.369	861.25
336.597	886.25
336.825	887.25
337.053	869.25
337.281	836.25
337.51	838.25
337.738	824.25
337.966	814.25
338.194	809.25
338.422	786.25
338.65	789.25
338.878	763.25
339.106	806.25
339.334	791.25
339.562	753.25
339.79	765.25
340.018	777.25
340.246	742.25
340.474	771.25
340.702	757.25
340.93	755.25
341.158	739.25
341.386	738.25
341.614	751.25
341.842	791.25
342.07	737.25
342.298	727.25
342.526	728.25
342.754	724.25
342.981	723.25
343.209	777.25
343.437	840.25
343.665	900.25
343.893	955.25
344.12	960.25
344.348	907.25
344.576	844.25
344.804	820.25
345.031	769.25
345.259	766.25
345.487	744.25
345.714	742.25
345.942	738.25
346.17	727.25
346.397	718.25
346.625	731.25
346.853	736.25
347.08	747.25
347.308	726.25
347.535	719.25
347.763	753.25
347.99	732.25
348.218	707.25
348.445	743.25
348.673	713.25
348.9	710.25
349.128	734.25
349.355	744.25
349.583	746.25
349.81	696.25
350.037	715.25
350.265	699.25
350.492	710.25
350.72	697.25
350.947	692.25
351.174	699.25
351.402	721.25
351.629	672.25
351.856	691.25
352.083	705.25
352.311	701.25
352.538	696.25
352.765	686.25
352.992	692.25
353.22	706.25
353.447	713.25
353.674	696.25
353.901	703.25
354.128	682.25
354.355	685.25
354.583	685.25
354.81	709.25
355.037	693.25
355.264	723.25
355.491	726.25
355.718	705.25
355.945	731.25
356.172	721.25
356.399	694.25
356.626	715.25
356.853	717.25
357.08	703.25
357.307	715.25
357.534	697.25
357.761	707.25
357.988	702.25
358.215	721.25
358.441	701.25
358.668	673.25
358.895	696.25
359.122	708.25
359.349	699.25
359.576	727.25
359.802	710.25
360.029	711.25
360.256	725.25
360.483	694.25
360.709	694.25
360.936	728.25
361.163	720.25
361.39	697.25
361.616	696.25
361.843	693.25
362.07	709.25
362.296	723.25
362.523	715.25
362.749	692.25
362.976	701.25
363.203	721.25
363.429	691.25
363.656	698.25
363.882	675.25
364.109	685.25
364.335	701.25
364.562	709.25
364.788	675.25
365.015	699.25
365.241	701.25
365.468	674.25
365.694	689.25
365.92	701.25
366.147	685.25
366.373	708.25
366.599	707.25
366.826	701.25
367.052	689.25
367.278	682.25
367.505	706.25
367.731	702.25
367.957	724.25
368.184	702.25
368.41	710.25
368.636	704.25
368.862	723.25
369.089	721.25
369.315	735.25
369.541	724.25
369.767	687.25
369.993	741.25
370.219	723.25
370.445	733.25
370.672	739.25
370.898	754.25
371.124	769.25
371.35	784.25
371.576	767.25
371.802	764.25
372.028	735.25
372.254	767.25
372.48	774.25
372.706	773.25
372.932	792.25
373.158	801.25
373.384	767.25
373.61	765.25
373.835	779.25
374.061	765.25
374.287	755.25
374.513	798.25
374.739	807.25
374.965	851.25
375.191	877.25
375.416	870.25
375.642	819.25
375.868	815.25
376.094	793.25
376.319	801.25
376.545	781.25
376.771	769.25
376.997	773.25
377.222	774.25
377.448	792.25
377.674	779.25
377.899	757.25
378.125	737.25
378.35	761.25
378.576	754.25
378.802	756.25
379.027	761.25
379.253	760.25
379.478	776.25
379.704	762.25
379.929	748.25
380.155	765.25
380.38	789.25
380.606	772.25
380.831	747.25
381.057	753.25
381.282	779.25
381.507	793.25
381.733	754.25
381.958	777.25
382.184	784.25
382.409	813.25
382.634	819.25
382.86	806.25
383.085	797.25
383.31	835.25
383.535	857.25
383.761	849.25
383.986	884.25
384.211	901.25
384.436	933.25
384.662	922.25
384.887	935.25
385.112	919.25
385.337	927.25
385.562	926.25
385.787	926.25
386.013	954.25
386.238	941.25
386.463	946.25
386.688	957.25
386.913	919.25
387.138	904.25
387.363	914.25
387.588	906.25
387.813	901.25
388.038	919.25
388.263	924.25
388.488	907.25
388.713	905.25
388.938	903.25
389.163	880.25
389.387	922.25
389.612	918.25
389.837	913.25
390.062	884.25
390.287	907.25
390.512	874.25
390.736	918.25
390.961	932.25
391.186	925.25
391.411	956.25
391.636	1009.25
391.86	1050.25
392.085	1065.25
392.31	1063.25
392.534	994.25
392.759	999.25
392.984	994.25
393.208	967.25
393.433	945.25
393.658	984.25
393.882	969.25
394.107	979.25
394.331	981.25
394.556	1010.25
394.78	998.25
395.005	1001.25
395.229	990.25
395.454	1038.25
395.678	1073.25
395.903	1054.25
396.127	1035.25
396.352	1013.25
396.576	965.25
396.801	978.25
397.025	1008.25
397.249	1009.25
397.474	1026.25
397.698	1055.25
397.922	1052.25
398.147	1028.25
398.371	1073.25
398.595	1113.25
398.82	1160.25
399.044	1238.25
399.268	1360.25
399.492	1610.25
399.717	1885.25
399.941	1793.25
400.165	1554.25
400.389	1407.25
400.613	1274.25
400.837	1233.25
401.062	1189.25
401.286	1159.25
401.51	1153.25
401.734	1138.25
401.958	1173.25
402.182	1190.25
402.406	1186.25
402.63	1250.25
402.854	1290.25
403.078	1249.25
403.302	1301.25
403.526	1371.25
403.75	1352.25
403.974	1393.25
404.198	1403.25
404.422	1365.25
404.645	1365.25
404.869	1348.25
405.093	1363.25
405.317	1321.25
405.541	1283.25
405.765	1314.25
405.988	1282.25
406.212	1273.25
406.436	1267.25
406.66	1333.25
406.883	1341.25
407.107	1443.25
407.331	1543.25
407.555	1541.25
407.778	1542.25
408.002	1516.25
408.226	1442.25
408.449	1398.25
408.673	1352.25
408.896	1331.25
409.12	1329.25
409.344	1327.25
409.567	1328.25
409.791	1347.25
410.014	1336.25
410.238	1327.25
410.461	1306.25
410.685	1274.25
410.908	1272.25
411.132	1253.25
411.355	1193.25
411.578	1199.25
411.802	1186.25
412.025	1191.25
412.249	1205.25
412.472	1211.25
412.695	1199.25
412.919	1149.25
413.142	1162.25
413.365	1173.25
413.589	1174.25
413.812	1131.25
414.035	1147.25
414.258	1134.25
414.482	1146.25
414.705	1176.25
414.928	1208.25
415.151	1209.25
415.374	1171.25
415.597	1143.25
415.821	1151.25
416.044	1166.25
416.267	1104.25
416.49	1132.25
416.713	1113.25
416.936	1174.25
417.159	1162.25
417.382	1154.25
417.605	1121.25
417.828	1173.25
418.051	1177.25
418.274	1152.25
418.497	1119.25
418.72	1187.25
418.943	1177.25
419.166	1271.25
419.389	1337.25
419.611	1271.25
419.834	1226.25
420.057	1188.25
420.28	1164.25
420.503	1159.25
420.726	1141.25
420.948	1136.25
421.171	1120.25
421.394	1150.25
421.617	1113.25
421.839	1165.25
422.062	1153.25
422.285	1160.25
422.507	1206.25
422.73	1182.25
422.953	1197.25
423.175	1184.25
423.398	1251.25
423.621	1223.25
423.843	1267.25
424.066	1251.25
424.288	1228.25
424.511	1218.25
424.733	1226.25
424.956	1174.25
425.178	1158.25
425.401	1193.25
425.623	1156.25
425.846	1138.25
426.068	1113.25
426.291	1098.25
426.513	1091.25
426.735	1087.25
426.958	1072.25
427.18	1025.25
427.402	1045.25
427.625	1038.25
427.847	992.25
428.069	1010.25
428.292	1034.25
428.514	983.25
428.736	1000.25
428.958	1023.25
429.181	995.25
429.403	992.25
429.625	978.25
429.847	989.25
430.069	973.25
430.292	982.25
430.514	982.25
430.736	982.25
430.958	957.25
431.18	989.25
431.402	985.25
431.624	990.25
431.846	998.25
432.068	1008.25
432.29	1049.25
432.512	1004.25
432.734	976.25
432.956	990.25
433.178	1017.25
433.4	970.25
433.622	1022.25
433.844	1046.25
434.066	1023.25
434.287	998.25
434.509	1065.25
434.731	1146.25
434.953	1175.25
435.175	1190.25
435.397	1128.25
435.618	1094.25
435.84	1028.25
436.062	1035.25
436.284	1026.25
436.505	1012.25
436.727	1015.25
436.949	1026.25
437.17	1006.25
437.392	1009.25
437.614	982.25
437.835	957.25
438.057	957.25
438.278	933.25
438.5	938.25
438.721	967.25
438.943	1013.25
439.165	971.25
439.386	1013.25
439.608	979.25
439.829	1006.25
440.05	989.25
440.272	1034.25
440.493	1005.25
440.715	1016.25
440.936	1063.25
441.158	1089.25
441.379	1079.25
441.6	1145.25
441.822	1169.25
442.043	1173.25
442.264	1126.25
442.486	1089.25
442.707	1142.25
442.928	1117.25
443.149	1159.25
443.371	1114.25
443.592	1125.25
443.813	1148.25
444.034	1159.25
444.255	1173.25
444.476	1232.25
444.698	1344.25
444.919	1442.25
445.14	1421.25
445.361	1298.25
445.582	1145.25
445.803	1106.25
446.024	1098.25
446.245	1056.25
446.466	1059.25
446.687	1025.25
446.908	1032.25
447.129	991.25
447.35	966.25
447.571	971.25
447.792	955.25
448.013	953.25
448.234	935.25
448.455	929.25
448.675	899.25
448.896	941.25
449.117	935.25
449.338	911.25
449.559	894.25
449.779	891.25
450	922.25
450.221	895.25
450.442	941.25
450.662	936.25
450.883	919.25
451.104	970.25
451.324	939.25
451.545	950.25
451.766	920.25
451.986	933.25
452.207	921.25
452.428	925.25
452.648	897.25
452.869	903.25
453.089	907.25
453.31	915.25
453.53	918.25
453.751	888.25
453.971	887.25
454.192	877.25
454.412	894.25
454.633	880.25
454.853	879.25
455.073	893.25
455.294	857.25
455.514	853.25
455.734	864.25
455.955	843.25
456.175	874.25
456.395	851.25
456.616	849.25
456.836	843.25
457.056	866.25
457.276	856.25
457.497	859.25
457.717	838.25
457.937	862.25
458.157	884.25
458.377	887.25
458.598	898.25
458.818	906.25
459.038	967.25
459.258	1021.25
459.478	1033.25
459.698	1046.25
459.918	1096.25
460.138	1101.25
460.358	1199.25
460.578	1205.25
460.798	1215.25
461.018	1253.25
461.238	1173.25
461.458	1225.25
461.678	1176.25
461.898	1209.25
462.118	1209.25
462.338	1305.25
462.558	1311.25
462.777	1376.25
462.997	1506.25
463.217	1694.25
463.437	1626.25
463.657	1493.25
463.876	1409.25
464.096	1413.25
464.316	1447.25
464.536	1453.25
464.755	1369.25
464.975	1330.25
465.195	1254.25
465.414	1190.25
465.634	1083.25
465.854	1063.25
466.073	1018.25
466.293	1023.25
466.512	1011.25
466.732	972.25
466.951	951.25
467.171	951.25
467.391	987.25
467.61	966.25
467.829	987.25
468.049	948.25
468.268	943.25
468.488	911.25
468.707	919.25
468.927	919.25
469.146	905.25
469.365	938.25
469.585	929.25
469.804	934.25
470.023	998.25
470.243	1013.25
470.462	1013.25
470.681	1000.25
470.901	1022.25
471.12	993.25
471.339	999.25
471.558	961.25
471.777	997.25
471.997	956.25
472.216	910.25
472.435	911.25
472.654	912.25
472.873	887.25
473.092	885.25
473.311	894.25
473.53	887.25
473.749	927.25
473.968	881.25
474.187	864.25
474.406	873.25
474.625	890.25
474.844	894.25
475.063	887.25
475.282	908.25
475.501	918.25
475.72	933.25
475.939	902.25
476.158	938.25
476.377	915.25
476.596	937.25
476.814	939.25
477.033	948.25
477.252	954.25
477.471	992.25
477.69	1005.25
477.908	1037.25
478.127	1035.25
478.346	1085.25
478.564	1097.25
478.783	1062.25
479.002	1144.25
479.22	1123.25
479.439	1136.25
479.658	1109.25
479.876	1120.25
480.095	1143.25
480.313	1160.25
480.532	1186.25
480.751	1201.25
480.969	1141.25
481.188	1129.25
481.406	1110.25
481.624	1066.25
481.843	1031.25
482.061	1009.25
482.28	1023.25
482.498	1014.25
482.717	1033.25
482.935	987.25
483.153	1007.25
483.372	1018.25
483.59	1014.25
483.808	1017.25
484.027	999.25
484.245	1019.25
484.463	1031.25
484.681	1045.25
484.9	1035.25
485.118	1073.25
485.336	1061.25
485.554	1085.25
485.772	1043.25
485.99	1087.25
486.209	1086.25
486.427	1084.25
486.645	1061.25
486.863	1077.25
487.081	1085.25
487.299	1055.25
487.517	1061.25
487.735	1091.25
487.953	1041.25
488.171	1073.25
488.389	1041.25
488.607	1032.25
488.825	1047.25
489.043	1059.25
489.261	1046.25
489.479	1040.25
489.696	1070.25
489.914	1045.25
490.132	1052.25
490.35	1091.25
490.568	1058.25
490.786	1054.25
491.003	1056.25
491.221	1102.25
491.439	1047.25
491.657	1067.25
491.874	1094.25
492.092	1048.25
492.31	1065.25
492.527	1102.25
492.745	1095.25
492.963	1074.25
493.18	1092.25
493.398	1119.25
493.615	1114.25
493.833	1116.25
494.05	1113.25
494.268	1144.25
494.485	1081.25
494.703	1166.25
494.92	1161.25
495.138	1097.25
495.355	1116.25
495.573	1120.25
495.79	1143.25
496.008	1146.25
496.225	1138.25
496.442	1147.25
496.66	1178.25
496.877	1183.25
