Data from Ni(NO3)2@0.25M.TitratingCurve.Agarose3%dH2O.NegLispCup.LampEnergy10.LIBS07252019_HRD10591_18-02-49-565.txt Node
Date: Thu Jul 25 18:02:49 EDT 2019
User: cochatt
Spectrometer: HR+D1059
Trigger mode: 1
Integration Time (sec): 1.000000E-1
Scans to average: 1
Electric dark correction enabled: true
Nonlinearity correction enabled: false
Boxcar width: 0
XAxis mode: Wavelengths
Number of Pixels in Spectrum: 2048
>>>>>Begin Spectral Data<<<<<
223.165	-18.62
223.4	-18.62
223.635	-18.62
223.869	-23.62
224.104	-19.62
224.338	-32.62
224.573	-11.62
224.808	1.38
225.042	-12.62
225.277	-5.62
225.511	7.38
225.746	3.38
225.98	4.38
226.215	9.38
226.449	15.38
226.683	5.38
226.918	28.38
227.152	49.38
227.387	22.38
227.621	16.38
227.856	34.38
228.09	66.38
228.324	51.38
228.559	54.38
228.793	73.38
229.027	116.38
229.262	122.38
229.496	117.38
229.73	125.38
229.964	123.38
230.199	153.38
230.433	146.38
230.667	158.38
230.901	154.38
231.136	134.38
231.37	141.38
231.604	143.38
231.838	165.38
232.072	172.38
232.306	147.38
232.541	144.38
232.775	151.38
233.009	155.38
233.243	150.38
233.477	150.38
233.711	156.38
233.945	142.38
234.179	148.38
234.413	160.38
234.647	148.38
234.881	162.38
235.115	149.38
235.349	143.38
235.583	140.38
235.817	149.38
236.051	144.38
236.285	143.38
236.519	129.38
236.753	144.38
236.987	151.38
237.221	135.38
237.455	140.38
237.689	147.38
237.922	161.38
238.156	148.38
238.39	147.38
238.624	140.38
238.858	151.38
239.091	154.38
239.325	158.38
239.559	170.38
239.793	184.38
240.027	167.38
240.26	167.38
240.494	159.38
240.728	160.38
240.961	172.38
241.195	166.38
241.429	163.38
241.662	178.38
241.896	174.38
242.13	172.38
242.363	186.38
242.597	167.38
242.83	175.38
243.064	177.38
243.298	170.38
243.531	184.38
243.765	175.38
243.998	199.38
244.232	195.38
244.465	196.38
244.699	187.38
244.932	180.38
245.166	199.38
245.399	204.38
245.633	197.38
245.866	210.38
246.099	189.38
246.333	201.38
246.566	211.38
246.8	219.38
247.033	219.38
247.266	212.38
247.5	229.38
247.733	221.38
247.966	228.38
248.2	224.38
248.433	225.38
248.666	221.38
248.899	228.38
249.133	259.38
249.366	255.38
249.599	242.38
249.832	241.38
250.066	246.38
250.299	255.38
250.532	247.38
250.765	285.38
250.998	271.38
251.231	279.38
251.465	291.38
251.698	300.38
251.931	285.38
252.164	287.38
252.397	279.38
252.63	292.38
252.863	314.38
253.096	329.38
253.329	327.38
253.562	314.38
253.795	356.38
254.028	343.38
254.261	332.38
254.494	342.38
254.727	362.38
254.96	350.38
255.193	364.38
255.426	373.38
255.659	348.38
255.892	365.38
256.124	367.38
256.357	389.38
256.59	367.38
256.823	379.38
257.056	388.38
257.289	380.38
257.521	398.38
257.754	372.38
257.987	403.38
258.22	408.38
258.452	395.38
258.685	419.38
258.918	396.38
259.151	419.38
259.383	433.38
259.616	409.38
259.849	428.38
260.081	436.38
260.314	420.38
260.547	423.38
260.779	431.38
261.012	456.38
261.244	443.38
261.477	453.38
261.71	443.38
261.942	470.38
262.175	463.38
262.407	469.38
262.64	446.38
262.872	479.38
263.105	467.38
263.337	478.38
263.57	458.38
263.802	486.38
264.035	478.38
264.267	486.38
264.499	484.38
264.732	479.38
264.964	485.38
265.197	488.38
265.429	489.38
265.661	470.38
265.894	489.38
266.126	466.38
266.358	497.38
266.591	491.38
266.823	499.38
267.055	494.38
267.287	495.38
267.52	513.38
267.752	495.38
267.984	523.38
268.216	504.38
268.448	517.38
268.681	487.38
268.913	496.38
269.145	526.38
269.377	507.38
269.609	523.38
269.841	526.38
270.073	503.38
270.306	507.38
270.538	525.38
270.77	518.38
271.002	515.38
271.234	523.38
271.466	522.38
271.698	517.38
271.93	534.38
272.162	543.38
272.394	527.38
272.626	557.38
272.858	534.38
273.09	505.38
273.322	550.38
273.553	549.38
273.785	519.38
274.017	529.38
274.249	536.38
274.481	539.38
274.713	541.38
274.945	533.38
275.176	541.38
275.408	563.38
275.64	565.38
275.872	530.38
276.104	557.38
276.335	550.38
276.567	555.38
276.799	567.38
277.031	553.38
277.262	572.38
277.494	557.38
277.726	573.38
277.957	580.38
278.189	573.38
278.421	553.38
278.652	542.38
278.884	553.38
279.115	567.38
279.347	556.38
279.579	585.38
279.81	565.38
280.042	558.38
280.273	560.38
280.505	561.38
280.736	579.38
280.968	563.38
281.199	597.38
281.431	579.38
281.662	579.38
281.894	568.38
282.125	578.38
282.356	563.38
282.588	567.38
282.819	567.38
283.051	582.38
283.282	582.38
283.513	592.38
283.745	589.38
283.976	596.38
284.207	587.38
284.439	571.38
284.67	604.38
284.901	601.38
285.132	590.38
285.364	575.38
285.595	569.38
285.826	575.38
286.057	558.38
286.288	591.38
286.52	587.38
286.751	589.38
286.982	580.38
287.213	589.38
287.444	598.38
287.675	607.38
287.906	587.38
288.138	601.38
288.369	589.38
288.6	585.38
288.831	597.38
289.062	602.38
289.293	592.38
289.524	569.38
289.755	592.38
289.986	597.38
290.217	573.38
290.448	591.38
290.679	595.38
290.91	619.38
291.141	605.38
291.371	619.38
291.602	598.38
291.833	579.38
292.064	589.38
292.295	582.38
292.526	590.38
292.757	581.38
292.987	569.38
293.218	597.38
293.449	596.38
293.68	606.38
293.91	597.38
294.141	574.38
294.372	575.38
294.603	585.38
294.833	610.38
295.064	615.38
295.295	613.38
295.525	613.38
295.756	618.38
295.987	593.38
296.217	588.38
296.448	585.38
296.679	614.38
296.909	598.38
297.14	598.38
297.37	612.38
297.601	626.38
297.831	613.38
298.062	603.38
298.292	635.38
298.523	627.38
298.753	622.38
298.984	624.38
299.214	619.38
299.445	621.38
299.675	634.38
299.905	635.38
300.136	657.38
300.366	656.38
300.597	663.38
300.827	647.38
301.057	643.38
301.288	639.38
301.518	641.38
301.748	625.38
301.979	674.38
302.209	655.38
302.439	686.38
302.669	665.38
302.9	687.38
303.13	662.38
303.36	668.38
303.59	665.38
303.82	652.38
304.051	662.38
304.281	694.38
304.511	687.38
304.741	650.38
304.971	694.38
305.201	675.38
305.431	700.38
305.661	695.38
305.891	693.38
306.121	689.38
306.352	697.38
306.582	683.38
306.812	678.38
307.042	673.38
307.272	661.38
307.502	702.38
307.731	695.38
307.961	723.38
308.191	707.38
308.421	699.38
308.651	705.38
308.881	698.38
309.111	721.38
309.341	704.38
309.571	732.38
309.8	694.38
310.03	729.38
310.26	739.38
310.49	732.38
310.72	734.38
310.949	716.38
311.179	729.38
311.409	726.38
311.639	761.38
311.868	761.38
312.098	785.38
312.328	774.38
312.557	775.38
312.787	766.38
313.017	777.38
313.246	794.38
313.476	808.38
313.706	813.38
313.935	778.38
314.165	791.38
314.394	819.38
314.624	824.38
314.853	817.38
315.083	807.38
315.312	818.38
315.542	842.38
315.771	834.38
316.001	851.38
316.23	838.38
316.46	855.38
316.689	882.38
316.919	847.38
317.148	883.38
317.377	859.38
317.607	879.38
317.836	878.38
318.065	890.38
318.295	917.38
318.524	903.38
318.753	897.38
318.983	929.38
319.212	914.38
319.441	948.38
319.67	951.38
319.9	947.38
320.129	967.38
320.358	954.38
320.587	967.38
320.816	972.38
321.046	951.38
321.275	964.38
321.504	994.38
321.733	974.38
321.962	992.38
322.191	1013.38
322.42	999.38
322.649	1019.38
322.878	1033.38
323.108	1011.38
323.337	1061.38
323.566	1050.38
323.795	1076.38
324.024	1037.38
324.253	1035.38
324.482	1060.38
324.71	1061.38
324.939	1096.38
325.168	1073.38
325.397	1091.38
325.626	1110.38
325.855	1070.38
326.084	1098.38
326.313	1116.38
326.542	1137.38
326.77	1194.38
326.999	1156.38
327.228	1155.38
327.457	1149.38
327.686	1142.38
327.914	1147.38
328.143	1163.38
328.372	1179.38
328.6	1174.38
328.829	1167.38
329.058	1187.38
329.287	1170.38
329.515	1189.38
329.744	1228.38
329.972	1217.38
330.201	1219.38
330.43	1211.38
330.658	1178.38
330.887	1211.38
331.115	1244.38
331.344	1247.38
331.572	1267.38
331.801	1270.38
332.03	1271.38
332.258	1256.38
332.486	1275.38
332.715	1309.38
332.943	1260.38
333.172	1281.38
333.4	1300.38
333.629	1331.38
333.857	1301.38
334.085	1366.38
334.314	1337.38
334.542	1346.38
334.771	1318.38
334.999	1324.38
335.227	1346.38
335.455	1366.38
335.684	1367.38
335.912	1410.38
336.14	1373.38
336.369	1333.38
336.597	1362.38
336.825	1365.38
337.053	1351.38
337.281	1389.38
337.51	1383.38
337.738	1390.38
337.966	1359.38
338.194	1380.38
338.422	1338.38
338.65	1333.38
338.878	1349.38
339.106	1348.38
339.334	1333.38
339.562	1365.38
339.79	1326.38
340.018	1358.38
340.246	1333.38
340.474	1349.38
340.702	1359.38
340.93	1333.38
341.158	1354.38
341.386	1371.38
341.614	1409.38
341.842	1328.38
342.07	1374.38
342.298	1327.38
342.526	1356.38
342.754	1330.38
342.981	1299.38
343.209	1353.38
343.437	1373.38
343.665	1368.38
343.893	1410.38
344.12	1407.38
344.348	1382.38
344.576	1348.38
344.804	1401.38
345.031	1360.38
345.259	1337.38
345.487	1388.38
345.714	1343.38
345.942	1361.38
346.17	1365.38
346.397	1346.38
346.625	1350.38
346.853	1322.38
347.08	1313.38
347.308	1335.38
347.535	1361.38
347.763	1317.38
347.99	1316.38
348.218	1332.38
348.445	1305.38
348.673	1287.38
348.9	1307.38
349.128	1318.38
349.355	1321.38
349.583	1326.38
349.81	1286.38
350.037	1319.38
350.265	1301.38
350.492	1298.38
350.72	1322.38
350.947	1307.38
351.174	1321.38
351.402	1337.38
351.629	1342.38
351.856	1311.38
352.083	1304.38
352.311	1305.38
352.538	1341.38
352.765	1316.38
352.992	1258.38
353.22	1259.38
353.447	1270.38
353.674	1292.38
353.901	1268.38
354.128	1320.38
354.355	1266.38
354.583	1293.38
354.81	1277.38
355.037	1302.38
355.264	1296.38
355.491	1303.38
355.718	1299.38
355.945	1290.38
356.172	1279.38
356.399	1295.38
356.626	1311.38
356.853	1316.38
357.08	1299.38
357.307	1287.38
357.534	1295.38
357.761	1274.38
357.988	1271.38
358.215	1273.38
358.441	1267.38
358.668	1266.38
358.895	1256.38
359.122	1258.38
359.349	1259.38
359.576	1277.38
359.802	1273.38
360.029	1262.38
360.256	1248.38
360.483	1303.38
360.709	1262.38
360.936	1276.38
361.163	1289.38
361.39	1287.38
361.616	1331.38
361.843	1303.38
362.07	1330.38
362.296	1313.38
362.523	1291.38
362.749	1278.38
362.976	1267.38
363.203	1291.38
363.429	1268.38
363.656	1291.38
363.882	1283.38
364.109	1250.38
364.335	1281.38
364.562	1266.38
364.788	1293.38
365.015	1283.38
365.241	1259.38
365.468	1245.38
365.694	1258.38
365.92	1256.38
366.147	1310.38
366.373	1279.38
366.599	1301.38
366.826	1296.38
367.052	1257.38
367.278	1256.38
367.505	1279.38
367.731	1272.38
367.957	1252.38
368.184	1236.38
368.41	1276.38
368.636	1290.38
368.862	1298.38
369.089	1269.38
369.315	1257.38
369.541	1266.38
369.767	1316.38
369.993	1285.38
370.219	1251.38
370.445	1255.38
370.672	1254.38
370.898	1278.38
371.124	1287.38
371.35	1287.38
371.576	1281.38
371.802	1278.38
372.028	1261.38
372.254	1246.38
372.48	1282.38
372.706	1277.38
372.932	1260.38
373.158	1271.38
373.384	1290.38
373.61	1267.38
373.835	1296.38
374.061	1296.38
374.287	1250.38
374.513	1247.38
374.739	1264.38
374.965	1262.38
375.191	1246.38
375.416	1269.38
375.642	1260.38
375.868	1235.38
376.094	1230.38
376.319	1273.38
376.545	1226.38
376.771	1249.38
376.997	1213.38
377.222	1229.38
377.448	1248.38
377.674	1192.38
377.899	1221.38
378.125	1209.38
378.35	1194.38
378.576	1203.38
378.802	1201.38
379.027	1211.38
379.253	1220.38
379.478	1203.38
379.704	1193.38
379.929	1184.38
380.155	1210.38
380.38	1215.38
380.606	1195.38
380.831	1206.38
381.057	1202.38
381.282	1193.38
381.507	1181.38
381.733	1201.38
381.958	1185.38
382.184	1198.38
382.409	1221.38
382.634	1236.38
382.86	1210.38
383.085	1217.38
383.31	1222.38
383.535	1229.38
383.761	1220.38
383.986	1209.38
384.211	1260.38
384.436	1250.38
384.662	1211.38
384.887	1216.38
385.112	1222.38
385.337	1194.38
385.562	1243.38
385.787	1289.38
386.013	1269.38
386.238	1272.38
386.463	1246.38
386.688	1269.38
386.913	1223.38
387.138	1258.38
387.363	1268.38
387.588	1283.38
387.813	1271.38
388.038	1279.38
388.263	1276.38
388.488	1281.38
388.713	1259.38
388.938	1278.38
389.163	1273.38
389.387	1260.38
389.612	1242.38
389.837	1257.38
390.062	1242.38
390.287	1246.38
390.512	1259.38
390.736	1266.38
390.961	1289.38
391.186	1270.38
391.411	1278.38
391.636	1270.38
391.86	1258.38
392.085	1287.38
392.31	1270.38
392.534	1270.38
392.759	1283.38
392.984	1274.38
393.208	1264.38
393.433	1310.38
393.658	1309.38
393.882	1308.38
394.107	1261.38
394.331	1289.38
394.556	1274.38
394.78	1299.38
395.005	1315.38
395.229	1243.38
395.454	1270.38
395.678	1290.38
395.903	1289.38
396.127	1283.38
396.352	1305.38
396.576	1307.38
396.801	1286.38
397.025	1330.38
397.249	1277.38
397.474	1320.38
397.698	1309.38
397.922	1368.38
398.147	1362.38
398.371	1357.38
398.595	1358.38
398.82	1381.38
399.044	1399.38
399.268	1427.38
399.492	1425.38
399.717	1401.38
399.941	1460.38
400.165	1452.38
400.389	1457.38
400.613	1431.38
400.837	1423.38
401.062	1439.38
401.286	1428.38
401.51	1409.38
401.734	1392.38
401.958	1404.38
402.182	1406.38
402.406	1404.38
402.63	1417.38
402.854	1405.38
403.078	1378.38
403.302	1389.38
403.526	1393.38
403.75	1399.38
403.974	1408.38
404.198	1381.38
404.422	1418.38
404.645	1407.38
404.869	1387.38
405.093	1456.38
405.317	1411.38
405.541	1427.38
405.765	1428.38
405.988	1429.38
406.212	1453.38
406.436	1421.38
406.66	1473.38
406.883	1479.38
407.107	1469.38
407.331	1478.38
407.555	1504.38
407.778	1529.38
408.002	1489.38
408.226	1511.38
408.449	1532.38
408.673	1491.38
408.896	1507.38
409.12	1513.38
409.344	1528.38
409.567	1514.38
409.791	1508.38
410.014	1441.38
410.238	1460.38
410.461	1476.38
410.685	1487.38
410.908	1452.38
411.132	1456.38
411.355	1429.38
411.578	1468.38
411.802	1427.38
412.025	1457.38
412.249	1484.38
412.472	1461.38
412.695	1414.38
412.919	1445.38
413.142	1434.38
413.365	1453.38
413.589	1467.38
413.812	1429.38
414.035	1440.38
414.258	1468.38
414.482	1439.38
414.705	1453.38
414.928	1426.38
415.151	1433.38
415.374	1417.38
415.597	1454.38
415.821	1413.38
416.044	1390.38
416.267	1397.38
416.49	1431.38
416.713	1403.38
416.936	1435.38
417.159	1446.38
417.382	1393.38
417.605	1397.38
417.828	1403.38
418.051	1427.38
418.274	1407.38
418.497	1364.38
418.72	1431.38
418.943	1395.38
419.166	1437.38
419.389	1539.38
419.611	1543.38
419.834	1511.38
420.057	1459.38
420.28	1417.38
420.503	1377.38
420.726	1372.38
420.948	1425.38
421.171	1401.38
421.394	1404.38
421.617	1406.38
421.839	1425.38
422.062	1438.38
422.285	1422.38
422.507	1436.38
422.73	1406.38
422.953	1404.38
423.175	1435.38
423.398	1434.38
423.621	1411.38
423.843	1464.38
424.066	1443.38
424.288	1431.38
424.511	1456.38
424.733	1439.38
424.956	1436.38
425.178	1424.38
425.401	1421.38
425.623	1467.38
425.846	1413.38
426.068	1441.38
426.291	1421.38
426.513	1461.38
426.735	1437.38
426.958	1438.38
427.18	1435.38
427.402	1474.38
427.625	1465.38
427.847	1445.38
428.069	1425.38
428.292	1458.38
428.514	1438.38
428.736	1435.38
428.958	1459.38
429.181	1430.38
429.403	1471.38
429.625	1449.38
429.847	1457.38
430.069	1429.38
430.292	1478.38
430.514	1473.38
430.736	1462.38
430.958	1431.38
431.18	1465.38
431.402	1478.38
431.624	1395.38
431.846	1432.38
432.068	1435.38
432.29	1446.38
432.512	1445.38
432.734	1475.38
432.956	1458.38
433.178	1513.38
433.4	1480.38
433.622	1492.38
433.844	1470.38
434.066	1492.38
434.287	1468.38
434.509	1450.38
434.731	1495.38
434.953	1450.38
435.175	1493.38
435.397	1513.38
435.618	1494.38
435.84	1491.38
436.062	1449.38
436.284	1471.38
436.505	1452.38
436.727	1436.38
436.949	1435.38
437.17	1467.38
437.392	1465.38
437.614	1402.38
437.835	1413.38
438.057	1416.38
438.278	1458.38
438.5	1442.38
438.721	1427.38
438.943	1476.38
439.165	1411.38
439.386	1433.38
439.608	1448.38
439.829	1450.38
440.05	1442.38
440.272	1458.38
440.493	1441.38
440.715	1460.38
440.936	1489.38
441.158	1439.38
441.379	1437.38
441.6	1509.38
441.822	1485.38
442.043	1471.38
442.264	1477.38
442.486	1436.38
442.707	1489.38
442.928	1493.38
443.149	1456.38
443.371	1478.38
443.592	1496.38
443.813	1510.38
444.034	1478.38
444.255	1469.38
444.476	1497.38
444.698	1518.38
444.919	1519.38
445.14	1630.38
445.361	1573.38
445.582	1482.38
445.803	1473.38
446.024	1461.38
446.245	1463.38
446.466	1458.38
446.687	1451.38
446.908	1453.38
447.129	1423.38
447.35	1445.38
447.571	1408.38
447.792	1378.38
448.013	1399.38
448.234	1367.38
448.455	1384.38
448.675	1383.38
448.896	1395.38
449.117	1365.38
449.338	1361.38
449.559	1327.38
449.779	1393.38
450	1381.38
450.221	1357.38
450.442	1353.38
450.662	1349.38
450.883	1366.38
451.104	1393.38
451.324	1390.38
451.545	1354.38
451.766	1344.38
451.986	1366.38
452.207	1331.38
452.428	1346.38
452.648	1330.38
452.869	1345.38
453.089	1331.38
453.31	1373.38
453.53	1324.38
453.751	1315.38
453.971	1342.38
454.192	1347.38
454.412	1285.38
454.633	1346.38
454.853	1317.38
455.073	1288.38
455.294	1333.38
455.514	1310.38
455.734	1341.38
455.955	1369.38
456.175	1326.38
456.395	1302.38
456.616	1284.38
456.836	1301.38
457.056	1307.38
457.276	1310.38
457.497	1319.38
457.717	1307.38
457.937	1313.38
458.157	1336.38
458.377	1320.38
458.598	1331.38
458.818	1356.38
459.038	1352.38
459.258	1381.38
459.478	1390.38
459.698	1442.38
459.918	1440.38
460.138	1446.38
460.358	1468.38
460.578	1441.38
460.798	1500.38
461.018	1489.38
461.238	1440.38
461.458	1474.38
461.678	1459.38
461.898	1462.38
462.118	1468.38
462.338	1461.38
462.558	1523.38
462.777	1500.38
462.997	1569.38
463.217	1595.38
463.437	1573.38
463.657	1592.38
463.876	1530.38
464.096	1511.38
464.316	1497.38
464.536	1495.38
464.755	1491.38
464.975	1511.38
465.195	1475.38
465.414	1488.38
465.634	1437.38
465.854	1435.38
466.073	1384.38
466.293	1417.38
466.512	1388.38
466.732	1401.38
466.951	1423.38
467.171	1421.38
467.391	1456.38
467.61	1410.38
467.829	1403.38
468.049	1412.38
468.268	1397.38
468.488	1421.38
468.707	1418.38
468.927	1411.38
469.146	1402.38
469.365	1429.38
469.585	1406.38
469.804	1409.38
470.023	1415.38
470.243	1406.38
470.462	1421.38
470.681	1413.38
470.901	1409.38
471.12	1454.38
471.339	1418.38
471.558	1454.38
471.777	1462.38
471.997	1434.38
472.216	1426.38
472.435	1437.38
472.654	1428.38
472.873	1449.38
473.092	1459.38
473.311	1457.38
473.53	1489.38
473.749	1450.38
473.968	1461.38
474.187	1491.38
474.406	1451.38
474.625	1453.38
474.844	1487.38
475.063	1483.38
475.282	1510.38
475.501	1489.38
475.72	1493.38
475.939	1522.38
476.158	1507.38
476.377	1589.38
476.596	1536.38
476.814	1544.38
477.033	1537.38
477.252	1576.38
477.471	1571.38
477.69	1589.38
477.908	1615.38
478.127	1589.38
478.346	1654.38
478.564	1651.38
478.783	1679.38
479.002	1701.38
479.22	1721.38
479.439	1691.38
479.658	1665.38
479.876	1702.38
480.095	1688.38
480.313	1737.38
480.532	1706.38
480.751	1723.38
480.969	1703.38
481.188	1705.38
481.406	1673.38
481.624	1709.38
481.843	1719.38
482.061	1703.38
482.28	1707.38
482.498	1698.38
482.717	1717.38
482.935	1742.38
483.153	1797.38
483.372	1774.38
483.59	1843.38
483.808	1797.38
484.027	1805.38
484.245	1769.38
484.463	1793.38
484.681	1787.38
484.9	1821.38
485.118	1794.38
485.336	1747.38
485.554	1782.38
485.772	1760.38
485.99	1767.38
486.209	1821.38
486.427	1777.38
486.645	1769.38
486.863	1809.38
487.081	1843.38
487.299	1805.38
487.517	1862.38
487.735	1849.38
487.953	1893.38
488.171	1887.38
488.389	1855.38
488.607	1834.38
488.825	1834.38
489.043	1816.38
489.261	1774.38
489.479	1827.38
489.696	1845.38
489.914	1780.38
490.132	1854.38
490.35	1818.38
490.568	1886.38
490.786	1871.38
491.003	1870.38
491.221	1851.38
