Data from Ni(NO3)2@0.5M.TitratingCurve.Agarose3%dH2O.NegLispCup.LampEnergy10.LIBS07252019_HRD10591_17-59-51-564.txt Node
Date: Thu Jul 25 17:59:51 EDT 2019
User: cochatt
Spectrometer: HR+D1059
Trigger mode: 1
Integration Time (sec): 1.000000E-1
Scans to average: 1
Electric dark correction enabled: true
Nonlinearity correction enabled: false
Boxcar width: 0
XAxis mode: Wavelengths
Number of Pixels in Spectrum: 2048
>>>>>Begin Spectral Data<<<<<
223.165	-11.38
223.4	-11.38
223.635	-11.38
223.869	-24.38
224.104	-20.38
224.338	-17.38
224.573	-2.38
224.808	-9.38
225.042	-5.38
225.277	1.62
225.511	-7.38
225.746	-4.38
225.98	-0.38
226.215	5.62
226.449	14.62
226.683	18.62
226.918	35.62
227.152	26.62
227.387	27.62
227.621	37.62
227.856	42.62
228.09	30.62
228.324	60.62
228.559	65.62
228.793	76.62
229.027	94.62
229.262	130.62
229.496	138.62
229.73	133.62
229.964	153.62
230.199	187.62
230.433	172.62
230.667	171.62
230.901	168.62
231.136	157.62
231.37	139.62
231.604	147.62
231.838	179.62
232.072	196.62
232.306	183.62
232.541	169.62
232.775	139.62
233.009	138.62
233.243	165.62
233.477	162.62
233.711	156.62
233.945	152.62
234.179	149.62
234.413	158.62
234.647	158.62
234.881	155.62
235.115	159.62
235.349	158.62
235.583	172.62
235.817	163.62
236.051	171.62
236.285	179.62
236.519	152.62
236.753	157.62
236.987	167.62
237.221	149.62
237.455	169.62
237.689	168.62
237.922	167.62
238.156	161.62
238.39	158.62
238.624	163.62
238.858	154.62
239.091	148.62
239.325	173.62
239.559	187.62
239.793	201.62
240.027	210.62
240.26	179.62
240.494	181.62
240.728	184.62
240.961	186.62
241.195	185.62
241.429	177.62
241.662	195.62
241.896	222.62
242.13	219.62
242.363	188.62
242.597	196.62
242.83	174.62
243.064	180.62
243.298	181.62
243.531	191.62
243.765	213.62
243.998	202.62
244.232	207.62
244.465	216.62
244.699	203.62
244.932	207.62
245.166	221.62
245.399	189.62
245.633	210.62
245.866	225.62
246.099	213.62
246.333	219.62
246.566	200.62
246.8	211.62
247.033	209.62
247.266	221.62
247.5	212.62
247.733	232.62
247.966	220.62
248.2	232.62
248.433	210.62
248.666	212.62
248.899	229.62
249.133	235.62
249.366	245.62
249.599	243.62
249.832	226.62
250.066	242.62
250.299	238.62
250.532	243.62
250.765	229.62
250.998	245.62
251.231	279.62
251.465	263.62
251.698	269.62
251.931	262.62
252.164	243.62
252.397	253.62
252.63	262.62
252.863	250.62
253.096	258.62
253.329	278.62
253.562	259.62
253.795	262.62
254.028	276.62
254.261	259.62
254.494	267.62
254.727	267.62
254.96	279.62
255.193	283.62
255.426	288.62
255.659	271.62
255.892	285.62
256.124	286.62
256.357	271.62
256.59	274.62
256.823	310.62
257.056	310.62
257.289	282.62
257.521	273.62
257.754	299.62
257.987	313.62
258.22	312.62
258.452	299.62
258.685	300.62
258.918	288.62
259.151	312.62
259.383	295.62
259.616	299.62
259.849	300.62
260.081	307.62
260.314	300.62
260.547	302.62
260.779	297.62
261.012	294.62
261.244	329.62
261.477	345.62
261.71	319.62
261.942	317.62
262.175	310.62
262.407	318.62
262.64	303.62
262.872	347.62
263.105	311.62
263.337	303.62
263.57	325.62
263.802	343.62
264.035	354.62
264.267	334.62
264.499	331.62
264.732	336.62
264.964	328.62
265.197	337.62
265.429	333.62
265.661	324.62
265.894	356.62
266.126	333.62
266.358	346.62
266.591	346.62
266.823	340.62
267.055	341.62
267.287	346.62
267.52	363.62
267.752	371.62
267.984	355.62
268.216	368.62
268.448	371.62
268.681	362.62
268.913	370.62
269.145	383.62
269.377	368.62
269.609	356.62
269.841	374.62
270.073	365.62
270.306	393.62
270.538	385.62
270.77	366.62
271.002	367.62
271.234	384.62
271.466	387.62
271.698	371.62
271.93	385.62
272.162	371.62
272.394	370.62
272.626	375.62
272.858	392.62
273.09	395.62
273.322	395.62
273.553	402.62
273.785	378.62
274.017	367.62
274.249	391.62
274.481	398.62
274.713	397.62
274.945	421.62
275.176	409.62
275.408	403.62
275.64	418.62
275.872	420.62
276.104	434.62
276.335	410.62
276.567	430.62
276.799	423.62
277.031	430.62
277.262	416.62
277.494	423.62
277.726	408.62
277.957	422.62
278.189	410.62
278.421	420.62
278.652	408.62
278.884	441.62
279.115	435.62
279.347	430.62
279.579	454.62
279.81	424.62
280.042	445.62
280.273	446.62
280.505	434.62
280.736	427.62
280.968	439.62
281.199	432.62
281.431	442.62
281.662	442.62
281.894	462.62
282.125	442.62
282.356	446.62
282.588	457.62
282.819	451.62
283.051	450.62
283.282	468.62
283.513	454.62
283.745	489.62
283.976	478.62
284.207	465.62
284.439	484.62
284.67	448.62
284.901	474.62
285.132	459.62
285.364	467.62
285.595	461.62
285.826	476.62
286.057	476.62
286.288	478.62
286.52	486.62
286.751	461.62
286.982	470.62
287.213	459.62
287.444	471.62
287.675	513.62
287.906	483.62
288.138	497.62
288.369	475.62
288.6	477.62
288.831	481.62
289.062	493.62
289.293	472.62
289.524	487.62
289.755	505.62
289.986	501.62
290.217	501.62
290.448	501.62
290.679	498.62
290.91	512.62
291.141	493.62
291.371	493.62
291.602	498.62
291.833	476.62
292.064	503.62
292.295	494.62
292.526	513.62
292.757	490.62
292.987	493.62
293.218	473.62
293.449	495.62
293.68	510.62
293.91	503.62
294.141	509.62
294.372	493.62
294.603	504.62
294.833	488.62
295.064	521.62
295.295	522.62
295.525	516.62
295.756	505.62
295.987	492.62
296.217	497.62
296.448	531.62
296.679	504.62
296.909	515.62
297.14	514.62
297.37	515.62
297.601	529.62
297.831	525.62
298.062	537.62
298.292	525.62
298.523	545.62
298.753	547.62
298.984	528.62
299.214	547.62
299.445	528.62
299.675	530.62
299.905	539.62
300.136	561.62
300.366	573.62
300.597	587.62
300.827	557.62
301.057	569.62
301.288	580.62
301.518	577.62
301.748	565.62
301.979	570.62
302.209	573.62
302.439	576.62
302.669	570.62
302.9	577.62
303.13	586.62
303.36	574.62
303.59	583.62
303.82	587.62
304.051	586.62
304.281	579.62
304.511	585.62
304.741	598.62
304.971	574.62
305.201	612.62
305.431	614.62
305.661	594.62
305.891	587.62
306.121	590.62
306.352	599.62
306.582	582.62
306.812	566.62
307.042	586.62
307.272	571.62
307.502	581.62
307.731	575.62
307.961	574.62
308.191	580.62
308.421	581.62
308.651	586.62
308.881	593.62
309.111	584.62
309.341	598.62
309.571	600.62
309.8	601.62
310.03	616.62
310.26	620.62
310.49	626.62
310.72	578.62
310.949	598.62
311.179	614.62
311.409	604.62
311.639	599.62
311.868	585.62
312.098	601.62
312.328	606.62
312.557	594.62
312.787	595.62
313.017	618.62
313.246	635.62
313.476	619.62
313.706	649.62
313.935	643.62
314.165	635.62
314.394	615.62
314.624	612.62
314.853	602.62
315.083	606.62
315.312	644.62
315.542	652.62
315.771	637.62
316.001	623.62
316.23	647.62
316.46	621.62
316.689	644.62
316.919	622.62
317.148	643.62
317.377	640.62
317.607	644.62
317.836	648.62
318.065	646.62
318.295	640.62
318.524	634.62
318.753	630.62
318.983	646.62
319.212	652.62
319.441	639.62
319.67	642.62
319.9	655.62
320.129	644.62
320.358	653.62
320.587	618.62
320.816	667.62
321.046	668.62
321.275	669.62
321.504	659.62
321.733	673.62
321.962	675.62
322.191	670.62
322.42	668.62
322.649	672.62
322.878	665.62
323.108	649.62
323.337	679.62
323.566	678.62
323.795	666.62
324.024	674.62
324.253	698.62
324.482	681.62
324.71	672.62
324.939	690.62
325.168	684.62
325.397	674.62
325.626	697.62
325.855	683.62
326.084	707.62
326.313	726.62
326.542	698.62
326.77	726.62
326.999	698.62
327.228	690.62
327.457	705.62
327.686	718.62
327.914	715.62
328.143	732.62
328.372	716.62
328.6	734.62
328.829	733.62
329.058	710.62
329.287	702.62
329.515	740.62
329.744	710.62
329.972	729.62
330.201	733.62
330.43	756.62
330.658	753.62
330.887	747.62
331.115	756.62
331.344	743.62
331.572	755.62
331.801	755.62
332.03	782.62
332.258	793.62
332.486	784.62
332.715	781.62
332.943	799.62
333.172	812.62
333.4	817.62
333.629	796.62
333.857	833.62
334.085	826.62
334.314	837.62
334.542	839.62
334.771	818.62
334.999	834.62
335.227	833.62
335.455	863.62
335.684	831.62
335.912	847.62
336.14	836.62
336.369	843.62
336.597	855.62
336.825	845.62
337.053	830.62
337.281	860.62
337.51	852.62
337.738	834.62
337.966	791.62
338.194	804.62
338.422	846.62
338.65	819.62
338.878	793.62
339.106	797.62
339.334	803.62
339.562	817.62
339.79	771.62
340.018	760.62
340.246	777.62
340.474	798.62
340.702	775.62
340.93	772.62
341.158	780.62
341.386	831.62
341.614	842.62
341.842	804.62
342.07	781.62
342.298	796.62
342.526	800.62
342.754	783.62
342.981	780.62
343.209	796.62
343.437	823.62
343.665	837.62
343.893	846.62
344.12	851.62
344.348	840.62
344.576	797.62
344.804	818.62
345.031	812.62
345.259	812.62
345.487	817.62
345.714	811.62
345.942	806.62
346.17	862.62
346.397	821.62
346.625	772.62
346.853	760.62
347.08	762.62
347.308	743.62
347.535	745.62
347.763	715.62
347.99	741.62
348.218	750.62
348.445	746.62
348.673	721.62
348.9	757.62
349.128	763.62
349.355	749.62
349.583	764.62
349.81	723.62
350.037	723.62
350.265	721.62
350.492	757.62
350.72	724.62
350.947	723.62
351.174	745.62
351.402	758.62
351.629	793.62
351.856	783.62
352.083	754.62
352.311	753.62
352.538	805.62
352.765	803.62
352.992	747.62
353.22	697.62
353.447	706.62
353.674	732.62
353.901	735.62
354.128	732.62
354.355	726.62
354.583	709.62
354.81	712.62
355.037	729.62
355.264	728.62
355.491	711.62
355.718	732.62
355.945	721.62
356.172	730.62
356.399	746.62
356.626	750.62
356.853	740.62
357.08	734.62
357.307	742.62
357.534	720.62
357.761	742.62
357.988	724.62
358.215	726.62
358.441	716.62
358.668	713.62
358.895	740.62
359.122	742.62
359.349	695.62
359.576	730.62
359.802	736.62
360.029	739.62
360.256	725.62
360.483	725.62
360.709	698.62
360.936	770.62
361.163	774.62
361.39	725.62
361.616	753.62
361.843	747.62
362.07	782.62
362.296	799.62
362.523	726.62
362.749	732.62
362.976	759.62
363.203	714.62
363.429	738.62
363.656	730.62
363.882	750.62
364.109	759.62
364.335	758.62
364.562	713.62
364.788	729.62
365.015	736.62
365.241	720.62
365.468	716.62
365.694	713.62
365.92	734.62
366.147	732.62
366.373	739.62
366.599	746.62
366.826	741.62
367.052	736.62
367.278	726.62
367.505	743.62
367.731	722.62
367.957	723.62
368.184	745.62
368.41	744.62
368.636	727.62
368.862	755.62
369.089	744.62
369.315	746.62
369.541	765.62
369.767	757.62
369.993	769.62
370.219	746.62
370.445	770.62
370.672	774.62
370.898	782.62
371.124	789.62
371.35	770.62
371.576	762.62
371.802	779.62
372.028	780.62
372.254	754.62
372.48	771.62
372.706	813.62
372.932	797.62
373.158	796.62
373.384	778.62
373.61	801.62
373.835	784.62
374.061	773.62
374.287	802.62
374.513	793.62
374.739	788.62
374.965	845.62
375.191	807.62
375.416	823.62
375.642	801.62
375.868	785.62
376.094	790.62
376.319	803.62
376.545	791.62
376.771	801.62
376.997	758.62
377.222	760.62
377.448	797.62
377.674	775.62
377.899	779.62
378.125	767.62
378.35	788.62
378.576	766.62
378.802	786.62
379.027	759.62
379.253	758.62
379.478	788.62
379.704	765.62
379.929	776.62
380.155	761.62
380.38	775.62
380.606	777.62
380.831	777.62
381.057	789.62
381.282	770.62
381.507	750.62
381.733	790.62
381.958	764.62
382.184	795.62
382.409	802.62
382.634	778.62
382.86	808.62
383.085	811.62
383.31	816.62
383.535	814.62
383.761	859.62
383.986	821.62
384.211	835.62
384.436	876.62
384.662	852.62
384.887	881.62
385.112	853.62
385.337	853.62
385.562	842.62
385.787	884.62
386.013	886.62
386.238	887.62
386.463	895.62
386.688	860.62
386.913	882.62
387.138	894.62
387.363	893.62
387.588	869.62
387.813	894.62
388.038	877.62
388.263	885.62
388.488	905.62
388.713	903.62
388.938	904.62
389.163	906.62
389.387	891.62
389.612	900.62
389.837	897.62
390.062	889.62
390.287	889.62
390.512	888.62
390.736	911.62
390.961	919.62
391.186	901.62
391.411	903.62
391.636	926.62
391.86	950.62
392.085	972.62
392.31	947.62
392.534	971.62
392.759	937.62
392.984	938.62
393.208	931.62
393.433	936.62
393.658	937.62
393.882	895.62
394.107	913.62
394.331	918.62
394.556	923.62
394.78	936.62
395.005	964.62
395.229	956.62
395.454	940.62
395.678	981.62
395.903	978.62
396.127	960.62
396.352	954.62
396.576	938.62
396.801	982.62
397.025	984.62
397.249	971.62
397.474	986.62
397.698	1004.62
397.922	987.62
398.147	1024.62
398.371	1024.62
398.595	1057.62
398.82	1050.62
399.044	1105.62
399.268	1129.62
399.492	1186.62
399.717	1247.62
399.941	1258.62
400.165	1244.62
400.389	1185.62
400.613	1151.62
400.837	1073.62
401.062	1110.62
401.286	1074.62
401.51	1070.62
401.734	1053.62
401.958	1058.62
402.182	1081.62
402.406	1068.62
402.63	1069.62
402.854	1046.62
403.078	1056.62
403.302	1068.62
403.526	1066.62
403.75	1080.62
403.974	1090.62
404.198	1062.62
404.422	1098.62
404.645	1061.62
404.869	1125.62
405.093	1121.62
405.317	1115.62
405.541	1139.62
405.765	1121.62
405.988	1131.62
406.212	1143.62
406.436	1121.62
406.66	1121.62
406.883	1173.62
407.107	1195.62
407.331	1241.62
407.555	1261.62
407.778	1263.62
408.002	1224.62
408.226	1226.62
408.449	1229.62
408.673	1182.62
408.896	1188.62
409.12	1150.62
409.344	1187.62
409.567	1135.62
409.791	1165.62
410.014	1138.62
410.238	1146.62
410.461	1125.62
410.685	1117.62
410.908	1124.62
411.132	1132.62
411.355	1099.62
411.578	1105.62
411.802	1105.62
412.025	1087.62
412.249	1118.62
412.472	1114.62
412.695	1094.62
412.919	1061.62
413.142	1057.62
413.365	1066.62
413.589	1067.62
413.812	1098.62
414.035	1042.62
414.258	1069.62
414.482	1063.62
414.705	1067.62
414.928	1083.62
415.151	1054.62
415.374	1063.62
415.597	1068.62
415.821	1040.62
416.044	1059.62
416.267	1063.62
416.49	1053.62
416.713	1014.62
416.936	1000.62
417.159	1015.62
417.382	1045.62
417.605	1034.62
417.828	1046.62
418.051	1039.62
418.274	1031.62
418.497	1007.62
418.72	1048.62
418.943	1028.62
419.166	1104.62
419.389	1124.62
419.611	1116.62
419.834	1086.62
420.057	1049.62
420.28	1024.62
420.503	1018.62
420.726	1002.62
420.948	981.62
421.171	1018.62
421.394	1008.62
421.617	1006.62
421.839	1060.62
422.062	1054.62
422.285	1032.62
422.507	1021.62
422.73	1028.62
422.953	1049.62
423.175	1017.62
423.398	1043.62
423.621	1044.62
423.843	1035.62
424.066	1017.62
424.288	1026.62
424.511	1025.62
424.733	1028.62
424.956	1006.62
425.178	1030.62
425.401	1037.62
425.623	1029.62
425.846	983.62
426.068	998.62
426.291	1019.62
426.513	979.62
426.735	993.62
426.958	991.62
427.18	1017.62
427.402	979.62
427.625	955.62
427.847	970.62
428.069	976.62
428.292	981.62
428.514	972.62
428.736	980.62
428.958	964.62
429.181	957.62
429.403	965.62
429.625	974.62
429.847	987.62
430.069	970.62
430.292	970.62
430.514	950.62
430.736	971.62
430.958	969.62
431.18	982.62
431.402	969.62
431.624	973.62
431.846	980.62
432.068	994.62
432.29	990.62
432.512	1007.62
432.734	983.62
432.956	986.62
433.178	1007.62
433.4	1027.62
433.622	1017.62
433.844	1020.62
434.066	1034.62
434.287	1014.62
434.509	1006.62
434.731	1038.62
434.953	1030.62
435.175	1050.62
435.397	1085.62
435.618	1021.62
435.84	1016.62
436.062	989.62
436.284	997.62
436.505	958.62
436.727	1002.62
436.949	995.62
437.17	984.62
437.392	983.62
437.614	965.62
437.835	926.62
438.057	947.62
438.278	913.62
438.5	955.62
438.721	945.62
438.943	942.62
439.165	923.62
439.386	962.62
439.608	968.62
439.829	949.62
440.05	963.62
440.272	968.62
440.493	983.62
440.715	971.62
440.936	1002.62
441.158	1012.62
441.379	1031.62
441.6	1039.62
441.822	1029.62
442.043	1018.62
442.264	1022.62
442.486	1002.62
442.707	1034.62
442.928	1011.62
443.149	1059.62
443.371	1063.62
443.592	1107.62
443.813	1067.62
444.034	1044.62
444.255	1058.62
444.476	1078.62
444.698	1122.62
444.919	1156.62
445.14	1196.62
445.361	1138.62
445.582	1069.62
445.803	1045.62
446.024	1011.62
446.245	990.62
446.466	963.62
446.687	964.62
446.908	955.62
447.129	965.62
447.35	940.62
447.571	946.62
447.792	906.62
448.013	921.62
448.234	895.62
448.455	903.62
448.675	895.62
448.896	883.62
449.117	885.62
449.338	885.62
449.559	880.62
449.779	879.62
450	877.62
450.221	899.62
450.442	873.62
450.662	908.62
450.883	933.62
451.104	933.62
451.324	934.62
451.545	886.62
451.766	881.62
451.986	871.62
452.207	843.62
452.428	881.62
452.648	876.62
452.869	865.62
453.089	867.62
453.31	868.62
453.53	846.62
453.751	858.62
453.971	863.62
454.192	873.62
454.412	883.62
454.633	886.62
454.853	870.62
455.073	855.62
455.294	863.62
455.514	847.62
455.734	883.62
455.955	905.62
456.175	864.62
456.395	829.62
456.616	857.62
456.836	864.62
457.056	831.62
457.276	830.62
457.497	857.62
457.717	877.62
457.937	885.62
458.157	879.62
458.377	905.62
458.598	909.62
458.818	908.62
459.038	905.62
459.258	941.62
459.478	1016.62
459.698	1058.62
459.918	1073.62
460.138	1087.62
460.358	1047.62
460.578	1045.62
460.798	1076.62
461.018	1129.62
461.238	1059.62
461.458	1050.62
461.678	1060.62
461.898	1077.62
462.118	1064.62
462.338	1097.62
462.558	1166.62
462.777	1190.62
462.997	1236.62
463.217	1237.62
463.437	1280.62
463.657	1243.62
463.876	1201.62
464.096	1209.62
464.316	1154.62
464.536	1159.62
464.755	1107.62
464.975	1109.62
465.195	1091.62
465.414	1022.62
465.634	1035.62
465.854	994.62
466.073	973.62
466.293	966.62
466.512	958.62
466.732	930.62
466.951	946.62
467.171	955.62
467.391	958.62
467.61	937.62
467.829	951.62
468.049	905.62
468.268	909.62
468.488	916.62
468.707	927.62
468.927	907.62
469.146	940.62
469.365	936.62
469.585	937.62
469.804	956.62
470.023	961.62
470.243	939.62
470.462	930.62
470.681	940.62
470.901	953.62
471.12	951.62
471.339	929.62
471.558	933.62
471.777	914.62
471.997	947.62
472.216	913.62
472.435	911.62
472.654	947.62
472.873	901.62
473.092	902.62
473.311	885.62
473.53	916.62
473.749	938.62
473.968	910.62
474.187	897.62
474.406	897.62
474.625	922.62
474.844	932.62
475.063	943.62
475.282	958.62
475.501	922.62
475.72	931.62
475.939	988.62
476.158	975.62
476.377	969.62
476.596	942.62
476.814	954.62
477.033	964.62
477.252	974.62
477.471	1001.62
477.69	1008.62
477.908	1009.62
478.127	1040.62
478.346	1045.62
478.564	1105.62
478.783	1087.62
479.002	1130.62
479.22	1157.62
479.439	1151.62
479.658	1091.62
479.876	1136.62
480.095	1135.62
480.313	1128.62
480.532	1106.62
480.751	1158.62
480.969	1141.62
481.188	1095.62
481.406	1117.62
481.624	1086.62
481.843	1096.62
482.061	1082.62
482.28	1097.62
482.498	1071.62
482.717	1110.62
482.935	1130.62
483.153	1102.62
483.372	1116.62
483.59	1157.62
483.808	1130.62
484.027	1113.62
484.245	1113.62
484.463	1108.62
484.681	1159.62
484.9	1137.62
485.118	1157.62
485.336	1112.62
485.554	1129.62
485.772	1153.62
485.99	1144.62
486.209	1145.62
486.427	1137.62
486.645	1154.62
486.863	1140.62
487.081	1138.62
487.299	1138.62
487.517	1152.62
487.735	1183.62
487.953	1146.62
488.171	1152.62
488.389	1171.62
488.607	1111.62
488.825	1131.62
489.043	1121.62
489.261	1124.62
489.479	1126.62
489.696	1122.62
489.914	1126.62
490.132	1126.62
490.35	1123.62
490.568	1143.62
490.786	1129.62
491.003	1141.62
491.221	1167.62
491.439	1168.62
491.657	1164.62
491.874	1183.62
492.092	1150.62
492.31	1166.62
492.527	1158.62
492.745	1158.62
492.963	1136.62
493.18	1161.62
493.398	1174.62
493.615	1163.62
493.833	1133.62
494.05	1177.62
494.268	1179.62
494.485	1163.62
494.703	1145.62
494.92	1147.62
495.138	1190.62
495.355	1169.62
495.573	1185.62
495.79	1171.62
496.008	1217.62
496.225	1213.62
496.442	1219.62
496.66	1216.62
496.877	1253.62
497.094	1251.62
497.312	1278.62
497.529	1293.62
497.746	1307.62
