Data from Ni(NO3)2Standard.Agarose3%.GreenCap.LampEnergy5.5.E.O_HRD10591_14-41-51-189.txt Node
Date: Mon Jul 22 14:41:51 EDT 2019
User: cochatt
Spectrometer: HR+D1059
Trigger mode: 1
Integration Time (sec): 1.000000E-1
Scans to average: 1
Electric dark correction enabled: true
Nonlinearity correction enabled: false
Boxcar width: 0
XAxis mode: Wavelengths
Number of Pixels in Spectrum: 2048
>>>>>Begin Spectral Data<<<<<
223.165	-16.56
223.4	-16.56
223.635	-16.56
223.869	-23.56
224.104	-14.56
224.338	-12.56
224.573	-11.56
224.808	-3.56
225.042	-0.56
225.277	-12.56
225.511	-8.56
225.746	16.44
225.98	15.44
226.215	8.44
226.449	10.44
226.683	20.44
226.918	13.44
227.152	19.44
227.387	49.44
227.621	43.44
227.856	51.44
228.09	42.44
228.324	41.44
228.559	52.44
228.793	57.44
229.027	54.44
229.262	68.44
229.496	59.44
229.73	68.44
229.964	69.44
230.199	67.44
230.433	70.44
230.667	80.44
230.901	63.44
231.136	81.44
231.37	81.44
231.604	90.44
231.838	79.44
232.072	73.44
232.306	86.44
232.541	74.44
232.775	70.44
233.009	69.44
233.243	87.44
233.477	81.44
233.711	81.44
233.945	92.44
234.179	75.44
234.413	80.44
234.647	72.44
234.881	87.44
235.115	80.44
235.349	75.44
235.583	79.44
235.817	79.44
236.051	87.44
236.285	80.44
236.519	75.44
236.753	71.44
236.987	65.44
237.221	84.44
237.455	66.44
237.689	78.44
237.922	85.44
238.156	80.44
238.39	75.44
238.624	86.44
238.858	52.44
239.091	78.44
239.325	88.44
239.559	56.44
239.793	54.44
240.027	76.44
240.26	76.44
240.494	81.44
240.728	72.44
240.961	73.44
241.195	97.44
241.429	80.44
241.662	65.44
241.896	75.44
242.13	65.44
242.363	61.44
242.597	65.44
242.83	91.44
243.064	87.44
243.298	75.44
243.531	92.44
243.765	75.44
243.998	75.44
244.232	86.44
244.465	65.44
244.699	73.44
244.932	73.44
245.166	71.44
245.399	72.44
245.633	68.44
245.866	85.44
246.099	75.44
246.333	76.44
246.566	70.44
246.8	82.44
247.033	84.44
247.266	73.44
247.5	84.44
247.733	86.44
247.966	77.44
248.2	82.44
248.433	59.44
248.666	67.44
248.899	77.44
249.133	74.44
249.366	80.44
249.599	80.44
249.832	88.44
250.066	78.44
250.299	77.44
250.532	88.44
250.765	83.44
250.998	69.44
251.231	70.44
251.465	81.44
251.698	75.44
251.931	90.44
252.164	81.44
252.397	76.44
252.63	84.44
252.863	72.44
253.096	70.44
253.329	88.44
253.562	79.44
253.795	69.44
254.028	81.44
254.261	80.44
254.494	75.44
254.727	74.44
254.96	82.44
255.193	71.44
255.426	86.44
255.659	77.44
255.892	69.44
256.124	79.44
256.357	53.44
256.59	76.44
256.823	86.44
257.056	77.44
257.289	69.44
257.521	82.44
257.754	82.44
257.987	69.44
258.22	77.44
258.452	81.44
258.685	85.44
258.918	72.44
259.151	89.44
259.383	67.44
259.616	76.44
259.849	75.44
260.081	88.44
260.314	83.44
260.547	76.44
260.779	77.44
261.012	81.44
261.244	73.44
261.477	81.44
261.71	83.44
261.942	93.44
262.175	78.44
262.407	67.44
262.64	76.44
262.872	82.44
263.105	81.44
263.337	81.44
263.57	88.44
263.802	78.44
264.035	83.44
264.267	88.44
264.499	85.44
264.732	91.44
264.964	89.44
265.197	84.44
265.429	86.44
265.661	83.44
265.894	76.44
266.126	89.44
266.358	86.44
266.591	82.44
266.823	77.44
267.055	79.44
267.287	88.44
267.52	75.44
267.752	89.44
267.984	93.44
268.216	72.44
268.448	78.44
268.681	82.44
268.913	82.44
269.145	82.44
269.377	82.44
269.609	73.44
269.841	89.44
270.073	87.44
270.306	75.44
270.538	68.44
270.77	80.44
271.002	64.44
271.234	74.44
271.466	73.44
271.698	103.44
271.93	84.44
272.162	80.44
272.394	81.44
272.626	78.44
272.858	76.44
273.09	80.44
273.322	79.44
273.553	88.44
273.785	75.44
274.017	82.44
274.249	83.44
274.481	85.44
274.713	101.44
274.945	89.44
275.176	72.44
275.408	81.44
275.64	88.44
275.872	81.44
276.104	70.44
276.335	86.44
276.567	66.44
276.799	78.44
277.031	99.44
277.262	77.44
277.494	90.44
277.726	86.44
277.957	81.44
278.189	81.44
278.421	98.44
278.652	74.44
278.884	80.44
279.115	85.44
279.347	75.44
279.579	91.44
279.81	86.44
280.042	93.44
280.273	86.44
280.505	79.44
280.736	89.44
280.968	84.44
281.199	78.44
281.431	87.44
281.662	88.44
281.894	83.44
282.125	94.44
282.356	74.44
282.588	86.44
282.819	93.44
283.051	77.44
283.282	83.44
283.513	68.44
283.745	76.44
283.976	84.44
284.207	81.44
284.439	76.44
284.67	86.44
284.901	96.44
285.132	83.44
285.364	72.44
285.595	102.44
285.826	88.44
286.057	85.44
286.288	92.44
286.52	83.44
286.751	76.44
286.982	81.44
287.213	83.44
287.444	84.44
287.675	85.44
287.906	68.44
288.138	76.44
288.369	89.44
288.6	86.44
288.831	80.44
289.062	91.44
289.293	89.44
289.524	96.44
289.755	84.44
289.986	74.44
290.217	75.44
290.448	81.44
290.679	76.44
290.91	90.44
291.141	77.44
291.371	79.44
291.602	90.44
291.833	80.44
292.064	91.44
292.295	73.44
292.526	98.44
292.757	87.44
292.987	79.44
293.218	68.44
293.449	84.44
293.68	68.44
293.91	72.44
294.141	84.44
294.372	84.44
294.603	90.44
294.833	86.44
295.064	77.44
295.295	88.44
295.525	68.44
295.756	80.44
295.987	99.44
296.217	83.44
296.448	89.44
296.679	89.44
296.909	89.44
297.14	80.44
297.37	95.44
297.601	81.44
297.831	87.44
298.062	92.44
298.292	77.44
298.523	69.44
298.753	93.44
298.984	95.44
299.214	83.44
299.445	77.44
299.675	75.44
299.905	80.44
300.136	84.44
300.366	92.44
300.597	83.44
300.827	96.44
301.057	82.44
301.288	77.44
301.518	73.44
301.748	93.44
301.979	84.44
302.209	69.44
302.439	87.44
302.669	70.44
302.9	87.44
303.13	67.44
303.36	69.44
303.59	72.44
303.82	72.44
304.051	75.44
304.281	85.44
304.511	69.44
304.741	77.44
304.971	88.44
305.201	81.44
305.431	81.44
305.661	89.44
305.891	84.44
306.121	90.44
306.352	87.44
306.582	75.44
306.812	80.44
307.042	96.44
307.272	91.44
307.502	65.44
307.731	77.44
307.961	71.44
308.191	89.44
308.421	93.44
308.651	92.44
308.881	87.44
309.111	88.44
309.341	78.44
309.571	67.44
309.8	77.44
310.03	86.44
310.26	82.44
310.49	77.44
310.72	83.44
310.949	81.44
311.179	87.44
311.409	93.44
311.639	99.44
311.868	70.44
312.098	86.44
312.328	80.44
312.557	93.44
312.787	76.44
313.017	87.44
313.246	79.44
313.476	80.44
313.706	86.44
313.935	81.44
314.165	89.44
314.394	82.44
314.624	89.44
314.853	94.44
315.083	79.44
315.312	83.44
315.542	73.44
315.771	91.44
316.001	99.44
316.23	82.44
316.46	82.44
316.689	87.44
316.919	89.44
317.148	115.44
317.377	86.44
317.607	87.44
317.836	66.44
318.065	81.44
318.295	79.44
318.524	82.44
318.753	79.44
318.983	87.44
319.212	87.44
319.441	91.44
319.67	77.44
319.9	88.44
320.129	95.44
320.358	82.44
320.587	82.44
320.816	98.44
321.046	84.44
321.275	92.44
321.504	80.44
321.733	87.44
321.962	73.44
322.191	88.44
322.42	87.44
322.649	88.44
322.878	77.44
323.108	92.44
323.337	91.44
323.566	81.44
323.795	85.44
324.024	84.44
324.253	93.44
324.482	91.44
324.71	90.44
324.939	81.44
325.168	85.44
325.397	87.44
325.626	82.44
325.855	87.44
326.084	90.44
326.313	77.44
326.542	87.44
326.77	75.44
326.999	92.44
327.228	89.44
327.457	90.44
327.686	95.44
327.914	74.44
328.143	76.44
328.372	82.44
328.6	87.44
328.829	87.44
329.058	72.44
329.287	93.44
329.515	81.44
329.744	88.44
329.972	80.44
330.201	73.44
330.43	78.44
330.658	73.44
330.887	88.44
331.115	96.44
331.344	72.44
331.572	93.44
331.801	86.44
332.03	89.44
332.258	89.44
332.486	93.44
332.715	83.44
332.943	74.44
333.172	73.44
333.4	83.44
333.629	91.44
333.857	81.44
334.085	74.44
334.314	85.44
334.542	81.44
334.771	92.44
334.999	92.44
335.227	88.44
335.455	88.44
335.684	96.44
335.912	90.44
336.14	90.44
336.369	77.44
336.597	96.44
336.825	89.44
337.053	76.44
337.281	93.44
337.51	89.44
337.738	70.44
337.966	96.44
338.194	85.44
338.422	77.44
338.65	69.44
338.878	91.44
339.106	77.44
339.334	100.44
339.562	88.44
339.79	76.44
340.018	77.44
340.246	82.44
340.474	93.44
340.702	88.44
340.93	90.44
341.158	92.44
341.386	92.44
341.614	74.44
341.842	77.44
342.07	75.44
342.298	98.44
342.526	98.44
342.754	88.44
342.981	106.44
343.209	89.44
343.437	97.44
343.665	82.44
343.893	85.44
344.12	83.44
344.348	95.44
344.576	89.44
344.804	77.44
345.031	79.44
345.259	82.44
345.487	84.44
345.714	101.44
345.942	87.44
346.17	85.44
346.397	87.44
346.625	88.44
346.853	90.44
347.08	88.44
347.308	82.44
347.535	86.44
347.763	103.44
347.99	95.44
348.218	79.44
348.445	75.44
348.673	95.44
348.9	78.44
349.128	75.44
349.355	96.44
349.583	80.44
349.81	80.44
350.037	82.44
350.265	79.44
350.492	84.44
350.72	84.44
350.947	88.44
351.174	77.44
351.402	81.44
351.629	98.44
351.856	81.44
352.083	78.44
352.311	79.44
352.538	87.44
352.765	101.44
352.992	84.44
353.22	96.44
353.447	94.44
353.674	86.44
353.901	86.44
354.128	98.44
354.355	80.44
354.583	90.44
354.81	73.44
355.037	76.44
355.264	78.44
355.491	92.44
355.718	104.44
355.945	99.44
356.172	86.44
356.399	91.44
356.626	83.44
356.853	84.44
357.08	70.44
357.307	83.44
357.534	82.44
357.761	74.44
357.988	90.44
358.215	81.44
358.441	81.44
358.668	86.44
358.895	89.44
359.122	87.44
359.349	89.44
359.576	84.44
359.802	99.44
360.029	76.44
360.256	73.44
360.483	87.44
360.709	70.44
360.936	92.44
361.163	96.44
361.39	89.44
361.616	87.44
361.843	91.44
362.07	78.44
362.296	71.44
362.523	79.44
362.749	73.44
362.976	82.44
363.203	100.44
363.429	81.44
363.656	84.44
363.882	98.44
364.109	90.44
364.335	92.44
364.562	86.44
364.788	83.44
365.015	88.44
365.241	89.44
365.468	85.44
365.694	90.44
365.92	81.44
366.147	78.44
366.373	81.44
366.599	87.44
366.826	93.44
367.052	88.44
367.278	85.44
367.505	95.44
367.731	85.44
367.957	88.44
368.184	89.44
368.41	95.44
368.636	86.44
368.862	90.44
369.089	86.44
369.315	88.44
369.541	77.44
369.767	91.44
369.993	85.44
370.219	83.44
370.445	85.44
370.672	83.44
370.898	92.44
371.124	92.44
371.35	82.44
371.576	69.44
371.802	72.44
372.028	100.44
372.254	81.44
372.48	90.44
372.706	74.44
372.932	88.44
373.158	86.44
373.384	83.44
373.61	82.44
373.835	69.44
374.061	104.44
374.287	99.44
374.513	82.44
374.739	75.44
374.965	86.44
375.191	92.44
375.416	79.44
375.642	83.44
375.868	97.44
376.094	82.44
376.319	75.44
376.545	84.44
376.771	81.44
376.997	72.44
377.222	91.44
377.448	80.44
377.674	91.44
377.899	72.44
378.125	77.44
378.35	76.44
378.576	83.44
378.802	73.44
379.027	83.44
379.253	80.44
379.478	84.44
379.704	95.44
379.929	94.44
380.155	85.44
380.38	83.44
380.606	67.44
380.831	76.44
381.057	92.44
381.282	83.44
381.507	72.44
381.733	79.44
381.958	81.44
382.184	91.44
382.409	76.44
382.634	94.44
382.86	78.44
383.085	83.44
383.31	101.44
383.535	96.44
383.761	82.44
383.986	93.44
384.211	73.44
384.436	91.44
384.662	88.44
384.887	89.44
385.112	72.44
385.337	77.44
385.562	70.44
385.787	82.44
386.013	89.44
386.238	89.44
386.463	77.44
386.688	71.44
386.913	76.44
387.138	79.44
387.363	91.44
387.588	87.44
387.813	77.44
388.038	83.44
388.263	87.44
388.488	81.44
388.713	79.44
388.938	89.44
389.163	69.44
389.387	90.44
389.612	97.44
389.837	91.44
390.062	85.44
390.287	95.44
390.512	89.44
390.736	97.44
390.961	76.44
391.186	70.44
391.411	77.44
391.636	89.44
391.86	74.44
392.085	107.44
392.31	81.44
392.534	77.44
392.759	83.44
392.984	88.44
393.208	81.44
393.433	76.44
393.658	84.44
393.882	82.44
394.107	93.44
394.331	93.44
394.556	86.44
394.78	95.44
395.005	86.44
395.229	78.44
395.454	72.44
395.678	81.44
395.903	103.44
396.127	83.44
396.352	77.44
396.576	65.44
396.801	84.44
397.025	93.44
397.249	99.44
397.474	88.44
397.698	85.44
397.922	97.44
398.147	103.44
398.371	86.44
398.595	81.44
398.82	76.44
399.044	83.44
399.268	68.44
399.492	84.44
399.717	96.44
399.941	81.44
400.165	84.44
400.389	88.44
400.613	92.44
400.837	87.44
401.062	90.44
401.286	85.44
401.51	84.44
401.734	80.44
401.958	84.44
402.182	88.44
402.406	88.44
402.63	89.44
402.854	83.44
403.078	83.44
403.302	73.44
403.526	74.44
403.75	104.44
403.974	84.44
404.198	91.44
404.422	88.44
404.645	86.44
404.869	91.44
405.093	86.44
405.317	92.44
405.541	85.44
405.765	93.44
405.988	64.44
406.212	87.44
406.436	91.44
406.66	87.44
406.883	84.44
407.107	89.44
407.331	90.44
407.555	88.44
407.778	85.44
408.002	92.44
408.226	77.44
408.449	84.44
408.673	79.44
408.896	87.44
409.12	97.44
409.344	103.44
409.567	67.44
409.791	99.44
410.014	75.44
410.238	73.44
410.461	88.44
410.685	102.44
410.908	97.44
411.132	82.44
411.355	88.44
411.578	98.44
411.802	88.44
412.025	92.44
412.249	67.44
412.472	81.44
412.695	89.44
412.919	94.44
413.142	86.44
413.365	87.44
413.589	67.44
413.812	84.44
414.035	85.44
414.258	93.44
414.482	95.44
414.705	92.44
414.928	79.44
415.151	93.44
415.374	94.44
415.597	82.44
415.821	84.44
416.044	74.44
416.267	86.44
416.49	69.44
416.713	82.44
416.936	85.44
417.159	84.44
417.382	85.44
417.605	77.44
417.828	81.44
418.051	87.44
418.274	88.44
418.497	84.44
418.72	70.44
418.943	102.44
419.166	82.44
419.389	91.44
419.611	80.44
419.834	82.44
420.057	70.44
420.28	81.44
420.503	82.44
420.726	92.44
420.948	98.44
421.171	92.44
421.394	90.44
421.617	86.44
421.839	73.44
422.062	89.44
422.285	80.44
422.507	93.44
422.73	85.44
422.953	86.44
423.175	97.44
423.398	73.44
423.621	99.44
423.843	81.44
424.066	82.44
424.288	96.44
424.511	69.44
424.733	86.44
424.956	98.44
425.178	92.44
425.401	69.44
425.623	91.44
425.846	87.44
426.068	85.44
426.291	91.44
426.513	82.44
426.735	87.44
426.958	75.44
427.18	88.44
427.402	93.44
427.625	75.44
427.847	72.44
428.069	73.44
428.292	84.44
428.514	91.44
428.736	81.44
428.958	73.44
429.181	89.44
429.403	90.44
429.625	87.44
429.847	80.44
430.069	83.44
430.292	90.44
430.514	85.44
430.736	84.44
430.958	100.44
431.18	89.44
431.402	83.44
431.624	86.44
431.846	66.44
432.068	96.44
432.29	89.44
432.512	89.44
432.734	92.44
432.956	86.44
433.178	90.44
433.4	104.44
433.622	108.44
433.844	86.44
434.066	90.44
434.287	83.44
434.509	85.44
434.731	85.44
434.953	87.44
435.175	81.44
435.397	94.44
435.618	70.44
435.84	80.44
436.062	98.44
436.284	96.44
436.505	80.44
436.727	82.44
436.949	75.44
437.17	76.44
437.392	77.44
437.614	84.44
437.835	91.44
438.057	87.44
438.278	71.44
438.5	89.44
438.721	87.44
438.943	90.44
439.165	89.44
439.386	84.44
439.608	83.44
439.829	83.44
440.05	89.44
440.272	86.44
440.493	87.44
440.715	100.44
440.936	86.44
441.158	98.44
441.379	82.44
441.6	92.44
441.822	77.44
442.043	76.44
442.264	96.44
442.486	71.44
442.707	84.44
442.928	86.44
443.149	93.44
443.371	90.44
443.592	85.44
443.813	95.44
444.034	81.44
444.255	96.44
444.476	87.44
444.698	95.44
444.919	90.44
445.14	203.44
445.361	132.44
445.582	94.44
445.803	89.44
446.024	95.44
446.245	96.44
446.466	92.44
446.687	105.44
446.908	98.44
447.129	85.44
447.35	82.44
447.571	77.44
447.792	73.44
448.013	96.44
448.234	97.44
448.455	86.44
448.675	93.44
448.896	104.44
449.117	90.44
449.338	66.44
449.559	91.44
449.779	58.44
450	81.44
450.221	98.44
450.442	89.44
450.662	96.44
450.883	90.44
451.104	90.44
451.324	84.44
451.545	80.44
451.766	75.44
451.986	85.44
452.207	68.44
452.428	68.44
452.648	68.44
452.869	98.44
453.089	80.44
453.31	84.44
453.53	80.44
453.751	81.44
453.971	77.44
454.192	91.44
454.412	84.44
454.633	75.44
454.853	91.44
455.073	95.44
455.294	86.44
455.514	84.44
455.734	87.44
455.955	77.44
456.175	96.44
456.395	90.44
456.616	93.44
456.836	74.44
457.056	83.44
457.276	83.44
457.497	81.44
457.717	81.44
457.937	91.44
458.157	81.44
458.377	92.44
458.598	76.44
458.818	84.44
459.038	74.44
459.258	74.44
459.478	81.44
459.698	77.44
459.918	88.44
460.138	85.44
460.358	92.44
460.578	89.44
460.798	95.44
461.018	92.44
461.238	84.44
461.458	85.44
461.678	82.44
461.898	93.44
462.118	95.44
462.338	81.44
462.558	92.44
462.777	90.44
462.997	78.44
463.217	90.44
463.437	87.44
463.657	81.44
463.876	70.44
464.096	90.44
464.316	82.44
464.536	88.44
464.755	96.44
464.975	91.44
465.195	93.44
465.414	78.44
465.634	85.44
465.854	84.44
466.073	89.44
466.293	87.44
466.512	88.44
466.732	87.44
466.951	85.44
467.171	81.44
467.391	91.44
467.61	84.44
467.829	84.44
468.049	82.44
468.268	82.44
468.488	93.44
468.707	100.44
468.927	92.44
469.146	90.44
469.365	85.44
469.585	91.44
469.804	90.44
470.023	97.44
470.243	84.44
470.462	87.44
470.681	95.44
470.901	90.44
471.12	92.44
471.339	90.44
471.558	83.44
471.777	88.44
471.997	95.44
472.216	90.44
472.435	72.44
472.654	88.44
472.873	90.44
473.092	95.44
473.311	83.44
473.53	84.44
473.749	72.44
473.968	90.44
474.187	95.44
474.406	91.44
474.625	98.44
474.844	83.44
475.063	93.44
475.282	74.44
475.501	83.44
475.72	89.44
475.939	86.44
476.158	88.44
476.377	84.44
476.596	94.44
476.814	81.44
477.033	80.44
477.252	84.44
477.471	80.44
477.69	84.44
477.908	100.44
478.127	104.44
478.346	88.44
478.564	86.44
478.783	82.44
479.002	81.44
479.22	96.44
479.439	82.44
479.658	93.44
479.876	93.44
480.095	90.44
480.313	75.44
480.532	91.44
480.751	101.44
480.969	80.44
481.188	82.44
481.406	89.44
481.624	93.44
481.843	92.44
482.061	92.44
482.28	84.44
482.498	73.44
482.717	99.44
482.935	87.44
483.153	86.44
483.372	91.44
483.59	84.44
483.808	87.44
484.027	88.44
484.245	78.44
484.463	75.44
484.681	89.44
484.9	93.44
485.118	78.44
485.336	83.44
485.554	85.44
485.772	98.44
485.99	82.44
486.209	86.44
486.427	88.44
486.645	81.44
486.863	81.44
487.081	83.44
487.299	71.44
487.517	91.44
487.735	90.44
487.953	85.44
488.171	105.44
488.389	106.44
488.607	91.44
488.825	81.44
489.043	80.44
489.261	91.44
489.479	82.44
489.696	80.44
489.914	96.44
490.132	97.44
490.35	91.44
490.568	80.44
490.786	92.44
491.003	93.44
491.221	95.44
491.439	92.44
491.657	92.44
491.874	99.44
492.092	93.44
492.31	96.44
492.527	95.44
492.745	101.44
492.963	107.44
493.18	102.44
493.398	98.44
493.615	98.44
493.833	77.44
494.05	90.44
494.268	100.44
494.485	88.44
494.703	108.44
494.92	86.44
495.138	98.44
495.355	95.44
495.573	89.44
495.79	95.44
496.008	102.44
496.225	97.44
496.442	90.44
496.66	90.44
496.877	89.44
497.094	102.44
497.312	101.44
497.529	86.44
497.746	97.44
497.963	102.44
498.181	87.44
498.398	98.44
498.615	103.44
498.832	95.44
499.049	103.44
499.267	96.44
499.484	102.44
499.701	100.44
499.918	112.44
500.135	113.44
500.352	103.44
500.569	120.44
500.786	108.44
501.003	107.44
501.22	108.44
501.437	102.44
501.654	94.44
501.871	96.44
502.088	86.44
502.305	90.44
502.522	106.44
502.739	94.44
502.956	99.44
503.172	95.44
503.389	106.44
503.606	107.44
503.823	90.44
504.04	93.44
504.256	84.44
504.473	89.44
504.69	98.44
504.907	100.44
505.123	101.44
505.34	85.44
505.557	87.44
505.773	98.44
505.99	83.44
506.207	83.44
506.423	92.44
506.64	93.44
506.856	104.44
507.073	76.44
507.289	95.44
507.506	92.44
507.722	96.44
507.939	80.44
508.155	91.44
508.372	80.44
508.588	85.44
508.805	83.44
509.021	100.44
509.238	93.44
509.454	99.44
509.67	87.44
509.887	83.44
510.103	90.44
510.319	88.44
510.536	95.44
510.752	98.44
510.968	108.44
511.184	91.44
511.401	82.44
511.617	87.44
511.833	97.44
512.049	93.44
512.265	88.44
512.481	100.44
512.698	94.44
512.914	96.44
513.13	87.44
513.346	83.44
513.562	95.44
513.778	90.44
513.994	79.44
514.21	100.44
514.426	95.44
514.642	99.44
514.858	82.44
515.074	82.44
515.29	88.44
515.506	83.44
515.721	72.44
515.937	96.44
516.153	103.44
516.369	95.44
516.585	94.44
516.801	98.44
517.016	88.44
517.232	93.44
517.448	93.44
517.664	94.44
517.879	97.44
518.095	97.44
518.311	96.44
518.527	95.44
