Data from Ni(NO3)2@0.5M.TitratingCurve.Agarose3%dH2O.NegLispCup.LampEnergy10.LIBS07252019_HRD10591_17-58-09-564.txt Node
Date: Thu Jul 25 17:58:09 EDT 2019
User: cochatt
Spectrometer: HR+D1059
Trigger mode: 1
Integration Time (sec): 1.000000E-1
Scans to average: 1
Electric dark correction enabled: true
Nonlinearity correction enabled: false
Boxcar width: 0
XAxis mode: Wavelengths
Number of Pixels in Spectrum: 2048
>>>>>Begin Spectral Data<<<<<
223.165	-11.44
223.4	-11.44
223.635	-11.44
223.869	-21.44
224.104	-15.44
224.338	-5.44
224.573	-13.44
224.808	-19.44
225.042	-14.44
225.277	-16.44
225.511	-1.44
225.746	-0.44
225.98	-0.44
226.215	0.56
226.449	35.56
226.683	31.56
226.918	22.56
227.152	29.56
227.387	13.56
227.621	30.56
227.856	36.56
228.09	43.56
228.324	41.56
228.559	38.56
228.793	77.56
229.027	120.56
229.262	127.56
229.496	136.56
229.73	136.56
229.964	178.56
230.199	177.56
230.433	187.56
230.667	181.56
230.901	180.56
231.136	167.56
231.37	172.56
231.604	189.56
231.838	200.56
232.072	195.56
232.306	186.56
232.541	179.56
232.775	191.56
233.009	172.56
233.243	170.56
233.477	170.56
233.711	164.56
233.945	174.56
234.179	188.56
234.413	164.56
234.647	168.56
234.881	171.56
235.115	177.56
235.349	156.56
235.583	171.56
235.817	166.56
236.051	169.56
236.285	169.56
236.519	167.56
236.753	172.56
236.987	179.56
237.221	181.56
237.455	182.56
237.689	163.56
237.922	177.56
238.156	189.56
238.39	180.56
238.624	181.56
238.858	176.56
239.091	181.56
239.325	186.56
239.559	194.56
239.793	239.56
240.027	221.56
240.26	216.56
240.494	193.56
240.728	179.56
240.961	211.56
241.195	191.56
241.429	208.56
241.662	207.56
241.896	244.56
242.13	237.56
242.363	211.56
242.597	216.56
242.83	228.56
243.064	217.56
243.298	216.56
243.531	217.56
243.765	239.56
243.998	221.56
244.232	234.56
244.465	236.56
244.699	234.56
244.932	225.56
245.166	245.56
245.399	232.56
245.633	224.56
245.866	241.56
246.099	247.56
246.333	251.56
246.566	258.56
246.8	240.56
247.033	258.56
247.266	239.56
247.5	267.56
247.733	263.56
247.966	271.56
248.2	280.56
248.433	270.56
248.666	261.56
248.899	259.56
249.133	298.56
249.366	295.56
249.599	263.56
249.832	272.56
250.066	299.56
250.299	296.56
250.532	296.56
250.765	288.56
250.998	308.56
251.231	304.56
251.465	328.56
251.698	320.56
251.931	324.56
252.164	310.56
252.397	316.56
252.63	315.56
252.863	339.56
253.096	306.56
253.329	338.56
253.562	326.56
253.795	323.56
254.028	337.56
254.261	342.56
254.494	331.56
254.727	350.56
254.96	343.56
255.193	366.56
255.426	354.56
255.659	369.56
255.892	348.56
256.124	355.56
256.357	356.56
256.59	368.56
256.823	371.56
257.056	371.56
257.289	389.56
257.521	376.56
257.754	373.56
257.987	378.56
258.22	398.56
258.452	391.56
258.685	377.56
258.918	373.56
259.151	379.56
259.383	361.56
259.616	395.56
259.849	389.56
260.081	395.56
260.314	403.56
260.547	392.56
260.779	404.56
261.012	414.56
261.244	436.56
261.477	405.56
261.71	435.56
261.942	419.56
262.175	419.56
262.407	409.56
262.64	420.56
262.872	432.56
263.105	444.56
263.337	445.56
263.57	442.56
263.802	447.56
264.035	440.56
264.267	425.56
264.499	435.56
264.732	448.56
264.964	448.56
265.197	454.56
265.429	444.56
265.661	465.56
265.894	437.56
266.126	473.56
266.358	468.56
266.591	452.56
266.823	480.56
267.055	475.56
267.287	480.56
267.52	443.56
267.752	474.56
267.984	475.56
268.216	482.56
268.448	458.56
268.681	457.56
268.913	475.56
269.145	484.56
269.377	489.56
269.609	489.56
269.841	471.56
270.073	479.56
270.306	484.56
270.538	484.56
270.77	491.56
271.002	474.56
271.234	491.56
271.466	505.56
271.698	493.56
271.93	508.56
272.162	507.56
272.394	515.56
272.626	493.56
272.858	492.56
273.09	532.56
273.322	551.56
273.553	535.56
273.785	536.56
274.017	510.56
274.249	519.56
274.481	526.56
274.713	550.56
274.945	534.56
275.176	555.56
275.408	546.56
275.64	525.56
275.872	526.56
276.104	551.56
276.335	538.56
276.567	538.56
276.799	566.56
277.031	575.56
277.262	576.56
277.494	566.56
277.726	555.56
277.957	555.56
278.189	565.56
278.421	540.56
278.652	556.56
278.884	548.56
279.115	569.56
279.347	567.56
279.579	578.56
279.81	579.56
280.042	593.56
280.273	588.56
280.505	578.56
280.736	562.56
280.968	563.56
281.199	594.56
281.431	574.56
281.662	593.56
281.894	586.56
282.125	579.56
282.356	612.56
282.588	602.56
282.819	595.56
283.051	599.56
283.282	605.56
283.513	614.56
283.745	605.56
283.976	609.56
284.207	611.56
284.439	605.56
284.67	618.56
284.901	636.56
285.132	615.56
285.364	603.56
285.595	611.56
285.826	624.56
286.057	607.56
286.288	643.56
286.52	611.56
286.751	596.56
286.982	631.56
287.213	611.56
287.444	634.56
287.675	627.56
287.906	619.56
288.138	642.56
288.369	635.56
288.6	615.56
288.831	614.56
289.062	632.56
289.293	629.56
289.524	639.56
289.755	659.56
289.986	649.56
290.217	623.56
290.448	636.56
290.679	673.56
290.91	643.56
291.141	648.56
291.371	657.56
291.602	652.56
291.833	653.56
292.064	664.56
292.295	651.56
292.526	654.56
292.757	661.56
292.987	644.56
293.218	663.56
293.449	663.56
293.68	652.56
293.91	653.56
294.141	661.56
294.372	647.56
294.603	683.56
294.833	676.56
295.064	645.56
295.295	679.56
295.525	685.56
295.756	667.56
295.987	666.56
296.217	674.56
296.448	688.56
296.679	701.56
296.909	702.56
297.14	691.56
297.37	682.56
297.601	690.56
297.831	695.56
298.062	693.56
298.292	668.56
298.523	685.56
298.753	694.56
298.984	677.56
299.214	704.56
299.445	701.56
299.675	699.56
299.905	715.56
300.136	724.56
300.366	732.56
300.597	755.56
300.827	743.56
301.057	737.56
301.288	758.56
301.518	761.56
301.748	720.56
301.979	737.56
302.209	728.56
302.439	755.56
302.669	742.56
302.9	735.56
303.13	715.56
303.36	743.56
303.59	747.56
303.82	745.56
304.051	768.56
304.281	784.56
304.511	747.56
304.741	740.56
304.971	752.56
305.201	788.56
305.431	808.56
305.661	799.56
305.891	763.56
306.121	777.56
306.352	771.56
306.582	776.56
306.812	789.56
307.042	771.56
307.272	772.56
307.502	754.56
307.731	770.56
307.961	765.56
308.191	751.56
308.421	778.56
308.651	786.56
308.881	780.56
309.111	757.56
309.341	790.56
309.571	778.56
309.8	793.56
310.03	795.56
310.26	833.56
310.49	825.56
310.72	836.56
310.949	781.56
311.179	810.56
311.409	806.56
311.639	809.56
311.868	817.56
312.098	840.56
312.328	845.56
312.557	833.56
312.787	841.56
313.017	832.56
313.246	844.56
313.476	820.56
313.706	890.56
313.935	842.56
314.165	831.56
314.394	817.56
314.624	848.56
314.853	832.56
315.083	831.56
315.312	872.56
315.542	869.56
315.771	833.56
316.001	843.56
316.23	881.56
316.46	868.56
316.689	874.56
316.919	859.56
317.148	881.56
317.377	855.56
317.607	866.56
317.836	897.56
318.065	893.56
318.295	894.56
318.524	896.56
318.753	880.56
318.983	904.56
319.212	904.56
319.441	902.56
319.67	895.56
319.9	933.56
320.129	909.56
320.358	932.56
320.587	920.56
320.816	927.56
321.046	914.56
321.275	947.56
321.504	902.56
321.733	946.56
321.962	924.56
322.191	935.56
322.42	932.56
322.649	930.56
322.878	925.56
323.108	916.56
323.337	943.56
323.566	951.56
323.795	973.56
324.024	961.56
324.253	948.56
324.482	945.56
324.71	966.56
324.939	961.56
325.168	980.56
325.397	978.56
325.626	940.56
325.855	1021.56
326.084	986.56
326.313	1008.56
326.542	1014.56
326.77	1019.56
326.999	1007.56
327.228	986.56
327.457	1009.56
327.686	992.56
327.914	1016.56
328.143	1015.56
328.372	1023.56
328.6	997.56
328.829	1000.56
329.058	989.56
329.287	1038.56
329.515	1015.56
329.744	1028.56
329.972	1027.56
330.201	1053.56
330.43	1074.56
330.658	1021.56
330.887	1020.56
331.115	1056.56
331.344	1055.56
331.572	1078.56
331.801	1058.56
332.03	1090.56
332.258	1085.56
332.486	1066.56
332.715	1089.56
332.943	1093.56
333.172	1108.56
333.4	1115.56
333.629	1124.56
333.857	1113.56
334.085	1165.56
334.314	1167.56
334.542	1168.56
334.771	1177.56
334.999	1164.56
335.227	1160.56
335.455	1144.56
335.684	1167.56
335.912	1173.56
336.14	1160.56
336.369	1219.56
336.597	1221.56
336.825	1229.56
337.053	1174.56
337.281	1230.56
337.51	1188.56
337.738	1179.56
337.966	1167.56
338.194	1179.56
338.422	1168.56
338.65	1163.56
338.878	1170.56
339.106	1153.56
339.334	1183.56
339.562	1150.56
339.79	1153.56
340.018	1110.56
340.246	1137.56
340.474	1144.56
340.702	1136.56
340.93	1142.56
341.158	1152.56
341.386	1186.56
341.614	1205.56
341.842	1187.56
342.07	1127.56
342.298	1146.56
342.526	1138.56
342.754	1139.56
342.981	1111.56
343.209	1127.56
343.437	1195.56
343.665	1168.56
343.893	1183.56
344.12	1147.56
344.348	1162.56
344.576	1240.56
344.804	1209.56
345.031	1151.56
345.259	1191.56
345.487	1166.56
345.714	1180.56
345.942	1176.56
346.17	1163.56
346.397	1175.56
346.625	1123.56
346.853	1108.56
347.08	1116.56
347.308	1132.56
347.535	1137.56
347.763	1091.56
347.99	1115.56
348.218	1134.56
348.445	1101.56
348.673	1113.56
348.9	1094.56
349.128	1108.56
349.355	1169.56
349.583	1163.56
349.81	1101.56
350.037	1069.56
350.265	1067.56
350.492	1111.56
350.72	1087.56
350.947	1081.56
351.174	1137.56
351.402	1164.56
351.629	1141.56
351.856	1121.56
352.083	1120.56
352.311	1105.56
352.538	1141.56
352.765	1164.56
352.992	1091.56
353.22	1055.56
353.447	1079.56
353.674	1073.56
353.901	1065.56
354.128	1068.56
354.355	1069.56
354.583	1056.56
354.81	1043.56
355.037	1096.56
355.264	1081.56
355.491	1066.56
355.718	1083.56
355.945	1048.56
356.172	1033.56
356.399	1057.56
356.626	1076.56
356.853	1132.56
357.08	1093.56
357.307	1087.56
357.534	1069.56
357.761	1083.56
357.988	1057.56
358.215	1075.56
358.441	1072.56
358.668	1041.56
358.895	1065.56
359.122	1064.56
359.349	1056.56
359.576	1062.56
359.802	1095.56
360.029	1054.56
360.256	1063.56
360.483	1076.56
360.709	1077.56
360.936	1095.56
361.163	1100.56
361.39	1092.56
361.616	1123.56
361.843	1168.56
362.07	1186.56
362.296	1128.56
362.523	1090.56
362.749	1041.56
362.976	1095.56
363.203	1092.56
363.429	1064.56
363.656	1081.56
363.882	1095.56
364.109	1083.56
364.335	1076.56
364.562	1072.56
364.788	1092.56
365.015	1064.56
365.241	1091.56
365.468	1090.56
365.694	1100.56
365.92	1082.56
366.147	1088.56
366.373	1120.56
366.599	1076.56
366.826	1100.56
367.052	1107.56
367.278	1097.56
367.505	1141.56
367.731	1132.56
367.957	1081.56
368.184	1093.56
368.41	1120.56
368.636	1122.56
368.862	1092.56
369.089	1141.56
369.315	1122.56
369.541	1127.56
369.767	1106.56
369.993	1107.56
370.219	1110.56
370.445	1133.56
370.672	1155.56
370.898	1125.56
371.124	1131.56
371.35	1143.56
371.576	1151.56
371.802	1156.56
372.028	1129.56
372.254	1145.56
372.48	1127.56
372.706	1129.56
372.932	1175.56
373.158	1138.56
373.384	1153.56
373.61	1145.56
373.835	1132.56
374.061	1128.56
374.287	1144.56
374.513	1145.56
374.739	1207.56
374.965	1164.56
375.191	1165.56
375.416	1177.56
375.642	1132.56
375.868	1140.56
376.094	1163.56
376.319	1139.56
376.545	1091.56
376.771	1161.56
376.997	1132.56
377.222	1109.56
377.448	1111.56
377.674	1127.56
377.899	1135.56
378.125	1124.56
378.35	1131.56
378.576	1119.56
378.802	1121.56
379.027	1132.56
379.253	1129.56
379.478	1107.56
379.704	1108.56
379.929	1121.56
380.155	1140.56
380.38	1108.56
380.606	1123.56
380.831	1099.56
381.057	1122.56
381.282	1105.56
381.507	1111.56
381.733	1138.56
381.958	1143.56
382.184	1143.56
382.409	1125.56
382.634	1156.56
382.86	1138.56
383.085	1126.56
383.31	1143.56
383.535	1147.56
383.761	1141.56
383.986	1146.56
384.211	1159.56
384.436	1177.56
384.662	1200.56
384.887	1177.56
385.112	1205.56
385.337	1203.56
385.562	1207.56
385.787	1216.56
386.013	1255.56
386.238	1221.56
386.463	1245.56
386.688	1256.56
386.913	1228.56
387.138	1219.56
387.363	1221.56
387.588	1242.56
387.813	1234.56
388.038	1253.56
388.263	1218.56
388.488	1244.56
388.713	1252.56
388.938	1222.56
389.163	1211.56
389.387	1204.56
389.612	1249.56
389.837	1239.56
390.062	1263.56
390.287	1272.56
390.512	1277.56
390.736	1276.56
390.961	1261.56
391.186	1249.56
391.411	1259.56
391.636	1237.56
391.86	1292.56
392.085	1301.56
392.31	1287.56
392.534	1292.56
392.759	1281.56
392.984	1303.56
393.208	1322.56
393.433	1323.56
393.658	1282.56
393.882	1284.56
394.107	1270.56
394.331	1288.56
394.556	1285.56
394.78	1293.56
395.005	1290.56
395.229	1295.56
395.454	1316.56
395.678	1314.56
395.903	1303.56
396.127	1334.56
396.352	1332.56
396.576	1304.56
396.801	1333.56
397.025	1314.56
397.249	1301.56
397.474	1322.56
397.698	1320.56
397.922	1368.56
398.147	1340.56
398.371	1395.56
398.595	1373.56
398.82	1400.56
399.044	1431.56
399.268	1491.56
399.492	1513.56
399.717	1540.56
399.941	1547.56
400.165	1537.56
400.389	1535.56
400.613	1496.56
400.837	1467.56
401.062	1458.56
401.286	1414.56
401.51	1401.56
401.734	1411.56
401.958	1441.56
402.182	1430.56
402.406	1399.56
402.63	1411.56
402.854	1424.56
403.078	1409.56
403.302	1405.56
403.526	1412.56
403.75	1420.56
403.974	1401.56
404.198	1443.56
404.422	1412.56
404.645	1412.56
404.869	1416.56
405.093	1435.56
405.317	1465.56
405.541	1451.56
405.765	1431.56
405.988	1468.56
406.212	1455.56
406.436	1448.56
406.66	1511.56
406.883	1507.56
407.107	1515.56
407.331	1540.56
407.555	1573.56
407.778	1584.56
408.002	1535.56
408.226	1555.56
408.449	1576.56
408.673	1550.56
408.896	1530.56
409.12	1523.56
409.344	1557.56
409.567	1498.56
409.791	1501.56
410.014	1498.56
410.238	1489.56
410.461	1513.56
410.685	1481.56
410.908	1472.56
411.132	1471.56
411.355	1461.56
411.578	1472.56
411.802	1444.56
412.025	1482.56
412.249	1446.56
412.472	1480.56
412.695	1405.56
412.919	1454.56
413.142	1443.56
413.365	1416.56
413.589	1448.56
413.812	1456.56
414.035	1443.56
414.258	1403.56
414.482	1412.56
414.705	1445.56
414.928	1409.56
415.151	1416.56
415.374	1418.56
415.597	1401.56
415.821	1422.56
416.044	1395.56
416.267	1364.56
416.49	1381.56
416.713	1382.56
416.936	1364.56
417.159	1387.56
417.382	1370.56
417.605	1355.56
417.828	1352.56
418.051	1392.56
418.274	1337.56
418.497	1380.56
418.72	1389.56
418.943	1350.56
419.166	1381.56
419.389	1493.56
419.611	1429.56
419.834	1434.56
420.057	1432.56
420.28	1360.56
420.503	1371.56
420.726	1343.56
420.948	1354.56
421.171	1338.56
421.394	1365.56
421.617	1352.56
421.839	1386.56
422.062	1408.56
422.285	1329.56
422.507	1385.56
422.73	1362.56
422.953	1347.56
423.175	1384.56
423.398	1381.56
423.621	1352.56
423.843	1372.56
424.066	1372.56
424.288	1371.56
424.511	1385.56
424.733	1353.56
424.956	1355.56
425.178	1370.56
425.401	1331.56
425.623	1347.56
425.846	1357.56
426.068	1347.56
426.291	1356.56
426.513	1361.56
426.735	1327.56
426.958	1351.56
427.18	1323.56
427.402	1346.56
427.625	1367.56
427.847	1345.56
428.069	1315.56
428.292	1377.56
428.514	1341.56
428.736	1325.56
428.958	1341.56
429.181	1336.56
429.403	1307.56
429.625	1324.56
429.847	1328.56
430.069	1326.56
430.292	1362.56
430.514	1322.56
430.736	1319.56
430.958	1332.56
431.18	1357.56
431.402	1347.56
431.624	1332.56
431.846	1337.56
432.068	1307.56
432.29	1347.56
432.512	1332.56
432.734	1352.56
432.956	1324.56
433.178	1384.56
433.4	1371.56
433.622	1353.56
433.844	1385.56
434.066	1391.56
434.287	1335.56
434.509	1367.56
434.731	1367.56
434.953	1352.56
435.175	1439.56
435.397	1419.56
435.618	1387.56
435.84	1346.56
436.062	1347.56
436.284	1341.56
436.505	1366.56
436.727	1357.56
436.949	1305.56
437.17	1379.56
437.392	1345.56
437.614	1337.56
437.835	1332.56
438.057	1304.56
438.278	1324.56
438.5	1308.56
438.721	1341.56
438.943	1296.56
439.165	1274.56
439.386	1315.56
439.608	1308.56
439.829	1320.56
440.05	1354.56
440.272	1340.56
440.493	1324.56
440.715	1368.56
440.936	1376.56
441.158	1345.56
441.379	1353.56
441.6	1375.56
441.822	1378.56
442.043	1394.56
442.264	1409.56
442.486	1355.56
442.707	1395.56
442.928	1363.56
443.149	1375.56
443.371	1397.56
443.592	1434.56
443.813	1436.56
444.034	1404.56
444.255	1388.56
444.476	1385.56
444.698	1453.56
444.919	1483.56
445.14	1564.56
445.361	1460.56
445.582	1456.56
445.803	1370.56
446.024	1333.56
446.245	1366.56
446.466	1328.56
446.687	1313.56
446.908	1329.56
447.129	1322.56
447.35	1308.56
447.571	1300.56
447.792	1258.56
448.013	1260.56
448.234	1259.56
448.455	1285.56
448.675	1279.56
448.896	1232.56
449.117	1247.56
449.338	1246.56
449.559	1253.56
449.779	1237.56
450	1273.56
450.221	1226.56
450.442	1224.56
450.662	1225.56
450.883	1256.56
451.104	1287.56
451.324	1248.56
451.545	1221.56
451.766	1207.56
451.986	1228.56
452.207	1234.56
452.428	1209.56
452.648	1180.56
452.869	1233.56
453.089	1226.56
453.31	1238.56
453.53	1211.56
453.751	1211.56
453.971	1221.56
454.192	1220.56
454.412	1184.56
454.633	1201.56
454.853	1207.56
455.073	1188.56
455.294	1186.56
455.514	1228.56
455.734	1231.56
455.955	1212.56
456.175	1239.56
456.395	1219.56
456.616	1200.56
456.836	1219.56
457.056	1188.56
457.276	1188.56
457.497	1234.56
457.717	1235.56
457.937	1250.56
458.157	1235.56
458.377	1247.56
458.598	1233.56
458.818	1256.56
459.038	1263.56
459.258	1281.56
459.478	1359.56
459.698	1403.56
459.918	1425.56
460.138	1430.56
460.358	1417.56
460.578	1396.56
460.798	1457.56
461.018	1484.56
461.238	1400.56
461.458	1402.56
461.678	1367.56
461.898	1421.56
462.118	1393.56
462.338	1411.56
462.558	1483.56
462.777	1533.56
462.997	1542.56
463.217	1575.56
463.437	1593.56
463.657	1578.56
463.876	1505.56
464.096	1526.56
464.316	1465.56
464.536	1530.56
464.755	1463.56
464.975	1441.56
465.195	1428.56
465.414	1417.56
465.634	1361.56
465.854	1349.56
466.073	1311.56
466.293	1320.56
466.512	1341.56
466.732	1316.56
466.951	1301.56
467.171	1307.56
467.391	1308.56
467.61	1315.56
467.829	1311.56
468.049	1289.56
468.268	1285.56
468.488	1303.56
468.707	1319.56
468.927	1282.56
469.146	1261.56
469.365	1303.56
469.585	1308.56
469.804	1302.56
470.023	1284.56
470.243	1272.56
470.462	1320.56
470.681	1311.56
470.901	1310.56
471.12	1273.56
471.339	1305.56
471.558	1321.56
471.777	1302.56
471.997	1279.56
472.216	1305.56
472.435	1320.56
472.654	1264.56
472.873	1270.56
473.092	1299.56
473.311	1316.56
473.53	1297.56
473.749	1279.56
473.968	1257.56
474.187	1310.56
474.406	1305.56
474.625	1325.56
474.844	1311.56
475.063	1335.56
475.282	1323.56
475.501	1347.56
475.72	1334.56
475.939	1331.56
476.158	1344.56
476.377	1386.56
476.596	1351.56
476.814	1400.56
477.033	1395.56
477.252	1374.56
477.471	1431.56
477.69	1442.56
477.908	1453.56
478.127	1453.56
478.346	1458.56
478.564	1469.56
478.783	1505.56
479.002	1545.56
479.22	1573.56
479.439	1576.56
479.658	1549.56
479.876	1492.56
480.095	1512.56
480.313	1513.56
480.532	1522.56
480.751	1567.56
480.969	1520.56
481.188	1483.56
481.406	1508.56
481.624	1517.56
481.843	1537.56
482.061	1501.56
482.28	1511.56
482.498	1513.56
482.717	1546.56
482.935	1545.56
483.153	1570.56
483.372	1595.56
483.59	1601.56
483.808	1607.56
484.027	1554.56
484.245	1537.56
484.463	1523.56
484.681	1589.56
484.9	1557.56
485.118	1578.56
485.336	1584.56
485.554	1599.56
485.772	1579.56
485.99	1557.56
486.209	1583.56
486.427	1561.56
486.645	1590.56
486.863	1621.56
487.081	1566.56
487.299	1634.56
487.517	1613.56
487.735	1624.56
487.953	1615.56
488.171	1650.56
488.389	1599.56
488.607	1551.56
488.825	1593.56
489.043	1609.56
489.261	1569.56
489.479	1576.56
489.696	1599.56
489.914	1610.56
490.132	1611.56
490.35	1625.56
490.568	1647.56
490.786	1628.56
491.003	1622.56
491.221	1652.56
491.439	1655.56
