Data from Ni(NO3)2Standard.Agarose3%.GreenCap.LampEnergy5.5.E.O_HRD10591_14-40-15-187.txt Node
Date: Mon Jul 22 14:40:15 EDT 2019
User: cochatt
Spectrometer: HR+D1059
Trigger mode: 1
Integration Time (sec): 1.000000E-1
Scans to average: 1
Electric dark correction enabled: true
Nonlinearity correction enabled: false
Boxcar width: 0
XAxis mode: Wavelengths
Number of Pixels in Spectrum: 2048
>>>>>Begin Spectral Data<<<<<
223.165	-17.06
223.4	-17.06
223.635	-17.06
223.869	-21.06
224.104	-11.06
224.338	-15.06
224.573	-12.06
224.808	-2.06
225.042	1.94
225.277	0.94
225.511	-3.06
225.746	4.94
225.98	-11.06
226.215	9.94
226.449	8.94
226.683	23.94
226.918	9.94
227.152	31.94
227.387	35.94
227.621	41.94
227.856	23.94
228.09	38.94
228.324	49.94
228.559	56.94
228.793	52.94
229.027	47.94
229.262	65.94
229.496	56.94
229.73	72.94
229.964	67.94
230.199	84.94
230.433	59.94
230.667	88.94
230.901	71.94
231.136	87.94
231.37	79.94
231.604	74.94
231.838	68.94
232.072	75.94
232.306	78.94
232.541	80.94
232.775	69.94
233.009	77.94
233.243	74.94
233.477	80.94
233.711	88.94
233.945	88.94
234.179	87.94
234.413	81.94
234.647	87.94
234.881	73.94
235.115	74.94
235.349	63.94
235.583	72.94
235.817	68.94
236.051	84.94
236.285	86.94
236.519	74.94
236.753	75.94
236.987	70.94
237.221	76.94
237.455	75.94
237.689	65.94
237.922	74.94
238.156	71.94
238.39	76.94
238.624	79.94
238.858	81.94
239.091	80.94
239.325	61.94
239.559	58.94
239.793	82.94
240.027	80.94
240.26	68.94
240.494	82.94
240.728	75.94
240.961	75.94
241.195	81.94
241.429	78.94
241.662	68.94
241.896	87.94
242.13	74.94
242.363	84.94
242.597	73.94
242.83	85.94
243.064	79.94
243.298	71.94
243.531	84.94
243.765	72.94
243.998	71.94
244.232	74.94
244.465	69.94
244.699	69.94
244.932	76.94
245.166	71.94
245.399	67.94
245.633	71.94
245.866	73.94
246.099	72.94
246.333	73.94
246.566	81.94
246.8	73.94
247.033	68.94
247.266	72.94
247.5	82.94
247.733	83.94
247.966	70.94
248.2	59.94
248.433	67.94
248.666	87.94
248.899	82.94
249.133	79.94
249.366	73.94
249.599	78.94
249.832	81.94
250.066	80.94
250.299	83.94
250.532	86.94
250.765	84.94
250.998	81.94
251.231	85.94
251.465	82.94
251.698	77.94
251.931	79.94
252.164	65.94
252.397	75.94
252.63	80.94
252.863	79.94
253.096	77.94
253.329	83.94
253.562	83.94
253.795	77.94
254.028	65.94
254.261	76.94
254.494	78.94
254.727	83.94
254.96	77.94
255.193	96.94
255.426	78.94
255.659	83.94
255.892	75.94
256.124	72.94
256.357	88.94
256.59	80.94
256.823	79.94
257.056	72.94
257.289	84.94
257.521	88.94
257.754	86.94
257.987	83.94
258.22	67.94
258.452	76.94
258.685	76.94
258.918	82.94
259.151	82.94
259.383	97.94
259.616	85.94
259.849	90.94
260.081	91.94
260.314	79.94
260.547	86.94
260.779	81.94
261.012	83.94
261.244	83.94
261.477	85.94
261.71	89.94
261.942	84.94
262.175	94.94
262.407	88.94
262.64	78.94
262.872	75.94
263.105	77.94
263.337	83.94
263.57	100.94
263.802	74.94
264.035	79.94
264.267	77.94
264.499	81.94
264.732	82.94
264.964	84.94
265.197	81.94
265.429	65.94
265.661	82.94
265.894	85.94
266.126	91.94
266.358	89.94
266.591	83.94
266.823	82.94
267.055	75.94
267.287	78.94
267.52	75.94
267.752	99.94
267.984	108.94
268.216	83.94
268.448	87.94
268.681	91.94
268.913	96.94
269.145	78.94
269.377	84.94
269.609	70.94
269.841	73.94
270.073	77.94
270.306	84.94
270.538	80.94
270.77	89.94
271.002	76.94
271.234	81.94
271.466	82.94
271.698	78.94
271.93	84.94
272.162	89.94
272.394	79.94
272.626	80.94
272.858	80.94
273.09	76.94
273.322	85.94
273.553	85.94
273.785	86.94
274.017	70.94
274.249	88.94
274.481	90.94
274.713	103.94
274.945	84.94
275.176	76.94
275.408	72.94
275.64	85.94
275.872	81.94
276.104	73.94
276.335	91.94
276.567	85.94
276.799	79.94
277.031	90.94
277.262	82.94
277.494	72.94
277.726	89.94
277.957	94.94
278.189	77.94
278.421	85.94
278.652	85.94
278.884	89.94
279.115	89.94
279.347	88.94
279.579	76.94
279.81	84.94
280.042	91.94
280.273	82.94
280.505	87.94
280.736	58.94
280.968	72.94
281.199	84.94
281.431	75.94
281.662	83.94
281.894	75.94
282.125	85.94
282.356	81.94
282.588	89.94
282.819	91.94
283.051	92.94
283.282	85.94
283.513	73.94
283.745	79.94
283.976	81.94
284.207	91.94
284.439	86.94
284.67	89.94
284.901	96.94
285.132	85.94
285.364	74.94
285.595	68.94
285.826	76.94
286.057	83.94
286.288	70.94
286.52	71.94
286.751	81.94
286.982	82.94
287.213	69.94
287.444	82.94
287.675	87.94
287.906	77.94
288.138	73.94
288.369	77.94
288.6	87.94
288.831	76.94
289.062	81.94
289.293	80.94
289.524	91.94
289.755	69.94
289.986	93.94
290.217	79.94
290.448	95.94
290.679	98.94
290.91	79.94
291.141	65.94
291.371	85.94
291.602	90.94
291.833	88.94
292.064	75.94
292.295	91.94
292.526	75.94
292.757	76.94
292.987	102.94
293.218	90.94
293.449	78.94
293.68	76.94
293.91	74.94
294.141	97.94
294.372	96.94
294.603	76.94
294.833	80.94
295.064	90.94
295.295	85.94
295.525	75.94
295.756	80.94
295.987	89.94
296.217	75.94
296.448	88.94
296.679	91.94
296.909	81.94
297.14	89.94
297.37	76.94
297.601	81.94
297.831	82.94
298.062	69.94
298.292	88.94
298.523	92.94
298.753	87.94
298.984	89.94
299.214	100.94
299.445	91.94
299.675	96.94
299.905	87.94
300.136	80.94
300.366	86.94
300.597	78.94
300.827	83.94
301.057	69.94
301.288	77.94
301.518	74.94
301.748	82.94
301.979	99.94
302.209	89.94
302.439	86.94
302.669	83.94
302.9	85.94
303.13	84.94
303.36	98.94
303.59	90.94
303.82	92.94
304.051	100.94
304.281	89.94
304.511	83.94
304.741	76.94
304.971	87.94
305.201	76.94
305.431	86.94
305.661	92.94
305.891	91.94
306.121	90.94
306.352	83.94
306.582	88.94
306.812	98.94
307.042	86.94
307.272	69.94
307.502	85.94
307.731	96.94
307.961	91.94
308.191	77.94
308.421	73.94
308.651	86.94
308.881	98.94
309.111	77.94
309.341	82.94
309.571	86.94
309.8	83.94
310.03	57.94
310.26	67.94
310.49	80.94
310.72	94.94
310.949	82.94
311.179	87.94
311.409	75.94
311.639	92.94
311.868	82.94
312.098	72.94
312.328	74.94
312.557	79.94
312.787	83.94
313.017	99.94
313.246	96.94
313.476	89.94
313.706	88.94
313.935	83.94
314.165	83.94
314.394	90.94
314.624	69.94
314.853	80.94
315.083	83.94
315.312	76.94
315.542	84.94
315.771	80.94
316.001	82.94
316.23	84.94
316.46	90.94
316.689	88.94
316.919	79.94
317.148	95.94
317.377	86.94
317.607	99.94
317.836	91.94
318.065	75.94
318.295	83.94
318.524	83.94
318.753	75.94
318.983	77.94
319.212	89.94
319.441	74.94
319.67	73.94
319.9	75.94
320.129	74.94
320.358	76.94
320.587	74.94
320.816	82.94
321.046	91.94
321.275	84.94
321.504	82.94
321.733	85.94
321.962	84.94
322.191	89.94
322.42	90.94
322.649	91.94
322.878	82.94
323.108	83.94
323.337	90.94
323.566	88.94
323.795	82.94
324.024	86.94
324.253	77.94
324.482	84.94
324.71	92.94
324.939	91.94
325.168	93.94
325.397	93.94
325.626	77.94
325.855	84.94
326.084	73.94
326.313	87.94
326.542	99.94
326.77	83.94
326.999	86.94
327.228	89.94
327.457	75.94
327.686	75.94
327.914	89.94
328.143	81.94
328.372	70.94
328.6	94.94
328.829	84.94
329.058	91.94
329.287	91.94
329.515	89.94
329.744	95.94
329.972	87.94
330.201	103.94
330.43	94.94
330.658	83.94
330.887	87.94
331.115	77.94
331.344	81.94
331.572	100.94
331.801	90.94
332.03	85.94
332.258	88.94
332.486	88.94
332.715	91.94
332.943	87.94
333.172	90.94
333.4	92.94
333.629	80.94
333.857	89.94
334.085	85.94
334.314	84.94
334.542	80.94
334.771	100.94
334.999	100.94
335.227	87.94
335.455	96.94
335.684	102.94
335.912	81.94
336.14	80.94
336.369	81.94
336.597	83.94
336.825	79.94
337.053	83.94
337.281	85.94
337.51	90.94
337.738	95.94
337.966	78.94
338.194	90.94
338.422	84.94
338.65	76.94
338.878	84.94
339.106	86.94
339.334	97.94
339.562	89.94
339.79	89.94
340.018	93.94
340.246	83.94
340.474	83.94
340.702	86.94
340.93	74.94
341.158	85.94
341.386	95.94
341.614	87.94
341.842	80.94
342.07	77.94
342.298	85.94
342.526	91.94
342.754	97.94
342.981	83.94
343.209	82.94
343.437	90.94
343.665	80.94
343.893	82.94
344.12	99.94
344.348	87.94
344.576	82.94
344.804	89.94
345.031	80.94
345.259	94.94
345.487	88.94
345.714	91.94
345.942	79.94
346.17	90.94
346.397	67.94
346.625	76.94
346.853	90.94
347.08	89.94
347.308	92.94
347.535	87.94
347.763	90.94
347.99	90.94
348.218	97.94
348.445	91.94
348.673	68.94
348.9	74.94
349.128	89.94
349.355	99.94
349.583	92.94
349.81	86.94
350.037	85.94
350.265	81.94
350.492	77.94
350.72	75.94
350.947	87.94
351.174	83.94
351.402	87.94
351.629	83.94
351.856	81.94
352.083	97.94
352.311	97.94
352.538	88.94
352.765	93.94
352.992	86.94
353.22	91.94
353.447	90.94
353.674	80.94
353.901	84.94
354.128	76.94
354.355	98.94
354.583	77.94
354.81	75.94
355.037	78.94
355.264	86.94
355.491	88.94
355.718	84.94
355.945	84.94
356.172	93.94
356.399	87.94
356.626	87.94
356.853	99.94
357.08	76.94
357.307	87.94
357.534	76.94
357.761	84.94
357.988	82.94
358.215	88.94
358.441	80.94
358.668	86.94
358.895	69.94
359.122	98.94
359.349	92.94
359.576	97.94
359.802	89.94
360.029	84.94
360.256	73.94
360.483	73.94
360.709	81.94
360.936	96.94
361.163	97.94
361.39	85.94
361.616	85.94
361.843	95.94
362.07	89.94
362.296	85.94
362.523	85.94
362.749	85.94
362.976	88.94
363.203	85.94
363.429	87.94
363.656	84.94
363.882	85.94
364.109	92.94
364.335	84.94
364.562	89.94
364.788	86.94
365.015	80.94
365.241	88.94
365.468	87.94
365.694	75.94
365.92	84.94
366.147	81.94
366.373	75.94
366.599	88.94
366.826	99.94
367.052	76.94
367.278	79.94
367.505	95.94
367.731	78.94
367.957	75.94
368.184	92.94
368.41	74.94
368.636	84.94
368.862	89.94
369.089	87.94
369.315	76.94
369.541	88.94
369.767	82.94
369.993	86.94
370.219	83.94
370.445	83.94
370.672	82.94
370.898	81.94
371.124	84.94
371.35	82.94
371.576	82.94
371.802	75.94
372.028	75.94
372.254	83.94
372.48	76.94
372.706	71.94
372.932	84.94
373.158	79.94
373.384	80.94
373.61	86.94
373.835	79.94
374.061	92.94
374.287	78.94
374.513	94.94
374.739	77.94
374.965	88.94
375.191	85.94
375.416	86.94
375.642	89.94
375.868	82.94
376.094	67.94
376.319	89.94
376.545	73.94
376.771	84.94
376.997	73.94
377.222	81.94
377.448	87.94
377.674	85.94
377.899	72.94
378.125	82.94
378.35	84.94
378.576	82.94
378.802	82.94
379.027	75.94
379.253	84.94
379.478	95.94
379.704	83.94
379.929	72.94
380.155	86.94
380.38	84.94
380.606	83.94
380.831	76.94
381.057	88.94
381.282	85.94
381.507	82.94
381.733	82.94
381.958	82.94
382.184	90.94
382.409	91.94
382.634	92.94
382.86	70.94
383.085	81.94
383.31	81.94
383.535	96.94
383.761	89.94
383.986	86.94
384.211	84.94
384.436	87.94
384.662	81.94
384.887	77.94
385.112	83.94
385.337	84.94
385.562	80.94
385.787	80.94
386.013	96.94
386.238	87.94
386.463	68.94
386.688	80.94
386.913	73.94
387.138	93.94
387.363	81.94
387.588	81.94
387.813	69.94
388.038	83.94
388.263	87.94
388.488	85.94
388.713	84.94
388.938	88.94
389.163	76.94
389.387	84.94
389.612	87.94
389.837	99.94
390.062	87.94
390.287	85.94
390.512	81.94
390.736	76.94
390.961	90.94
391.186	78.94
391.411	92.94
391.636	84.94
391.86	84.94
392.085	97.94
392.31	74.94
392.534	74.94
392.759	84.94
392.984	86.94
393.208	88.94
393.433	79.94
393.658	76.94
393.882	80.94
394.107	80.94
394.331	84.94
394.556	78.94
394.78	87.94
395.005	81.94
395.229	73.94
395.454	81.94
395.678	94.94
395.903	89.94
396.127	87.94
396.352	87.94
396.576	80.94
396.801	87.94
397.025	93.94
397.249	85.94
397.474	91.94
397.698	80.94
397.922	74.94
398.147	87.94
398.371	95.94
398.595	88.94
398.82	86.94
399.044	85.94
399.268	80.94
399.492	81.94
399.717	85.94
399.941	88.94
400.165	84.94
400.389	89.94
400.613	84.94
400.837	83.94
401.062	77.94
401.286	85.94
401.51	84.94
401.734	83.94
401.958	89.94
402.182	89.94
402.406	84.94
402.63	88.94
402.854	69.94
403.078	90.94
403.302	86.94
403.526	82.94
403.75	88.94
403.974	82.94
404.198	75.94
404.422	88.94
404.645	75.94
404.869	86.94
405.093	80.94
405.317	89.94
405.541	83.94
405.765	69.94
405.988	88.94
406.212	85.94
406.436	84.94
406.66	75.94
406.883	93.94
407.107	82.94
407.331	85.94
407.555	77.94
407.778	79.94
408.002	79.94
408.226	88.94
408.449	93.94
408.673	83.94
408.896	79.94
409.12	87.94
409.344	90.94
409.567	89.94
409.791	84.94
410.014	95.94
410.238	79.94
410.461	70.94
410.685	68.94
410.908	75.94
411.132	71.94
411.355	72.94
411.578	83.94
411.802	83.94
412.025	80.94
412.249	88.94
412.472	82.94
412.695	90.94
412.919	70.94
413.142	76.94
413.365	87.94
413.589	83.94
413.812	84.94
414.035	87.94
414.258	79.94
414.482	90.94
414.705	88.94
414.928	71.94
415.151	81.94
415.374	79.94
415.597	102.94
415.821	89.94
416.044	90.94
416.267	72.94
416.49	75.94
416.713	63.94
416.936	79.94
417.159	79.94
417.382	96.94
417.605	88.94
417.828	83.94
418.051	84.94
418.274	76.94
418.497	83.94
418.72	95.94
418.943	89.94
419.166	85.94
419.389	85.94
419.611	82.94
419.834	83.94
420.057	79.94
420.28	83.94
420.503	82.94
420.726	74.94
420.948	73.94
421.171	84.94
421.394	89.94
421.617	80.94
421.839	88.94
422.062	82.94
422.285	92.94
422.507	86.94
422.73	87.94
422.953	85.94
423.175	92.94
423.398	84.94
423.621	83.94
423.843	81.94
424.066	79.94
424.288	90.94
424.511	82.94
424.733	95.94
424.956	82.94
425.178	86.94
425.401	83.94
425.623	81.94
425.846	82.94
426.068	84.94
426.291	85.94
426.513	88.94
426.735	89.94
426.958	101.94
427.18	91.94
427.402	81.94
427.625	80.94
427.847	81.94
428.069	87.94
428.292	85.94
428.514	93.94
428.736	98.94
428.958	83.94
429.181	82.94
429.403	95.94
429.625	89.94
429.847	81.94
430.069	94.94
430.292	88.94
430.514	74.94
430.736	80.94
430.958	86.94
431.18	81.94
431.402	80.94
431.624	82.94
431.846	80.94
432.068	75.94
432.29	77.94
432.512	92.94
432.734	78.94
432.956	77.94
433.178	85.94
433.4	85.94
433.622	91.94
433.844	87.94
434.066	77.94
434.287	68.94
434.509	79.94
434.731	94.94
434.953	89.94
435.175	96.94
435.397	100.94
435.618	81.94
435.84	79.94
436.062	83.94
436.284	74.94
436.505	84.94
436.727	82.94
436.949	87.94
437.17	87.94
437.392	77.94
437.614	76.94
437.835	78.94
438.057	69.94
438.278	72.94
438.5	71.94
438.721	76.94
438.943	88.94
439.165	105.94
439.386	91.94
439.608	82.94
439.829	87.94
440.05	88.94
440.272	92.94
440.493	80.94
440.715	87.94
440.936	101.94
441.158	88.94
441.379	83.94
441.6	81.94
441.822	91.94
442.043	92.94
442.264	91.94
442.486	78.94
442.707	81.94
442.928	78.94
443.149	86.94
443.371	89.94
443.592	83.94
443.813	89.94
444.034	83.94
444.255	83.94
444.476	88.94
444.698	101.94
444.919	98.94
445.14	223.94
445.361	132.94
445.582	90.94
445.803	77.94
446.024	97.94
446.245	81.94
446.466	89.94
446.687	93.94
446.908	104.94
447.129	91.94
447.35	87.94
447.571	84.94
447.792	86.94
448.013	88.94
448.234	82.94
448.455	74.94
448.675	84.94
448.896	79.94
449.117	97.94
449.338	87.94
449.559	91.94
449.779	74.94
450	86.94
450.221	61.94
450.442	77.94
450.662	74.94
450.883	86.94
451.104	92.94
451.324	84.94
451.545	79.94
451.766	82.94
451.986	82.94
452.207	89.94
452.428	85.94
452.648	74.94
452.869	81.94
453.089	89.94
453.31	88.94
453.53	76.94
453.751	71.94
453.971	72.94
454.192	74.94
454.412	77.94
454.633	88.94
454.853	90.94
455.073	81.94
455.294	91.94
455.514	82.94
455.734	101.94
455.955	77.94
456.175	78.94
456.395	75.94
456.616	91.94
456.836	72.94
457.056	82.94
457.276	85.94
457.497	92.94
457.717	90.94
457.937	80.94
458.157	77.94
458.377	84.94
458.598	77.94
458.818	86.94
459.038	81.94
459.258	87.94
459.478	78.94
459.698	72.94
459.918	94.94
460.138	85.94
460.358	83.94
460.578	92.94
460.798	74.94
461.018	81.94
461.238	99.94
461.458	93.94
461.678	75.94
461.898	94.94
462.118	77.94
462.338	89.94
462.558	75.94
462.777	87.94
462.997	81.94
463.217	88.94
463.437	92.94
463.657	77.94
463.876	72.94
464.096	93.94
464.316	73.94
464.536	75.94
464.755	89.94
464.975	73.94
465.195	84.94
465.414	89.94
465.634	81.94
465.854	79.94
466.073	90.94
466.293	78.94
466.512	97.94
466.732	91.94
466.951	93.94
467.171	90.94
467.391	78.94
467.61	86.94
467.829	93.94
468.049	89.94
468.268	84.94
468.488	96.94
468.707	81.94
468.927	81.94
469.146	88.94
469.365	86.94
469.585	95.94
469.804	96.94
470.023	87.94
470.243	77.94
470.462	82.94
470.681	82.94
470.901	91.94
471.12	76.94
471.339	80.94
471.558	77.94
471.777	89.94
471.997	81.94
472.216	85.94
472.435	80.94
472.654	93.94
472.873	81.94
473.092	88.94
473.311	80.94
473.53	90.94
473.749	79.94
473.968	97.94
474.187	96.94
474.406	80.94
474.625	76.94
474.844	86.94
475.063	84.94
475.282	101.94
475.501	84.94
475.72	90.94
475.939	86.94
476.158	83.94
476.377	89.94
476.596	82.94
476.814	87.94
477.033	89.94
477.252	91.94
477.471	80.94
477.69	85.94
477.908	98.94
478.127	95.94
478.346	92.94
478.564	96.94
478.783	111.94
479.002	85.94
479.22	109.94
479.439	89.94
479.658	86.94
479.876	82.94
480.095	87.94
480.313	84.94
480.532	103.94
480.751	93.94
480.969	84.94
481.188	95.94
481.406	95.94
481.624	94.94
481.843	80.94
482.061	85.94
482.28	91.94
482.498	97.94
482.717	91.94
482.935	90.94
483.153	76.94
483.372	83.94
483.59	98.94
483.808	82.94
484.027	84.94
484.245	96.94
484.463	86.94
484.681	96.94
484.9	101.94
485.118	90.94
485.336	88.94
485.554	74.94
485.772	91.94
485.99	103.94
486.209	86.94
486.427	98.94
486.645	91.94
486.863	94.94
487.081	99.94
487.299	82.94
487.517	87.94
487.735	89.94
487.953	80.94
488.171	102.94
488.389	72.94
488.607	98.94
488.825	81.94
489.043	96.94
489.261	97.94
489.479	93.94
489.696	95.94
489.914	91.94
490.132	94.94
490.35	107.94
490.568	94.94
490.786	97.94
491.003	100.94
491.221	87.94
491.439	97.94
491.657	101.94
491.874	113.94
492.092	96.94
492.31	88.94
492.527	99.94
492.745	85.94
492.963	85.94
493.18	98.94
493.398	88.94
493.615	98.94
493.833	87.94
494.05	97.94
494.268	83.94
494.485	93.94
494.703	90.94
494.92	93.94
495.138	94.94
495.355	91.94
495.573	91.94
495.79	87.94
496.008	94.94
496.225	85.94
496.442	104.94
496.66	88.94
496.877	89.94
497.094	93.94
497.312	92.94
497.529	97.94
497.746	107.94
497.963	94.94
498.181	90.94
498.398	74.94
498.615	78.94
498.832	100.94
499.049	94.94
499.267	89.94
499.484	99.94
499.701	113.94
499.918	118.94
500.135	96.94
500.352	116.94
500.569	110.94
500.786	108.94
501.003	102.94
501.22	106.94
501.437	98.94
501.654	99.94
501.871	102.94
502.088	102.94
502.305	107.94
502.522	97.94
502.739	103.94
502.956	91.94
503.172	92.94
503.389	78.94
503.606	90.94
503.823	91.94
504.04	106.94
504.256	100.94
504.473	91.94
504.69	89.94
504.907	94.94
505.123	92.94
505.34	92.94
505.557	83.94
505.773	88.94
505.99	77.94
506.207	87.94
506.423	83.94
506.64	96.94
506.856	89.94
507.073	90.94
507.289	100.94
507.506	85.94
507.722	78.94
507.939	101.94
508.155	107.94
508.372	100.94
508.588	91.94
508.805	85.94
509.021	87.94
509.238	86.94
509.454	99.94
509.67	77.94
509.887	108.94
510.103	80.94
510.319	85.94
510.536	73.94
510.752	105.94
510.968	95.94
511.184	95.94
511.401	103.94
511.617	89.94
511.833	90.94
512.049	90.94
512.265	101.94
512.481	85.94
512.698	70.94
512.914	86.94
513.13	98.94
513.346	94.94
513.562	77.94
513.778	96.94
513.994	82.94
514.21	90.94
514.426	102.94
514.642	102.94
514.858	86.94
515.074	86.94
515.29	89.94
515.506	86.94
515.721	88.94
515.937	102.94
516.153	83.94
516.369	89.94
516.585	93.94
516.801	81.94
517.016	108.94
517.232	98.94
517.448	99.94
517.664	97.94
517.879	89.94
518.095	99.94
518.311	83.94
518.527	105.94
518.742	106.94
