Data from Ni(NO3)2Standard.Agarose3%.GreenCap.LampEnergy5.5.E.O_HRD10591_14-39-03-188.txt Node
Date: Mon Jul 22 14:39:03 EDT 2019
User: cochatt
Spectrometer: HR+D1059
Trigger mode: 1
Integration Time (sec): 1.000000E-1
Scans to average: 1
Electric dark correction enabled: true
Nonlinearity correction enabled: false
Boxcar width: 0
XAxis mode: Wavelengths
Number of Pixels in Spectrum: 2048
>>>>>Begin Spectral Data<<<<<
223.165	-25.81
223.4	-25.81
223.635	-25.81
223.869	-21.81
224.104	-21.81
224.338	-22.81
224.573	-17.81
224.808	5.19
225.042	-16.81
225.277	-8.81
225.511	5.19
225.746	6.19
225.98	17.19
226.215	14.19
226.449	15.19
226.683	18.19
226.918	26.19
227.152	28.19
227.387	45.19
227.621	35.19
227.856	36.19
228.09	49.19
228.324	38.19
228.559	60.19
228.793	70.19
229.027	52.19
229.262	68.19
229.496	78.19
229.73	74.19
229.964	71.19
230.199	58.19
230.433	85.19
230.667	72.19
230.901	85.19
231.136	87.19
231.37	86.19
231.604	99.19
231.838	73.19
232.072	89.19
232.306	99.19
232.541	79.19
232.775	83.19
233.009	81.19
233.243	82.19
233.477	69.19
233.711	88.19
233.945	83.19
234.179	85.19
234.413	82.19
234.647	77.19
234.881	85.19
235.115	78.19
235.349	92.19
235.583	89.19
235.817	90.19
236.051	82.19
236.285	67.19
236.519	85.19
236.753	84.19
236.987	92.19
237.221	79.19
237.455	80.19
237.689	79.19
237.922	75.19
238.156	86.19
238.39	61.19
238.624	79.19
238.858	77.19
239.091	88.19
239.325	81.19
239.559	72.19
239.793	74.19
240.027	76.19
240.26	75.19
240.494	66.19
240.728	80.19
240.961	83.19
241.195	75.19
241.429	79.19
241.662	102.19
241.896	94.19
242.13	84.19
242.363	63.19
242.597	65.19
242.83	86.19
243.064	84.19
243.298	81.19
243.531	83.19
243.765	78.19
243.998	85.19
244.232	91.19
244.465	95.19
244.699	85.19
244.932	71.19
245.166	85.19
245.399	86.19
245.633	76.19
245.866	83.19
246.099	78.19
246.333	78.19
246.566	73.19
246.8	74.19
247.033	69.19
247.266	86.19
247.5	83.19
247.733	80.19
247.966	87.19
248.2	79.19
248.433	84.19
248.666	81.19
248.899	77.19
249.133	79.19
249.366	84.19
249.599	81.19
249.832	79.19
250.066	79.19
250.299	74.19
250.532	67.19
250.765	61.19
250.998	68.19
251.231	86.19
251.465	65.19
251.698	72.19
251.931	84.19
252.164	88.19
252.397	95.19
252.63	79.19
252.863	83.19
253.096	82.19
253.329	89.19
253.562	77.19
253.795	90.19
254.028	93.19
254.261	74.19
254.494	83.19
254.727	76.19
254.96	75.19
255.193	94.19
255.426	76.19
255.659	99.19
255.892	76.19
256.124	83.19
256.357	71.19
256.59	78.19
256.823	85.19
257.056	73.19
257.289	83.19
257.521	70.19
257.754	100.19
257.987	77.19
258.22	81.19
258.452	97.19
258.685	86.19
258.918	68.19
259.151	79.19
259.383	77.19
259.616	75.19
259.849	92.19
260.081	81.19
260.314	95.19
260.547	89.19
260.779	78.19
261.012	89.19
261.244	69.19
261.477	79.19
261.71	70.19
261.942	75.19
262.175	92.19
262.407	83.19
262.64	77.19
262.872	101.19
263.105	72.19
263.337	87.19
263.57	80.19
263.802	73.19
264.035	62.19
264.267	93.19
264.499	88.19
264.732	84.19
264.964	76.19
265.197	78.19
265.429	81.19
265.661	76.19
265.894	79.19
266.126	84.19
266.358	77.19
266.591	78.19
266.823	86.19
267.055	71.19
267.287	83.19
267.52	74.19
267.752	79.19
267.984	84.19
268.216	86.19
268.448	89.19
268.681	90.19
268.913	88.19
269.145	81.19
269.377	87.19
269.609	87.19
269.841	84.19
270.073	85.19
270.306	90.19
270.538	82.19
270.77	82.19
271.002	89.19
271.234	80.19
271.466	75.19
271.698	73.19
271.93	69.19
272.162	87.19
272.394	86.19
272.626	88.19
272.858	78.19
273.09	80.19
273.322	93.19
273.553	69.19
273.785	86.19
274.017	89.19
274.249	80.19
274.481	85.19
274.713	101.19
274.945	100.19
275.176	73.19
275.408	85.19
275.64	80.19
275.872	81.19
276.104	74.19
276.335	99.19
276.567	91.19
276.799	97.19
277.031	91.19
277.262	84.19
277.494	84.19
277.726	73.19
277.957	71.19
278.189	65.19
278.421	92.19
278.652	78.19
278.884	81.19
279.115	85.19
279.347	87.19
279.579	77.19
279.81	83.19
280.042	91.19
280.273	78.19
280.505	93.19
280.736	97.19
280.968	83.19
281.199	93.19
281.431	86.19
281.662	89.19
281.894	93.19
282.125	77.19
282.356	86.19
282.588	75.19
282.819	72.19
283.051	78.19
283.282	85.19
283.513	83.19
283.745	91.19
283.976	90.19
284.207	92.19
284.439	73.19
284.67	84.19
284.901	76.19
285.132	90.19
285.364	85.19
285.595	85.19
285.826	86.19
286.057	90.19
286.288	78.19
286.52	86.19
286.751	82.19
286.982	79.19
287.213	89.19
287.444	86.19
287.675	79.19
287.906	90.19
288.138	83.19
288.369	87.19
288.6	91.19
288.831	79.19
289.062	102.19
289.293	89.19
289.524	81.19
289.755	75.19
289.986	81.19
290.217	93.19
290.448	86.19
290.679	87.19
290.91	97.19
291.141	88.19
291.371	78.19
291.602	87.19
291.833	82.19
292.064	91.19
292.295	100.19
292.526	85.19
292.757	98.19
292.987	86.19
293.218	102.19
293.449	80.19
293.68	82.19
293.91	58.19
294.141	72.19
294.372	85.19
294.603	85.19
294.833	92.19
295.064	83.19
295.295	70.19
295.525	95.19
295.756	92.19
295.987	87.19
296.217	90.19
296.448	91.19
296.679	78.19
296.909	90.19
297.14	94.19
297.37	87.19
297.601	81.19
297.831	85.19
298.062	92.19
298.292	91.19
298.523	89.19
298.753	93.19
298.984	85.19
299.214	74.19
299.445	79.19
299.675	91.19
299.905	90.19
300.136	93.19
300.366	87.19
300.597	94.19
300.827	78.19
301.057	100.19
301.288	81.19
301.518	88.19
301.748	94.19
301.979	87.19
302.209	76.19
302.439	89.19
302.669	83.19
302.9	96.19
303.13	105.19
303.36	86.19
303.59	83.19
303.82	100.19
304.051	94.19
304.281	89.19
304.511	97.19
304.741	81.19
304.971	95.19
305.201	75.19
305.431	91.19
305.661	87.19
305.891	82.19
306.121	90.19
306.352	83.19
306.582	87.19
306.812	93.19
307.042	73.19
307.272	103.19
307.502	94.19
307.731	86.19
307.961	81.19
308.191	90.19
308.421	79.19
308.651	93.19
308.881	81.19
309.111	96.19
309.341	82.19
309.571	75.19
309.8	81.19
310.03	89.19
310.26	94.19
310.49	93.19
310.72	83.19
310.949	76.19
311.179	89.19
311.409	81.19
311.639	73.19
311.868	85.19
312.098	95.19
312.328	90.19
312.557	86.19
312.787	74.19
313.017	92.19
313.246	77.19
313.476	87.19
313.706	85.19
313.935	81.19
314.165	94.19
314.394	89.19
314.624	77.19
314.853	93.19
315.083	95.19
315.312	89.19
315.542	91.19
315.771	86.19
316.001	87.19
316.23	74.19
316.46	93.19
316.689	102.19
316.919	89.19
317.148	94.19
317.377	97.19
317.607	79.19
317.836	92.19
318.065	97.19
318.295	77.19
318.524	89.19
318.753	78.19
318.983	98.19
319.212	102.19
319.441	83.19
319.67	75.19
319.9	97.19
320.129	78.19
320.358	75.19
320.587	98.19
320.816	79.19
321.046	84.19
321.275	92.19
321.504	97.19
321.733	91.19
321.962	98.19
322.191	95.19
322.42	86.19
322.649	82.19
322.878	93.19
323.108	84.19
323.337	95.19
323.566	94.19
323.795	93.19
324.024	95.19
324.253	88.19
324.482	89.19
324.71	94.19
324.939	87.19
325.168	91.19
325.397	93.19
325.626	80.19
325.855	90.19
326.084	117.19
326.313	98.19
326.542	83.19
326.77	103.19
326.999	83.19
327.228	85.19
327.457	92.19
327.686	84.19
327.914	78.19
328.143	87.19
328.372	104.19
328.6	74.19
328.829	91.19
329.058	88.19
329.287	93.19
329.515	94.19
329.744	88.19
329.972	92.19
330.201	87.19
330.43	91.19
330.658	82.19
330.887	92.19
331.115	87.19
331.344	84.19
331.572	91.19
331.801	101.19
332.03	83.19
332.258	72.19
332.486	99.19
332.715	83.19
332.943	100.19
333.172	77.19
333.4	86.19
333.629	75.19
333.857	91.19
334.085	85.19
334.314	101.19
334.542	99.19
334.771	96.19
334.999	87.19
335.227	91.19
335.455	90.19
335.684	81.19
335.912	78.19
336.14	84.19
336.369	76.19
336.597	83.19
336.825	82.19
337.053	91.19
337.281	90.19
337.51	91.19
337.738	93.19
337.966	93.19
338.194	79.19
338.422	90.19
338.65	84.19
338.878	89.19
339.106	83.19
339.334	91.19
339.562	90.19
339.79	79.19
340.018	88.19
340.246	112.19
340.474	79.19
340.702	87.19
340.93	84.19
341.158	85.19
341.386	77.19
341.614	90.19
341.842	83.19
342.07	94.19
342.298	79.19
342.526	94.19
342.754	84.19
342.981	84.19
343.209	80.19
343.437	92.19
343.665	98.19
343.893	81.19
344.12	91.19
344.348	76.19
344.576	84.19
344.804	84.19
345.031	72.19
345.259	93.19
345.487	97.19
345.714	75.19
345.942	88.19
346.17	85.19
346.397	88.19
346.625	80.19
346.853	91.19
347.08	78.19
347.308	85.19
347.535	90.19
347.763	82.19
347.99	89.19
348.218	84.19
348.445	84.19
348.673	90.19
348.9	89.19
349.128	95.19
349.355	83.19
349.583	87.19
349.81	85.19
350.037	91.19
350.265	75.19
350.492	93.19
350.72	81.19
350.947	94.19
351.174	98.19
351.402	85.19
351.629	91.19
351.856	93.19
352.083	85.19
352.311	84.19
352.538	105.19
352.765	91.19
352.992	89.19
353.22	101.19
353.447	91.19
353.674	87.19
353.901	82.19
354.128	82.19
354.355	87.19
354.583	83.19
354.81	83.19
355.037	92.19
355.264	73.19
355.491	85.19
355.718	101.19
355.945	88.19
356.172	93.19
356.399	76.19
356.626	98.19
356.853	94.19
357.08	91.19
357.307	92.19
357.534	94.19
357.761	85.19
357.988	94.19
358.215	117.19
358.441	91.19
358.668	78.19
358.895	78.19
359.122	89.19
359.349	93.19
359.576	90.19
359.802	89.19
360.029	76.19
360.256	74.19
360.483	87.19
360.709	100.19
360.936	85.19
361.163	87.19
361.39	88.19
361.616	81.19
361.843	70.19
362.07	88.19
362.296	83.19
362.523	86.19
362.749	86.19
362.976	79.19
363.203	84.19
363.429	79.19
363.656	86.19
363.882	84.19
364.109	88.19
364.335	85.19
364.562	87.19
364.788	75.19
365.015	86.19
365.241	95.19
365.468	92.19
365.694	73.19
365.92	94.19
366.147	102.19
366.373	96.19
366.599	88.19
366.826	89.19
367.052	88.19
367.278	89.19
367.505	81.19
367.731	78.19
367.957	85.19
368.184	85.19
368.41	102.19
368.636	77.19
368.862	86.19
369.089	95.19
369.315	87.19
369.541	85.19
369.767	89.19
369.993	97.19
370.219	81.19
370.445	83.19
370.672	93.19
370.898	80.19
371.124	68.19
371.35	93.19
371.576	86.19
371.802	79.19
372.028	77.19
372.254	92.19
372.48	86.19
372.706	83.19
372.932	90.19
373.158	91.19
373.384	89.19
373.61	104.19
373.835	80.19
374.061	92.19
374.287	83.19
374.513	78.19
374.739	99.19
374.965	80.19
375.191	77.19
375.416	81.19
375.642	84.19
375.868	82.19
376.094	88.19
376.319	86.19
376.545	80.19
376.771	85.19
376.997	103.19
377.222	96.19
377.448	84.19
377.674	88.19
377.899	77.19
378.125	87.19
378.35	91.19
378.576	93.19
378.802	91.19
379.027	74.19
379.253	81.19
379.478	88.19
379.704	88.19
379.929	91.19
380.155	103.19
380.38	73.19
380.606	85.19
380.831	81.19
381.057	84.19
381.282	84.19
381.507	87.19
381.733	80.19
381.958	92.19
382.184	69.19
382.409	78.19
382.634	101.19
382.86	74.19
383.085	77.19
383.31	92.19
383.535	83.19
383.761	79.19
383.986	88.19
384.211	92.19
384.436	76.19
384.662	96.19
384.887	74.19
385.112	85.19
385.337	80.19
385.562	84.19
385.787	83.19
386.013	87.19
386.238	81.19
386.463	74.19
386.688	80.19
386.913	69.19
387.138	81.19
387.363	102.19
387.588	94.19
387.813	97.19
388.038	85.19
388.263	91.19
388.488	86.19
388.713	96.19
388.938	78.19
389.163	80.19
389.387	97.19
389.612	85.19
389.837	72.19
390.062	78.19
390.287	81.19
390.512	78.19
390.736	98.19
390.961	93.19
391.186	89.19
391.411	82.19
391.636	69.19
391.86	82.19
392.085	81.19
392.31	85.19
392.534	77.19
392.759	84.19
392.984	78.19
393.208	89.19
393.433	94.19
393.658	84.19
393.882	85.19
394.107	101.19
394.331	89.19
394.556	90.19
394.78	78.19
395.005	84.19
395.229	82.19
395.454	77.19
395.678	89.19
395.903	91.19
396.127	84.19
396.352	88.19
396.576	82.19
396.801	87.19
397.025	78.19
397.249	68.19
397.474	90.19
397.698	90.19
397.922	86.19
398.147	94.19
398.371	96.19
398.595	89.19
398.82	88.19
399.044	102.19
399.268	88.19
399.492	82.19
399.717	85.19
399.941	87.19
400.165	109.19
400.389	85.19
400.613	108.19
400.837	85.19
401.062	74.19
401.286	76.19
401.51	85.19
401.734	85.19
401.958	99.19
402.182	78.19
402.406	85.19
402.63	87.19
402.854	80.19
403.078	87.19
403.302	84.19
403.526	98.19
403.75	86.19
403.974	88.19
404.198	86.19
404.422	81.19
404.645	77.19
404.869	89.19
405.093	86.19
405.317	98.19
405.541	84.19
405.765	82.19
405.988	76.19
406.212	90.19
406.436	87.19
406.66	92.19
406.883	80.19
407.107	78.19
407.331	87.19
407.555	98.19
407.778	83.19
408.002	85.19
408.226	89.19
408.449	91.19
408.673	84.19
408.896	73.19
409.12	64.19
409.344	92.19
409.567	94.19
409.791	99.19
410.014	85.19
410.238	98.19
410.461	90.19
410.685	94.19
410.908	87.19
411.132	77.19
411.355	89.19
411.578	89.19
411.802	94.19
412.025	86.19
412.249	88.19
412.472	95.19
412.695	91.19
412.919	87.19
413.142	76.19
413.365	96.19
413.589	89.19
413.812	74.19
414.035	85.19
414.258	101.19
414.482	81.19
414.705	88.19
414.928	88.19
415.151	74.19
415.374	88.19
415.597	89.19
415.821	95.19
416.044	90.19
416.267	89.19
416.49	84.19
416.713	84.19
416.936	94.19
417.159	84.19
417.382	83.19
417.605	87.19
417.828	89.19
418.051	94.19
418.274	83.19
418.497	91.19
418.72	83.19
418.943	84.19
419.166	75.19
419.389	75.19
419.611	81.19
419.834	92.19
420.057	73.19
420.28	83.19
420.503	92.19
420.726	98.19
420.948	91.19
421.171	93.19
421.394	80.19
421.617	70.19
421.839	86.19
422.062	75.19
422.285	85.19
422.507	96.19
422.73	95.19
422.953	80.19
423.175	99.19
423.398	94.19
423.621	90.19
423.843	85.19
424.066	77.19
424.288	94.19
424.511	93.19
424.733	83.19
424.956	84.19
425.178	81.19
425.401	85.19
425.623	98.19
425.846	78.19
426.068	87.19
426.291	97.19
426.513	83.19
426.735	85.19
426.958	79.19
427.18	93.19
427.402	91.19
427.625	88.19
427.847	80.19
428.069	77.19
428.292	68.19
428.514	86.19
428.736	86.19
428.958	81.19
429.181	82.19
429.403	91.19
429.625	90.19
429.847	94.19
430.069	79.19
430.292	88.19
430.514	86.19
430.736	94.19
430.958	79.19
431.18	84.19
431.402	79.19
431.624	84.19
431.846	99.19
432.068	86.19
432.29	89.19
432.512	85.19
432.734	92.19
432.956	86.19
433.178	86.19
433.4	98.19
433.622	79.19
433.844	88.19
434.066	99.19
434.287	85.19
434.509	91.19
434.731	81.19
434.953	94.19
435.175	83.19
435.397	96.19
435.618	88.19
435.84	86.19
436.062	86.19
436.284	79.19
436.505	92.19
436.727	89.19
436.949	97.19
437.17	80.19
437.392	89.19
437.614	107.19
437.835	85.19
438.057	84.19
438.278	88.19
438.5	74.19
438.721	90.19
438.943	77.19
439.165	89.19
439.386	98.19
439.608	79.19
439.829	102.19
440.05	81.19
440.272	83.19
440.493	93.19
440.715	83.19
440.936	85.19
441.158	86.19
441.379	82.19
441.6	76.19
441.822	77.19
442.043	88.19
442.264	82.19
442.486	81.19
442.707	78.19
442.928	81.19
443.149	78.19
443.371	98.19
443.592	86.19
443.813	102.19
444.034	82.19
444.255	91.19
444.476	92.19
444.698	70.19
444.919	79.19
445.14	194.19
445.361	136.19
445.582	92.19
445.803	77.19
446.024	99.19
446.245	85.19
446.466	91.19
446.687	77.19
446.908	85.19
447.129	94.19
447.35	86.19
447.571	85.19
447.792	83.19
448.013	81.19
448.234	93.19
448.455	86.19
448.675	87.19
448.896	74.19
449.117	70.19
449.338	78.19
449.559	94.19
449.779	92.19
450	79.19
450.221	73.19
450.442	87.19
450.662	88.19
450.883	95.19
451.104	86.19
451.324	96.19
451.545	86.19
451.766	78.19
451.986	65.19
452.207	84.19
452.428	87.19
452.648	88.19
452.869	108.19
453.089	82.19
453.31	91.19
453.53	85.19
453.751	92.19
453.971	86.19
454.192	96.19
454.412	86.19
454.633	84.19
454.853	86.19
455.073	82.19
455.294	80.19
455.514	100.19
455.734	86.19
455.955	87.19
456.175	99.19
456.395	86.19
456.616	76.19
456.836	85.19
457.056	91.19
457.276	86.19
457.497	73.19
457.717	87.19
457.937	86.19
458.157	87.19
458.377	84.19
458.598	87.19
458.818	86.19
459.038	86.19
459.258	87.19
459.478	87.19
459.698	86.19
459.918	75.19
460.138	81.19
460.358	84.19
460.578	80.19
460.798	97.19
461.018	89.19
461.238	88.19
461.458	90.19
461.678	93.19
461.898	87.19
462.118	91.19
462.338	92.19
462.558	89.19
462.777	78.19
462.997	97.19
463.217	103.19
463.437	101.19
463.657	79.19
463.876	98.19
464.096	85.19
464.316	83.19
464.536	89.19
464.755	82.19
464.975	106.19
465.195	86.19
465.414	98.19
465.634	84.19
465.854	95.19
466.073	89.19
466.293	85.19
466.512	93.19
466.732	94.19
466.951	93.19
467.171	92.19
467.391	91.19
467.61	85.19
467.829	79.19
468.049	83.19
468.268	71.19
468.488	84.19
468.707	80.19
468.927	88.19
469.146	97.19
469.365	82.19
469.585	88.19
469.804	104.19
470.023	79.19
470.243	95.19
470.462	87.19
470.681	93.19
470.901	81.19
471.12	97.19
471.339	88.19
471.558	92.19
471.777	91.19
471.997	87.19
472.216	99.19
472.435	84.19
472.654	83.19
472.873	87.19
473.092	84.19
473.311	93.19
473.53	94.19
473.749	92.19
473.968	85.19
474.187	83.19
474.406	79.19
474.625	83.19
474.844	92.19
475.063	84.19
475.282	90.19
475.501	96.19
475.72	88.19
475.939	83.19
476.158	96.19
476.377	92.19
476.596	103.19
476.814	103.19
477.033	91.19
477.252	92.19
477.471	87.19
477.69	101.19
477.908	77.19
478.127	100.19
478.346	91.19
478.564	112.19
478.783	91.19
479.002	94.19
479.22	87.19
479.439	83.19
479.658	94.19
479.876	86.19
480.095	82.19
480.313	91.19
480.532	91.19
480.751	86.19
480.969	68.19
481.188	84.19
481.406	88.19
481.624	101.19
481.843	97.19
482.061	89.19
482.28	94.19
482.498	84.19
482.717	82.19
482.935	96.19
483.153	96.19
483.372	98.19
483.59	91.19
483.808	104.19
484.027	94.19
484.245	75.19
484.463	99.19
484.681	113.19
484.9	97.19
485.118	89.19
485.336	92.19
485.554	84.19
485.772	76.19
485.99	97.19
486.209	94.19
486.427	95.19
486.645	96.19
486.863	96.19
487.081	103.19
487.299	97.19
487.517	93.19
487.735	83.19
487.953	102.19
488.171	115.19
488.389	99.19
488.607	99.19
488.825	95.19
489.043	87.19
489.261	82.19
489.479	94.19
489.696	98.19
489.914	101.19
490.132	98.19
490.35	87.19
490.568	104.19
490.786	100.19
491.003	108.19
491.221	119.19
491.439	108.19
491.657	99.19
491.874	98.19
492.092	113.19
492.31	93.19
492.527	111.19
492.745	102.19
492.963	109.19
493.18	110.19
493.398	95.19
493.615	101.19
493.833	93.19
494.05	104.19
494.268	90.19
494.485	101.19
494.703	107.19
494.92	107.19
495.138	109.19
495.355	119.19
495.573	97.19
495.79	110.19
496.008	96.19
496.225	98.19
496.442	90.19
496.66	106.19
496.877	107.19
497.094	93.19
497.312	103.19
497.529	92.19
497.746	98.19
497.963	93.19
498.181	89.19
498.398	97.19
498.615	108.19
498.832	108.19
499.049	112.19
499.267	107.19
499.484	109.19
499.701	114.19
499.918	89.19
500.135	115.19
500.352	115.19
500.569	102.19
500.786	110.19
501.003	107.19
501.22	102.19
501.437	100.19
501.654	103.19
501.871	106.19
502.088	105.19
502.305	101.19
502.522	103.19
502.739	100.19
502.956	93.19
503.172	93.19
503.389	95.19
503.606	116.19
503.823	109.19
504.04	100.19
504.256	98.19
504.473	89.19
504.69	85.19
504.907	105.19
505.123	95.19
505.34	102.19
505.557	97.19
505.773	94.19
505.99	85.19
506.207	98.19
506.423	86.19
506.64	101.19
506.856	89.19
507.073	100.19
507.289	96.19
507.506	100.19
507.722	105.19
507.939	92.19
508.155	87.19
508.372	94.19
508.588	79.19
508.805	90.19
509.021	97.19
509.238	92.19
509.454	107.19
509.67	88.19
509.887	90.19
510.103	96.19
510.319	84.19
510.536	86.19
510.752	86.19
510.968	96.19
511.184	84.19
511.401	80.19
511.617	90.19
511.833	89.19
512.049	75.19
512.265	92.19
512.481	95.19
512.698	75.19
512.914	95.19
513.13	90.19
513.346	85.19
513.562	80.19
513.778	104.19
513.994	81.19
514.21	101.19
514.426	87.19
514.642	89.19
514.858	102.19
515.074	83.19
515.29	87.19
515.506	91.19
515.721	90.19
515.937	92.19
516.153	91.19
516.369	86.19
516.585	99.19
516.801	89.19
517.016	90.19
517.232	91.19
517.448	98.19
517.664	87.19
517.879	102.19
