Data from Ni(NO3)2Standard.Agarose3%.GreenCap.LampEnergy5.5.E.O_HRD10591_14-40-03-187.txt Node
Date: Mon Jul 22 14:40:03 EDT 2019
User: cochatt
Spectrometer: HR+D1059
Trigger mode: 1
Integration Time (sec): 1.000000E-1
Scans to average: 1
Electric dark correction enabled: true
Nonlinearity correction enabled: false
Boxcar width: 0
XAxis mode: Wavelengths
Number of Pixels in Spectrum: 2048
>>>>>Begin Spectral Data<<<<<
223.165	7.56
223.4	7.56
223.635	7.56
223.869	-9.44
224.104	-29.44
224.338	-14.44
224.573	-28.44
224.808	-8.44
225.042	-11.44
225.277	-12.44
225.511	-11.44
225.746	2.56
225.98	10.56
226.215	22.56
226.449	4.56
226.683	21.56
226.918	21.56
227.152	34.56
227.387	35.56
227.621	37.56
227.856	47.56
228.09	36.56
228.324	43.56
228.559	62.56
228.793	35.56
229.027	48.56
229.262	56.56
229.496	64.56
229.73	60.56
229.964	74.56
230.199	59.56
230.433	68.56
230.667	71.56
230.901	64.56
231.136	73.56
231.37	70.56
231.604	73.56
231.838	77.56
232.072	75.56
232.306	78.56
232.541	72.56
232.775	82.56
233.009	71.56
233.243	76.56
233.477	77.56
233.711	74.56
233.945	71.56
234.179	71.56
234.413	77.56
234.647	75.56
234.881	95.56
235.115	78.56
235.349	72.56
235.583	74.56
235.817	85.56
236.051	77.56
236.285	78.56
236.519	78.56
236.753	58.56
236.987	76.56
237.221	78.56
237.455	79.56
237.689	84.56
237.922	73.56
238.156	79.56
238.39	78.56
238.624	68.56
238.858	68.56
239.091	78.56
239.325	65.56
239.559	86.56
239.793	69.56
240.027	71.56
240.26	81.56
240.494	75.56
240.728	67.56
240.961	67.56
241.195	74.56
241.429	78.56
241.662	74.56
241.896	71.56
242.13	65.56
242.363	84.56
242.597	72.56
242.83	71.56
243.064	64.56
243.298	65.56
243.531	69.56
243.765	77.56
243.998	73.56
244.232	70.56
244.465	58.56
244.699	78.56
244.932	66.56
245.166	68.56
245.399	77.56
245.633	77.56
245.866	62.56
246.099	79.56
246.333	85.56
246.566	80.56
246.8	72.56
247.033	79.56
247.266	68.56
247.5	73.56
247.733	78.56
247.966	79.56
248.2	78.56
248.433	95.56
248.666	89.56
248.899	86.56
249.133	71.56
249.366	73.56
249.599	70.56
249.832	82.56
250.066	93.56
250.299	89.56
250.532	79.56
250.765	74.56
250.998	75.56
251.231	90.56
251.465	88.56
251.698	75.56
251.931	67.56
252.164	87.56
252.397	88.56
252.63	73.56
252.863	71.56
253.096	90.56
253.329	69.56
253.562	77.56
253.795	79.56
254.028	76.56
254.261	83.56
254.494	74.56
254.727	81.56
254.96	79.56
255.193	64.56
255.426	65.56
255.659	68.56
255.892	82.56
256.124	69.56
256.357	75.56
256.59	69.56
256.823	81.56
257.056	80.56
257.289	78.56
257.521	73.56
257.754	65.56
257.987	73.56
258.22	82.56
258.452	91.56
258.685	79.56
258.918	66.56
259.151	86.56
259.383	53.56
259.616	80.56
259.849	78.56
260.081	81.56
260.314	80.56
260.547	91.56
260.779	77.56
261.012	82.56
261.244	88.56
261.477	77.56
261.71	85.56
261.942	74.56
262.175	87.56
262.407	87.56
262.64	79.56
262.872	82.56
263.105	77.56
263.337	91.56
263.57	81.56
263.802	70.56
264.035	79.56
264.267	85.56
264.499	74.56
264.732	75.56
264.964	67.56
265.197	85.56
265.429	82.56
265.661	73.56
265.894	84.56
266.126	84.56
266.358	73.56
266.591	67.56
266.823	90.56
267.055	78.56
267.287	88.56
267.52	84.56
267.752	90.56
267.984	78.56
268.216	73.56
268.448	79.56
268.681	86.56
268.913	82.56
269.145	79.56
269.377	79.56
269.609	71.56
269.841	94.56
270.073	68.56
270.306	100.56
270.538	89.56
270.77	79.56
271.002	87.56
271.234	89.56
271.466	95.56
271.698	88.56
271.93	69.56
272.162	79.56
272.394	89.56
272.626	76.56
272.858	90.56
273.09	80.56
273.322	72.56
273.553	82.56
273.785	97.56
274.017	90.56
274.249	86.56
274.481	69.56
274.713	80.56
274.945	85.56
275.176	88.56
275.408	92.56
275.64	77.56
275.872	76.56
276.104	70.56
276.335	75.56
276.567	76.56
276.799	75.56
277.031	85.56
277.262	85.56
277.494	81.56
277.726	71.56
277.957	77.56
278.189	76.56
278.421	79.56
278.652	90.56
278.884	83.56
279.115	74.56
279.347	81.56
279.579	98.56
279.81	75.56
280.042	81.56
280.273	85.56
280.505	82.56
280.736	85.56
280.968	75.56
281.199	74.56
281.431	72.56
281.662	85.56
281.894	70.56
282.125	91.56
282.356	75.56
282.588	75.56
282.819	75.56
283.051	80.56
283.282	75.56
283.513	83.56
283.745	81.56
283.976	66.56
284.207	84.56
284.439	75.56
284.67	74.56
284.901	83.56
285.132	88.56
285.364	80.56
285.595	88.56
285.826	78.56
286.057	87.56
286.288	82.56
286.52	70.56
286.751	78.56
286.982	78.56
287.213	92.56
287.444	85.56
287.675	95.56
287.906	75.56
288.138	85.56
288.369	87.56
288.6	75.56
288.831	78.56
289.062	78.56
289.293	90.56
289.524	75.56
289.755	88.56
289.986	82.56
290.217	89.56
290.448	83.56
290.679	90.56
290.91	96.56
291.141	90.56
291.371	84.56
291.602	67.56
291.833	72.56
292.064	68.56
292.295	83.56
292.526	84.56
292.757	87.56
292.987	93.56
293.218	85.56
293.449	87.56
293.68	88.56
293.91	98.56
294.141	86.56
294.372	72.56
294.603	79.56
294.833	81.56
295.064	90.56
295.295	106.56
295.525	76.56
295.756	83.56
295.987	103.56
296.217	84.56
296.448	83.56
296.679	102.56
296.909	79.56
297.14	85.56
297.37	89.56
297.601	85.56
297.831	87.56
298.062	82.56
298.292	71.56
298.523	88.56
298.753	77.56
298.984	78.56
299.214	88.56
299.445	93.56
299.675	91.56
299.905	82.56
300.136	86.56
300.366	79.56
300.597	77.56
300.827	79.56
301.057	88.56
301.288	102.56
301.518	85.56
301.748	72.56
301.979	82.56
302.209	85.56
302.439	88.56
302.669	74.56
302.9	82.56
303.13	83.56
303.36	79.56
303.59	89.56
303.82	82.56
304.051	84.56
304.281	91.56
304.511	92.56
304.741	75.56
304.971	85.56
305.201	95.56
305.431	79.56
305.661	88.56
305.891	99.56
306.121	84.56
306.352	70.56
306.582	87.56
306.812	87.56
307.042	80.56
307.272	86.56
307.502	89.56
307.731	86.56
307.961	72.56
308.191	79.56
308.421	76.56
308.651	89.56
308.881	86.56
309.111	86.56
309.341	97.56
309.571	90.56
309.8	95.56
310.03	94.56
310.26	82.56
310.49	94.56
310.72	79.56
310.949	81.56
311.179	82.56
311.409	79.56
311.639	92.56
311.868	81.56
312.098	81.56
312.328	93.56
312.557	69.56
312.787	78.56
313.017	75.56
313.246	76.56
313.476	94.56
313.706	91.56
313.935	94.56
314.165	88.56
314.394	95.56
314.624	83.56
314.853	74.56
315.083	73.56
315.312	90.56
315.542	84.56
315.771	92.56
316.001	97.56
316.23	83.56
316.46	87.56
316.689	82.56
316.919	79.56
317.148	86.56
317.377	87.56
317.607	88.56
317.836	90.56
318.065	85.56
318.295	80.56
318.524	90.56
318.753	69.56
318.983	97.56
319.212	74.56
319.441	81.56
319.67	75.56
319.9	78.56
320.129	92.56
320.358	94.56
320.587	79.56
320.816	78.56
321.046	76.56
321.275	81.56
321.504	77.56
321.733	79.56
321.962	79.56
322.191	78.56
322.42	83.56
322.649	87.56
322.878	92.56
323.108	83.56
323.337	70.56
323.566	82.56
323.795	71.56
324.024	100.56
324.253	98.56
324.482	90.56
324.71	97.56
324.939	79.56
325.168	82.56
325.397	81.56
325.626	89.56
325.855	73.56
326.084	89.56
326.313	79.56
326.542	87.56
326.77	83.56
326.999	81.56
327.228	77.56
327.457	85.56
327.686	92.56
327.914	82.56
328.143	99.56
328.372	76.56
328.6	95.56
328.829	82.56
329.058	73.56
329.287	78.56
329.515	83.56
329.744	95.56
329.972	91.56
330.201	89.56
330.43	88.56
330.658	85.56
330.887	78.56
331.115	82.56
331.344	72.56
331.572	76.56
331.801	96.56
332.03	90.56
332.258	76.56
332.486	83.56
332.715	89.56
332.943	74.56
333.172	74.56
333.4	88.56
333.629	84.56
333.857	88.56
334.085	82.56
334.314	85.56
334.542	85.56
334.771	79.56
334.999	83.56
335.227	95.56
335.455	78.56
335.684	79.56
335.912	77.56
336.14	85.56
336.369	77.56
336.597	91.56
336.825	87.56
337.053	72.56
337.281	70.56
337.51	89.56
337.738	67.56
337.966	81.56
338.194	86.56
338.422	93.56
338.65	86.56
338.878	71.56
339.106	78.56
339.334	79.56
339.562	72.56
339.79	86.56
340.018	93.56
340.246	74.56
340.474	90.56
340.702	92.56
340.93	83.56
341.158	70.56
341.386	86.56
341.614	93.56
341.842	85.56
342.07	90.56
342.298	85.56
342.526	90.56
342.754	87.56
342.981	75.56
343.209	105.56
343.437	79.56
343.665	79.56
343.893	89.56
344.12	86.56
344.348	83.56
344.576	105.56
344.804	90.56
345.031	80.56
345.259	79.56
345.487	75.56
345.714	82.56
345.942	91.56
346.17	79.56
346.397	94.56
346.625	82.56
346.853	90.56
347.08	92.56
347.308	94.56
347.535	71.56
347.763	80.56
347.99	75.56
348.218	77.56
348.445	86.56
348.673	82.56
348.9	80.56
349.128	93.56
349.355	105.56
349.583	60.56
349.81	91.56
350.037	83.56
350.265	84.56
350.492	85.56
350.72	85.56
350.947	87.56
351.174	86.56
351.402	83.56
351.629	87.56
351.856	80.56
352.083	108.56
352.311	80.56
352.538	80.56
352.765	83.56
352.992	85.56
353.22	90.56
353.447	82.56
353.674	85.56
353.901	83.56
354.128	93.56
354.355	78.56
354.583	86.56
354.81	92.56
355.037	79.56
355.264	78.56
355.491	88.56
355.718	87.56
355.945	88.56
356.172	87.56
356.399	94.56
356.626	88.56
356.853	82.56
357.08	72.56
357.307	87.56
357.534	75.56
357.761	85.56
357.988	91.56
358.215	70.56
358.441	79.56
358.668	73.56
358.895	90.56
359.122	81.56
359.349	90.56
359.576	88.56
359.802	75.56
360.029	83.56
360.256	82.56
360.483	97.56
360.709	93.56
360.936	78.56
361.163	105.56
361.39	91.56
361.616	88.56
361.843	81.56
362.07	83.56
362.296	95.56
362.523	73.56
362.749	79.56
362.976	82.56
363.203	82.56
363.429	71.56
363.656	83.56
363.882	87.56
364.109	95.56
364.335	85.56
364.562	76.56
364.788	84.56
365.015	81.56
365.241	80.56
365.468	95.56
365.694	86.56
365.92	78.56
366.147	91.56
366.373	80.56
366.599	71.56
366.826	71.56
367.052	78.56
367.278	82.56
367.505	73.56
367.731	79.56
367.957	75.56
368.184	74.56
368.41	81.56
368.636	79.56
368.862	93.56
369.089	80.56
369.315	91.56
369.541	82.56
369.767	82.56
369.993	90.56
370.219	94.56
370.445	86.56
370.672	85.56
370.898	72.56
371.124	90.56
371.35	72.56
371.576	83.56
371.802	83.56
372.028	58.56
372.254	74.56
372.48	86.56
372.706	82.56
372.932	74.56
373.158	71.56
373.384	85.56
373.61	82.56
373.835	85.56
374.061	89.56
374.287	82.56
374.513	109.56
374.739	93.56
374.965	86.56
375.191	89.56
375.416	92.56
375.642	93.56
375.868	89.56
376.094	90.56
376.319	94.56
376.545	84.56
376.771	83.56
376.997	64.56
377.222	88.56
377.448	84.56
377.674	89.56
377.899	70.56
378.125	80.56
378.35	90.56
378.576	73.56
378.802	87.56
379.027	97.56
379.253	87.56
379.478	73.56
379.704	62.56
379.929	74.56
380.155	83.56
380.38	89.56
380.606	88.56
380.831	84.56
381.057	80.56
381.282	78.56
381.507	86.56
381.733	79.56
381.958	79.56
382.184	78.56
382.409	72.56
382.634	83.56
382.86	83.56
383.085	76.56
383.31	72.56
383.535	79.56
383.761	70.56
383.986	86.56
384.211	86.56
384.436	84.56
384.662	82.56
384.887	84.56
385.112	73.56
385.337	79.56
385.562	76.56
385.787	59.56
386.013	83.56
386.238	95.56
386.463	73.56
386.688	86.56
386.913	87.56
387.138	90.56
387.363	77.56
387.588	89.56
387.813	86.56
388.038	81.56
388.263	83.56
388.488	90.56
388.713	64.56
388.938	91.56
389.163	98.56
389.387	75.56
389.612	86.56
389.837	75.56
390.062	78.56
390.287	75.56
390.512	69.56
390.736	81.56
390.961	87.56
391.186	71.56
391.411	91.56
391.636	81.56
391.86	72.56
392.085	70.56
392.31	86.56
392.534	79.56
392.759	87.56
392.984	95.56
393.208	88.56
393.433	86.56
393.658	68.56
393.882	87.56
394.107	99.56
394.331	78.56
394.556	87.56
394.78	69.56
395.005	79.56
395.229	88.56
395.454	98.56
395.678	88.56
395.903	67.56
396.127	85.56
396.352	84.56
396.576	80.56
396.801	82.56
397.025	85.56
397.249	94.56
397.474	80.56
397.698	90.56
397.922	80.56
398.147	82.56
398.371	86.56
398.595	83.56
398.82	93.56
399.044	89.56
399.268	82.56
399.492	110.56
399.717	87.56
399.941	67.56
400.165	88.56
400.389	81.56
400.613	95.56
400.837	85.56
401.062	85.56
401.286	89.56
401.51	74.56
401.734	71.56
401.958	74.56
402.182	77.56
402.406	85.56
402.63	83.56
402.854	83.56
403.078	94.56
403.302	72.56
403.526	88.56
403.75	85.56
403.974	82.56
404.198	74.56
404.422	85.56
404.645	91.56
404.869	98.56
405.093	90.56
405.317	81.56
405.541	88.56
405.765	97.56
405.988	86.56
406.212	84.56
406.436	93.56
406.66	82.56
406.883	81.56
407.107	95.56
407.331	85.56
407.555	87.56
407.778	81.56
408.002	83.56
408.226	78.56
408.449	99.56
408.673	78.56
408.896	91.56
409.12	75.56
409.344	75.56
409.567	81.56
409.791	77.56
410.014	76.56
410.238	83.56
410.461	81.56
410.685	80.56
410.908	88.56
411.132	89.56
411.355	74.56
411.578	90.56
411.802	74.56
412.025	72.56
412.249	72.56
412.472	93.56
412.695	73.56
412.919	85.56
413.142	87.56
413.365	89.56
413.589	66.56
413.812	76.56
414.035	92.56
414.258	80.56
414.482	91.56
414.705	96.56
414.928	74.56
415.151	89.56
415.374	64.56
415.597	82.56
415.821	82.56
416.044	89.56
416.267	85.56
416.49	98.56
416.713	85.56
416.936	95.56
417.159	79.56
417.382	88.56
417.605	80.56
417.828	85.56
418.051	72.56
418.274	67.56
418.497	81.56
418.72	86.56
418.943	81.56
419.166	100.56
419.389	86.56
419.611	92.56
419.834	90.56
420.057	71.56
420.28	75.56
420.503	93.56
420.726	86.56
420.948	86.56
421.171	80.56
421.394	75.56
421.617	70.56
421.839	73.56
422.062	69.56
422.285	75.56
422.507	80.56
422.73	76.56
422.953	77.56
423.175	78.56
423.398	95.56
423.621	85.56
423.843	78.56
424.066	85.56
424.288	78.56
424.511	73.56
424.733	69.56
424.956	80.56
425.178	87.56
425.401	69.56
425.623	80.56
425.846	83.56
426.068	76.56
426.291	64.56
426.513	79.56
426.735	87.56
426.958	78.56
427.18	99.56
427.402	81.56
427.625	91.56
427.847	77.56
428.069	71.56
428.292	80.56
428.514	95.56
428.736	77.56
428.958	92.56
429.181	88.56
429.403	84.56
429.625	71.56
429.847	67.56
430.069	87.56
430.292	82.56
430.514	93.56
430.736	91.56
430.958	89.56
431.18	90.56
431.402	78.56
431.624	79.56
431.846	71.56
432.068	91.56
432.29	89.56
432.512	82.56
432.734	81.56
432.956	86.56
433.178	85.56
433.4	72.56
433.622	65.56
433.844	85.56
434.066	97.56
434.287	74.56
434.509	86.56
434.731	86.56
434.953	96.56
435.175	96.56
435.397	90.56
435.618	85.56
435.84	76.56
436.062	70.56
436.284	84.56
436.505	85.56
436.727	83.56
436.949	89.56
437.17	77.56
437.392	79.56
437.614	77.56
437.835	80.56
438.057	68.56
438.278	87.56
438.5	81.56
438.721	90.56
438.943	85.56
439.165	84.56
439.386	83.56
439.608	94.56
439.829	69.56
440.05	73.56
440.272	75.56
440.493	92.56
440.715	86.56
440.936	71.56
441.158	81.56
441.379	75.56
441.6	73.56
441.822	78.56
442.043	79.56
442.264	81.56
442.486	82.56
442.707	78.56
442.928	77.56
443.149	80.56
443.371	87.56
443.592	80.56
443.813	75.56
444.034	78.56
444.255	88.56
444.476	92.56
444.698	76.56
444.919	86.56
445.14	200.56
445.361	135.56
445.582	91.56
445.803	97.56
446.024	81.56
446.245	84.56
446.466	83.56
446.687	84.56
446.908	88.56
447.129	69.56
447.35	92.56
447.571	82.56
447.792	78.56
448.013	89.56
448.234	76.56
448.455	78.56
448.675	69.56
448.896	86.56
449.117	84.56
449.338	80.56
449.559	93.56
449.779	81.56
450	89.56
450.221	85.56
450.442	85.56
450.662	81.56
450.883	74.56
451.104	69.56
451.324	81.56
451.545	81.56
451.766	89.56
451.986	73.56
452.207	90.56
452.428	77.56
452.648	76.56
452.869	81.56
453.089	68.56
453.31	95.56
453.53	96.56
453.751	83.56
453.971	87.56
454.192	73.56
454.412	73.56
454.633	89.56
454.853	81.56
455.073	90.56
455.294	88.56
455.514	77.56
455.734	68.56
455.955	88.56
456.175	88.56
456.395	71.56
456.616	90.56
456.836	95.56
457.056	75.56
457.276	87.56
457.497	81.56
457.717	88.56
457.937	94.56
458.157	99.56
458.377	97.56
458.598	80.56
458.818	84.56
459.038	86.56
459.258	94.56
459.478	53.56
459.698	85.56
459.918	90.56
460.138	73.56
460.358	81.56
460.578	89.56
460.798	96.56
461.018	84.56
461.238	73.56
461.458	102.56
461.678	79.56
461.898	83.56
462.118	81.56
462.338	101.56
462.558	106.56
462.777	85.56
462.997	71.56
463.217	84.56
463.437	72.56
463.657	77.56
463.876	90.56
464.096	83.56
464.316	75.56
464.536	81.56
464.755	80.56
464.975	68.56
465.195	79.56
465.414	85.56
465.634	71.56
465.854	84.56
466.073	75.56
466.293	71.56
466.512	80.56
466.732	73.56
466.951	75.56
467.171	92.56
467.391	84.56
467.61	74.56
467.829	99.56
468.049	77.56
468.268	85.56
468.488	70.56
468.707	76.56
468.927	74.56
469.146	66.56
469.365	93.56
469.585	78.56
469.804	83.56
470.023	84.56
470.243	93.56
470.462	81.56
470.681	83.56
470.901	78.56
471.12	90.56
471.339	82.56
471.558	73.56
471.777	85.56
471.997	94.56
472.216	103.56
472.435	90.56
472.654	81.56
472.873	88.56
473.092	94.56
473.311	85.56
473.53	72.56
473.749	87.56
473.968	91.56
474.187	87.56
474.406	81.56
474.625	93.56
474.844	71.56
475.063	94.56
475.282	81.56
475.501	69.56
475.72	78.56
475.939	90.56
476.158	79.56
476.377	86.56
476.596	84.56
476.814	57.56
477.033	94.56
477.252	87.56
477.471	90.56
477.69	75.56
477.908	80.56
478.127	104.56
478.346	78.56
478.564	89.56
478.783	82.56
479.002	79.56
479.22	89.56
479.439	80.56
479.658	94.56
479.876	71.56
480.095	87.56
480.313	84.56
480.532	82.56
480.751	86.56
480.969	79.56
481.188	82.56
481.406	88.56
481.624	82.56
481.843	86.56
482.061	82.56
482.28	75.56
482.498	84.56
482.717	81.56
482.935	80.56
483.153	93.56
483.372	75.56
483.59	96.56
483.808	101.56
484.027	81.56
484.245	81.56
484.463	93.56
484.681	88.56
484.9	92.56
485.118	94.56
485.336	98.56
485.554	95.56
485.772	82.56
485.99	92.56
486.209	93.56
486.427	89.56
486.645	83.56
486.863	99.56
487.081	83.56
487.299	90.56
487.517	98.56
487.735	96.56
487.953	98.56
488.171	90.56
488.389	86.56
488.607	88.56
488.825	93.56
489.043	89.56
489.261	82.56
489.479	113.56
489.696	91.56
489.914	77.56
490.132	81.56
490.35	102.56
490.568	94.56
490.786	86.56
491.003	79.56
491.221	95.56
491.439	98.56
491.657	102.56
491.874	91.56
492.092	85.56
492.31	91.56
492.527	95.56
492.745	89.56
492.963	92.56
493.18	103.56
493.398	99.56
493.615	90.56
493.833	77.56
494.05	103.56
494.268	96.56
494.485	85.56
494.703	87.56
494.92	101.56
495.138	90.56
495.355	105.56
495.573	92.56
495.79	99.56
496.008	80.56
496.225	102.56
496.442	91.56
496.66	90.56
496.877	99.56
497.094	103.56
497.312	83.56
497.529	102.56
497.746	100.56
497.963	80.56
498.181	89.56
498.398	104.56
498.615	103.56
498.832	90.56
499.049	104.56
499.267	97.56
499.484	102.56
499.701	105.56
499.918	98.56
500.135	100.56
500.352	106.56
500.569	113.56
500.786	102.56
501.003	101.56
501.22	115.56
501.437	97.56
501.654	94.56
501.871	98.56
502.088	93.56
502.305	97.56
502.522	84.56
502.739	82.56
502.956	102.56
503.172	93.56
503.389	98.56
503.606	89.56
503.823	83.56
504.04	91.56
504.256	94.56
504.473	87.56
504.69	95.56
504.907	112.56
505.123	81.56
505.34	90.56
505.557	102.56
505.773	99.56
505.99	90.56
506.207	102.56
506.423	89.56
506.64	89.56
506.856	98.56
507.073	96.56
507.289	98.56
507.506	82.56
507.722	89.56
507.939	96.56
508.155	83.56
508.372	82.56
508.588	105.56
508.805	98.56
509.021	91.56
509.238	91.56
509.454	95.56
509.67	86.56
509.887	95.56
510.103	94.56
510.319	85.56
510.536	84.56
510.752	84.56
510.968	80.56
511.184	90.56
511.401	93.56
511.617	94.56
511.833	104.56
512.049	94.56
512.265	84.56
512.481	84.56
512.698	92.56
512.914	85.56
513.13	86.56
513.346	78.56
513.562	96.56
513.778	84.56
513.994	95.56
514.21	87.56
514.426	89.56
514.642	100.56
514.858	89.56
515.074	79.56
515.29	84.56
515.506	86.56
515.721	80.56
515.937	96.56
516.153	92.56
516.369	94.56
516.585	107.56
516.801	82.56
517.016	91.56
517.232	101.56
517.448	88.56
517.664	89.56
517.879	95.56
518.095	90.56
518.311	95.56
518.527	89.56
518.742	95.56
