Data from Ni(NO3)2@0.5M.TitratingCurve.Agarose3%dH2O.NegLispCup.LampEnergy10.LIBS07252019_HRD10591_17-57-37-564.txt Node
Date: Thu Jul 25 17:57:37 EDT 2019
User: cochatt
Spectrometer: HR+D1059
Trigger mode: 1
Integration Time (sec): 1.000000E-1
Scans to average: 1
Electric dark correction enabled: true
Nonlinearity correction enabled: false
Boxcar width: 0
XAxis mode: Wavelengths
Number of Pixels in Spectrum: 2048
>>>>>Begin Spectral Data<<<<<
223.165	-23.62
223.4	-23.62
223.635	-23.62
223.869	-18.62
224.104	-31.62
224.338	-14.62
224.573	5.38
224.808	-15.62
225.042	-21.62
225.277	-2.62
225.511	-2.62
225.746	9.38
225.98	16.38
226.215	9.38
226.449	22.38
226.683	14.38
226.918	22.38
227.152	31.38
227.387	46.38
227.621	25.38
227.856	38.38
228.09	33.38
228.324	49.38
228.559	41.38
228.793	78.38
229.027	99.38
229.262	96.38
229.496	107.38
229.73	105.38
229.964	129.38
230.199	135.38
230.433	149.38
230.667	132.38
230.901	133.38
231.136	144.38
231.37	146.38
231.604	144.38
231.838	157.38
232.072	152.38
232.306	150.38
232.541	138.38
232.775	154.38
233.009	142.38
233.243	126.38
233.477	146.38
233.711	152.38
233.945	148.38
234.179	149.38
234.413	152.38
234.647	153.38
234.881	158.38
235.115	166.38
235.349	154.38
235.583	148.38
235.817	152.38
236.051	142.38
236.285	135.38
236.519	161.38
236.753	142.38
236.987	181.38
237.221	163.38
237.455	155.38
237.689	152.38
237.922	177.38
238.156	151.38
238.39	156.38
238.624	141.38
238.858	146.38
239.091	155.38
239.325	161.38
239.559	179.38
239.793	170.38
240.027	166.38
240.26	164.38
240.494	177.38
240.728	159.38
240.961	173.38
241.195	175.38
241.429	170.38
241.662	171.38
241.896	176.38
242.13	177.38
242.363	185.38
242.597	179.38
242.83	181.38
243.064	200.38
243.298	186.38
243.531	203.38
243.765	187.38
243.998	187.38
244.232	199.38
244.465	203.38
244.699	193.38
244.932	206.38
245.166	199.38
245.399	193.38
245.633	207.38
245.866	177.38
246.099	216.38
246.333	195.38
246.566	220.38
246.8	205.38
247.033	228.38
247.266	212.38
247.5	227.38
247.733	227.38
247.966	230.38
248.2	232.38
248.433	212.38
248.666	247.38
248.899	232.38
249.133	241.38
249.366	231.38
249.599	245.38
249.832	233.38
250.066	240.38
250.299	239.38
250.532	232.38
250.765	265.38
250.998	285.38
251.231	259.38
251.465	268.38
251.698	266.38
251.931	267.38
252.164	274.38
252.397	269.38
252.63	261.38
252.863	267.38
253.096	273.38
253.329	259.38
253.562	277.38
253.795	286.38
254.028	287.38
254.261	281.38
254.494	308.38
254.727	295.38
254.96	277.38
255.193	287.38
255.426	294.38
255.659	309.38
255.892	305.38
256.124	306.38
256.357	309.38
256.59	302.38
256.823	303.38
257.056	309.38
257.289	324.38
257.521	324.38
257.754	326.38
257.987	323.38
258.22	322.38
258.452	322.38
258.685	315.38
258.918	332.38
259.151	348.38
259.383	331.38
259.616	331.38
259.849	342.38
260.081	323.38
260.314	341.38
260.547	339.38
260.779	353.38
261.012	354.38
261.244	347.38
261.477	344.38
261.71	360.38
261.942	375.38
262.175	383.38
262.407	363.38
262.64	346.38
262.872	359.38
263.105	349.38
263.337	365.38
263.57	354.38
263.802	367.38
264.035	361.38
264.267	377.38
264.499	375.38
264.732	379.38
264.964	378.38
265.197	394.38
265.429	383.38
265.661	387.38
265.894	390.38
266.126	381.38
266.358	380.38
266.591	377.38
266.823	373.38
267.055	378.38
267.287	394.38
267.52	392.38
267.752	411.38
267.984	384.38
268.216	394.38
268.448	397.38
268.681	406.38
268.913	402.38
269.145	378.38
269.377	397.38
269.609	411.38
269.841	409.38
270.073	412.38
270.306	411.38
270.538	408.38
270.77	421.38
271.002	384.38
271.234	406.38
271.466	399.38
271.698	414.38
271.93	413.38
272.162	419.38
272.394	400.38
272.626	424.38
272.858	424.38
273.09	416.38
273.322	419.38
273.553	418.38
273.785	439.38
274.017	431.38
274.249	455.38
274.481	439.38
274.713	444.38
274.945	447.38
275.176	443.38
275.408	442.38
275.64	475.38
275.872	447.38
276.104	441.38
276.335	467.38
276.567	482.38
276.799	474.38
277.031	465.38
277.262	460.38
277.494	467.38
277.726	448.38
277.957	465.38
278.189	455.38
278.421	451.38
278.652	453.38
278.884	469.38
279.115	466.38
279.347	480.38
279.579	468.38
279.81	476.38
280.042	490.38
280.273	493.38
280.505	484.38
280.736	480.38
280.968	460.38
281.199	484.38
281.431	487.38
281.662	480.38
281.894	485.38
282.125	484.38
282.356	504.38
282.588	482.38
282.819	482.38
283.051	511.38
283.282	495.38
283.513	485.38
283.745	497.38
283.976	493.38
284.207	518.38
284.439	518.38
284.67	503.38
284.901	513.38
285.132	525.38
285.364	507.38
285.595	495.38
285.826	488.38
286.057	511.38
286.288	528.38
286.52	540.38
286.751	529.38
286.982	512.38
287.213	528.38
287.444	500.38
287.675	538.38
287.906	519.38
288.138	531.38
288.369	526.38
288.6	525.38
288.831	543.38
289.062	531.38
289.293	495.38
289.524	513.38
289.755	523.38
289.986	537.38
290.217	531.38
290.448	505.38
290.679	539.38
290.91	531.38
291.141	511.38
291.371	557.38
291.602	526.38
291.833	529.38
292.064	537.38
292.295	549.38
292.526	543.38
292.757	543.38
292.987	528.38
293.218	528.38
293.449	540.38
293.68	544.38
293.91	530.38
294.141	536.38
294.372	547.38
294.603	535.38
294.833	543.38
295.064	539.38
295.295	553.38
295.525	559.38
295.756	535.38
295.987	549.38
296.217	535.38
296.448	539.38
296.679	549.38
296.909	561.38
297.14	532.38
297.37	568.38
297.601	563.38
297.831	574.38
298.062	571.38
298.292	570.38
298.523	555.38
298.753	574.38
298.984	577.38
299.214	582.38
299.445	577.38
299.675	583.38
299.905	579.38
300.136	584.38
300.366	576.38
300.597	602.38
300.827	595.38
301.057	596.38
301.288	599.38
301.518	604.38
301.748	625.38
301.979	617.38
302.209	587.38
302.439	596.38
302.669	615.38
302.9	605.38
303.13	629.38
303.36	609.38
303.59	619.38
303.82	618.38
304.051	637.38
304.281	629.38
304.511	612.38
304.741	607.38
304.971	622.38
305.201	639.38
305.431	666.38
305.661	641.38
305.891	644.38
306.121	643.38
306.352	634.38
306.582	609.38
306.812	623.38
307.042	627.38
307.272	637.38
307.502	621.38
307.731	628.38
307.961	639.38
308.191	641.38
308.421	628.38
308.651	618.38
308.881	627.38
309.111	649.38
309.341	629.38
309.571	628.38
309.8	651.38
310.03	649.38
310.26	684.38
310.49	659.38
310.72	671.38
310.949	642.38
311.179	652.38
311.409	664.38
311.639	651.38
311.868	657.38
312.098	673.38
312.328	663.38
312.557	656.38
312.787	664.38
313.017	673.38
313.246	675.38
313.476	692.38
313.706	693.38
313.935	691.38
314.165	661.38
314.394	705.38
314.624	714.38
314.853	683.38
315.083	676.38
315.312	703.38
315.542	712.38
315.771	692.38
316.001	682.38
316.23	720.38
316.46	728.38
316.689	730.38
316.919	723.38
317.148	706.38
317.377	717.38
317.607	717.38
317.836	722.38
318.065	733.38
318.295	708.38
318.524	732.38
318.753	734.38
318.983	739.38
319.212	755.38
319.441	744.38
319.67	751.38
319.9	728.38
320.129	721.38
320.358	751.38
320.587	761.38
320.816	729.38
321.046	755.38
321.275	742.38
321.504	764.38
321.733	757.38
321.962	730.38
322.191	777.38
322.42	777.38
322.649	775.38
322.878	768.38
323.108	771.38
323.337	803.38
323.566	803.38
323.795	797.38
324.024	810.38
324.253	821.38
324.482	795.38
324.71	787.38
324.939	804.38
325.168	831.38
325.397	805.38
325.626	815.38
325.855	853.38
326.084	857.38
326.313	825.38
326.542	836.38
326.77	831.38
326.999	831.38
327.228	815.38
327.457	816.38
327.686	843.38
327.914	832.38
328.143	869.38
328.372	813.38
328.6	835.38
328.829	845.38
329.058	865.38
329.287	839.38
329.515	842.38
329.744	839.38
329.972	889.38
330.201	873.38
330.43	873.38
330.658	868.38
330.887	848.38
331.115	857.38
331.344	871.38
331.572	887.38
331.801	882.38
332.03	889.38
332.258	895.38
332.486	893.38
332.715	909.38
332.943	915.38
333.172	904.38
333.4	915.38
333.629	930.38
333.857	916.38
334.085	955.38
334.314	953.38
334.542	966.38
334.771	943.38
334.999	958.38
335.227	945.38
335.455	985.38
335.684	956.38
335.912	952.38
336.14	982.38
336.369	957.38
336.597	972.38
336.825	1001.38
337.053	958.38
337.281	981.38
337.51	965.38
337.738	956.38
337.966	961.38
338.194	975.38
338.422	971.38
338.65	959.38
338.878	937.38
339.106	957.38
339.334	963.38
339.562	932.38
339.79	926.38
340.018	934.38
340.246	900.38
340.474	915.38
340.702	943.38
340.93	931.38
341.158	921.38
341.386	931.38
341.614	953.38
341.842	953.38
342.07	914.38
342.298	941.38
342.526	913.38
342.754	936.38
342.981	926.38
343.209	931.38
343.437	957.38
343.665	977.38
343.893	979.38
344.12	983.38
344.348	987.38
344.576	979.38
344.804	970.38
345.031	977.38
345.259	963.38
345.487	967.38
345.714	975.38
345.942	964.38
346.17	960.38
346.397	938.38
346.625	940.38
346.853	921.38
347.08	915.38
347.308	921.38
347.535	917.38
347.763	905.38
347.99	890.38
348.218	901.38
348.445	876.38
348.673	903.38
348.9	920.38
349.128	921.38
349.355	924.38
349.583	908.38
349.81	913.38
350.037	895.38
350.265	880.38
350.492	877.38
350.72	877.38
350.947	894.38
351.174	897.38
351.402	924.38
351.629	931.38
351.856	914.38
352.083	917.38
352.311	899.38
352.538	905.38
352.765	927.38
352.992	897.38
353.22	904.38
353.447	881.38
353.674	908.38
353.901	905.38
354.128	902.38
354.355	879.38
354.583	860.38
354.81	886.38
355.037	879.38
355.264	877.38
355.491	885.38
355.718	880.38
355.945	922.38
356.172	897.38
356.399	890.38
356.626	880.38
356.853	931.38
357.08	893.38
357.307	892.38
357.534	895.38
357.761	879.38
357.988	871.38
358.215	867.38
358.441	889.38
358.668	864.38
358.895	885.38
359.122	866.38
359.349	878.38
359.576	889.38
359.802	884.38
360.029	905.38
360.256	895.38
360.483	900.38
360.709	877.38
360.936	884.38
361.163	857.38
361.39	907.38
361.616	883.38
361.843	912.38
362.07	958.38
362.296	903.38
362.523	904.38
362.749	890.38
362.976	912.38
363.203	901.38
363.429	903.38
363.656	908.38
363.882	902.38
364.109	864.38
364.335	899.38
364.562	905.38
364.788	864.38
365.015	899.38
365.241	899.38
365.468	902.38
365.694	873.38
365.92	919.38
366.147	872.38
366.373	879.38
366.599	904.38
366.826	872.38
367.052	875.38
367.278	915.38
367.505	903.38
367.731	914.38
367.957	927.38
368.184	913.38
368.41	906.38
368.636	903.38
368.862	901.38
369.089	925.38
369.315	926.38
369.541	915.38
369.767	903.38
369.993	900.38
370.219	909.38
370.445	885.38
370.672	908.38
370.898	912.38
371.124	923.38
371.35	904.38
371.576	899.38
371.802	940.38
372.028	946.38
372.254	959.38
372.48	921.38
372.706	935.38
372.932	916.38
373.158	954.38
373.384	956.38
373.61	935.38
373.835	912.38
374.061	919.38
374.287	933.38
374.513	918.38
374.739	960.38
374.965	948.38
375.191	945.38
375.416	928.38
375.642	953.38
375.868	925.38
376.094	929.38
376.319	920.38
376.545	910.38
376.771	909.38
376.997	924.38
377.222	930.38
377.448	926.38
377.674	929.38
377.899	927.38
378.125	916.38
378.35	919.38
378.576	893.38
378.802	905.38
379.027	921.38
379.253	909.38
379.478	909.38
379.704	919.38
379.929	923.38
380.155	916.38
380.38	920.38
380.606	883.38
380.831	896.38
381.057	938.38
381.282	915.38
381.507	909.38
381.733	924.38
381.958	900.38
382.184	905.38
382.409	953.38
382.634	937.38
382.86	922.38
383.085	924.38
383.31	934.38
383.535	970.38
383.761	935.38
383.986	941.38
384.211	919.38
384.436	951.38
384.662	946.38
384.887	953.38
385.112	969.38
385.337	954.38
385.562	955.38
385.787	976.38
386.013	973.38
386.238	960.38
386.463	977.38
386.688	962.38
386.913	972.38
387.138	978.38
387.363	975.38
387.588	988.38
387.813	983.38
388.038	1000.38
388.263	998.38
388.488	971.38
388.713	992.38
388.938	986.38
389.163	1043.38
389.387	982.38
389.612	985.38
389.837	1003.38
390.062	993.38
390.287	1025.38
390.512	1013.38
390.736	1008.38
390.961	1028.38
391.186	1015.38
391.411	1027.38
391.636	1010.38
391.86	1020.38
392.085	1033.38
392.31	1008.38
392.534	980.38
392.759	1015.38
392.984	1010.38
393.208	1011.38
393.433	1033.38
393.658	1031.38
393.882	1034.38
394.107	1025.38
394.331	1015.38
394.556	1001.38
394.78	1015.38
395.005	1039.38
395.229	1015.38
395.454	1018.38
395.678	1021.38
395.903	1043.38
396.127	1033.38
396.352	1058.38
396.576	1067.38
396.801	1045.38
397.025	1047.38
397.249	1083.38
397.474	1081.38
397.698	1069.38
397.922	1114.38
398.147	1060.38
398.371	1057.38
398.595	1094.38
398.82	1087.38
399.044	1128.38
399.268	1150.38
399.492	1173.38
399.717	1188.38
399.941	1208.38
400.165	1203.38
400.389	1192.38
400.613	1201.38
400.837	1138.38
401.062	1145.38
401.286	1140.38
401.51	1090.38
401.734	1146.38
401.958	1091.38
402.182	1119.38
402.406	1104.38
402.63	1097.38
402.854	1110.38
403.078	1147.38
403.302	1144.38
403.526	1111.38
403.75	1113.38
403.974	1138.38
404.198	1118.38
404.422	1130.38
404.645	1142.38
404.869	1122.38
405.093	1158.38
405.317	1146.38
405.541	1165.38
405.765	1173.38
405.988	1135.38
406.212	1199.38
406.436	1160.38
406.66	1182.38
406.883	1183.38
407.107	1244.38
407.331	1217.38
407.555	1207.38
407.778	1219.38
408.002	1220.38
408.226	1195.38
408.449	1225.38
408.673	1228.38
408.896	1203.38
409.12	1224.38
409.344	1219.38
409.567	1176.38
409.791	1173.38
410.014	1186.38
410.238	1191.38
410.461	1205.38
410.685	1180.38
410.908	1149.38
411.132	1166.38
411.355	1132.38
411.578	1205.38
411.802	1164.38
412.025	1172.38
412.249	1164.38
412.472	1159.38
412.695	1151.38
412.919	1148.38
413.142	1137.38
413.365	1140.38
413.589	1128.38
413.812	1169.38
414.035	1139.38
414.258	1114.38
414.482	1117.38
414.705	1137.38
414.928	1109.38
415.151	1137.38
415.374	1112.38
415.597	1126.38
415.821	1125.38
416.044	1123.38
416.267	1084.38
416.49	1124.38
416.713	1115.38
416.936	1109.38
417.159	1083.38
417.382	1131.38
417.605	1103.38
417.828	1097.38
418.051	1100.38
418.274	1094.38
418.497	1101.38
418.72	1094.38
418.943	1092.38
419.166	1142.38
419.389	1196.38
419.611	1203.38
419.834	1143.38
420.057	1120.38
420.28	1128.38
420.503	1081.38
420.726	1084.38
420.948	1057.38
421.171	1075.38
421.394	1066.38
421.617	1090.38
421.839	1072.38
422.062	1114.38
422.285	1056.38
422.507	1113.38
422.73	1105.38
422.953	1114.38
423.175	1117.38
423.398	1104.38
423.621	1079.38
423.843	1097.38
424.066	1088.38
424.288	1101.38
424.511	1066.38
424.733	1091.38
424.956	1066.38
425.178	1090.38
425.401	1105.38
425.623	1125.38
425.846	1100.38
426.068	1087.38
426.291	1110.38
426.513	1098.38
426.735	1089.38
426.958	1080.38
427.18	1054.38
427.402	1073.38
427.625	1087.38
427.847	1074.38
428.069	1089.38
428.292	1068.38
428.514	1081.38
428.736	1066.38
428.958	1080.38
429.181	1073.38
429.403	1071.38
429.625	1087.38
429.847	1087.38
430.069	1045.38
430.292	1077.38
430.514	1050.38
430.736	1078.38
430.958	1092.38
431.18	1065.38
431.402	1077.38
431.624	1077.38
431.846	1061.38
432.068	1067.38
432.29	1069.38
432.512	1072.38
432.734	1084.38
432.956	1084.38
433.178	1088.38
433.4	1099.38
433.622	1105.38
433.844	1086.38
434.066	1098.38
434.287	1085.38
434.509	1071.38
434.731	1081.38
434.953	1108.38
435.175	1080.38
435.397	1150.38
435.618	1093.38
435.84	1091.38
436.062	1080.38
436.284	1103.38
436.505	1082.38
436.727	1125.38
436.949	1078.38
437.17	1059.38
437.392	1033.38
437.614	1072.38
437.835	1041.38
438.057	1037.38
438.278	1068.38
438.5	1042.38
438.721	1045.38
438.943	1090.38
439.165	1061.38
439.386	1061.38
439.608	1080.38
439.829	1075.38
440.05	1083.38
440.272	1072.38
440.493	1107.38
440.715	1079.38
440.936	1102.38
441.158	1068.38
441.379	1090.38
441.6	1094.38
441.822	1091.38
442.043	1106.38
442.264	1087.38
442.486	1067.38
442.707	1113.38
442.928	1107.38
443.149	1095.38
443.371	1131.38
443.592	1129.38
443.813	1113.38
444.034	1122.38
444.255	1127.38
444.476	1112.38
444.698	1140.38
444.919	1135.38
445.14	1261.38
445.361	1203.38
445.582	1163.38
445.803	1125.38
446.024	1085.38
446.245	1105.38
446.466	1096.38
446.687	1091.38
446.908	1070.38
447.129	1055.38
447.35	1023.38
447.571	1035.38
447.792	1043.38
448.013	1038.38
448.234	1043.38
448.455	1031.38
448.675	1002.38
448.896	1043.38
449.117	1032.38
449.338	1023.38
449.559	982.38
449.779	988.38
450	993.38
450.221	984.38
450.442	988.38
450.662	996.38
450.883	1005.38
451.104	1018.38
451.324	1031.38
451.545	990.38
451.766	981.38
451.986	998.38
452.207	973.38
452.428	955.38
452.648	973.38
452.869	947.38
453.089	962.38
453.31	983.38
453.53	970.38
453.751	951.38
453.971	965.38
454.192	1003.38
454.412	964.38
454.633	946.38
454.853	994.38
455.073	966.38
455.294	959.38
455.514	945.38
455.734	953.38
455.955	948.38
456.175	959.38
456.395	969.38
456.616	957.38
456.836	967.38
457.056	968.38
457.276	960.38
457.497	979.38
457.717	971.38
457.937	977.38
458.157	963.38
458.377	988.38
458.598	976.38
458.818	997.38
459.038	973.38
459.258	996.38
459.478	1034.38
459.698	1044.38
459.918	1068.38
460.138	1074.38
460.358	1056.38
460.578	1085.38
460.798	1122.38
461.018	1122.38
461.238	1104.38
461.458	1087.38
461.678	1118.38
461.898	1111.38
462.118	1131.38
462.338	1124.38
462.558	1114.38
462.777	1163.38
462.997	1179.38
463.217	1223.38
463.437	1204.38
463.657	1190.38
463.876	1178.38
464.096	1192.38
464.316	1137.38
464.536	1125.38
464.755	1166.38
464.975	1163.38
465.195	1119.38
465.414	1128.38
465.634	1105.38
465.854	1108.38
466.073	1082.38
466.293	1079.38
466.512	1068.38
466.732	1034.38
466.951	1038.38
467.171	1056.38
467.391	1080.38
467.61	1027.38
467.829	1048.38
468.049	1072.38
468.268	1040.38
468.488	1042.38
468.707	1065.38
468.927	1023.38
469.146	1043.38
469.365	1025.38
469.585	992.38
469.804	1053.38
470.023	1036.38
470.243	1030.38
470.462	1059.38
470.681	1073.38
470.901	1029.38
471.12	1051.38
471.339	1053.38
471.558	1076.38
471.777	1052.38
471.997	1026.38
472.216	1035.38
472.435	1048.38
472.654	1047.38
472.873	1018.38
473.092	1046.38
473.311	1039.38
473.53	1053.38
473.749	1080.38
473.968	1062.38
474.187	1054.38
474.406	1027.38
474.625	1052.38
474.844	1059.38
475.063	1095.38
475.282	1090.38
475.501	1095.38
475.72	1092.38
475.939	1095.38
476.158	1059.38
476.377	1107.38
476.596	1097.38
476.814	1109.38
477.033	1103.38
477.252	1110.38
477.471	1138.38
477.69	1174.38
477.908	1165.38
478.127	1155.38
478.346	1185.38
478.564	1165.38
478.783	1199.38
479.002	1197.38
479.22	1245.38
479.439	1230.38
479.658	1199.38
479.876	1220.38
480.095	1201.38
480.313	1229.38
480.532	1207.38
480.751	1224.38
480.969	1207.38
481.188	1205.38
481.406	1213.38
481.624	1204.38
481.843	1208.38
482.061	1226.38
482.28	1235.38
482.498	1219.38
482.717	1225.38
482.935	1226.38
483.153	1243.38
483.372	1259.38
483.59	1264.38
483.808	1255.38
484.027	1256.38
484.245	1287.38
484.463	1268.38
484.681	1291.38
484.9	1267.38
485.118	1268.38
485.336	1288.38
485.554	1298.38
485.772	1301.38
485.99	1276.38
486.209	1301.38
486.427	1259.38
486.645	1256.38
486.863	1281.38
487.081	1315.38
487.299	1307.38
487.517	1290.38
487.735	1300.38
487.953	1279.38
488.171	1308.38
488.389	1297.38
488.607	1278.38
488.825	1252.38
489.043	1293.38
489.261	1248.38
489.479	1281.38
489.696	1308.38
489.914	1283.38
490.132	1312.38
490.35	1319.38
490.568	1321.38
490.786	1313.38
491.003	1280.38
491.221	1317.38
491.439	1334.38
491.657	1307.38
491.874	1319.38
492.092	1338.38
492.31	1333.38
492.527	1340.38
492.745	1314.38
492.963	1332.38
493.18	1357.38
493.398	1329.38
493.615	1332.38
493.833	1330.38
494.05	1372.38
494.268	1336.38
494.485	1334.38
494.703	1325.38
494.92	1342.38
495.138	1348.38
495.355	1354.38
495.573	1364.38
