Data from Ni(NO3)2@0.0625M.TitratingCurve.Agarose3%dH2O.NegLispCup.LampEnergy10.LIBS07252019_HRD10591_18-14-00-569.txt Node
Date: Thu Jul 25 18:14:00 EDT 2019
User: cochatt
Spectrometer: HR+D1059
Trigger mode: 1
Integration Time (sec): 1.000000E-1
Scans to average: 1
Electric dark correction enabled: true
Nonlinearity correction enabled: false
Boxcar width: 0
XAxis mode: Wavelengths
Number of Pixels in Spectrum: 2048
>>>>>Begin Spectral Data<<<<<
223.165	-16.44
223.4	-16.44
223.635	-16.44
223.869	-0.44
224.104	-9.44
224.338	-16.44
224.573	-13.44
224.808	-9.44
225.042	-4.44
225.277	-6.44
225.511	-2.44
225.746	-10.44
225.98	3.56
226.215	4.56
226.449	22.56
226.683	14.56
226.918	19.56
227.152	24.56
227.387	27.56
227.621	40.56
227.856	45.56
228.09	35.56
228.324	55.56
228.559	55.56
228.793	75.56
229.027	97.56
229.262	96.56
229.496	111.56
229.73	126.56
229.964	130.56
230.199	145.56
230.433	124.56
230.667	120.56
230.901	125.56
231.136	132.56
231.37	124.56
231.604	137.56
231.838	131.56
232.072	136.56
232.306	154.56
232.541	157.56
232.775	157.56
233.009	144.56
233.243	156.56
233.477	166.56
233.711	163.56
233.945	153.56
234.179	164.56
234.413	157.56
234.647	142.56
234.881	159.56
235.115	147.56
235.349	144.56
235.583	162.56
235.817	133.56
236.051	152.56
236.285	148.56
236.519	145.56
236.753	158.56
236.987	155.56
237.221	152.56
237.455	174.56
237.689	159.56
237.922	165.56
238.156	180.56
238.39	171.56
238.624	150.56
238.858	161.56
239.091	170.56
239.325	175.56
239.559	170.56
239.793	187.56
240.027	162.56
240.26	180.56
240.494	186.56
240.728	171.56
240.961	174.56
241.195	172.56
241.429	199.56
241.662	188.56
241.896	194.56
242.13	190.56
242.363	198.56
242.597	194.56
242.83	196.56
243.064	202.56
243.298	179.56
243.531	194.56
243.765	218.56
243.998	206.56
244.232	204.56
244.465	204.56
244.699	207.56
244.932	195.56
245.166	212.56
245.399	222.56
245.633	235.56
245.866	195.56
246.099	228.56
246.333	219.56
246.566	222.56
246.8	231.56
247.033	220.56
247.266	225.56
247.5	219.56
247.733	231.56
247.966	221.56
248.2	229.56
248.433	227.56
248.666	242.56
248.899	232.56
249.133	244.56
249.366	242.56
249.599	254.56
249.832	200.56
250.066	242.56
250.299	246.56
250.532	229.56
250.765	262.56
250.998	266.56
251.231	233.56
251.465	256.56
251.698	254.56
251.931	255.56
252.164	243.56
252.397	278.56
252.63	262.56
252.863	238.56
253.096	266.56
253.329	277.56
253.562	246.56
253.795	262.56
254.028	276.56
254.261	278.56
254.494	299.56
254.727	282.56
254.96	271.56
255.193	268.56
255.426	272.56
255.659	280.56
255.892	278.56
256.124	286.56
256.357	289.56
256.59	286.56
256.823	286.56
257.056	307.56
257.289	282.56
257.521	285.56
257.754	302.56
257.987	303.56
258.22	306.56
258.452	284.56
258.685	287.56
258.918	304.56
259.151	308.56
259.383	314.56
259.616	312.56
259.849	297.56
260.081	297.56
260.314	316.56
260.547	312.56
260.779	312.56
261.012	329.56
261.244	298.56
261.477	343.56
261.71	322.56
261.942	322.56
262.175	320.56
262.407	328.56
262.64	326.56
262.872	326.56
263.105	332.56
263.337	342.56
263.57	335.56
263.802	328.56
264.035	338.56
264.267	332.56
264.499	332.56
264.732	334.56
264.964	351.56
265.197	342.56
265.429	349.56
265.661	352.56
265.894	344.56
266.126	363.56
266.358	346.56
266.591	347.56
266.823	354.56
267.055	348.56
267.287	374.56
267.52	378.56
267.752	349.56
267.984	367.56
268.216	365.56
268.448	364.56
268.681	355.56
268.913	367.56
269.145	373.56
269.377	362.56
269.609	382.56
269.841	372.56
270.073	366.56
270.306	368.56
270.538	364.56
270.77	375.56
271.002	358.56
271.234	388.56
271.466	386.56
271.698	383.56
271.93	396.56
272.162	372.56
272.394	397.56
272.626	369.56
272.858	383.56
273.09	398.56
273.322	406.56
273.553	409.56
273.785	418.56
274.017	399.56
274.249	407.56
274.481	420.56
274.713	422.56
274.945	409.56
275.176	408.56
275.408	425.56
275.64	412.56
275.872	439.56
276.104	421.56
276.335	399.56
276.567	408.56
276.799	418.56
277.031	415.56
277.262	403.56
277.494	411.56
277.726	435.56
277.957	437.56
278.189	421.56
278.421	445.56
278.652	430.56
278.884	427.56
279.115	441.56
279.347	436.56
279.579	452.56
279.81	452.56
280.042	445.56
280.273	456.56
280.505	439.56
280.736	460.56
280.968	450.56
281.199	451.56
281.431	480.56
281.662	458.56
281.894	453.56
282.125	438.56
282.356	464.56
282.588	488.56
282.819	450.56
283.051	468.56
283.282	474.56
283.513	482.56
283.745	469.56
283.976	466.56
284.207	487.56
284.439	455.56
284.67	490.56
284.901	480.56
285.132	471.56
285.364	452.56
285.595	490.56
285.826	476.56
286.057	503.56
286.288	485.56
286.52	498.56
286.751	507.56
286.982	486.56
287.213	508.56
287.444	477.56
287.675	499.56
287.906	510.56
288.138	502.56
288.369	520.56
288.6	521.56
288.831	503.56
289.062	517.56
289.293	521.56
289.524	507.56
289.755	502.56
289.986	518.56
290.217	537.56
290.448	511.56
290.679	528.56
290.91	523.56
291.141	522.56
291.371	522.56
291.602	517.56
291.833	515.56
292.064	500.56
292.295	514.56
292.526	513.56
292.757	521.56
292.987	505.56
293.218	531.56
293.449	540.56
293.68	517.56
293.91	572.56
294.141	539.56
294.372	509.56
294.603	520.56
294.833	526.56
295.064	526.56
295.295	509.56
295.525	550.56
295.756	554.56
295.987	534.56
296.217	554.56
296.448	546.56
296.679	551.56
296.909	546.56
297.14	560.56
297.37	572.56
297.601	582.56
297.831	560.56
298.062	559.56
298.292	582.56
298.523	596.56
298.753	580.56
298.984	551.56
299.214	568.56
299.445	557.56
299.675	576.56
299.905	562.56
300.136	542.56
300.366	557.56
300.597	573.56
300.827	582.56
301.057	576.56
301.288	600.56
301.518	595.56
301.748	610.56
301.979	614.56
302.209	600.56
302.439	600.56
302.669	606.56
302.9	590.56
303.13	589.56
303.36	599.56
303.59	573.56
303.82	609.56
304.051	616.56
304.281	614.56
304.511	588.56
304.741	586.56
304.971	602.56
305.201	589.56
305.431	606.56
305.661	598.56
305.891	581.56
306.121	594.56
306.352	579.56
306.582	578.56
306.812	582.56
307.042	568.56
307.272	594.56
307.502	581.56
307.731	595.56
307.961	575.56
308.191	568.56
308.421	595.56
308.651	592.56
308.881	572.56
309.111	602.56
309.341	585.56
309.571	596.56
309.8	594.56
310.03	586.56
310.26	576.56
310.49	562.56
310.72	576.56
310.949	593.56
311.179	600.56
311.409	583.56
311.639	616.56
311.868	598.56
312.098	580.56
312.328	615.56
312.557	612.56
312.787	588.56
313.017	584.56
313.246	634.56
313.476	588.56
313.706	640.56
313.935	623.56
314.165	610.56
314.394	642.56
314.624	592.56
314.853	628.56
315.083	630.56
315.312	623.56
315.542	612.56
315.771	622.56
316.001	634.56
316.23	607.56
316.46	620.56
316.689	612.56
316.919	611.56
317.148	626.56
317.377	636.56
317.607	618.56
317.836	619.56
318.065	612.56
318.295	618.56
318.524	608.56
318.753	639.56
318.983	619.56
319.212	624.56
319.441	616.56
319.67	614.56
319.9	630.56
320.129	614.56
320.358	627.56
320.587	635.56
320.816	633.56
321.046	611.56
321.275	619.56
321.504	630.56
321.733	614.56
321.962	607.56
322.191	631.56
322.42	640.56
322.649	655.56
322.878	630.56
323.108	649.56
323.337	636.56
323.566	651.56
323.795	634.56
324.024	654.56
324.253	646.56
324.482	647.56
324.71	613.56
324.939	678.56
325.168	657.56
325.397	653.56
325.626	650.56
325.855	662.56
326.084	700.56
326.313	654.56
326.542	680.56
326.77	708.56
326.999	675.56
327.228	650.56
327.457	668.56
327.686	664.56
327.914	664.56
328.143	689.56
328.372	676.56
328.6	713.56
328.829	670.56
329.058	687.56
329.287	680.56
329.515	691.56
329.744	679.56
329.972	660.56
330.201	674.56
330.43	696.56
330.658	706.56
330.887	696.56
331.115	702.56
331.344	701.56
331.572	703.56
331.801	728.56
332.03	749.56
332.258	738.56
332.486	809.56
332.715	798.56
332.943	853.56
333.172	870.56
333.4	930.56
333.629	950.56
333.857	934.56
334.085	923.56
334.314	924.56
334.542	898.56
334.771	873.56
334.999	852.56
335.227	848.56
335.455	858.56
335.684	862.56
335.912	840.56
336.14	840.56
336.369	832.56
336.597	810.56
336.825	821.56
337.053	829.56
337.281	808.56
337.51	805.56
337.738	809.56
337.966	778.56
338.194	758.56
338.422	756.56
338.65	734.56
338.878	733.56
339.106	727.56
339.334	787.56
339.562	749.56
339.79	726.56
340.018	714.56
340.246	714.56
340.474	724.56
340.702	735.56
340.93	731.56
341.158	728.56
341.386	711.56
341.614	712.56
341.842	722.56
342.07	694.56
342.298	710.56
342.526	711.56
342.754	701.56
342.981	712.56
343.209	724.56
343.437	766.56
343.665	812.56
343.893	863.56
344.12	887.56
344.348	869.56
344.576	801.56
344.804	770.56
345.031	748.56
345.259	719.56
345.487	719.56
345.714	699.56
345.942	693.56
346.17	707.56
346.397	731.56
346.625	686.56
346.853	688.56
347.08	692.56
347.308	698.56
347.535	680.56
347.763	710.56
347.99	711.56
348.218	725.56
348.445	685.56
348.673	700.56
348.9	716.56
349.128	695.56
349.355	703.56
349.583	691.56
349.81	682.56
350.037	660.56
350.265	670.56
350.492	662.56
350.72	659.56
350.947	640.56
351.174	690.56
351.402	672.56
351.629	666.56
351.856	634.56
352.083	662.56
352.311	639.56
352.538	655.56
352.765	679.56
352.992	668.56
353.22	661.56
353.447	672.56
353.674	654.56
353.901	679.56
354.128	663.56
354.355	684.56
354.583	687.56
354.81	657.56
355.037	670.56
355.264	660.56
355.491	662.56
355.718	674.56
355.945	648.56
356.172	649.56
356.399	673.56
356.626	671.56
356.853	674.56
357.08	694.56
357.307	677.56
357.534	672.56
357.761	674.56
357.988	648.56
358.215	657.56
358.441	664.56
358.668	644.56
358.895	686.56
359.122	670.56
359.349	653.56
359.576	667.56
359.802	669.56
360.029	659.56
360.256	654.56
360.483	647.56
360.709	672.56
360.936	694.56
361.163	660.56
361.39	653.56
361.616	656.56
361.843	683.56
362.07	691.56
362.296	669.56
362.523	646.56
362.749	671.56
362.976	671.56
363.203	640.56
363.429	650.56
363.656	663.56
363.882	659.56
364.109	658.56
364.335	674.56
364.562	660.56
364.788	672.56
365.015	670.56
365.241	647.56
365.468	654.56
365.694	664.56
365.92	680.56
366.147	661.56
366.373	656.56
366.599	682.56
366.826	662.56
367.052	644.56
367.278	676.56
367.505	674.56
367.731	668.56
367.957	661.56
368.184	677.56
368.41	698.56
368.636	683.56
368.862	700.56
369.089	679.56
369.315	703.56
369.541	702.56
369.767	694.56
369.993	678.56
370.219	676.56
370.445	698.56
370.672	722.56
370.898	720.56
371.124	699.56
371.35	717.56
371.576	751.56
371.802	726.56
372.028	725.56
372.254	723.56
372.48	730.56
372.706	733.56
372.932	758.56
373.158	751.56
373.384	728.56
373.61	734.56
373.835	735.56
374.061	738.56
374.287	722.56
374.513	738.56
374.739	789.56
374.965	811.56
375.191	811.56
375.416	819.56
375.642	790.56
375.868	767.56
376.094	766.56
376.319	772.56
376.545	734.56
376.771	757.56
376.997	743.56
377.222	751.56
377.448	754.56
377.674	769.56
377.899	714.56
378.125	733.56
378.35	717.56
378.576	739.56
378.802	722.56
379.027	741.56
379.253	717.56
379.478	717.56
379.704	726.56
379.929	711.56
380.155	748.56
380.38	734.56
380.606	745.56
380.831	746.56
381.057	738.56
381.282	714.56
381.507	703.56
381.733	768.56
381.958	744.56
382.184	722.56
382.409	745.56
382.634	787.56
382.86	764.56
383.085	770.56
383.31	776.56
383.535	796.56
383.761	784.56
383.986	803.56
384.211	834.56
384.436	844.56
384.662	854.56
384.887	888.56
385.112	865.56
385.337	882.56
385.562	875.56
385.787	880.56
386.013	880.56
386.238	890.56
386.463	897.56
386.688	900.56
386.913	863.56
387.138	861.56
387.363	869.56
387.588	872.56
387.813	868.56
388.038	863.56
388.263	854.56
388.488	861.56
388.713	891.56
388.938	886.56
389.163	832.56
389.387	877.56
389.612	834.56
389.837	868.56
390.062	864.56
390.287	858.56
390.512	852.56
390.736	860.56
390.961	900.56
391.186	892.56
391.411	931.56
391.636	967.56
391.86	979.56
392.085	1032.56
392.31	970.56
392.534	938.56
392.759	973.56
392.984	938.56
393.208	920.56
393.433	921.56
393.658	918.56
393.882	928.56
394.107	909.56
394.331	934.56
394.556	967.56
394.78	930.56
395.005	941.56
395.229	948.56
395.454	952.56
395.678	986.56
395.903	1008.56
396.127	974.56
396.352	933.56
396.576	918.56
396.801	950.56
397.025	931.56
397.249	935.56
397.474	967.56
397.698	981.56
397.922	992.56
398.147	976.56
398.371	991.56
398.595	1046.56
398.82	1055.56
399.044	1140.56
399.268	1308.56
399.492	1495.56
399.717	1647.56
399.941	1654.56
400.165	1487.56
400.389	1304.56
400.613	1202.56
400.837	1147.56
401.062	1127.56
401.286	1095.56
401.51	1084.56
401.734	1111.56
401.958	1070.56
402.182	1114.56
402.406	1138.56
402.63	1159.56
402.854	1178.56
403.078	1224.56
403.302	1236.56
403.526	1269.56
403.75	1254.56
403.974	1282.56
404.198	1283.56
404.422	1296.56
404.645	1263.56
404.869	1241.56
405.093	1229.56
405.317	1206.56
405.541	1211.56
405.765	1195.56
405.988	1177.56
406.212	1217.56
406.436	1206.56
406.66	1241.56
406.883	1255.56
407.107	1316.56
407.331	1388.56
407.555	1439.56
407.778	1413.56
408.002	1386.56
408.226	1352.56
408.449	1332.56
408.673	1294.56
408.896	1289.56
409.12	1234.56
409.344	1230.56
409.567	1251.56
409.791	1245.56
410.014	1249.56
410.238	1250.56
410.461	1259.56
410.685	1192.56
410.908	1199.56
411.132	1185.56
411.355	1142.56
411.578	1156.56
411.802	1135.56
412.025	1144.56
412.249	1144.56
412.472	1163.56
412.695	1121.56
412.919	1117.56
413.142	1100.56
413.365	1081.56
413.589	1127.56
413.812	1101.56
414.035	1055.56
414.258	1102.56
414.482	1066.56
414.705	1136.56
414.928	1138.56
415.151	1120.56
415.374	1110.56
415.597	1119.56
415.821	1085.56
416.044	1069.56
416.267	1066.56
416.49	1060.56
416.713	1068.56
416.936	1078.56
417.159	1082.56
417.382	1061.56
417.605	1068.56
417.828	1074.56
418.051	1091.56
418.274	1074.56
418.497	1081.56
418.72	1147.56
418.943	1130.56
419.166	1186.56
419.389	1237.56
419.611	1183.56
419.834	1164.56
420.057	1129.56
420.28	1117.56
420.503	1078.56
420.726	1089.56
420.948	1058.56
421.171	1052.56
421.394	1089.56
421.617	1088.56
421.839	1078.56
422.062	1053.56
422.285	1065.56
422.507	1111.56
422.73	1118.56
422.953	1146.56
423.175	1119.56
423.398	1146.56
423.621	1138.56
423.843	1147.56
424.066	1164.56
424.288	1153.56
424.511	1160.56
424.733	1138.56
424.956	1102.56
425.178	1068.56
425.401	1074.56
425.623	1090.56
425.846	1060.56
426.068	1024.56
426.291	1029.56
426.513	1003.56
426.735	1011.56
426.958	1018.56
427.18	997.56
427.402	1008.56
427.625	1014.56
427.847	976.56
428.069	968.56
428.292	959.56
428.514	973.56
428.736	956.56
428.958	963.56
429.181	937.56
429.403	944.56
429.625	919.56
429.847	906.56
430.069	900.56
430.292	951.56
430.514	959.56
430.736	944.56
430.958	964.56
431.18	958.56
431.402	950.56
431.624	930.56
431.846	955.56
432.068	1010.56
432.29	1005.56
432.512	938.56
432.734	967.56
432.956	963.56
433.178	962.56
433.4	955.56
433.622	968.56
433.844	991.56
434.066	978.56
434.287	1001.56
434.509	1014.56
434.731	1057.56
434.953	1094.56
435.175	1105.56
435.397	1061.56
435.618	1044.56
435.84	1015.56
436.062	994.56
436.284	992.56
436.505	918.56
436.727	941.56
436.949	980.56
437.17	937.56
437.392	958.56
437.614	930.56
437.835	909.56
438.057	911.56
438.278	910.56
438.5	912.56
438.721	920.56
438.943	956.56
439.165	928.56
439.386	942.56
439.608	963.56
439.829	975.56
440.05	948.56
440.272	970.56
440.493	970.56
440.715	990.56
440.936	995.56
441.158	1016.56
441.379	1007.56
441.6	1108.56
441.822	1090.56
442.043	1109.56
442.264	1047.56
442.486	1045.56
442.707	1056.56
442.928	1062.56
443.149	1084.56
443.371	1052.56
443.592	1098.56
443.813	1084.56
444.034	1104.56
444.255	1095.56
444.476	1178.56
444.698	1263.56
444.919	1300.56
445.14	1330.56
445.361	1188.56
445.582	1101.56
445.803	1066.56
446.024	1024.56
446.245	978.56
446.466	969.56
446.687	981.56
446.908	974.56
447.129	933.56
447.35	904.56
447.571	941.56
447.792	910.56
448.013	925.56
448.234	922.56
448.455	890.56
448.675	874.56
448.896	878.56
449.117	864.56
449.338	864.56
449.559	862.56
449.779	864.56
450	844.56
450.221	875.56
450.442	860.56
450.662	887.56
450.883	862.56
451.104	920.56
451.324	914.56
451.545	900.56
451.766	898.56
451.986	885.56
452.207	882.56
452.428	901.56
452.648	893.56
452.869	851.56
453.089	864.56
453.31	869.56
453.53	876.56
453.751	864.56
453.971	853.56
454.192	838.56
454.412	834.56
454.633	843.56
454.853	845.56
455.073	822.56
455.294	838.56
455.514	785.56
455.734	844.56
455.955	811.56
456.175	837.56
456.395	818.56
456.616	794.56
456.836	825.56
457.056	813.56
457.276	828.56
457.497	822.56
457.717	822.56
457.937	811.56
458.157	857.56
458.377	858.56
458.598	869.56
458.818	876.56
459.038	906.56
459.258	930.56
459.478	961.56
459.698	1000.56
459.918	999.56
460.138	1070.56
460.358	1084.56
460.578	1129.56
460.798	1155.56
461.018	1127.56
461.238	1112.56
461.458	1086.56
461.678	1109.56
461.898	1115.56
462.118	1127.56
462.338	1195.56
462.558	1222.56
462.777	1278.56
462.997	1410.56
463.217	1526.56
463.437	1515.56
463.657	1420.56
463.876	1361.56
464.096	1342.56
464.316	1334.56
464.536	1344.56
464.755	1296.56
464.975	1220.56
465.195	1180.56
465.414	1118.56
465.634	1042.56
465.854	1018.56
466.073	1008.56
466.293	942.56
466.512	977.56
466.732	917.56
466.951	912.56
467.171	947.56
467.391	940.56
467.61	930.56
467.829	942.56
468.049	909.56
468.268	903.56
468.488	880.56
468.707	856.56
468.927	900.56
469.146	868.56
469.365	878.56
469.585	871.56
469.804	926.56
470.023	932.56
470.243	934.56
470.462	922.56
470.681	952.56
470.901	943.56
471.12	922.56
471.339	920.56
471.558	885.56
471.777	942.56
471.997	890.56
472.216	879.56
472.435	866.56
472.654	868.56
472.873	838.56
473.092	858.56
473.311	856.56
473.53	861.56
473.749	861.56
473.968	867.56
474.187	845.56
474.406	839.56
474.625	862.56
474.844	864.56
475.063	877.56
475.282	862.56
475.501	838.56
475.72	875.56
475.939	879.56
476.158	878.56
476.377	889.56
476.596	878.56
476.814	910.56
477.033	913.56
477.252	910.56
477.471	956.56
477.69	956.56
477.908	975.56
478.127	999.56
478.346	1007.56
478.564	1058.56
478.783	1025.56
479.002	1081.56
479.22	1108.56
479.439	1071.56
479.658	1064.56
479.876	1076.56
480.095	1114.56
480.313	1125.56
480.532	1179.56
480.751	1171.56
480.969	1129.56
481.188	1104.56
481.406	1050.56
481.624	1037.56
481.843	1016.56
482.061	997.56
482.28	970.56
482.498	975.56
482.717	967.56
482.935	999.56
483.153	990.56
483.372	993.56
483.59	989.56
483.808	1003.56
484.027	1023.56
484.245	999.56
484.463	1022.56
484.681	1065.56
484.9	1014.56
485.118	1024.56
485.336	1021.56
485.554	1046.56
485.772	1060.56
485.99	1061.56
486.209	1041.56
486.427	1054.56
486.645	1070.56
486.863	1040.56
487.081	1055.56
487.299	1046.56
487.517	1063.56
487.735	1042.56
487.953	1047.56
488.171	1025.56
488.389	1023.56
488.607	1021.56
488.825	1022.56
489.043	1017.56
489.261	987.56
489.479	1030.56
489.696	1053.56
489.914	1044.56
490.132	1021.56
490.35	1014.56
490.568	1045.56
490.786	1024.56
491.003	1054.56
491.221	1020.56
491.439	1007.56
491.657	1026.56
491.874	1066.56
492.092	1024.56
492.31	1065.56
492.527	1008.56
492.745	1043.56
492.963	1050.56
493.18	1054.56
493.398	1087.56
493.615	1064.56
493.833	1047.56
494.05	1097.56
494.268	1074.56
494.485	1097.56
494.703	1066.56
494.92	1084.56
495.138	1071.56
495.355	1062.56
495.573	1077.56
495.79	1092.56
496.008	1092.56
496.225	1109.56
496.442	1095.56
496.66	1159.56
496.877	1135.56
497.094	1178.56
497.312	1186.56
497.529	1231.56
497.746	1263.56
