Data from Ni(NO3)2@0.25M.TitratingCurve.Agarose3%dH2O.NegLispCup.LampEnergy10.LIBS07252019_HRD10591_18-02-46-566.txt Node
Date: Thu Jul 25 18:02:46 EDT 2019
User: cochatt
Spectrometer: HR+D1059
Trigger mode: 1
Integration Time (sec): 1.000000E-1
Scans to average: 1
Electric dark correction enabled: true
Nonlinearity correction enabled: false
Boxcar width: 0
XAxis mode: Wavelengths
Number of Pixels in Spectrum: 2048
>>>>>Begin Spectral Data<<<<<
223.165	-5.75
223.4	-5.75
223.635	-5.75
223.869	-16.75
224.104	-21.75
224.338	-21.75
224.573	-11.75
224.808	-5.75
225.042	-23.75
225.277	-5.75
225.511	-18.75
225.746	23.25
225.98	10.25
226.215	7.25
226.449	19.25
226.683	25.25
226.918	18.25
227.152	28.25
227.387	28.25
227.621	37.25
227.856	56.25
228.09	55.25
228.324	39.25
228.559	36.25
228.793	45.25
229.027	71.25
229.262	78.25
229.496	72.25
229.73	66.25
229.964	104.25
230.199	96.25
230.433	91.25
230.667	111.25
230.901	87.25
231.136	89.25
231.37	109.25
231.604	103.25
231.838	113.25
232.072	109.25
232.306	117.25
232.541	103.25
232.775	108.25
233.009	99.25
233.243	90.25
233.477	96.25
233.711	95.25
233.945	92.25
234.179	92.25
234.413	117.25
234.647	98.25
234.881	115.25
235.115	108.25
235.349	103.25
235.583	102.25
235.817	94.25
236.051	104.25
236.285	89.25
236.519	94.25
236.753	105.25
236.987	97.25
237.221	104.25
237.455	92.25
237.689	105.25
237.922	89.25
238.156	97.25
238.39	101.25
238.624	92.25
238.858	98.25
239.091	113.25
239.325	95.25
239.559	111.25
239.793	109.25
240.027	129.25
240.26	105.25
240.494	118.25
240.728	99.25
240.961	100.25
241.195	104.25
241.429	104.25
241.662	103.25
241.896	107.25
242.13	124.25
242.363	113.25
242.597	115.25
242.83	102.25
243.064	117.25
243.298	103.25
243.531	107.25
243.765	122.25
243.998	129.25
244.232	113.25
244.465	124.25
244.699	124.25
244.932	106.25
245.166	125.25
245.399	124.25
245.633	117.25
245.866	127.25
246.099	111.25
246.333	111.25
246.566	111.25
246.8	119.25
247.033	117.25
247.266	117.25
247.5	119.25
247.733	134.25
247.966	122.25
248.2	140.25
248.433	131.25
248.666	125.25
248.899	143.25
249.133	108.25
249.366	117.25
249.599	123.25
249.832	135.25
250.066	136.25
250.299	139.25
250.532	142.25
250.765	143.25
250.998	134.25
251.231	159.25
251.465	147.25
251.698	153.25
251.931	149.25
252.164	152.25
252.397	163.25
252.63	155.25
252.863	161.25
253.096	152.25
253.329	168.25
253.562	159.25
253.795	169.25
254.028	170.25
254.261	161.25
254.494	161.25
254.727	168.25
254.96	178.25
255.193	170.25
255.426	171.25
255.659	159.25
255.892	181.25
256.124	177.25
256.357	186.25
256.59	179.25
256.823	172.25
257.056	190.25
257.289	175.25
257.521	172.25
257.754	184.25
257.987	181.25
258.22	198.25
258.452	196.25
258.685	192.25
258.918	190.25
259.151	179.25
259.383	186.25
259.616	182.25
259.849	205.25
260.081	198.25
260.314	189.25
260.547	194.25
260.779	191.25
261.012	194.25
261.244	203.25
261.477	203.25
261.71	219.25
261.942	198.25
262.175	197.25
262.407	215.25
262.64	218.25
262.872	207.25
263.105	209.25
263.337	202.25
263.57	227.25
263.802	209.25
264.035	202.25
264.267	212.25
264.499	210.25
264.732	214.25
264.964	212.25
265.197	236.25
265.429	228.25
265.661	228.25
265.894	209.25
266.126	216.25
266.358	211.25
266.591	223.25
266.823	232.25
267.055	220.25
267.287	217.25
267.52	218.25
267.752	218.25
267.984	228.25
268.216	226.25
268.448	223.25
268.681	217.25
268.913	220.25
269.145	228.25
269.377	217.25
269.609	233.25
269.841	225.25
270.073	226.25
270.306	231.25
270.538	228.25
270.77	232.25
271.002	243.25
271.234	242.25
271.466	243.25
271.698	244.25
271.93	238.25
272.162	214.25
272.394	237.25
272.626	226.25
272.858	219.25
273.09	245.25
273.322	247.25
273.553	229.25
273.785	249.25
274.017	225.25
274.249	244.25
274.481	229.25
274.713	211.25
274.945	240.25
275.176	231.25
275.408	240.25
275.64	253.25
275.872	256.25
276.104	252.25
276.335	249.25
276.567	252.25
276.799	243.25
277.031	245.25
277.262	232.25
277.494	251.25
277.726	242.25
277.957	241.25
278.189	257.25
278.421	253.25
278.652	237.25
278.884	251.25
279.115	260.25
279.347	243.25
279.579	250.25
279.81	240.25
280.042	234.25
280.273	248.25
280.505	240.25
280.736	253.25
280.968	264.25
281.199	249.25
281.431	267.25
281.662	261.25
281.894	250.25
282.125	259.25
282.356	252.25
282.588	256.25
282.819	255.25
283.051	263.25
283.282	245.25
283.513	256.25
283.745	253.25
283.976	246.25
284.207	249.25
284.439	269.25
284.67	264.25
284.901	257.25
285.132	244.25
285.364	265.25
285.595	271.25
285.826	256.25
286.057	245.25
286.288	272.25
286.52	273.25
286.751	273.25
286.982	262.25
287.213	255.25
287.444	274.25
287.675	264.25
287.906	268.25
288.138	260.25
288.369	261.25
288.6	259.25
288.831	268.25
289.062	257.25
289.293	261.25
289.524	246.25
289.755	264.25
289.986	273.25
290.217	262.25
290.448	284.25
290.679	252.25
290.91	246.25
291.141	260.25
291.371	282.25
291.602	282.25
291.833	277.25
292.064	258.25
292.295	258.25
292.526	277.25
292.757	249.25
292.987	266.25
293.218	273.25
293.449	255.25
293.68	284.25
293.91	267.25
294.141	270.25
294.372	268.25
294.603	271.25
294.833	284.25
295.064	265.25
295.295	260.25
295.525	265.25
295.756	250.25
295.987	273.25
296.217	263.25
296.448	263.25
296.679	268.25
296.909	265.25
297.14	274.25
297.37	272.25
297.601	289.25
297.831	277.25
298.062	294.25
298.292	260.25
298.523	284.25
298.753	270.25
298.984	277.25
299.214	269.25
299.445	290.25
299.675	281.25
299.905	279.25
300.136	271.25
300.366	286.25
300.597	292.25
300.827	311.25
301.057	297.25
301.288	277.25
301.518	300.25
301.748	288.25
301.979	310.25
302.209	298.25
302.439	288.25
302.669	291.25
302.9	292.25
303.13	283.25
303.36	298.25
303.59	301.25
303.82	320.25
304.051	307.25
304.281	284.25
304.511	292.25
304.741	310.25
304.971	315.25
305.201	297.25
305.431	328.25
305.661	305.25
305.891	298.25
306.121	324.25
306.352	305.25
306.582	287.25
306.812	305.25
307.042	307.25
307.272	278.25
307.502	299.25
307.731	316.25
307.961	299.25
308.191	315.25
308.421	295.25
308.651	315.25
308.881	313.25
309.111	314.25
309.341	327.25
309.571	319.25
309.8	326.25
310.03	308.25
310.26	311.25
310.49	350.25
310.72	325.25
310.949	316.25
311.179	321.25
311.409	320.25
311.639	326.25
311.868	332.25
312.098	313.25
312.328	339.25
312.557	342.25
312.787	346.25
313.017	339.25
313.246	340.25
313.476	329.25
313.706	344.25
313.935	347.25
314.165	343.25
314.394	353.25
314.624	345.25
314.853	334.25
315.083	347.25
315.312	337.25
315.542	335.25
315.771	355.25
316.001	362.25
316.23	359.25
316.46	349.25
316.689	374.25
316.919	397.25
317.148	375.25
317.377	374.25
317.607	383.25
317.836	363.25
318.065	367.25
318.295	380.25
318.524	371.25
318.753	384.25
318.983	359.25
319.212	370.25
319.441	391.25
319.67	398.25
319.9	406.25
320.129	392.25
320.358	389.25
320.587	396.25
320.816	407.25
321.046	388.25
321.275	391.25
321.504	389.25
321.733	407.25
321.962	404.25
322.191	408.25
322.42	423.25
322.649	405.25
322.878	413.25
323.108	406.25
323.337	431.25
323.566	421.25
323.795	443.25
324.024	416.25
324.253	444.25
324.482	417.25
324.71	452.25
324.939	447.25
325.168	455.25
325.397	452.25
325.626	438.25
325.855	454.25
326.084	457.25
326.313	447.25
326.542	467.25
326.77	459.25
326.999	465.25
327.228	442.25
327.457	461.25
327.686	491.25
327.914	484.25
328.143	475.25
328.372	447.25
328.6	455.25
328.829	457.25
329.058	470.25
329.287	468.25
329.515	455.25
329.744	487.25
329.972	493.25
330.201	480.25
330.43	498.25
330.658	499.25
330.887	512.25
331.115	520.25
331.344	504.25
331.572	513.25
331.801	510.25
332.03	508.25
332.258	519.25
332.486	544.25
332.715	535.25
332.943	522.25
333.172	540.25
333.4	529.25
333.629	551.25
333.857	535.25
334.085	556.25
334.314	561.25
334.542	559.25
334.771	553.25
334.999	581.25
335.227	565.25
335.455	581.25
335.684	549.25
335.912	578.25
336.14	562.25
336.369	554.25
336.597	582.25
336.825	554.25
337.053	568.25
337.281	586.25
337.51	564.25
337.738	545.25
337.966	553.25
338.194	573.25
338.422	559.25
338.65	550.25
338.878	552.25
339.106	556.25
339.334	564.25
339.562	557.25
339.79	557.25
340.018	537.25
340.246	559.25
340.474	539.25
340.702	545.25
340.93	543.25
341.158	550.25
341.386	571.25
341.614	565.25
341.842	562.25
342.07	563.25
342.298	561.25
342.526	567.25
342.754	557.25
342.981	553.25
343.209	552.25
343.437	576.25
343.665	563.25
343.893	563.25
344.12	588.25
344.348	586.25
344.576	566.25
344.804	571.25
345.031	564.25
345.259	547.25
345.487	550.25
345.714	548.25
345.942	560.25
346.17	568.25
346.397	564.25
346.625	556.25
346.853	534.25
347.08	556.25
347.308	547.25
347.535	539.25
347.763	553.25
347.99	533.25
348.218	532.25
348.445	525.25
348.673	524.25
348.9	567.25
349.128	532.25
349.355	554.25
349.583	536.25
349.81	555.25
350.037	532.25
350.265	539.25
350.492	529.25
350.72	545.25
350.947	532.25
351.174	551.25
351.402	548.25
351.629	549.25
351.856	546.25
352.083	524.25
352.311	550.25
352.538	540.25
352.765	525.25
352.992	528.25
353.22	521.25
353.447	536.25
353.674	509.25
353.901	519.25
354.128	522.25
354.355	507.25
354.583	538.25
354.81	507.25
355.037	520.25
355.264	533.25
355.491	519.25
355.718	498.25
355.945	550.25
356.172	509.25
356.399	521.25
356.626	517.25
356.853	541.25
357.08	514.25
357.307	545.25
357.534	545.25
357.761	530.25
357.988	527.25
358.215	531.25
358.441	514.25
358.668	491.25
358.895	513.25
359.122	518.25
359.349	512.25
359.576	513.25
359.802	517.25
360.029	530.25
360.256	511.25
360.483	513.25
360.709	547.25
360.936	523.25
361.163	528.25
361.39	511.25
361.616	509.25
361.843	514.25
362.07	533.25
362.296	556.25
362.523	528.25
362.749	519.25
362.976	509.25
363.203	516.25
363.429	528.25
363.656	498.25
363.882	512.25
364.109	526.25
364.335	516.25
364.562	507.25
364.788	508.25
365.015	517.25
365.241	533.25
365.468	524.25
365.694	525.25
365.92	515.25
366.147	525.25
366.373	517.25
366.599	532.25
366.826	504.25
367.052	522.25
367.278	509.25
367.505	504.25
367.731	502.25
367.957	516.25
368.184	517.25
368.41	537.25
368.636	514.25
368.862	527.25
369.089	525.25
369.315	521.25
369.541	544.25
369.767	522.25
369.993	514.25
370.219	525.25
370.445	543.25
370.672	524.25
370.898	530.25
371.124	517.25
371.35	514.25
371.576	522.25
371.802	511.25
372.028	508.25
372.254	537.25
372.48	519.25
372.706	529.25
372.932	500.25
373.158	547.25
373.384	538.25
373.61	527.25
373.835	515.25
374.061	516.25
374.287	532.25
374.513	534.25
374.739	538.25
374.965	552.25
375.191	543.25
375.416	525.25
375.642	522.25
375.868	514.25
376.094	528.25
376.319	532.25
376.545	517.25
376.771	515.25
376.997	511.25
377.222	500.25
377.448	495.25
377.674	499.25
377.899	489.25
378.125	514.25
378.35	505.25
378.576	499.25
378.802	506.25
379.027	516.25
379.253	505.25
379.478	493.25
379.704	501.25
379.929	501.25
380.155	495.25
380.38	496.25
380.606	509.25
380.831	500.25
381.057	511.25
381.282	501.25
381.507	517.25
381.733	512.25
381.958	503.25
382.184	503.25
382.409	516.25
382.634	509.25
382.86	511.25
383.085	523.25
383.31	530.25
383.535	525.25
383.761	507.25
383.986	542.25
384.211	527.25
384.436	521.25
384.662	531.25
384.887	535.25
385.112	526.25
385.337	535.25
385.562	524.25
385.787	543.25
386.013	555.25
386.238	563.25
386.463	557.25
386.688	545.25
386.913	534.25
387.138	516.25
387.363	549.25
387.588	548.25
387.813	541.25
388.038	562.25
388.263	543.25
388.488	529.25
388.713	532.25
388.938	533.25
389.163	507.25
389.387	559.25
389.612	541.25
389.837	543.25
390.062	527.25
390.287	536.25
390.512	563.25
390.736	556.25
390.961	546.25
391.186	554.25
391.411	602.25
391.636	563.25
391.86	565.25
392.085	568.25
392.31	561.25
392.534	571.25
392.759	578.25
392.984	555.25
393.208	565.25
393.433	557.25
393.658	563.25
393.882	566.25
394.107	556.25
394.331	555.25
394.556	551.25
394.78	571.25
395.005	588.25
395.229	539.25
395.454	592.25
395.678	581.25
395.903	549.25
396.127	560.25
396.352	549.25
396.576	575.25
396.801	570.25
397.025	592.25
397.249	583.25
397.474	572.25
397.698	609.25
397.922	601.25
398.147	586.25
398.371	619.25
398.595	587.25
398.82	601.25
399.044	621.25
399.268	651.25
399.492	677.25
399.717	684.25
399.941	698.25
400.165	695.25
400.389	640.25
400.613	647.25
400.837	645.25
401.062	634.25
401.286	645.25
401.51	627.25
401.734	633.25
401.958	600.25
402.182	645.25
402.406	631.25
402.63	627.25
402.854	619.25
403.078	634.25
403.302	620.25
403.526	647.25
403.75	654.25
403.974	640.25
404.198	649.25
404.422	641.25
404.645	617.25
404.869	619.25
405.093	644.25
405.317	618.25
405.541	661.25
405.765	653.25
405.988	651.25
406.212	672.25
406.436	645.25
406.66	675.25
406.883	644.25
407.107	705.25
407.331	678.25
407.555	695.25
407.778	708.25
408.002	707.25
408.226	707.25
408.449	711.25
408.673	711.25
408.896	671.25
409.12	671.25
409.344	656.25
409.567	678.25
409.791	706.25
410.014	697.25
410.238	660.25
410.461	678.25
410.685	657.25
410.908	649.25
411.132	668.25
411.355	666.25
411.578	663.25
411.802	653.25
412.025	656.25
412.249	656.25
412.472	664.25
412.695	664.25
412.919	650.25
413.142	638.25
413.365	671.25
413.589	631.25
413.812	657.25
414.035	639.25
414.258	652.25
414.482	644.25
414.705	640.25
414.928	667.25
415.151	671.25
415.374	639.25
415.597	620.25
415.821	645.25
416.044	631.25
416.267	648.25
416.49	646.25
416.713	634.25
416.936	650.25
417.159	644.25
417.382	645.25
417.605	652.25
417.828	641.25
418.051	644.25
418.274	636.25
418.497	641.25
418.72	669.25
418.943	633.25
419.166	679.25
419.389	713.25
419.611	672.25
419.834	673.25
420.057	671.25
420.28	666.25
420.503	643.25
420.726	655.25
420.948	631.25
421.171	646.25
421.394	633.25
421.617	645.25
421.839	668.25
422.062	663.25
422.285	634.25
422.507	641.25
422.73	625.25
422.953	658.25
423.175	667.25
423.398	661.25
423.621	671.25
423.843	684.25
424.066	664.25
424.288	661.25
424.511	646.25
424.733	667.25
424.956	658.25
425.178	694.25
425.401	657.25
425.623	667.25
425.846	644.25
426.068	672.25
426.291	681.25
426.513	662.25
426.735	671.25
426.958	664.25
427.18	660.25
427.402	650.25
427.625	636.25
427.847	660.25
428.069	664.25
428.292	672.25
428.514	645.25
428.736	648.25
428.958	650.25
429.181	666.25
429.403	666.25
429.625	639.25
429.847	657.25
430.069	650.25
430.292	661.25
430.514	635.25
430.736	658.25
430.958	668.25
431.18	635.25
431.402	659.25
431.624	661.25
431.846	664.25
432.068	649.25
432.29	635.25
432.512	648.25
432.734	661.25
432.956	645.25
433.178	658.25
433.4	689.25
433.622	664.25
433.844	683.25
434.066	671.25
434.287	651.25
434.509	666.25
434.731	683.25
434.953	649.25
435.175	700.25
435.397	710.25
435.618	666.25
435.84	678.25
436.062	682.25
436.284	651.25
436.505	665.25
436.727	641.25
436.949	663.25
437.17	684.25
437.392	648.25
437.614	660.25
437.835	647.25
438.057	654.25
438.278	640.25
438.5	624.25
438.721	661.25
438.943	656.25
439.165	652.25
439.386	671.25
439.608	683.25
439.829	648.25
440.05	665.25
440.272	695.25
440.493	664.25
440.715	687.25
440.936	689.25
441.158	684.25
441.379	697.25
441.6	701.25
441.822	715.25
442.043	682.25
442.264	684.25
442.486	699.25
442.707	701.25
442.928	687.25
443.149	718.25
443.371	705.25
443.592	712.25
443.813	706.25
444.034	699.25
444.255	710.25
444.476	697.25
444.698	729.25
444.919	743.25
445.14	836.25
445.361	782.25
445.582	712.25
445.803	684.25
446.024	679.25
446.245	703.25
446.466	699.25
446.687	678.25
446.908	672.25
447.129	657.25
447.35	663.25
447.571	661.25
447.792	653.25
448.013	644.25
448.234	645.25
448.455	652.25
448.675	651.25
448.896	643.25
449.117	635.25
449.338	624.25
449.559	621.25
449.779	631.25
450	615.25
450.221	629.25
450.442	647.25
450.662	645.25
450.883	644.25
451.104	627.25
451.324	626.25
451.545	617.25
451.766	641.25
451.986	618.25
452.207	630.25
452.428	616.25
452.648	615.25
452.869	607.25
453.089	625.25
453.31	637.25
453.53	586.25
453.751	568.25
453.971	597.25
454.192	617.25
454.412	613.25
454.633	599.25
454.853	605.25
455.073	592.25
455.294	604.25
455.514	608.25
455.734	601.25
455.955	620.25
456.175	619.25
456.395	597.25
456.616	597.25
456.836	602.25
457.056	601.25
457.276	601.25
457.497	614.25
457.717	612.25
457.937	613.25
458.157	598.25
458.377	604.25
458.598	620.25
458.818	623.25
459.038	612.25
459.258	606.25
459.478	646.25
459.698	678.25
459.918	669.25
460.138	663.25
460.358	665.25
460.578	691.25
460.798	703.25
461.018	689.25
461.238	683.25
461.458	678.25
461.678	675.25
461.898	702.25
462.118	698.25
462.338	728.25
462.558	735.25
462.777	737.25
462.997	739.25
463.217	731.25
463.437	775.25
463.657	790.25
463.876	740.25
464.096	729.25
464.316	730.25
464.536	721.25
464.755	743.25
464.975	731.25
465.195	713.25
465.414	703.25
465.634	697.25
465.854	652.25
466.073	661.25
466.293	664.25
466.512	638.25
466.732	674.25
466.951	678.25
467.171	651.25
467.391	676.25
467.61	661.25
467.829	654.25
468.049	658.25
468.268	652.25
468.488	649.25
468.707	644.25
468.927	673.25
469.146	645.25
469.365	654.25
469.585	657.25
469.804	665.25
470.023	694.25
470.243	677.25
470.462	668.25
470.681	658.25
470.901	689.25
471.12	684.25
471.339	697.25
471.558	675.25
471.777	684.25
471.997	666.25
472.216	640.25
472.435	639.25
472.654	643.25
472.873	636.25
473.092	669.25
473.311	660.25
473.53	665.25
473.749	669.25
473.968	665.25
474.187	647.25
474.406	648.25
474.625	694.25
474.844	653.25
475.063	683.25
475.282	671.25
475.501	646.25
475.72	673.25
475.939	695.25
476.158	705.25
476.377	692.25
476.596	675.25
476.814	688.25
477.033	691.25
477.252	724.25
477.471	705.25
477.69	704.25
477.908	728.25
478.127	738.25
478.346	735.25
478.564	735.25
478.783	756.25
479.002	782.25
479.22	778.25
479.439	767.25
479.658	785.25
479.876	736.25
480.095	745.25
480.313	767.25
480.532	799.25
480.751	789.25
480.969	785.25
481.188	747.25
481.406	759.25
481.624	751.25
481.843	755.25
482.061	757.25
482.28	738.25
482.498	752.25
482.717	769.25
482.935	776.25
483.153	762.25
483.372	797.25
483.59	791.25
483.808	789.25
484.027	759.25
484.245	804.25
484.463	802.25
484.681	813.25
484.9	798.25
485.118	756.25
485.336	779.25
485.554	799.25
485.772	782.25
485.99	774.25
486.209	810.25
486.427	806.25
486.645	776.25
486.863	792.25
487.081	801.25
487.299	798.25
487.517	800.25
487.735	834.25
487.953	850.25
488.171	803.25
488.389	817.25
488.607	806.25
488.825	787.25
489.043	773.25
489.261	796.25
489.479	787.25
489.696	796.25
489.914	801.25
490.132	819.25
490.35	810.25
490.568	829.25
490.786	856.25
491.003	846.25
491.221	849.25
491.439	862.25
491.657	864.25
491.874	876.25
492.092	868.25
492.31	873.25
492.527	890.25
492.745	868.25
492.963	874.25
493.18	852.25
493.398	891.25
493.615	863.25
493.833	839.25
494.05	872.25
494.268	863.25
494.485	883.25
494.703	876.25
494.92	904.25
495.138	858.25
495.355	886.25
495.573	881.25
495.79	867.25
496.008	886.25
496.225	885.25
496.442	875.25
496.66	889.25
496.877	906.25
497.094	910.25
497.312	901.25
497.529	909.25
497.746	912.25
497.963	940.25
498.181	949.25
498.398	943.25
498.615	963.25
498.832	996.25
499.049	1033.25
499.267	1041.25
499.484	1080.25
499.701	1133.25
499.918	1151.25
500.135	1218.25
500.352	1277.25
500.569	1288.25
500.786	1282.25
501.003	1248.25
501.22	1192.25
501.437	1151.25
501.654	1113.25
