Data from Ni(NO3)2Standard.Agarose3%.GreenCap.LampEnergy5.5.E.O_HRD10591_14-40-23-191.txt Node
Date: Mon Jul 22 14:40:23 EDT 2019
User: cochatt
Spectrometer: HR+D1059
Trigger mode: 1
Integration Time (sec): 1.000000E-1
Scans to average: 1
Electric dark correction enabled: true
Nonlinearity correction enabled: false
Boxcar width: 0
XAxis mode: Wavelengths
Number of Pixels in Spectrum: 2048
>>>>>Begin Spectral Data<<<<<
223.165	-24.19
223.4	-24.19
223.635	-24.19
223.869	-27.19
224.104	-24.19
224.338	-23.19
224.573	-18.19
224.808	-1.19
225.042	4.81
225.277	-10.19
225.511	-1.19
225.746	1.81
225.98	13.81
226.215	15.81
226.449	16.81
226.683	14.81
226.918	33.81
227.152	27.81
227.387	19.81
227.621	45.81
227.856	32.81
228.09	30.81
228.324	41.81
228.559	56.81
228.793	55.81
229.027	57.81
229.262	63.81
229.496	63.81
229.73	52.81
229.964	61.81
230.199	76.81
230.433	72.81
230.667	71.81
230.901	75.81
231.136	71.81
231.37	90.81
231.604	73.81
231.838	88.81
232.072	85.81
232.306	78.81
232.541	80.81
232.775	72.81
233.009	77.81
233.243	79.81
233.477	76.81
233.711	92.81
233.945	71.81
234.179	68.81
234.413	77.81
234.647	70.81
234.881	73.81
235.115	91.81
235.349	87.81
235.583	76.81
235.817	80.81
236.051	51.81
236.285	75.81
236.519	84.81
236.753	66.81
236.987	68.81
237.221	82.81
237.455	82.81
237.689	72.81
237.922	75.81
238.156	86.81
238.39	70.81
238.624	74.81
238.858	78.81
239.091	61.81
239.325	72.81
239.559	63.81
239.793	66.81
240.027	79.81
240.26	84.81
240.494	70.81
240.728	67.81
240.961	61.81
241.195	89.81
241.429	70.81
241.662	62.81
241.896	57.81
242.13	77.81
242.363	71.81
242.597	67.81
242.83	74.81
243.064	76.81
243.298	66.81
243.531	75.81
243.765	75.81
243.998	81.81
244.232	81.81
244.465	81.81
244.699	68.81
244.932	72.81
245.166	72.81
245.399	77.81
245.633	87.81
245.866	82.81
246.099	66.81
246.333	73.81
246.566	73.81
246.8	55.81
247.033	67.81
247.266	61.81
247.5	68.81
247.733	68.81
247.966	81.81
248.2	85.81
248.433	72.81
248.666	84.81
248.899	69.81
249.133	80.81
249.366	72.81
249.599	80.81
249.832	86.81
250.066	87.81
250.299	85.81
250.532	78.81
250.765	74.81
250.998	84.81
251.231	75.81
251.465	69.81
251.698	84.81
251.931	81.81
252.164	80.81
252.397	64.81
252.63	81.81
252.863	77.81
253.096	71.81
253.329	95.81
253.562	82.81
253.795	76.81
254.028	81.81
254.261	80.81
254.494	78.81
254.727	88.81
254.96	71.81
255.193	75.81
255.426	65.81
255.659	73.81
255.892	72.81
256.124	73.81
256.357	83.81
256.59	69.81
256.823	77.81
257.056	75.81
257.289	60.81
257.521	86.81
257.754	77.81
257.987	76.81
258.22	82.81
258.452	87.81
258.685	56.81
258.918	88.81
259.151	82.81
259.383	71.81
259.616	75.81
259.849	77.81
260.081	78.81
260.314	73.81
260.547	80.81
260.779	83.81
261.012	65.81
261.244	71.81
261.477	77.81
261.71	88.81
261.942	77.81
262.175	91.81
262.407	69.81
262.64	84.81
262.872	72.81
263.105	77.81
263.337	71.81
263.57	70.81
263.802	68.81
264.035	84.81
264.267	79.81
264.499	73.81
264.732	80.81
264.964	79.81
265.197	74.81
265.429	74.81
265.661	80.81
265.894	76.81
266.126	88.81
266.358	84.81
266.591	68.81
266.823	81.81
267.055	76.81
267.287	80.81
267.52	63.81
267.752	84.81
267.984	93.81
268.216	84.81
268.448	90.81
268.681	73.81
268.913	85.81
269.145	85.81
269.377	67.81
269.609	73.81
269.841	89.81
270.073	77.81
270.306	75.81
270.538	83.81
270.77	58.81
271.002	64.81
271.234	87.81
271.466	79.81
271.698	84.81
271.93	78.81
272.162	71.81
272.394	81.81
272.626	67.81
272.858	70.81
273.09	90.81
273.322	88.81
273.553	98.81
273.785	82.81
274.017	79.81
274.249	70.81
274.481	77.81
274.713	87.81
274.945	77.81
275.176	85.81
275.408	84.81
275.64	75.81
275.872	85.81
276.104	77.81
276.335	72.81
276.567	88.81
276.799	84.81
277.031	92.81
277.262	88.81
277.494	83.81
277.726	75.81
277.957	74.81
278.189	68.81
278.421	66.81
278.652	81.81
278.884	85.81
279.115	85.81
279.347	86.81
279.579	81.81
279.81	66.81
280.042	73.81
280.273	91.81
280.505	76.81
280.736	84.81
280.968	81.81
281.199	84.81
281.431	93.81
281.662	72.81
281.894	83.81
282.125	84.81
282.356	80.81
282.588	80.81
282.819	79.81
283.051	71.81
283.282	78.81
283.513	85.81
283.745	81.81
283.976	98.81
284.207	83.81
284.439	76.81
284.67	66.81
284.901	76.81
285.132	91.81
285.364	84.81
285.595	85.81
285.826	76.81
286.057	79.81
286.288	82.81
286.52	68.81
286.751	82.81
286.982	63.81
287.213	82.81
287.444	77.81
287.675	75.81
287.906	77.81
288.138	83.81
288.369	82.81
288.6	87.81
288.831	80.81
289.062	81.81
289.293	80.81
289.524	70.81
289.755	76.81
289.986	78.81
290.217	88.81
290.448	71.81
290.679	73.81
290.91	81.81
291.141	75.81
291.371	66.81
291.602	80.81
291.833	78.81
292.064	85.81
292.295	75.81
292.526	74.81
292.757	80.81
292.987	74.81
293.218	85.81
293.449	90.81
293.68	81.81
293.91	81.81
294.141	73.81
294.372	71.81
294.603	83.81
294.833	74.81
295.064	84.81
295.295	81.81
295.525	74.81
295.756	76.81
295.987	79.81
296.217	84.81
296.448	79.81
296.679	86.81
296.909	86.81
297.14	81.81
297.37	89.81
297.601	94.81
297.831	85.81
298.062	84.81
298.292	88.81
298.523	79.81
298.753	80.81
298.984	100.81
299.214	72.81
299.445	88.81
299.675	82.81
299.905	86.81
300.136	83.81
300.366	86.81
300.597	80.81
300.827	84.81
301.057	90.81
301.288	81.81
301.518	87.81
301.748	84.81
301.979	85.81
302.209	90.81
302.439	91.81
302.669	73.81
302.9	81.81
303.13	81.81
303.36	87.81
303.59	81.81
303.82	86.81
304.051	89.81
304.281	92.81
304.511	89.81
304.741	76.81
304.971	75.81
305.201	75.81
305.431	79.81
305.661	68.81
305.891	85.81
306.121	83.81
306.352	90.81
306.582	79.81
306.812	77.81
307.042	73.81
307.272	84.81
307.502	82.81
307.731	94.81
307.961	94.81
308.191	77.81
308.421	91.81
308.651	80.81
308.881	82.81
309.111	91.81
309.341	87.81
309.571	78.81
309.8	85.81
310.03	84.81
310.26	80.81
310.49	92.81
310.72	83.81
310.949	72.81
311.179	84.81
311.409	70.81
311.639	92.81
311.868	102.81
312.098	90.81
312.328	85.81
312.557	89.81
312.787	80.81
313.017	85.81
313.246	82.81
313.476	71.81
313.706	77.81
313.935	72.81
314.165	83.81
314.394	79.81
314.624	78.81
314.853	80.81
315.083	77.81
315.312	83.81
315.542	71.81
315.771	72.81
316.001	92.81
316.23	81.81
316.46	84.81
316.689	84.81
316.919	83.81
317.148	76.81
317.377	73.81
317.607	77.81
317.836	88.81
318.065	76.81
318.295	85.81
318.524	85.81
318.753	83.81
318.983	98.81
319.212	91.81
319.441	81.81
319.67	85.81
319.9	86.81
320.129	81.81
320.358	73.81
320.587	80.81
320.816	85.81
321.046	84.81
321.275	86.81
321.504	93.81
321.733	77.81
321.962	80.81
322.191	87.81
322.42	73.81
322.649	94.81
322.878	81.81
323.108	80.81
323.337	79.81
323.566	73.81
323.795	76.81
324.024	87.81
324.253	104.81
324.482	73.81
324.71	75.81
324.939	76.81
325.168	85.81
325.397	88.81
325.626	79.81
325.855	78.81
326.084	70.81
326.313	86.81
326.542	81.81
326.77	87.81
326.999	77.81
327.228	61.81
327.457	68.81
327.686	84.81
327.914	103.81
328.143	82.81
328.372	82.81
328.6	89.81
328.829	92.81
329.058	73.81
329.287	95.81
329.515	79.81
329.744	80.81
329.972	71.81
330.201	76.81
330.43	81.81
330.658	86.81
330.887	94.81
331.115	73.81
331.344	73.81
331.572	83.81
331.801	74.81
332.03	85.81
332.258	82.81
332.486	82.81
332.715	85.81
332.943	81.81
333.172	70.81
333.4	90.81
333.629	77.81
333.857	83.81
334.085	87.81
334.314	79.81
334.542	83.81
334.771	75.81
334.999	80.81
335.227	70.81
335.455	85.81
335.684	93.81
335.912	87.81
336.14	97.81
336.369	83.81
336.597	85.81
336.825	88.81
337.053	89.81
337.281	80.81
337.51	87.81
337.738	86.81
337.966	81.81
338.194	98.81
338.422	78.81
338.65	86.81
338.878	81.81
339.106	81.81
339.334	99.81
339.562	85.81
339.79	80.81
340.018	79.81
340.246	98.81
340.474	93.81
340.702	84.81
340.93	77.81
341.158	90.81
341.386	70.81
341.614	73.81
341.842	78.81
342.07	83.81
342.298	72.81
342.526	74.81
342.754	75.81
342.981	84.81
343.209	83.81
343.437	86.81
343.665	85.81
343.893	79.81
344.12	81.81
344.348	97.81
344.576	81.81
344.804	90.81
345.031	84.81
345.259	76.81
345.487	90.81
345.714	94.81
345.942	88.81
346.17	91.81
346.397	88.81
346.625	101.81
346.853	81.81
347.08	78.81
347.308	74.81
347.535	82.81
347.763	78.81
347.99	95.81
348.218	91.81
348.445	70.81
348.673	94.81
348.9	83.81
349.128	90.81
349.355	84.81
349.583	83.81
349.81	78.81
350.037	81.81
350.265	83.81
350.492	77.81
350.72	77.81
350.947	83.81
351.174	85.81
351.402	85.81
351.629	79.81
351.856	72.81
352.083	82.81
352.311	82.81
352.538	86.81
352.765	87.81
352.992	77.81
353.22	75.81
353.447	92.81
353.674	80.81
353.901	86.81
354.128	72.81
354.355	83.81
354.583	85.81
354.81	94.81
355.037	92.81
355.264	92.81
355.491	77.81
355.718	73.81
355.945	81.81
356.172	85.81
356.399	81.81
356.626	91.81
356.853	78.81
357.08	81.81
357.307	85.81
357.534	84.81
357.761	82.81
357.988	89.81
358.215	81.81
358.441	89.81
358.668	83.81
358.895	69.81
359.122	66.81
359.349	75.81
359.576	96.81
359.802	85.81
360.029	75.81
360.256	80.81
360.483	70.81
360.709	86.81
360.936	84.81
361.163	79.81
361.39	91.81
361.616	88.81
361.843	78.81
362.07	72.81
362.296	84.81
362.523	78.81
362.749	70.81
362.976	76.81
363.203	89.81
363.429	72.81
363.656	80.81
363.882	73.81
364.109	79.81
364.335	94.81
364.562	73.81
364.788	81.81
365.015	77.81
365.241	77.81
365.468	76.81
365.694	80.81
365.92	89.81
366.147	72.81
366.373	79.81
366.599	65.81
366.826	85.81
367.052	86.81
367.278	80.81
367.505	73.81
367.731	87.81
367.957	77.81
368.184	89.81
368.41	65.81
368.636	78.81
368.862	78.81
369.089	75.81
369.315	99.81
369.541	80.81
369.767	92.81
369.993	83.81
370.219	76.81
370.445	79.81
370.672	74.81
370.898	83.81
371.124	73.81
371.35	81.81
371.576	80.81
371.802	80.81
372.028	76.81
372.254	71.81
372.48	78.81
372.706	82.81
372.932	84.81
373.158	90.81
373.384	85.81
373.61	97.81
373.835	89.81
374.061	84.81
374.287	79.81
374.513	76.81
374.739	92.81
374.965	94.81
375.191	72.81
375.416	87.81
375.642	83.81
375.868	89.81
376.094	87.81
376.319	81.81
376.545	82.81
376.771	102.81
376.997	79.81
377.222	96.81
377.448	81.81
377.674	77.81
377.899	83.81
378.125	81.81
378.35	80.81
378.576	76.81
378.802	84.81
379.027	83.81
379.253	75.81
379.478	78.81
379.704	80.81
379.929	87.81
380.155	71.81
380.38	84.81
380.606	90.81
380.831	90.81
381.057	92.81
381.282	91.81
381.507	80.81
381.733	85.81
381.958	84.81
382.184	90.81
382.409	82.81
382.634	81.81
382.86	84.81
383.085	88.81
383.31	81.81
383.535	89.81
383.761	73.81
383.986	76.81
384.211	75.81
384.436	78.81
384.662	85.81
384.887	86.81
385.112	86.81
385.337	72.81
385.562	80.81
385.787	72.81
386.013	96.81
386.238	84.81
386.463	70.81
386.688	90.81
386.913	80.81
387.138	74.81
387.363	76.81
387.588	97.81
387.813	77.81
388.038	79.81
388.263	86.81
388.488	93.81
388.713	95.81
388.938	78.81
389.163	77.81
389.387	86.81
389.612	75.81
389.837	87.81
390.062	87.81
390.287	85.81
390.512	89.81
390.736	82.81
390.961	89.81
391.186	76.81
391.411	79.81
391.636	79.81
391.86	77.81
392.085	88.81
392.31	87.81
392.534	79.81
392.759	84.81
392.984	75.81
393.208	65.81
393.433	65.81
393.658	76.81
393.882	71.81
394.107	78.81
394.331	84.81
394.556	83.81
394.78	75.81
395.005	95.81
395.229	83.81
395.454	82.81
395.678	86.81
395.903	80.81
396.127	88.81
396.352	87.81
396.576	72.81
396.801	80.81
397.025	89.81
397.249	81.81
397.474	76.81
397.698	86.81
397.922	87.81
398.147	91.81
398.371	77.81
398.595	90.81
398.82	93.81
399.044	80.81
399.268	67.81
399.492	88.81
399.717	69.81
399.941	94.81
400.165	81.81
400.389	80.81
400.613	91.81
400.837	79.81
401.062	79.81
401.286	83.81
401.51	58.81
401.734	77.81
401.958	65.81
402.182	69.81
402.406	95.81
402.63	85.81
402.854	86.81
403.078	70.81
403.302	81.81
403.526	70.81
403.75	83.81
403.974	95.81
404.198	96.81
404.422	91.81
404.645	80.81
404.869	87.81
405.093	84.81
405.317	78.81
405.541	84.81
405.765	83.81
405.988	78.81
406.212	94.81
406.436	87.81
406.66	75.81
406.883	71.81
407.107	85.81
407.331	83.81
407.555	80.81
407.778	73.81
408.002	100.81
408.226	96.81
408.449	90.81
408.673	89.81
408.896	96.81
409.12	87.81
409.344	68.81
409.567	60.81
409.791	79.81
410.014	79.81
410.238	72.81
410.461	101.81
410.685	79.81
410.908	72.81
411.132	80.81
411.355	83.81
411.578	91.81
411.802	88.81
412.025	84.81
412.249	67.81
412.472	73.81
412.695	78.81
412.919	68.81
413.142	86.81
413.365	93.81
413.589	81.81
413.812	85.81
414.035	83.81
414.258	94.81
414.482	81.81
414.705	74.81
414.928	91.81
415.151	81.81
415.374	92.81
415.597	75.81
415.821	83.81
416.044	91.81
416.267	86.81
416.49	78.81
416.713	72.81
416.936	84.81
417.159	68.81
417.382	88.81
417.605	82.81
417.828	72.81
418.051	86.81
418.274	90.81
418.497	86.81
418.72	90.81
418.943	85.81
419.166	79.81
419.389	79.81
419.611	91.81
419.834	91.81
420.057	71.81
420.28	80.81
420.503	86.81
420.726	92.81
420.948	84.81
421.171	77.81
421.394	77.81
421.617	74.81
421.839	89.81
422.062	88.81
422.285	77.81
422.507	81.81
422.73	80.81
422.953	78.81
423.175	76.81
423.398	85.81
423.621	92.81
423.843	86.81
424.066	79.81
424.288	85.81
424.511	72.81
424.733	83.81
424.956	92.81
425.178	77.81
425.401	83.81
425.623	90.81
425.846	79.81
426.068	86.81
426.291	71.81
426.513	95.81
426.735	85.81
426.958	77.81
427.18	80.81
427.402	83.81
427.625	78.81
427.847	81.81
428.069	85.81
428.292	73.81
428.514	79.81
428.736	75.81
428.958	88.81
429.181	81.81
429.403	76.81
429.625	77.81
429.847	81.81
430.069	79.81
430.292	87.81
430.514	82.81
430.736	84.81
430.958	80.81
431.18	87.81
431.402	91.81
431.624	81.81
431.846	78.81
432.068	96.81
432.29	67.81
432.512	85.81
432.734	74.81
432.956	79.81
433.178	84.81
433.4	92.81
433.622	91.81
433.844	91.81
434.066	77.81
434.287	81.81
434.509	86.81
434.731	79.81
434.953	78.81
435.175	90.81
435.397	73.81
435.618	91.81
435.84	73.81
436.062	79.81
436.284	83.81
436.505	72.81
436.727	78.81
436.949	100.81
437.17	90.81
437.392	84.81
437.614	84.81
437.835	91.81
438.057	80.81
438.278	79.81
438.5	78.81
438.721	80.81
438.943	77.81
439.165	84.81
439.386	84.81
439.608	85.81
439.829	93.81
440.05	85.81
440.272	87.81
440.493	76.81
440.715	89.81
440.936	89.81
441.158	91.81
441.379	77.81
441.6	83.81
441.822	81.81
442.043	81.81
442.264	73.81
442.486	85.81
442.707	89.81
442.928	95.81
443.149	71.81
443.371	91.81
443.592	69.81
443.813	83.81
444.034	83.81
444.255	83.81
444.476	86.81
444.698	72.81
444.919	86.81
445.14	188.81
445.361	131.81
445.582	99.81
445.803	78.81
446.024	93.81
446.245	89.81
446.466	82.81
446.687	84.81
446.908	88.81
447.129	65.81
447.35	94.81
447.571	84.81
447.792	86.81
448.013	80.81
448.234	90.81
448.455	86.81
448.675	88.81
448.896	70.81
449.117	78.81
449.338	70.81
449.559	73.81
449.779	68.81
450	80.81
450.221	94.81
450.442	85.81
450.662	80.81
450.883	90.81
451.104	80.81
451.324	79.81
451.545	74.81
451.766	82.81
451.986	76.81
452.207	83.81
452.428	81.81
452.648	85.81
452.869	71.81
453.089	81.81
453.31	80.81
453.53	70.81
453.751	85.81
453.971	82.81
454.192	68.81
454.412	73.81
454.633	85.81
454.853	71.81
455.073	69.81
455.294	87.81
455.514	85.81
455.734	88.81
455.955	90.81
456.175	79.81
456.395	73.81
456.616	80.81
456.836	79.81
457.056	81.81
457.276	86.81
457.497	86.81
457.717	71.81
457.937	79.81
458.157	83.81
458.377	76.81
458.598	79.81
458.818	83.81
459.038	80.81
459.258	79.81
459.478	78.81
459.698	76.81
459.918	80.81
460.138	81.81
460.358	84.81
460.578	92.81
460.798	88.81
461.018	84.81
461.238	85.81
461.458	84.81
461.678	80.81
461.898	85.81
462.118	77.81
462.338	93.81
462.558	80.81
462.777	73.81
462.997	83.81
463.217	81.81
463.437	86.81
463.657	86.81
463.876	86.81
464.096	92.81
464.316	87.81
464.536	81.81
464.755	92.81
464.975	98.81
465.195	74.81
465.414	89.81
465.634	87.81
465.854	79.81
466.073	79.81
466.293	92.81
466.512	84.81
466.732	91.81
466.951	77.81
467.171	94.81
467.391	73.81
467.61	77.81
467.829	81.81
468.049	90.81
468.268	73.81
468.488	83.81
468.707	92.81
468.927	86.81
469.146	82.81
469.365	76.81
469.585	76.81
469.804	78.81
470.023	94.81
470.243	98.81
470.462	85.81
470.681	85.81
470.901	89.81
471.12	85.81
471.339	83.81
471.558	82.81
471.777	89.81
471.997	81.81
472.216	82.81
472.435	77.81
472.654	95.81
472.873	76.81
473.092	74.81
473.311	81.81
473.53	83.81
473.749	70.81
473.968	88.81
474.187	84.81
474.406	80.81
474.625	86.81
474.844	97.81
475.063	78.81
475.282	89.81
475.501	79.81
475.72	83.81
475.939	88.81
476.158	83.81
476.377	88.81
476.596	88.81
476.814	87.81
477.033	81.81
477.252	80.81
477.471	92.81
477.69	75.81
477.908	89.81
478.127	85.81
478.346	87.81
478.564	99.81
478.783	75.81
479.002	89.81
479.22	84.81
479.439	83.81
479.658	97.81
479.876	92.81
480.095	97.81
480.313	91.81
480.532	95.81
480.751	83.81
480.969	71.81
481.188	94.81
481.406	83.81
481.624	87.81
481.843	93.81
482.061	86.81
482.28	77.81
482.498	94.81
482.717	85.81
482.935	84.81
483.153	95.81
483.372	88.81
483.59	81.81
483.808	91.81
484.027	91.81
484.245	67.81
484.463	93.81
484.681	93.81
484.9	97.81
485.118	94.81
485.336	93.81
485.554	88.81
485.772	96.81
485.99	82.81
486.209	73.81
486.427	96.81
486.645	86.81
486.863	90.81
487.081	91.81
487.299	91.81
487.517	85.81
487.735	89.81
487.953	85.81
488.171	86.81
488.389	85.81
488.607	91.81
488.825	86.81
489.043	84.81
489.261	84.81
489.479	97.81
489.696	89.81
489.914	98.81
490.132	84.81
490.35	85.81
490.568	94.81
490.786	101.81
491.003	96.81
491.221	70.81
491.439	84.81
491.657	90.81
491.874	100.81
492.092	99.81
492.31	88.81
492.527	94.81
492.745	91.81
492.963	101.81
493.18	93.81
493.398	90.81
493.615	87.81
493.833	99.81
494.05	86.81
494.268	102.81
494.485	91.81
494.703	94.81
494.92	88.81
495.138	77.81
495.355	86.81
495.573	97.81
495.79	92.81
496.008	86.81
496.225	91.81
496.442	92.81
496.66	97.81
496.877	111.81
497.094	89.81
497.312	84.81
497.529	79.81
497.746	74.81
497.963	82.81
498.181	88.81
498.398	92.81
498.615	102.81
498.832	92.81
499.049	99.81
499.267	92.81
499.484	95.81
499.701	99.81
499.918	92.81
500.135	98.81
500.352	98.81
500.569	104.81
500.786	119.81
501.003	102.81
501.22	95.81
501.437	103.81
501.654	86.81
501.871	103.81
502.088	84.81
502.305	97.81
502.522	100.81
502.739	88.81
502.956	90.81
503.172	100.81
503.389	92.81
503.606	93.81
503.823	88.81
504.04	110.81
504.256	98.81
504.473	87.81
504.69	104.81
504.907	116.81
505.123	113.81
505.34	97.81
505.557	101.81
505.773	96.81
505.99	86.81
506.207	90.81
506.423	94.81
506.64	91.81
506.856	92.81
507.073	85.81
507.289	73.81
507.506	86.81
507.722	80.81
507.939	67.81
508.155	96.81
508.372	84.81
508.588	87.81
508.805	98.81
509.021	77.81
509.238	75.81
509.454	93.81
509.67	95.81
509.887	95.81
510.103	78.81
510.319	84.81
510.536	89.81
510.752	86.81
510.968	76.81
511.184	77.81
511.401	78.81
511.617	80.81
511.833	94.81
512.049	84.81
512.265	94.81
512.481	79.81
512.698	89.81
512.914	79.81
513.13	63.81
513.346	83.81
513.562	97.81
513.778	87.81
513.994	85.81
514.21	87.81
514.426	81.81
514.642	77.81
514.858	80.81
515.074	96.81
515.29	94.81
515.506	100.81
515.721	92.81
515.937	91.81
516.153	83.81
516.369	94.81
516.585	83.81
516.801	73.81
517.016	83.81
517.232	95.81
517.448	85.81
517.664	120.81
517.879	95.81
518.095	93.81
518.311	86.81
518.527	86.81
518.742	82.81
518.958	91.81
