Data from Ni(NO3)2Standard.Agarose3%.GreenCap.LampEnergy5.5.E.O_HRD10591_14-42-40-188.txt Node
Date: Mon Jul 22 14:42:40 EDT 2019
User: cochatt
Spectrometer: HR+D1059
Trigger mode: 1
Integration Time (sec): 1.000000E-1
Scans to average: 1
Electric dark correction enabled: true
Nonlinearity correction enabled: false
Boxcar width: 0
XAxis mode: Wavelengths
Number of Pixels in Spectrum: 2048
>>>>>Begin Spectral Data<<<<<
223.165	-12.5
223.4	-12.5
223.635	-12.5
223.869	-8.5
224.104	-23.5
224.338	-21.5
224.573	-11.5
224.808	-5.5
225.042	-9.5
225.277	5.5
225.511	0.5
225.746	-8.5
225.98	-6.5
226.215	17.5
226.449	9.5
226.683	13.5
226.918	23.5
227.152	37.5
227.387	24.5
227.621	32.5
227.856	31.5
228.09	42.5
228.324	57.5
228.559	54.5
228.793	63.5
229.027	66.5
229.262	62.5
229.496	57.5
229.73	74.5
229.964	65.5
230.199	72.5
230.433	65.5
230.667	71.5
230.901	84.5
231.136	79.5
231.37	82.5
231.604	72.5
231.838	69.5
232.072	81.5
232.306	71.5
232.541	77.5
232.775	82.5
233.009	88.5
233.243	80.5
233.477	80.5
233.711	83.5
233.945	66.5
234.179	75.5
234.413	89.5
234.647	81.5
234.881	78.5
235.115	82.5
235.349	79.5
235.583	87.5
235.817	64.5
236.051	70.5
236.285	79.5
236.519	78.5
236.753	73.5
236.987	82.5
237.221	74.5
237.455	91.5
237.689	82.5
237.922	83.5
238.156	73.5
238.39	71.5
238.624	55.5
238.858	66.5
239.091	75.5
239.325	65.5
239.559	73.5
239.793	65.5
240.027	74.5
240.26	91.5
240.494	83.5
240.728	72.5
240.961	82.5
241.195	77.5
241.429	78.5
241.662	81.5
241.896	71.5
242.13	87.5
242.363	66.5
242.597	90.5
242.83	86.5
243.064	73.5
243.298	65.5
243.531	69.5
243.765	69.5
243.998	74.5
244.232	78.5
244.465	78.5
244.699	78.5
244.932	79.5
245.166	73.5
245.399	78.5
245.633	73.5
245.866	71.5
246.099	65.5
246.333	81.5
246.566	73.5
246.8	74.5
247.033	67.5
247.266	59.5
247.5	74.5
247.733	73.5
247.966	69.5
248.2	90.5
248.433	75.5
248.666	79.5
248.899	80.5
249.133	66.5
249.366	80.5
249.599	79.5
249.832	61.5
250.066	63.5
250.299	76.5
250.532	81.5
250.765	70.5
250.998	78.5
251.231	70.5
251.465	80.5
251.698	73.5
251.931	79.5
252.164	78.5
252.397	84.5
252.63	85.5
252.863	79.5
253.096	68.5
253.329	75.5
253.562	86.5
253.795	93.5
254.028	90.5
254.261	91.5
254.494	80.5
254.727	75.5
254.96	81.5
255.193	59.5
255.426	67.5
255.659	84.5
255.892	79.5
256.124	81.5
256.357	73.5
256.59	73.5
256.823	83.5
257.056	54.5
257.289	77.5
257.521	79.5
257.754	70.5
257.987	68.5
258.22	87.5
258.452	75.5
258.685	77.5
258.918	73.5
259.151	75.5
259.383	81.5
259.616	90.5
259.849	67.5
260.081	84.5
260.314	81.5
260.547	84.5
260.779	76.5
261.012	77.5
261.244	85.5
261.477	82.5
261.71	83.5
261.942	91.5
262.175	85.5
262.407	79.5
262.64	80.5
262.872	94.5
263.105	79.5
263.337	82.5
263.57	78.5
263.802	68.5
264.035	72.5
264.267	79.5
264.499	66.5
264.732	65.5
264.964	64.5
265.197	77.5
265.429	71.5
265.661	71.5
265.894	74.5
266.126	88.5
266.358	94.5
266.591	86.5
266.823	82.5
267.055	78.5
267.287	83.5
267.52	67.5
267.752	87.5
267.984	80.5
268.216	97.5
268.448	82.5
268.681	89.5
268.913	70.5
269.145	68.5
269.377	70.5
269.609	73.5
269.841	90.5
270.073	87.5
270.306	101.5
270.538	79.5
270.77	73.5
271.002	70.5
271.234	76.5
271.466	83.5
271.698	71.5
271.93	95.5
272.162	97.5
272.394	82.5
272.626	76.5
272.858	84.5
273.09	80.5
273.322	84.5
273.553	85.5
273.785	80.5
274.017	79.5
274.249	82.5
274.481	82.5
274.713	79.5
274.945	83.5
275.176	64.5
275.408	76.5
275.64	92.5
275.872	80.5
276.104	86.5
276.335	72.5
276.567	77.5
276.799	74.5
277.031	77.5
277.262	73.5
277.494	74.5
277.726	82.5
277.957	69.5
278.189	89.5
278.421	76.5
278.652	79.5
278.884	67.5
279.115	78.5
279.347	82.5
279.579	62.5
279.81	88.5
280.042	85.5
280.273	77.5
280.505	85.5
280.736	97.5
280.968	75.5
281.199	82.5
281.431	86.5
281.662	75.5
281.894	82.5
282.125	94.5
282.356	95.5
282.588	76.5
282.819	86.5
283.051	90.5
283.282	88.5
283.513	85.5
283.745	71.5
283.976	90.5
284.207	73.5
284.439	93.5
284.67	84.5
284.901	86.5
285.132	64.5
285.364	75.5
285.595	85.5
285.826	65.5
286.057	85.5
286.288	86.5
286.52	81.5
286.751	70.5
286.982	88.5
287.213	89.5
287.444	80.5
287.675	78.5
287.906	82.5
288.138	96.5
288.369	79.5
288.6	81.5
288.831	79.5
289.062	83.5
289.293	77.5
289.524	72.5
289.755	86.5
289.986	85.5
290.217	82.5
290.448	79.5
290.679	82.5
290.91	92.5
291.141	88.5
291.371	80.5
291.602	98.5
291.833	83.5
292.064	78.5
292.295	89.5
292.526	77.5
292.757	86.5
292.987	87.5
293.218	81.5
293.449	88.5
293.68	94.5
293.91	73.5
294.141	84.5
294.372	87.5
294.603	82.5
294.833	82.5
295.064	90.5
295.295	71.5
295.525	67.5
295.756	86.5
295.987	93.5
296.217	62.5
296.448	85.5
296.679	78.5
296.909	76.5
297.14	93.5
297.37	66.5
297.601	81.5
297.831	81.5
298.062	87.5
298.292	96.5
298.523	83.5
298.753	79.5
298.984	84.5
299.214	78.5
299.445	83.5
299.675	91.5
299.905	76.5
300.136	83.5
300.366	71.5
300.597	93.5
300.827	68.5
301.057	75.5
301.288	87.5
301.518	83.5
301.748	78.5
301.979	78.5
302.209	77.5
302.439	67.5
302.669	77.5
302.9	96.5
303.13	85.5
303.36	85.5
303.59	86.5
303.82	92.5
304.051	80.5
304.281	90.5
304.511	71.5
304.741	54.5
304.971	72.5
305.201	90.5
305.431	77.5
305.661	82.5
305.891	95.5
306.121	74.5
306.352	85.5
306.582	83.5
306.812	87.5
307.042	95.5
307.272	95.5
307.502	97.5
307.731	86.5
307.961	81.5
308.191	79.5
308.421	78.5
308.651	79.5
308.881	81.5
309.111	88.5
309.341	86.5
309.571	89.5
309.8	85.5
310.03	82.5
310.26	84.5
310.49	95.5
310.72	82.5
310.949	88.5
311.179	82.5
311.409	84.5
311.639	87.5
311.868	75.5
312.098	83.5
312.328	84.5
312.557	93.5
312.787	91.5
313.017	84.5
313.246	95.5
313.476	86.5
313.706	88.5
313.935	83.5
314.165	87.5
314.394	89.5
314.624	83.5
314.853	85.5
315.083	82.5
315.312	82.5
315.542	83.5
315.771	77.5
316.001	87.5
316.23	81.5
316.46	81.5
316.689	82.5
316.919	83.5
317.148	91.5
317.377	84.5
317.607	85.5
317.836	88.5
318.065	70.5
318.295	84.5
318.524	86.5
318.753	88.5
318.983	75.5
319.212	84.5
319.441	78.5
319.67	83.5
319.9	83.5
320.129	78.5
320.358	85.5
320.587	83.5
320.816	94.5
321.046	85.5
321.275	89.5
321.504	78.5
321.733	95.5
321.962	88.5
322.191	97.5
322.42	89.5
322.649	88.5
322.878	90.5
323.108	87.5
323.337	69.5
323.566	79.5
323.795	94.5
324.024	81.5
324.253	94.5
324.482	82.5
324.71	72.5
324.939	85.5
325.168	103.5
325.397	95.5
325.626	69.5
325.855	90.5
326.084	99.5
326.313	87.5
326.542	74.5
326.77	81.5
326.999	93.5
327.228	68.5
327.457	77.5
327.686	82.5
327.914	89.5
328.143	90.5
328.372	80.5
328.6	90.5
328.829	80.5
329.058	91.5
329.287	94.5
329.515	82.5
329.744	87.5
329.972	83.5
330.201	81.5
330.43	87.5
330.658	77.5
330.887	82.5
331.115	101.5
331.344	86.5
331.572	90.5
331.801	82.5
332.03	94.5
332.258	64.5
332.486	83.5
332.715	88.5
332.943	87.5
333.172	78.5
333.4	70.5
333.629	72.5
333.857	98.5
334.085	84.5
334.314	91.5
334.542	76.5
334.771	94.5
334.999	72.5
335.227	84.5
335.455	71.5
335.684	90.5
335.912	74.5
336.14	89.5
336.369	80.5
336.597	79.5
336.825	87.5
337.053	88.5
337.281	82.5
337.51	87.5
337.738	89.5
337.966	82.5
338.194	87.5
338.422	96.5
338.65	85.5
338.878	101.5
339.106	82.5
339.334	90.5
339.562	94.5
339.79	86.5
340.018	88.5
340.246	74.5
340.474	85.5
340.702	96.5
340.93	86.5
341.158	69.5
341.386	83.5
341.614	85.5
341.842	73.5
342.07	89.5
342.298	82.5
342.526	68.5
342.754	76.5
342.981	84.5
343.209	86.5
343.437	76.5
343.665	81.5
343.893	100.5
344.12	83.5
344.348	82.5
344.576	83.5
344.804	102.5
345.031	84.5
345.259	89.5
345.487	81.5
345.714	79.5
345.942	86.5
346.17	85.5
346.397	69.5
346.625	85.5
346.853	86.5
347.08	82.5
347.308	89.5
347.535	78.5
347.763	87.5
347.99	77.5
348.218	86.5
348.445	80.5
348.673	86.5
348.9	82.5
349.128	79.5
349.355	71.5
349.583	84.5
349.81	69.5
350.037	74.5
350.265	83.5
350.492	86.5
350.72	75.5
350.947	89.5
351.174	77.5
351.402	101.5
351.629	79.5
351.856	77.5
352.083	93.5
352.311	80.5
352.538	85.5
352.765	92.5
352.992	87.5
353.22	79.5
353.447	77.5
353.674	83.5
353.901	78.5
354.128	82.5
354.355	88.5
354.583	83.5
354.81	95.5
355.037	66.5
355.264	82.5
355.491	67.5
355.718	70.5
355.945	76.5
356.172	92.5
356.399	80.5
356.626	92.5
356.853	81.5
357.08	88.5
357.307	79.5
357.534	78.5
357.761	84.5
357.988	79.5
358.215	83.5
358.441	72.5
358.668	89.5
358.895	81.5
359.122	87.5
359.349	88.5
359.576	65.5
359.802	76.5
360.029	90.5
360.256	96.5
360.483	88.5
360.709	86.5
360.936	91.5
361.163	77.5
361.39	90.5
361.616	86.5
361.843	74.5
362.07	88.5
362.296	70.5
362.523	73.5
362.749	76.5
362.976	75.5
363.203	81.5
363.429	87.5
363.656	67.5
363.882	74.5
364.109	78.5
364.335	83.5
364.562	96.5
364.788	88.5
365.015	82.5
365.241	78.5
365.468	80.5
365.694	63.5
365.92	77.5
366.147	83.5
366.373	91.5
366.599	86.5
366.826	84.5
367.052	85.5
367.278	85.5
367.505	94.5
367.731	86.5
367.957	84.5
368.184	101.5
368.41	87.5
368.636	90.5
368.862	87.5
369.089	69.5
369.315	82.5
369.541	90.5
369.767	86.5
369.993	74.5
370.219	86.5
370.445	74.5
370.672	77.5
370.898	73.5
371.124	93.5
371.35	74.5
371.576	75.5
371.802	83.5
372.028	85.5
372.254	80.5
372.48	72.5
372.706	79.5
372.932	81.5
373.158	74.5
373.384	78.5
373.61	91.5
373.835	81.5
374.061	87.5
374.287	74.5
374.513	75.5
374.739	73.5
374.965	82.5
375.191	98.5
375.416	82.5
375.642	83.5
375.868	83.5
376.094	92.5
376.319	90.5
376.545	70.5
376.771	93.5
376.997	94.5
377.222	97.5
377.448	82.5
377.674	78.5
377.899	84.5
378.125	95.5
378.35	84.5
378.576	81.5
378.802	89.5
379.027	94.5
379.253	94.5
379.478	104.5
379.704	86.5
379.929	68.5
380.155	81.5
380.38	83.5
380.606	89.5
380.831	78.5
381.057	89.5
381.282	100.5
381.507	86.5
381.733	96.5
381.958	94.5
382.184	82.5
382.409	79.5
382.634	86.5
382.86	80.5
383.085	73.5
383.31	79.5
383.535	92.5
383.761	85.5
383.986	73.5
384.211	81.5
384.436	81.5
384.662	81.5
384.887	100.5
385.112	87.5
385.337	94.5
385.562	92.5
385.787	83.5
386.013	89.5
386.238	80.5
386.463	73.5
386.688	95.5
386.913	85.5
387.138	87.5
387.363	78.5
387.588	78.5
387.813	83.5
388.038	93.5
388.263	81.5
388.488	83.5
388.713	82.5
388.938	76.5
389.163	84.5
389.387	77.5
389.612	80.5
389.837	81.5
390.062	93.5
390.287	86.5
390.512	90.5
390.736	75.5
390.961	72.5
391.186	73.5
391.411	81.5
391.636	74.5
391.86	72.5
392.085	88.5
392.31	85.5
392.534	78.5
392.759	87.5
392.984	84.5
393.208	91.5
393.433	95.5
393.658	86.5
393.882	90.5
394.107	95.5
394.331	93.5
394.556	91.5
394.78	77.5
395.005	76.5
395.229	87.5
395.454	79.5
395.678	82.5
395.903	87.5
396.127	81.5
396.352	71.5
396.576	66.5
396.801	71.5
397.025	86.5
397.249	83.5
397.474	94.5
397.698	108.5
397.922	85.5
398.147	81.5
398.371	83.5
398.595	82.5
398.82	96.5
399.044	78.5
399.268	87.5
399.492	78.5
399.717	78.5
399.941	83.5
400.165	90.5
400.389	82.5
400.613	74.5
400.837	88.5
401.062	93.5
401.286	82.5
401.51	96.5
401.734	77.5
401.958	87.5
402.182	75.5
402.406	89.5
402.63	95.5
402.854	83.5
403.078	78.5
403.302	74.5
403.526	79.5
403.75	85.5
403.974	85.5
404.198	82.5
404.422	89.5
404.645	63.5
404.869	87.5
405.093	89.5
405.317	84.5
405.541	74.5
405.765	82.5
405.988	76.5
406.212	82.5
406.436	88.5
406.66	94.5
406.883	71.5
407.107	86.5
407.331	87.5
407.555	68.5
407.778	76.5
408.002	87.5
408.226	84.5
408.449	81.5
408.673	80.5
408.896	95.5
409.12	89.5
409.344	89.5
409.567	88.5
409.791	91.5
410.014	90.5
410.238	92.5
410.461	80.5
410.685	86.5
410.908	83.5
411.132	84.5
411.355	67.5
411.578	94.5
411.802	71.5
412.025	87.5
412.249	95.5
412.472	82.5
412.695	95.5
412.919	74.5
413.142	75.5
413.365	81.5
413.589	100.5
413.812	75.5
414.035	78.5
414.258	90.5
414.482	101.5
414.705	86.5
414.928	101.5
415.151	75.5
415.374	86.5
415.597	81.5
415.821	69.5
416.044	79.5
416.267	91.5
416.49	81.5
416.713	100.5
416.936	95.5
417.159	84.5
417.382	81.5
417.605	80.5
417.828	75.5
418.051	79.5
418.274	85.5
418.497	86.5
418.72	83.5
418.943	93.5
419.166	67.5
419.389	79.5
419.611	85.5
419.834	89.5
420.057	72.5
420.28	86.5
420.503	72.5
420.726	88.5
420.948	79.5
421.171	79.5
421.394	80.5
421.617	73.5
421.839	83.5
422.062	63.5
422.285	75.5
422.507	93.5
422.73	85.5
422.953	81.5
423.175	68.5
423.398	69.5
423.621	81.5
423.843	82.5
424.066	76.5
424.288	82.5
424.511	87.5
424.733	98.5
424.956	75.5
425.178	98.5
425.401	78.5
425.623	87.5
425.846	98.5
426.068	85.5
426.291	81.5
426.513	90.5
426.735	86.5
426.958	87.5
427.18	70.5
427.402	80.5
427.625	83.5
427.847	80.5
428.069	88.5
428.292	75.5
428.514	85.5
428.736	94.5
428.958	82.5
429.181	86.5
429.403	96.5
429.625	91.5
429.847	83.5
430.069	94.5
430.292	81.5
430.514	88.5
430.736	88.5
430.958	88.5
431.18	83.5
431.402	75.5
431.624	74.5
431.846	71.5
432.068	93.5
432.29	90.5
432.512	95.5
432.734	82.5
432.956	74.5
433.178	65.5
433.4	83.5
433.622	85.5
433.844	89.5
434.066	82.5
434.287	70.5
434.509	77.5
434.731	83.5
434.953	94.5
435.175	83.5
435.397	90.5
435.618	85.5
435.84	100.5
436.062	88.5
436.284	80.5
436.505	84.5
436.727	87.5
436.949	71.5
437.17	74.5
437.392	71.5
437.614	87.5
437.835	87.5
438.057	83.5
438.278	87.5
438.5	93.5
438.721	89.5
438.943	91.5
439.165	82.5
439.386	85.5
439.608	84.5
439.829	82.5
440.05	97.5
440.272	78.5
440.493	78.5
440.715	86.5
440.936	65.5
441.158	93.5
441.379	84.5
441.6	96.5
441.822	90.5
442.043	74.5
442.264	89.5
442.486	96.5
442.707	95.5
442.928	75.5
443.149	79.5
443.371	78.5
443.592	93.5
443.813	99.5
444.034	92.5
444.255	88.5
444.476	86.5
444.698	81.5
444.919	79.5
445.14	204.5
445.361	125.5
445.582	90.5
445.803	83.5
446.024	79.5
446.245	86.5
446.466	98.5
446.687	83.5
446.908	86.5
447.129	78.5
447.35	73.5
447.571	81.5
447.792	91.5
448.013	66.5
448.234	63.5
448.455	75.5
448.675	74.5
448.896	71.5
449.117	72.5
449.338	86.5
449.559	86.5
449.779	91.5
450	99.5
450.221	96.5
450.442	81.5
450.662	78.5
450.883	102.5
451.104	68.5
451.324	86.5
451.545	84.5
451.766	95.5
451.986	88.5
452.207	90.5
452.428	78.5
452.648	93.5
452.869	89.5
453.089	78.5
453.31	92.5
453.53	71.5
453.751	84.5
453.971	91.5
454.192	77.5
454.412	79.5
454.633	81.5
454.853	81.5
455.073	71.5
455.294	88.5
455.514	91.5
455.734	71.5
455.955	76.5
456.175	94.5
456.395	81.5
456.616	83.5
456.836	78.5
457.056	78.5
457.276	99.5
457.497	65.5
457.717	81.5
457.937	96.5
458.157	88.5
458.377	67.5
458.598	94.5
458.818	72.5
459.038	88.5
459.258	79.5
459.478	85.5
459.698	83.5
459.918	104.5
460.138	82.5
460.358	83.5
460.578	82.5
460.798	80.5
461.018	73.5
461.238	77.5
461.458	79.5
461.678	75.5
461.898	107.5
462.118	84.5
462.338	69.5
462.558	88.5
462.777	97.5
462.997	88.5
463.217	93.5
463.437	87.5
463.657	89.5
463.876	90.5
464.096	72.5
464.316	89.5
464.536	94.5
464.755	79.5
464.975	66.5
465.195	93.5
465.414	102.5
465.634	100.5
465.854	85.5
466.073	98.5
466.293	89.5
466.512	88.5
466.732	79.5
466.951	76.5
467.171	87.5
467.391	83.5
467.61	88.5
467.829	83.5
468.049	74.5
468.268	84.5
468.488	81.5
468.707	77.5
468.927	72.5
469.146	90.5
469.365	86.5
469.585	67.5
469.804	95.5
470.023	72.5
470.243	84.5
470.462	75.5
470.681	96.5
470.901	87.5
471.12	87.5
471.339	97.5
471.558	68.5
471.777	81.5
471.997	83.5
472.216	78.5
472.435	88.5
472.654	83.5
472.873	98.5
473.092	92.5
473.311	79.5
473.53	89.5
473.749	85.5
473.968	93.5
474.187	72.5
474.406	90.5
474.625	95.5
474.844	77.5
475.063	93.5
475.282	83.5
475.501	82.5
475.72	84.5
475.939	86.5
476.158	83.5
476.377	84.5
476.596	92.5
476.814	90.5
477.033	93.5
477.252	85.5
477.471	88.5
477.69	88.5
477.908	102.5
478.127	80.5
478.346	81.5
478.564	82.5
478.783	94.5
479.002	92.5
479.22	84.5
479.439	88.5
479.658	91.5
479.876	107.5
480.095	71.5
480.313	74.5
480.532	79.5
480.751	98.5
480.969	82.5
481.188	82.5
481.406	78.5
481.624	78.5
481.843	89.5
482.061	83.5
482.28	79.5
482.498	88.5
482.717	85.5
482.935	89.5
483.153	86.5
483.372	90.5
483.59	91.5
483.808	83.5
484.027	87.5
484.245	87.5
484.463	95.5
484.681	92.5
484.9	82.5
485.118	108.5
485.336	84.5
485.554	86.5
485.772	91.5
485.99	81.5
486.209	88.5
486.427	71.5
486.645	87.5
486.863	88.5
487.081	87.5
487.299	85.5
487.517	98.5
487.735	79.5
487.953	88.5
488.171	89.5
488.389	97.5
488.607	88.5
488.825	105.5
489.043	99.5
489.261	80.5
489.479	82.5
489.696	97.5
489.914	93.5
490.132	77.5
490.35	84.5
490.568	108.5
490.786	89.5
491.003	90.5
491.221	94.5
491.439	113.5
491.657	85.5
491.874	82.5
492.092	88.5
492.31	98.5
492.527	102.5
492.745	102.5
492.963	101.5
493.18	93.5
493.398	78.5
493.615	95.5
493.833	103.5
494.05	89.5
494.268	93.5
494.485	87.5
494.703	90.5
494.92	106.5
495.138	95.5
495.355	103.5
495.573	95.5
495.79	83.5
496.008	101.5
496.225	123.5
496.442	81.5
496.66	98.5
496.877	102.5
497.094	95.5
497.312	63.5
497.529	85.5
497.746	88.5
497.963	82.5
498.181	102.5
498.398	106.5
498.615	109.5
498.832	103.5
499.049	107.5
499.267	82.5
499.484	103.5
499.701	102.5
499.918	106.5
500.135	107.5
500.352	120.5
500.569	122.5
500.786	118.5
501.003	104.5
501.22	100.5
501.437	87.5
501.654	103.5
501.871	98.5
502.088	95.5
502.305	105.5
502.522	98.5
502.739	81.5
502.956	94.5
503.172	87.5
503.389	76.5
503.606	80.5
503.823	101.5
504.04	93.5
504.256	93.5
504.473	101.5
504.69	90.5
504.907	95.5
505.123	95.5
505.34	94.5
505.557	99.5
505.773	80.5
505.99	99.5
506.207	95.5
506.423	86.5
506.64	101.5
506.856	93.5
507.073	110.5
507.289	95.5
507.506	98.5
507.722	87.5
507.939	100.5
508.155	101.5
508.372	97.5
508.588	91.5
508.805	90.5
509.021	89.5
509.238	94.5
509.454	96.5
509.67	92.5
509.887	98.5
510.103	93.5
510.319	80.5
510.536	94.5
510.752	104.5
510.968	81.5
511.184	98.5
511.401	95.5
511.617	93.5
511.833	83.5
512.049	90.5
512.265	87.5
512.481	90.5
512.698	94.5
512.914	86.5
513.13	92.5
513.346	70.5
513.562	91.5
513.778	94.5
513.994	77.5
514.21	84.5
514.426	77.5
514.642	101.5
514.858	78.5
515.074	93.5
515.29	94.5
515.506	94.5
515.721	88.5
515.937	83.5
516.153	81.5
516.369	102.5
516.585	98.5
516.801	90.5
517.016	80.5
517.232	94.5
517.448	99.5
517.664	90.5
517.879	92.5
518.095	103.5
518.311	114.5
518.527	95.5
518.742	85.5
518.958	83.5
519.173	86.5
519.389	67.5
519.605	88.5
519.82	97.5
520.036	98.5
520.251	88.5
520.467	86.5
520.682	95.5
520.898	83.5
521.113	102.5
521.329	90.5
521.544	85.5
521.76	89.5
521.975	102.5
522.19	97.5
522.406	101.5
522.621	104.5
522.836	87.5
523.052	83.5
523.267	95.5
523.482	83.5
523.698	107.5
523.913	97.5
524.128	88.5
524.343	103.5
524.559	81.5
524.774	82.5
524.989	92.5
525.204	90.5
525.419	86.5
525.634	94.5
525.849	91.5
526.064	103.5
526.28	104.5
526.495	75.5
526.71	96.5
526.925	82.5
527.14	88.5
527.355	83.5
527.57	90.5
527.785	90.5
527.999	84.5
528.214	75.5
528.429	81.5
528.644	100.5
528.859	89.5
529.074	85.5
529.289	87.5
529.503	81.5
529.718	94.5
529.933	92.5
530.148	79.5
530.363	91.5
530.577	83.5
530.792	89.5
531.007	94.5
531.221	86.5
531.436	79.5
531.651	93.5
531.865	87.5
532.08	85.5
532.295	88.5
532.509	93.5
532.724	90.5
532.938	99.5
533.153	93.5
533.367	86.5
533.582	88.5
533.796	93.5
534.011	103.5
534.225	95.5
534.44	86.5
534.654	77.5
534.868	86.5
535.083	87.5
535.297	101.5
535.511	81.5
535.726	75.5
535.94	86.5
536.154	86.5
536.369	81.5
536.583	82.5
536.797	80.5
537.011	92.5
537.225	89.5
537.44	82.5
537.654	85.5
537.868	77.5
538.082	93.5
538.296	94.5
538.51	97.5
538.724	84.5
