Data from Ni(NO3)2@0.0625M.TitratingCurve.Agarose3%dH2O.NegLispCup.LampEnergy10.LIBS07252019_HRD10591_18-16-00-570.txt Node
Date: Thu Jul 25 18:16:00 EDT 2019
User: cochatt
Spectrometer: HR+D1059
Trigger mode: 1
Integration Time (sec): 1.000000E-1
Scans to average: 1
Electric dark correction enabled: true
Nonlinearity correction enabled: false
Boxcar width: 0
XAxis mode: Wavelengths
Number of Pixels in Spectrum: 2048
>>>>>Begin Spectral Data<<<<<
223.165	-17.62
223.4	-17.62
223.635	-17.62
223.869	-23.62
224.104	-8.62
224.338	-8.62
224.573	-11.62
224.808	-8.62
225.042	-4.62
225.277	5.38
225.511	7.38
225.746	-0.62
225.98	-2.62
226.215	6.38
226.449	9.38
226.683	10.38
226.918	17.38
227.152	30.38
227.387	34.38
227.621	30.38
227.856	41.38
228.09	44.38
228.324	52.38
228.559	64.38
228.793	61.38
229.027	111.38
229.262	130.38
229.496	124.38
229.73	120.38
229.964	128.38
230.199	127.38
230.433	134.38
230.667	142.38
230.901	138.38
231.136	155.38
231.37	144.38
231.604	153.38
231.838	154.38
232.072	147.38
232.306	161.38
232.541	152.38
232.775	155.38
233.009	143.38
233.243	144.38
233.477	170.38
233.711	162.38
233.945	151.38
234.179	167.38
234.413	164.38
234.647	158.38
234.881	158.38
235.115	171.38
235.349	170.38
235.583	167.38
235.817	159.38
236.051	160.38
236.285	154.38
236.519	176.38
236.753	174.38
236.987	175.38
237.221	169.38
237.455	159.38
237.689	166.38
237.922	183.38
238.156	176.38
238.39	189.38
238.624	184.38
238.858	188.38
239.091	190.38
239.325	174.38
239.559	184.38
239.793	183.38
240.027	185.38
240.26	174.38
240.494	187.38
240.728	200.38
240.961	197.38
241.195	212.38
241.429	216.38
241.662	200.38
241.896	206.38
242.13	202.38
242.363	210.38
242.597	209.38
242.83	219.38
243.064	221.38
243.298	216.38
243.531	215.38
243.765	227.38
243.998	232.38
244.232	229.38
244.465	226.38
244.699	226.38
244.932	224.38
245.166	241.38
245.399	238.38
245.633	224.38
245.866	238.38
246.099	240.38
246.333	251.38
246.566	229.38
246.8	238.38
247.033	239.38
247.266	243.38
247.5	238.38
247.733	241.38
247.966	255.38
248.2	248.38
248.433	246.38
248.666	251.38
248.899	279.38
249.133	260.38
249.366	270.38
249.599	257.38
249.832	281.38
250.066	275.38
250.299	280.38
250.532	272.38
250.765	280.38
250.998	274.38
251.231	291.38
251.465	284.38
251.698	299.38
251.931	292.38
252.164	304.38
252.397	305.38
252.63	299.38
252.863	292.38
253.096	303.38
253.329	306.38
253.562	297.38
253.795	324.38
254.028	306.38
254.261	319.38
254.494	310.38
254.727	300.38
254.96	323.38
255.193	313.38
255.426	302.38
255.659	295.38
255.892	324.38
256.124	316.38
256.357	309.38
256.59	336.38
256.823	339.38
257.056	310.38
257.289	323.38
257.521	334.38
257.754	328.38
257.987	329.38
258.22	341.38
258.452	331.38
258.685	337.38
258.918	351.38
259.151	346.38
259.383	336.38
259.616	331.38
259.849	348.38
260.081	347.38
260.314	358.38
260.547	336.38
260.779	351.38
261.012	349.38
261.244	372.38
261.477	348.38
261.71	355.38
261.942	371.38
262.175	361.38
262.407	390.38
262.64	362.38
262.872	368.38
263.105	360.38
263.337	358.38
263.57	369.38
263.802	372.38
264.035	391.38
264.267	383.38
264.499	373.38
264.732	386.38
264.964	397.38
265.197	383.38
265.429	386.38
265.661	388.38
265.894	382.38
266.126	376.38
266.358	396.38
266.591	388.38
266.823	409.38
267.055	403.38
267.287	410.38
267.52	394.38
267.752	398.38
267.984	401.38
268.216	402.38
268.448	406.38
268.681	407.38
268.913	422.38
269.145	415.38
269.377	411.38
269.609	411.38
269.841	430.38
270.073	412.38
270.306	414.38
270.538	424.38
270.77	437.38
271.002	416.38
271.234	447.38
271.466	427.38
271.698	431.38
271.93	433.38
272.162	437.38
272.394	428.38
272.626	448.38
272.858	434.38
273.09	433.38
273.322	446.38
273.553	441.38
273.785	436.38
274.017	462.38
274.249	453.38
274.481	472.38
274.713	460.38
274.945	467.38
275.176	469.38
275.408	466.38
275.64	462.38
275.872	470.38
276.104	449.38
276.335	473.38
276.567	477.38
276.799	469.38
277.031	466.38
277.262	482.38
277.494	458.38
277.726	479.38
277.957	474.38
278.189	492.38
278.421	491.38
278.652	473.38
278.884	488.38
279.115	503.38
279.347	487.38
279.579	483.38
279.81	496.38
280.042	494.38
280.273	489.38
280.505	503.38
280.736	515.38
280.968	515.38
281.199	537.38
281.431	537.38
281.662	523.38
281.894	534.38
282.125	540.38
282.356	524.38
282.588	512.38
282.819	533.38
283.051	527.38
283.282	524.38
283.513	522.38
283.745	539.38
283.976	548.38
284.207	525.38
284.439	540.38
284.67	546.38
284.901	569.38
285.132	528.38
285.364	550.38
285.595	523.38
285.826	563.38
286.057	548.38
286.288	542.38
286.52	567.38
286.751	559.38
286.982	561.38
287.213	556.38
287.444	559.38
287.675	555.38
287.906	562.38
288.138	571.38
288.369	564.38
288.6	571.38
288.831	562.38
289.062	590.38
289.293	577.38
289.524	585.38
289.755	588.38
289.986	582.38
290.217	592.38
290.448	582.38
290.679	615.38
290.91	594.38
291.141	614.38
291.371	616.38
291.602	597.38
291.833	568.38
292.064	584.38
292.295	593.38
292.526	606.38
292.757	588.38
292.987	600.38
293.218	602.38
293.449	613.38
293.68	619.38
293.91	588.38
294.141	595.38
294.372	622.38
294.603	594.38
294.833	608.38
295.064	600.38
295.295	604.38
295.525	600.38
295.756	619.38
295.987	614.38
296.217	618.38
296.448	636.38
296.679	608.38
296.909	632.38
297.14	648.38
297.37	627.38
297.601	648.38
297.831	637.38
298.062	634.38
298.292	636.38
298.523	651.38
298.753	662.38
298.984	625.38
299.214	641.38
299.445	672.38
299.675	647.38
299.905	653.38
300.136	622.38
300.366	645.38
300.597	656.38
300.827	680.38
301.057	665.38
301.288	691.38
301.518	680.38
301.748	683.38
301.979	675.38
302.209	677.38
302.439	678.38
302.669	683.38
302.9	675.38
303.13	668.38
303.36	679.38
303.59	670.38
303.82	675.38
304.051	668.38
304.281	667.38
304.511	691.38
304.741	670.38
304.971	667.38
305.201	656.38
305.431	678.38
305.661	664.38
305.891	659.38
306.121	648.38
306.352	673.38
306.582	659.38
306.812	664.38
307.042	662.38
307.272	666.38
307.502	676.38
307.731	655.38
307.961	673.38
308.191	658.38
308.421	650.38
308.651	651.38
308.881	668.38
309.111	678.38
309.341	644.38
309.571	646.38
309.8	662.38
310.03	642.38
310.26	643.38
310.49	650.38
310.72	674.38
310.949	670.38
311.179	652.38
311.409	681.38
311.639	666.38
311.868	688.38
312.098	674.38
312.328	695.38
312.557	720.38
312.787	697.38
313.017	713.38
313.246	694.38
313.476	692.38
313.706	732.38
313.935	717.38
314.165	706.38
314.394	716.38
314.624	715.38
314.853	729.38
315.083	726.38
315.312	708.38
315.542	704.38
315.771	704.38
316.001	705.38
316.23	700.38
316.46	722.38
316.689	694.38
316.919	672.38
317.148	702.38
317.377	698.38
317.607	689.38
317.836	681.38
318.065	672.38
318.295	704.38
318.524	695.38
318.753	699.38
318.983	687.38
319.212	669.38
319.441	681.38
319.67	688.38
319.9	697.38
320.129	688.38
320.358	669.38
320.587	709.38
320.816	716.38
321.046	704.38
321.275	700.38
321.504	695.38
321.733	690.38
321.962	695.38
322.191	705.38
322.42	700.38
322.649	710.38
322.878	696.38
323.108	699.38
323.337	722.38
323.566	708.38
323.795	699.38
324.024	683.38
324.253	728.38
324.482	747.38
324.71	702.38
324.939	725.38
325.168	715.38
325.397	747.38
325.626	735.38
325.855	722.38
326.084	766.38
326.313	774.38
326.542	782.38
326.77	798.38
326.999	748.38
327.228	760.38
327.457	774.38
327.686	759.38
327.914	766.38
328.143	759.38
328.372	769.38
328.6	775.38
328.829	779.38
329.058	799.38
329.287	755.38
329.515	765.38
329.744	793.38
329.972	803.38
330.201	767.38
330.43	775.38
330.658	802.38
330.887	797.38
331.115	834.38
331.344	820.38
331.572	819.38
331.801	837.38
332.03	853.38
332.258	867.38
332.486	899.38
332.715	940.38
332.943	964.38
333.172	1023.38
333.4	1047.38
333.629	1068.38
333.857	1097.38
334.085	1068.38
334.314	1052.38
334.542	1033.38
334.771	981.38
334.999	985.38
335.227	974.38
335.455	946.38
335.684	948.38
335.912	950.38
336.14	920.38
336.369	939.38
336.597	921.38
336.825	959.38
337.053	929.38
337.281	928.38
337.51	885.38
337.738	887.38
337.966	870.38
338.194	865.38
338.422	839.38
338.65	852.38
338.878	826.38
339.106	839.38
339.334	845.38
339.562	827.38
339.79	792.38
340.018	810.38
340.246	833.38
340.474	776.38
340.702	806.38
340.93	817.38
341.158	807.38
341.386	791.38
341.614	802.38
341.842	803.38
342.07	830.38
342.298	817.38
342.526	776.38
342.754	801.38
342.981	835.38
343.209	822.38
343.437	863.38
343.665	911.38
343.893	967.38
344.12	1018.38
344.348	987.38
344.576	915.38
344.804	879.38
345.031	840.38
345.259	838.38
345.487	806.38
345.714	818.38
345.942	809.38
346.17	811.38
346.397	783.38
346.625	774.38
346.853	779.38
347.08	778.38
347.308	779.38
347.535	784.38
347.763	806.38
347.99	811.38
348.218	802.38
348.445	823.38
348.673	767.38
348.9	775.38
349.128	786.38
349.355	760.38
349.583	774.38
349.81	771.38
350.037	761.38
350.265	743.38
350.492	767.38
350.72	770.38
350.947	746.38
351.174	756.38
351.402	747.38
351.629	726.38
351.856	735.38
352.083	710.38
352.311	731.38
352.538	734.38
352.765	744.38
352.992	710.38
353.22	732.38
353.447	744.38
353.674	744.38
353.901	752.38
354.128	739.38
354.355	753.38
354.583	740.38
354.81	743.38
355.037	761.38
355.264	769.38
355.491	762.38
355.718	744.38
355.945	770.38
356.172	757.38
356.399	756.38
356.626	781.38
356.853	747.38
357.08	747.38
357.307	752.38
357.534	759.38
357.761	766.38
357.988	770.38
358.215	741.38
358.441	755.38
358.668	728.38
358.895	737.38
359.122	758.38
359.349	769.38
359.576	743.38
359.802	761.38
360.029	727.38
360.256	773.38
360.483	756.38
360.709	730.38
360.936	781.38
361.163	746.38
361.39	762.38
361.616	743.38
361.843	772.38
362.07	753.38
362.296	758.38
362.523	776.38
362.749	742.38
362.976	762.38
363.203	769.38
363.429	741.38
363.656	745.38
363.882	756.38
364.109	735.38
364.335	728.38
364.562	735.38
364.788	723.38
365.015	763.38
365.241	737.38
365.468	730.38
365.694	746.38
365.92	734.38
366.147	759.38
366.373	735.38
366.599	763.38
366.826	716.38
367.052	747.38
367.278	734.38
367.505	780.38
367.731	779.38
367.957	775.38
368.184	729.38
368.41	766.38
368.636	744.38
368.862	768.38
369.089	783.38
369.315	769.38
369.541	770.38
369.767	793.38
369.993	764.38
370.219	780.38
370.445	775.38
370.672	787.38
370.898	842.38
371.124	812.38
371.35	827.38
371.576	803.38
371.802	800.38
372.028	803.38
372.254	803.38
372.48	804.38
372.706	868.38
372.932	851.38
373.158	857.38
373.384	848.38
373.61	816.38
373.835	834.38
374.061	834.38
374.287	818.38
374.513	839.38
374.739	855.38
374.965	913.38
375.191	906.38
375.416	932.38
375.642	895.38
375.868	886.38
376.094	869.38
376.319	851.38
376.545	868.38
376.771	839.38
376.997	837.38
377.222	804.38
377.448	838.38
377.674	824.38
377.899	810.38
378.125	814.38
378.35	792.38
378.576	826.38
378.802	828.38
379.027	810.38
379.253	826.38
379.478	811.38
379.704	804.38
379.929	807.38
380.155	810.38
380.38	816.38
380.606	798.38
380.831	803.38
381.057	803.38
381.282	812.38
381.507	790.38
381.733	825.38
381.958	820.38
382.184	822.38
382.409	840.38
382.634	856.38
382.86	854.38
383.085	862.38
383.31	888.38
383.535	889.38
383.761	907.38
383.986	942.38
384.211	961.38
384.436	970.38
384.662	992.38
384.887	1033.38
385.112	1008.38
385.337	1007.38
385.562	1008.38
385.787	995.38
386.013	1013.38
386.238	1002.38
386.463	1011.38
386.688	1013.38
386.913	984.38
387.138	950.38
387.363	982.38
387.588	939.38
387.813	971.38
388.038	970.38
388.263	969.38
388.488	998.38
388.713	967.38
388.938	994.38
389.163	956.38
389.387	970.38
389.612	972.38
389.837	1002.38
390.062	966.38
390.287	960.38
390.512	961.38
390.736	988.38
390.961	998.38
391.186	990.38
391.411	1038.38
391.636	1076.38
391.86	1095.38
392.085	1130.38
392.31	1106.38
392.534	1100.38
392.759	1078.38
392.984	1033.38
393.208	1029.38
393.433	1039.38
393.658	1064.38
393.882	1082.38
394.107	1064.38
394.331	1083.38
394.556	1068.38
394.78	1060.38
395.005	1046.38
395.229	1034.38
395.454	1094.38
395.678	1170.38
395.903	1132.38
396.127	1112.38
396.352	1045.38
396.576	1046.38
396.801	1031.38
397.025	1051.38
397.249	1083.38
397.474	1072.38
397.698	1079.38
397.922	1097.38
398.147	1104.38
398.371	1119.38
398.595	1151.38
398.82	1223.38
399.044	1260.38
399.268	1454.38
399.492	1696.38
399.717	1963.38
399.941	1926.38
400.165	1661.38
400.389	1467.38
400.613	1380.38
400.837	1318.38
401.062	1267.38
401.286	1218.38
401.51	1217.38
401.734	1239.38
401.958	1260.38
402.182	1237.38
402.406	1271.38
402.63	1276.38
402.854	1364.38
403.078	1375.38
403.302	1406.38
403.526	1426.38
403.75	1448.38
403.974	1487.38
404.198	1497.38
404.422	1503.38
404.645	1493.38
404.869	1433.38
405.093	1460.38
405.317	1414.38
405.541	1406.38
405.765	1368.38
405.988	1337.38
406.212	1367.38
406.436	1375.38
406.66	1401.38
406.883	1424.38
407.107	1521.38
407.331	1592.38
407.555	1640.38
407.778	1630.38
408.002	1591.38
408.226	1552.38
408.449	1496.38
408.673	1410.38
408.896	1446.38
409.12	1403.38
409.344	1410.38
409.567	1409.38
409.791	1438.38
410.014	1407.38
410.238	1387.38
410.461	1364.38
410.685	1405.38
410.908	1362.38
411.132	1332.38
411.355	1310.38
411.578	1327.38
411.802	1286.38
412.025	1283.38
412.249	1302.38
412.472	1297.38
412.695	1249.38
412.919	1247.38
413.142	1219.38
413.365	1225.38
413.589	1218.38
413.812	1253.38
414.035	1209.38
414.258	1211.38
414.482	1258.38
414.705	1275.38
414.928	1236.38
415.151	1256.38
415.374	1247.38
415.597	1236.38
415.821	1207.38
416.044	1218.38
416.267	1206.38
416.49	1173.38
416.713	1183.38
416.936	1198.38
417.159	1215.38
417.382	1233.38
417.605	1205.38
417.828	1243.38
418.051	1239.38
418.274	1234.38
418.497	1250.38
418.72	1281.38
418.943	1240.38
419.166	1346.38
419.389	1431.38
419.611	1410.38
419.834	1315.38
420.057	1291.38
420.28	1237.38
420.503	1198.38
420.726	1220.38
420.948	1185.38
421.171	1211.38
421.394	1218.38
421.617	1201.38
421.839	1241.38
422.062	1247.38
422.285	1227.38
422.507	1271.38
422.73	1241.38
422.953	1291.38
423.175	1275.38
423.398	1293.38
423.621	1303.38
423.843	1344.38
424.066	1364.38
424.288	1321.38
424.511	1342.38
424.733	1300.38
424.956	1246.38
425.178	1244.38
425.401	1210.38
425.623	1211.38
425.846	1179.38
426.068	1183.38
426.291	1191.38
426.513	1105.38
426.735	1165.38
426.958	1144.38
427.18	1093.38
427.402	1119.38
427.625	1107.38
427.847	1089.38
428.069	1103.38
428.292	1100.38
428.514	1063.38
428.736	1082.38
428.958	1098.38
429.181	1053.38
429.403	1054.38
429.625	1041.38
429.847	1018.38
430.069	1024.38
430.292	1054.38
430.514	1052.38
430.736	1048.38
430.958	1078.38
431.18	1061.38
431.402	1065.38
431.624	1041.38
431.846	1065.38
432.068	1110.38
432.29	1072.38
432.512	1060.38
432.734	1066.38
432.956	1078.38
433.178	1074.38
433.4	1095.38
433.622	1096.38
433.844	1141.38
434.066	1115.38
434.287	1082.38
434.509	1122.38
434.731	1192.38
434.953	1216.38
435.175	1270.38
435.397	1235.38
435.618	1154.38
435.84	1095.38
436.062	1072.38
436.284	1090.38
436.505	1076.38
436.727	1088.38
436.949	1072.38
437.17	1072.38
437.392	1052.38
437.614	1057.38
437.835	1040.38
438.057	1028.38
438.278	1017.38
438.5	1033.38
438.721	1025.38
438.943	1056.38
439.165	1041.38
439.386	1033.38
439.608	1057.38
439.829	1076.38
440.05	1054.38
440.272	1072.38
440.493	1094.38
440.715	1110.38
440.936	1109.38
441.158	1177.38
441.379	1167.38
441.6	1206.38
441.822	1263.38
442.043	1236.38
442.264	1208.38
442.486	1176.38
442.707	1206.38
442.928	1183.38
443.149	1201.38
443.371	1206.38
443.592	1190.38
443.813	1216.38
444.034	1240.38
444.255	1282.38
444.476	1326.38
444.698	1400.38
444.919	1502.38
445.14	1492.38
445.361	1369.38
445.582	1270.38
445.803	1168.38
446.024	1155.38
446.245	1134.38
446.466	1094.38
446.687	1088.38
446.908	1089.38
447.129	1057.38
447.35	1096.38
447.571	1051.38
447.792	1027.38
448.013	1022.38
448.234	993.38
448.455	1014.38
448.675	986.38
448.896	985.38
449.117	965.38
449.338	980.38
449.559	959.38
449.779	976.38
450	955.38
450.221	970.38
450.442	1010.38
450.662	962.38
450.883	1022.38
451.104	997.38
451.324	993.38
451.545	1000.38
451.766	1006.38
451.986	990.38
452.207	1008.38
452.428	987.38
452.648	986.38
452.869	972.38
453.089	945.38
453.31	966.38
453.53	960.38
453.751	976.38
453.971	961.38
454.192	942.38
454.412	917.38
454.633	924.38
454.853	926.38
455.073	940.38
455.294	922.38
455.514	939.38
455.734	923.38
455.955	900.38
456.175	932.38
456.395	894.38
456.616	909.38
456.836	920.38
457.056	911.38
457.276	925.38
457.497	920.38
457.717	894.38
457.937	922.38
458.157	938.38
458.377	912.38
458.598	942.38
458.818	960.38
459.038	1027.38
459.258	1037.38
459.478	1073.38
459.698	1111.38
459.918	1148.38
460.138	1210.38
460.358	1284.38
460.578	1290.38
460.798	1300.38
461.018	1307.38
461.238	1274.38
461.458	1292.38
461.678	1270.38
461.898	1288.38
462.118	1289.38
462.338	1358.38
462.558	1390.38
462.777	1462.38
462.997	1605.38
463.217	1768.38
463.437	1786.38
463.657	1592.38
463.876	1494.38
464.096	1476.38
464.316	1508.38
464.536	1549.38
464.755	1485.38
464.975	1401.38
465.195	1330.38
465.414	1229.38
465.634	1172.38
465.854	1141.38
466.073	1082.38
466.293	1100.38
466.512	1060.38
466.732	1036.38
466.951	1024.38
467.171	1027.38
467.391	1039.38
467.61	1042.38
467.829	1014.38
468.049	1028.38
468.268	992.38
468.488	963.38
468.707	959.38
468.927	979.38
469.146	966.38
469.365	993.38
469.585	991.38
469.804	1025.38
470.023	1010.38
470.243	1073.38
470.462	1068.38
470.681	1096.38
470.901	1066.38
471.12	1064.38
471.339	1009.38
471.558	1006.38
471.777	999.38
471.997	996.38
472.216	966.38
472.435	966.38
472.654	962.38
472.873	933.38
473.092	946.38
473.311	932.38
473.53	957.38
473.749	944.38
473.968	956.38
474.187	938.38
474.406	914.38
474.625	930.38
474.844	977.38
475.063	934.38
475.282	951.38
475.501	959.38
475.72	971.38
475.939	983.38
476.158	1010.38
476.377	995.38
476.596	991.38
476.814	1010.38
477.033	1006.38
477.252	1022.38
477.471	1021.38
477.69	1057.38
477.908	1082.38
478.127	1144.38
478.346	1153.38
478.564	1168.38
478.783	1190.38
479.002	1202.38
479.22	1200.38
479.439	1206.38
479.658	1200.38
479.876	1168.38
480.095	1202.38
480.313	1246.38
480.532	1313.38
480.751	1284.38
480.969	1251.38
481.188	1184.38
481.406	1159.38
481.624	1126.38
481.843	1089.38
482.061	1094.38
482.28	1091.38
482.498	1063.38
482.717	1082.38
482.935	1078.38
483.153	1060.38
483.372	1078.38
483.59	1079.38
483.808	1113.38
484.027	1073.38
484.245	1100.38
484.463	1083.38
484.681	1103.38
484.9	1149.38
485.118	1148.38
485.336	1131.38
485.554	1140.38
485.772	1158.38
485.99	1151.38
486.209	1198.38
486.427	1152.38
486.645	1213.38
486.863	1172.38
487.081	1159.38
487.299	1146.38
487.517	1148.38
487.735	1146.38
487.953	1123.38
488.171	1133.38
488.389	1123.38
488.607	1098.38
488.825	1135.38
489.043	1129.38
489.261	1152.38
489.479	1152.38
489.696	1163.38
489.914	1149.38
490.132	1157.38
490.35	1126.38
490.568	1145.38
490.786	1138.38
491.003	1184.38
491.221	1140.38
491.439	1156.38
491.657	1136.38
491.874	1142.38
492.092	1152.38
492.31	1131.38
492.527	1126.38
492.745	1184.38
492.963	1183.38
493.18	1170.38
493.398	1177.38
493.615	1186.38
493.833	1179.38
494.05	1192.38
494.268	1195.38
494.485	1210.38
494.703	1202.38
494.92	1206.38
495.138	1203.38
495.355	1210.38
495.573	1165.38
495.79	1257.38
