Data from Ni(NO3)2@0.5M.TitratingCurve.Agarose3%dH2O.NegLispCup.LampEnergy10.LIBS07252019_HRD10591_18-00-19-564.txt Node
Date: Thu Jul 25 18:00:19 EDT 2019
User: cochatt
Spectrometer: HR+D1059
Trigger mode: 1
Integration Time (sec): 1.000000E-1
Scans to average: 1
Electric dark correction enabled: true
Nonlinearity correction enabled: false
Boxcar width: 0
XAxis mode: Wavelengths
Number of Pixels in Spectrum: 2048
>>>>>Begin Spectral Data<<<<<
223.165	-16.62
223.4	-16.62
223.635	-16.62
223.869	-20.62
224.104	-19.62
224.338	-9.62
224.573	-24.62
224.808	-6.62
225.042	-10.62
225.277	5.38
225.511	1.38
225.746	5.38
225.98	3.38
226.215	14.38
226.449	17.38
226.683	9.38
226.918	22.38
227.152	29.38
227.387	43.38
227.621	33.38
227.856	39.38
228.09	45.38
228.324	50.38
228.559	47.38
228.793	73.38
229.027	124.38
229.262	165.38
229.496	157.38
229.73	166.38
229.964	171.38
230.199	191.38
230.433	206.38
230.667	178.38
230.901	193.38
231.136	181.38
231.37	174.38
231.604	195.38
231.838	205.38
232.072	205.38
232.306	198.38
232.541	205.38
232.775	181.38
233.009	184.38
233.243	193.38
233.477	185.38
233.711	192.38
233.945	201.38
234.179	201.38
234.413	187.38
234.647	191.38
234.881	203.38
235.115	200.38
235.349	188.38
235.583	199.38
235.817	193.38
236.051	207.38
236.285	209.38
236.519	193.38
236.753	201.38
236.987	190.38
237.221	188.38
237.455	202.38
237.689	214.38
237.922	229.38
238.156	207.38
238.39	207.38
238.624	208.38
238.858	221.38
239.091	206.38
239.325	215.38
239.559	245.38
239.793	238.38
240.027	261.38
240.26	229.38
240.494	236.38
240.728	230.38
240.961	234.38
241.195	245.38
241.429	252.38
241.662	270.38
241.896	267.38
242.13	275.38
242.363	265.38
242.597	259.38
242.83	246.38
243.064	235.38
243.298	265.38
243.531	262.38
243.765	250.38
243.998	280.38
244.232	291.38
244.465	259.38
244.699	271.38
244.932	287.38
245.166	285.38
245.399	299.38
245.633	295.38
245.866	298.38
246.099	290.38
246.333	297.38
246.566	298.38
246.8	308.38
247.033	293.38
247.266	296.38
247.5	287.38
247.733	304.38
247.966	314.38
248.2	316.38
248.433	339.38
248.666	300.38
248.899	302.38
249.133	304.38
249.366	321.38
249.599	318.38
249.832	337.38
250.066	340.38
250.299	332.38
250.532	330.38
250.765	336.38
250.998	369.38
251.231	382.38
251.465	365.38
251.698	358.38
251.931	361.38
252.164	351.38
252.397	372.38
252.63	366.38
252.863	371.38
253.096	379.38
253.329	392.38
253.562	362.38
253.795	366.38
254.028	389.38
254.261	393.38
254.494	383.38
254.727	402.38
254.96	383.38
255.193	381.38
255.426	381.38
255.659	374.38
255.892	392.38
256.124	416.38
256.357	436.38
256.59	423.38
256.823	417.38
257.056	421.38
257.289	427.38
257.521	412.38
257.754	411.38
257.987	412.38
258.22	439.38
258.452	424.38
258.685	437.38
258.918	435.38
259.151	446.38
259.383	438.38
259.616	457.38
259.849	430.38
260.081	418.38
260.314	439.38
260.547	442.38
260.779	435.38
261.012	446.38
261.244	452.38
261.477	470.38
261.71	458.38
261.942	451.38
262.175	469.38
262.407	478.38
262.64	485.38
262.872	475.38
263.105	479.38
263.337	491.38
263.57	485.38
263.802	479.38
264.035	487.38
264.267	514.38
264.499	500.38
264.732	501.38
264.964	474.38
265.197	515.38
265.429	501.38
265.661	503.38
265.894	499.38
266.126	499.38
266.358	511.38
266.591	515.38
266.823	511.38
267.055	498.38
267.287	503.38
267.52	529.38
267.752	527.38
267.984	513.38
268.216	526.38
268.448	535.38
268.681	541.38
268.913	526.38
269.145	540.38
269.377	542.38
269.609	532.38
269.841	549.38
270.073	542.38
270.306	542.38
270.538	564.38
270.77	541.38
271.002	549.38
271.234	553.38
271.466	581.38
271.698	557.38
271.93	581.38
272.162	569.38
272.394	554.38
272.626	558.38
272.858	555.38
273.09	574.38
273.322	593.38
273.553	573.38
273.785	588.38
274.017	602.38
274.249	575.38
274.481	595.38
274.713	603.38
274.945	584.38
275.176	585.38
275.408	593.38
275.64	618.38
275.872	619.38
276.104	627.38
276.335	632.38
276.567	633.38
276.799	637.38
277.031	611.38
277.262	639.38
277.494	649.38
277.726	616.38
277.957	623.38
278.189	640.38
278.421	633.38
278.652	659.38
278.884	645.38
279.115	643.38
279.347	652.38
279.579	659.38
279.81	649.38
280.042	639.38
280.273	637.38
280.505	676.38
280.736	654.38
280.968	652.38
281.199	668.38
281.431	670.38
281.662	674.38
281.894	667.38
282.125	681.38
282.356	699.38
282.588	671.38
282.819	669.38
283.051	694.38
283.282	678.38
283.513	672.38
283.745	707.38
283.976	693.38
284.207	698.38
284.439	709.38
284.67	695.38
284.901	718.38
285.132	707.38
285.364	712.38
285.595	711.38
285.826	691.38
286.057	717.38
286.288	721.38
286.52	737.38
286.751	724.38
286.982	727.38
287.213	724.38
287.444	700.38
287.675	746.38
287.906	725.38
288.138	731.38
288.369	729.38
288.6	742.38
288.831	741.38
289.062	720.38
289.293	732.38
289.524	756.38
289.755	738.38
289.986	729.38
290.217	779.38
290.448	709.38
290.679	741.38
290.91	726.38
291.141	739.38
291.371	766.38
291.602	757.38
291.833	757.38
292.064	759.38
292.295	765.38
292.526	773.38
292.757	748.38
292.987	743.38
293.218	724.38
293.449	775.38
293.68	749.38
293.91	761.38
294.141	750.38
294.372	743.38
294.603	761.38
294.833	773.38
295.064	786.38
295.295	775.38
295.525	754.38
295.756	787.38
295.987	750.38
296.217	769.38
296.448	793.38
296.679	791.38
296.909	772.38
297.14	777.38
297.37	795.38
297.601	801.38
297.831	805.38
298.062	804.38
298.292	830.38
298.523	844.38
298.753	833.38
298.984	824.38
299.214	824.38
299.445	845.38
299.675	814.38
299.905	831.38
300.136	826.38
300.366	849.38
300.597	857.38
300.827	867.38
301.057	867.38
301.288	877.38
301.518	873.38
301.748	872.38
301.979	850.38
302.209	881.38
302.439	867.38
302.669	850.38
302.9	862.38
303.13	859.38
303.36	878.38
303.59	867.38
303.82	886.38
304.051	891.38
304.281	851.38
304.511	860.38
304.741	886.38
304.971	874.38
305.201	873.38
305.431	919.38
305.661	907.38
305.891	881.38
306.121	885.38
306.352	859.38
306.582	837.38
306.812	876.38
307.042	879.38
307.272	869.38
307.502	868.38
307.731	846.38
307.961	871.38
308.191	873.38
308.421	868.38
308.651	868.38
308.881	857.38
309.111	894.38
309.341	835.38
309.571	887.38
309.8	900.38
310.03	878.38
310.26	925.38
310.49	937.38
310.72	915.38
310.949	907.38
311.179	890.38
311.409	903.38
311.639	895.38
311.868	901.38
312.098	904.38
312.328	931.38
312.557	939.38
312.787	924.38
313.017	912.38
313.246	952.38
313.476	941.38
313.706	956.38
313.935	952.38
314.165	957.38
314.394	945.38
314.624	955.38
314.853	956.38
315.083	956.38
315.312	962.38
315.542	974.38
315.771	949.38
316.001	963.38
316.23	950.38
316.46	949.38
316.689	959.38
316.919	961.38
317.148	945.38
317.377	938.38
317.607	933.38
317.836	945.38
318.065	960.38
318.295	969.38
318.524	954.38
318.753	975.38
318.983	965.38
319.212	949.38
319.441	955.38
319.67	981.38
319.9	937.38
320.129	939.38
320.358	966.38
320.587	958.38
320.816	972.38
321.046	939.38
321.275	981.38
321.504	957.38
321.733	972.38
321.962	989.38
322.191	991.38
322.42	986.38
322.649	1000.38
322.878	1003.38
323.108	994.38
323.337	1051.38
323.566	1001.38
323.795	999.38
324.024	1013.38
324.253	986.38
324.482	1027.38
324.71	1013.38
324.939	1037.38
325.168	1031.38
325.397	1026.38
325.626	1043.38
325.855	1021.38
326.084	1068.38
326.313	1066.38
326.542	1042.38
326.77	1067.38
326.999	1053.38
327.228	1040.38
327.457	1065.38
327.686	1050.38
327.914	1047.38
328.143	1053.38
328.372	1047.38
328.6	1085.38
328.829	1053.38
329.058	1076.38
329.287	1055.38
329.515	1048.38
329.744	1065.38
329.972	1069.38
330.201	1085.38
330.43	1083.38
330.658	1049.38
330.887	1089.38
331.115	1114.38
331.344	1142.38
331.572	1107.38
331.801	1145.38
332.03	1146.38
332.258	1173.38
332.486	1207.38
332.715	1233.38
332.943	1224.38
333.172	1194.38
333.4	1271.38
333.629	1291.38
333.857	1289.38
334.085	1333.38
334.314	1318.38
334.542	1308.38
334.771	1337.38
334.999	1317.38
335.227	1308.38
335.455	1333.38
335.684	1322.38
335.912	1301.38
336.14	1283.38
336.369	1295.38
336.597	1293.38
336.825	1292.38
337.053	1316.38
337.281	1267.38
337.51	1237.38
337.738	1233.38
337.966	1230.38
338.194	1260.38
338.422	1220.38
338.65	1192.38
338.878	1180.38
339.106	1196.38
339.334	1236.38
339.562	1220.38
339.79	1171.38
340.018	1153.38
340.246	1136.38
340.474	1134.38
340.702	1125.38
340.93	1163.38
341.158	1123.38
341.386	1154.38
341.614	1220.38
341.842	1183.38
342.07	1144.38
342.298	1147.38
342.526	1164.38
342.754	1161.38
342.981	1149.38
343.209	1160.38
343.437	1192.38
343.665	1254.38
343.893	1283.38
344.12	1316.38
344.348	1297.38
344.576	1299.38
344.804	1293.38
345.031	1229.38
345.259	1172.38
345.487	1188.38
345.714	1163.38
345.942	1191.38
346.17	1205.38
346.397	1157.38
346.625	1131.38
346.853	1125.38
347.08	1103.38
347.308	1118.38
347.535	1105.38
347.763	1081.38
347.99	1097.38
348.218	1088.38
348.445	1101.38
348.673	1096.38
348.9	1112.38
349.128	1118.38
349.355	1103.38
349.583	1153.38
349.81	1110.38
350.037	1084.38
350.265	1098.38
350.492	1091.38
350.72	1104.38
350.947	1085.38
351.174	1118.38
351.402	1124.38
351.629	1114.38
351.856	1111.38
352.083	1077.38
352.311	1127.38
352.538	1163.38
352.765	1140.38
352.992	1066.38
353.22	1015.38
353.447	1040.38
353.674	1045.38
353.901	1054.38
354.128	1062.38
354.355	1056.38
354.583	1065.38
354.81	1058.38
355.037	1091.38
355.264	1080.38
355.491	1034.38
355.718	1034.38
355.945	1073.38
356.172	1057.38
356.399	1092.38
356.626	1113.38
356.853	1144.38
357.08	1084.38
357.307	1093.38
357.534	1082.38
357.761	1086.38
357.988	1077.38
358.215	1077.38
358.441	1094.38
358.668	1056.38
358.895	1081.38
359.122	1065.38
359.349	1047.38
359.576	1053.38
359.802	1064.38
360.029	1073.38
360.256	1081.38
360.483	1082.38
360.709	1083.38
360.936	1046.38
361.163	1083.38
361.39	1077.38
361.616	1085.38
361.843	1099.38
362.07	1133.38
362.296	1119.38
362.523	1080.38
362.749	1101.38
362.976	1089.38
363.203	1082.38
363.429	1093.38
363.656	1057.38
363.882	1041.38
364.109	1054.38
364.335	1100.38
364.562	1059.38
364.788	1072.38
365.015	1092.38
365.241	1055.38
365.468	1078.38
365.694	1079.38
365.92	1084.38
366.147	1034.38
366.373	1055.38
366.599	1052.38
366.826	1077.38
367.052	1054.38
367.278	1060.38
367.505	1083.38
367.731	1077.38
367.957	1070.38
368.184	1088.38
368.41	1087.38
368.636	1092.38
368.862	1109.38
369.089	1107.38
369.315	1092.38
369.541	1130.38
369.767	1129.38
369.993	1111.38
370.219	1132.38
370.445	1150.38
370.672	1108.38
370.898	1111.38
371.124	1147.38
371.35	1142.38
371.576	1134.38
371.802	1163.38
372.028	1163.38
372.254	1146.38
372.48	1155.38
372.706	1168.38
372.932	1191.38
373.158	1206.38
373.384	1182.38
373.61	1167.38
373.835	1178.38
374.061	1173.38
374.287	1156.38
374.513	1194.38
374.739	1214.38
374.965	1221.38
375.191	1250.38
375.416	1240.38
375.642	1186.38
375.868	1227.38
376.094	1188.38
376.319	1187.38
376.545	1165.38
376.771	1141.38
376.997	1146.38
377.222	1185.38
377.448	1161.38
377.674	1155.38
377.899	1143.38
378.125	1144.38
378.35	1145.38
378.576	1139.38
378.802	1155.38
379.027	1161.38
379.253	1118.38
379.478	1144.38
379.704	1134.38
379.929	1126.38
380.155	1110.38
380.38	1117.38
380.606	1141.38
380.831	1126.38
381.057	1159.38
381.282	1148.38
381.507	1191.38
381.733	1176.38
381.958	1171.38
382.184	1223.38
382.409	1184.38
382.634	1219.38
382.86	1173.38
383.085	1189.38
383.31	1218.38
383.535	1213.38
383.761	1205.38
383.986	1246.38
384.211	1279.38
384.436	1246.38
384.662	1298.38
384.887	1316.38
385.112	1311.38
385.337	1337.38
385.562	1323.38
385.787	1318.38
386.013	1359.38
386.238	1355.38
386.463	1330.38
386.688	1386.38
386.913	1341.38
387.138	1325.38
387.363	1399.38
387.588	1350.38
387.813	1357.38
388.038	1391.38
388.263	1376.38
388.488	1361.38
388.713	1362.38
388.938	1346.38
389.163	1335.38
389.387	1394.38
389.612	1335.38
389.837	1362.38
390.062	1347.38
390.287	1341.38
390.512	1362.38
390.736	1375.38
390.961	1398.38
391.186	1377.38
391.411	1448.38
391.636	1481.38
391.86	1467.38
392.085	1451.38
392.31	1471.38
392.534	1455.38
392.759	1413.38
392.984	1462.38
393.208	1443.38
393.433	1437.38
393.658	1431.38
393.882	1440.38
394.107	1421.38
394.331	1421.38
394.556	1421.38
394.78	1461.38
395.005	1465.38
395.229	1452.38
395.454	1505.38
395.678	1503.38
395.903	1494.38
396.127	1480.38
396.352	1475.38
396.576	1498.38
396.801	1487.38
397.025	1494.38
397.249	1526.38
397.474	1528.38
397.698	1549.38
397.922	1527.38
398.147	1551.38
398.371	1590.38
398.595	1641.38
398.82	1649.38
399.044	1751.38
399.268	1837.38
399.492	1950.38
399.717	2084.38
399.941	2107.38
400.165	2033.38
400.389	1949.38
400.613	1871.38
400.837	1782.38
401.062	1783.38
401.286	1704.38
401.51	1688.38
401.734	1703.38
401.958	1659.38
402.182	1673.38
402.406	1678.38
402.63	1693.38
402.854	1692.38
403.078	1680.38
403.302	1705.38
403.526	1718.38
403.75	1695.38
403.974	1746.38
404.198	1760.38
404.422	1730.38
404.645	1743.38
404.869	1726.38
405.093	1788.38
405.317	1768.38
405.541	1767.38
405.765	1814.38
405.988	1755.38
406.212	1796.38
406.436	1787.38
406.66	1850.38
406.883	1855.38
407.107	1943.38
407.331	1966.38
407.555	2023.38
407.778	1977.38
408.002	1964.38
408.226	1970.38
408.449	1947.38
408.673	1905.38
408.896	1867.38
409.12	1835.38
409.344	1863.38
409.567	1821.38
409.791	1842.38
410.014	1789.38
410.238	1796.38
410.461	1783.38
410.685	1749.38
410.908	1761.38
411.132	1758.38
411.355	1706.38
411.578	1727.38
411.802	1731.38
412.025	1723.38
412.249	1752.38
412.472	1688.38
412.695	1717.38
412.919	1681.38
413.142	1687.38
413.365	1734.38
413.589	1664.38
413.812	1685.38
414.035	1665.38
414.258	1657.38
414.482	1686.38
414.705	1685.38
414.928	1704.38
415.151	1691.38
415.374	1673.38
415.597	1640.38
415.821	1619.38
416.044	1609.38
416.267	1615.38
416.49	1584.38
416.713	1574.38
416.936	1659.38
417.159	1617.38
417.382	1622.38
417.605	1590.38
417.828	1555.38
418.051	1644.38
418.274	1625.38
418.497	1638.38
418.72	1613.38
418.943	1621.38
419.166	1726.38
419.389	1856.38
419.611	1790.38
419.834	1744.38
420.057	1679.38
420.28	1640.38
420.503	1585.38
420.726	1607.38
420.948	1597.38
421.171	1590.38
421.394	1597.38
421.617	1581.38
421.839	1622.38
422.062	1608.38
422.285	1572.38
422.507	1616.38
422.73	1631.38
422.953	1609.38
423.175	1622.38
423.398	1631.38
423.621	1607.38
423.843	1611.38
424.066	1623.38
424.288	1592.38
424.511	1591.38
424.733	1646.38
424.956	1596.38
425.178	1611.38
425.401	1600.38
425.623	1614.38
425.846	1553.38
426.068	1607.38
426.291	1547.38
426.513	1552.38
426.735	1544.38
426.958	1561.38
427.18	1494.38
427.402	1548.38
427.625	1545.38
427.847	1488.38
428.069	1500.38
428.292	1499.38
428.514	1492.38
428.736	1485.38
428.958	1481.38
429.181	1479.38
429.403	1481.38
429.625	1435.38
429.847	1455.38
430.069	1457.38
430.292	1456.38
430.514	1475.38
430.736	1466.38
430.958	1481.38
431.18	1469.38
431.402	1465.38
431.624	1497.38
431.846	1495.38
432.068	1521.38
432.29	1517.38
432.512	1502.38
432.734	1523.38
432.956	1509.38
433.178	1483.38
433.4	1548.38
433.622	1504.38
433.844	1535.38
434.066	1511.38
434.287	1532.38
434.509	1553.38
434.731	1552.38
434.953	1623.38
435.175	1629.38
435.397	1612.38
435.618	1541.38
435.84	1561.38
436.062	1544.38
436.284	1522.38
436.505	1491.38
436.727	1486.38
436.949	1474.38
437.17	1499.38
437.392	1466.38
437.614	1453.38
437.835	1445.38
438.057	1442.38
438.278	1412.38
438.5	1439.38
438.721	1409.38
438.943	1452.38
439.165	1434.38
439.386	1467.38
439.608	1452.38
439.829	1448.38
440.05	1463.38
440.272	1489.38
440.493	1509.38
440.715	1508.38
440.936	1513.38
441.158	1529.38
441.379	1571.38
441.6	1575.38
441.822	1580.38
442.043	1594.38
442.264	1582.38
442.486	1577.38
442.707	1596.38
442.928	1561.38
443.149	1604.38
443.371	1563.38
443.592	1657.38
443.813	1610.38
444.034	1599.38
444.255	1620.38
444.476	1706.38
444.698	1731.38
444.919	1754.38
445.14	1829.38
445.361	1730.38
445.582	1639.38
445.803	1627.38
446.024	1557.38
446.245	1559.38
446.466	1539.38
446.687	1488.38
446.908	1472.38
447.129	1454.38
447.35	1439.38
447.571	1416.38
447.792	1349.38
448.013	1385.38
448.234	1375.38
448.455	1411.38
448.675	1353.38
448.896	1375.38
449.117	1334.38
449.338	1343.38
449.559	1337.38
449.779	1346.38
450	1353.38
450.221	1364.38
450.442	1329.38
450.662	1356.38
450.883	1346.38
451.104	1385.38
451.324	1322.38
451.545	1324.38
451.766	1352.38
451.986	1324.38
452.207	1295.38
452.428	1311.38
452.648	1324.38
452.869	1282.38
453.089	1304.38
453.31	1344.38
453.53	1278.38
453.751	1309.38
453.971	1267.38
454.192	1310.38
454.412	1317.38
454.633	1289.38
454.853	1278.38
455.073	1287.38
455.294	1244.38
455.514	1250.38
455.734	1281.38
455.955	1295.38
456.175	1303.38
456.395	1299.38
456.616	1251.38
456.836	1262.38
457.056	1287.38
457.276	1273.38
457.497	1321.38
457.717	1306.38
457.937	1311.38
458.157	1350.38
458.377	1364.38
458.598	1361.38
458.818	1379.38
459.038	1396.38
459.258	1421.38
459.478	1482.38
459.698	1569.38
459.918	1573.38
460.138	1580.38
460.358	1651.38
460.578	1641.38
460.798	1644.38
461.018	1668.38
461.238	1677.38
461.458	1646.38
461.678	1635.38
461.898	1716.38
462.118	1710.38
462.338	1736.38
462.558	1807.38
462.777	1874.38
462.997	1915.38
463.217	1996.38
463.437	2069.38
463.657	1979.38
463.876	1927.38
464.096	1892.38
464.316	1870.38
464.536	1794.38
464.755	1802.38
464.975	1734.38
465.195	1697.38
465.414	1661.38
465.634	1561.38
465.854	1555.38
466.073	1496.38
466.293	1510.38
466.512	1433.38
466.732	1417.38
466.951	1424.38
467.171	1438.38
467.391	1422.38
467.61	1413.38
467.829	1374.38
468.049	1420.38
468.268	1331.38
468.488	1360.38
468.707	1347.38
468.927	1381.38
469.146	1382.38
469.365	1378.38
469.585	1389.38
469.804	1415.38
470.023	1431.38
470.243	1411.38
470.462	1471.38
470.681	1437.38
470.901	1407.38
471.12	1418.38
471.339	1395.38
471.558	1425.38
471.777	1414.38
471.997	1395.38
472.216	1341.38
472.435	1373.38
472.654	1374.38
472.873	1386.38
473.092	1344.38
473.311	1383.38
473.53	1375.38
473.749	1348.38
473.968	1329.38
474.187	1355.38
474.406	1340.38
474.625	1351.38
474.844	1345.38
475.063	1370.38
475.282	1411.38
475.501	1403.38
475.72	1383.38
475.939	1403.38
476.158	1416.38
476.377	1407.38
476.596	1436.38
476.814	1461.38
477.033	1441.38
477.252	1497.38
477.471	1540.38
477.69	1513.38
477.908	1544.38
478.127	1574.38
478.346	1598.38
478.564	1604.38
478.783	1618.38
479.002	1688.38
479.22	1679.38
479.439	1693.38
479.658	1640.38
479.876	1662.38
480.095	1681.38
480.313	1697.38
480.532	1751.38
480.751	1720.38
480.969	1683.38
481.188	1675.38
481.406	1662.38
481.624	1689.38
481.843	1610.38
482.061	1614.38
482.28	1602.38
482.498	1581.38
482.717	1581.38
482.935	1627.38
483.153	1628.38
483.372	1653.38
483.59	1693.38
483.808	1637.38
484.027	1628.38
484.245	1625.38
484.463	1661.38
484.681	1660.38
484.9	1612.38
485.118	1631.38
485.336	1675.38
485.554	1666.38
485.772	1672.38
485.99	1665.38
486.209	1642.38
486.427	1661.38
486.645	1629.38
486.863	1663.38
487.081	1654.38
487.299	1665.38
487.517	1665.38
487.735	1640.38
487.953	1670.38
488.171	1680.38
488.389	1687.38
488.607	1636.38
488.825	1619.38
489.043	1655.38
489.261	1653.38
489.479	1643.38
489.696	1661.38
489.914	1637.38
490.132	1620.38
490.35	1686.38
490.568	1688.38
490.786	1664.38
491.003	1676.38
491.221	1659.38
