Data from Ni(NO3)2@0.125M.TitratingCurve.Agarose3%dH2O.NegLispCup.LampEnergy10.LIBS07252019_HRD10591_18-10-37-568.txt Node
Date: Thu Jul 25 18:10:37 EDT 2019
User: cochatt
Spectrometer: HR+D1059
Trigger mode: 1
Integration Time (sec): 1.000000E-1
Scans to average: 1
Electric dark correction enabled: true
Nonlinearity correction enabled: false
Boxcar width: 0
XAxis mode: Wavelengths
Number of Pixels in Spectrum: 2048
>>>>>Begin Spectral Data<<<<<
223.165	-19.56
223.4	-19.56
223.635	-19.56
223.869	-14.56
224.104	-11.56
224.338	-17.56
224.573	-0.56
224.808	-14.56
225.042	-6.56
225.277	-17.56
225.511	3.44
225.746	-0.56
225.98	-8.56
226.215	18.44
226.449	21.44
226.683	14.44
226.918	24.44
227.152	29.44
227.387	26.44
227.621	37.44
227.856	37.44
228.09	61.44
228.324	51.44
228.559	51.44
228.793	78.44
229.027	119.44
229.262	131.44
229.496	121.44
229.73	113.44
229.964	140.44
230.199	154.44
230.433	139.44
230.667	131.44
230.901	145.44
231.136	142.44
231.37	139.44
231.604	152.44
231.838	150.44
232.072	144.44
232.306	165.44
232.541	167.44
232.775	148.44
233.009	158.44
233.243	163.44
233.477	165.44
233.711	155.44
233.945	141.44
234.179	147.44
234.413	168.44
234.647	163.44
234.881	167.44
235.115	170.44
235.349	165.44
235.583	157.44
235.817	150.44
236.051	164.44
236.285	187.44
236.519	188.44
236.753	177.44
236.987	171.44
237.221	177.44
237.455	165.44
237.689	187.44
237.922	181.44
238.156	171.44
238.39	174.44
238.624	175.44
238.858	183.44
239.091	180.44
239.325	186.44
239.559	173.44
239.793	185.44
240.027	201.44
240.26	194.44
240.494	206.44
240.728	184.44
240.961	203.44
241.195	189.44
241.429	197.44
241.662	203.44
241.896	181.44
242.13	220.44
242.363	205.44
242.597	233.44
242.83	214.44
243.064	215.44
243.298	230.44
243.531	227.44
243.765	221.44
243.998	219.44
244.232	212.44
244.465	231.44
244.699	219.44
244.932	227.44
245.166	233.44
245.399	247.44
245.633	251.44
245.866	245.44
246.099	250.44
246.333	238.44
246.566	261.44
246.8	250.44
247.033	261.44
247.266	236.44
247.5	267.44
247.733	254.44
247.966	248.44
248.2	259.44
248.433	264.44
248.666	276.44
248.899	282.44
249.133	272.44
249.366	287.44
249.599	262.44
249.832	292.44
250.066	293.44
250.299	239.44
250.532	300.44
250.765	290.44
250.998	285.44
251.231	297.44
251.465	291.44
251.698	293.44
251.931	298.44
252.164	307.44
252.397	293.44
252.63	293.44
252.863	286.44
253.096	317.44
253.329	307.44
253.562	311.44
253.795	314.44
254.028	302.44
254.261	309.44
254.494	296.44
254.727	309.44
254.96	334.44
255.193	338.44
255.426	330.44
255.659	333.44
255.892	341.44
256.124	343.44
256.357	321.44
256.59	328.44
256.823	326.44
257.056	329.44
257.289	305.44
257.521	352.44
257.754	351.44
257.987	346.44
258.22	332.44
258.452	340.44
258.685	346.44
258.918	373.44
259.151	361.44
259.383	357.44
259.616	354.44
259.849	362.44
260.081	363.44
260.314	364.44
260.547	364.44
260.779	356.44
261.012	368.44
261.244	336.44
261.477	387.44
261.71	389.44
261.942	379.44
262.175	357.44
262.407	381.44
262.64	349.44
262.872	384.44
263.105	374.44
263.337	380.44
263.57	373.44
263.802	387.44
264.035	375.44
264.267	378.44
264.499	400.44
264.732	407.44
264.964	385.44
265.197	422.44
265.429	409.44
265.661	407.44
265.894	393.44
266.126	418.44
266.358	416.44
266.591	407.44
266.823	407.44
267.055	409.44
267.287	409.44
267.52	413.44
267.752	415.44
267.984	414.44
268.216	417.44
268.448	436.44
268.681	420.44
268.913	418.44
269.145	435.44
269.377	416.44
269.609	426.44
269.841	423.44
270.073	441.44
270.306	413.44
270.538	449.44
270.77	444.44
271.002	428.44
271.234	448.44
271.466	476.44
271.698	445.44
271.93	435.44
272.162	439.44
272.394	455.44
272.626	438.44
272.858	446.44
273.09	452.44
273.322	458.44
273.553	459.44
273.785	484.44
274.017	446.44
274.249	472.44
274.481	469.44
274.713	477.44
274.945	464.44
275.176	481.44
275.408	464.44
275.64	467.44
275.872	481.44
276.104	474.44
276.335	488.44
276.567	508.44
276.799	469.44
277.031	488.44
277.262	488.44
277.494	482.44
277.726	483.44
277.957	490.44
278.189	493.44
278.421	497.44
278.652	506.44
278.884	508.44
279.115	497.44
279.347	512.44
279.579	508.44
279.81	505.44
280.042	521.44
280.273	520.44
280.505	505.44
280.736	521.44
280.968	514.44
281.199	509.44
281.431	545.44
281.662	533.44
281.894	505.44
282.125	541.44
282.356	540.44
282.588	528.44
282.819	534.44
283.051	532.44
283.282	528.44
283.513	534.44
283.745	556.44
283.976	554.44
284.207	555.44
284.439	537.44
284.67	575.44
284.901	550.44
285.132	555.44
285.364	540.44
285.595	562.44
285.826	550.44
286.057	553.44
286.288	558.44
286.52	579.44
286.751	576.44
286.982	591.44
287.213	569.44
287.444	580.44
287.675	597.44
287.906	576.44
288.138	573.44
288.369	588.44
288.6	597.44
288.831	600.44
289.062	574.44
289.293	594.44
289.524	588.44
289.755	594.44
289.986	586.44
290.217	604.44
290.448	604.44
290.679	606.44
290.91	621.44
291.141	611.44
291.371	609.44
291.602	601.44
291.833	602.44
292.064	626.44
292.295	617.44
292.526	603.44
292.757	620.44
292.987	613.44
293.218	600.44
293.449	621.44
293.68	590.44
293.91	602.44
294.141	607.44
294.372	595.44
294.603	611.44
294.833	585.44
295.064	587.44
295.295	635.44
295.525	623.44
295.756	623.44
295.987	614.44
296.217	609.44
296.448	609.44
296.679	637.44
296.909	627.44
297.14	634.44
297.37	628.44
297.601	628.44
297.831	647.44
298.062	647.44
298.292	650.44
298.523	698.44
298.753	651.44
298.984	667.44
299.214	651.44
299.445	664.44
299.675	653.44
299.905	685.44
300.136	684.44
300.366	670.44
300.597	674.44
300.827	692.44
301.057	695.44
301.288	692.44
301.518	696.44
301.748	695.44
301.979	689.44
302.209	701.44
302.439	712.44
302.669	707.44
302.9	699.44
303.13	694.44
303.36	676.44
303.59	685.44
303.82	663.44
304.051	680.44
304.281	675.44
304.511	679.44
304.741	681.44
304.971	679.44
305.201	670.44
305.431	663.44
305.661	695.44
305.891	680.44
306.121	675.44
306.352	682.44
306.582	673.44
306.812	685.44
307.042	634.44
307.272	658.44
307.502	666.44
307.731	683.44
307.961	681.44
308.191	671.44
308.421	654.44
308.651	681.44
308.881	665.44
309.111	664.44
309.341	662.44
309.571	657.44
309.8	681.44
310.03	691.44
310.26	674.44
310.49	697.44
310.72	665.44
310.949	690.44
311.179	693.44
311.409	669.44
311.639	677.44
311.868	700.44
312.098	685.44
312.328	704.44
312.557	709.44
312.787	718.44
313.017	702.44
313.246	709.44
313.476	740.44
313.706	718.44
313.935	735.44
314.165	729.44
314.394	714.44
314.624	720.44
314.853	730.44
315.083	736.44
315.312	733.44
315.542	729.44
315.771	701.44
316.001	713.44
316.23	679.44
316.46	719.44
316.689	721.44
316.919	682.44
317.148	731.44
317.377	695.44
317.607	725.44
317.836	729.44
318.065	666.44
318.295	700.44
318.524	715.44
318.753	710.44
318.983	722.44
319.212	707.44
319.441	731.44
319.67	723.44
319.9	702.44
320.129	734.44
320.358	714.44
320.587	727.44
320.816	713.44
321.046	722.44
321.275	729.44
321.504	731.44
321.733	716.44
321.962	730.44
322.191	731.44
322.42	730.44
322.649	730.44
322.878	722.44
323.108	716.44
323.337	734.44
323.566	746.44
323.795	733.44
324.024	731.44
324.253	754.44
324.482	746.44
324.71	735.44
324.939	717.44
325.168	770.44
325.397	759.44
325.626	752.44
325.855	772.44
326.084	801.44
326.313	784.44
326.542	793.44
326.77	801.44
326.999	797.44
327.228	809.44
327.457	791.44
327.686	774.44
327.914	801.44
328.143	795.44
328.372	784.44
328.6	806.44
328.829	794.44
329.058	793.44
329.287	804.44
329.515	775.44
329.744	795.44
329.972	797.44
330.201	820.44
330.43	833.44
330.658	824.44
330.887	801.44
331.115	844.44
331.344	836.44
331.572	837.44
331.801	883.44
332.03	883.44
332.258	917.44
332.486	921.44
332.715	953.44
332.943	1025.44
333.172	1039.44
333.4	1099.44
333.629	1121.44
333.857	1111.44
334.085	1118.44
334.314	1079.44
334.542	1020.44
334.771	1021.44
334.999	1009.44
335.227	996.44
335.455	1014.44
335.684	1018.44
335.912	985.44
336.14	990.44
336.369	969.44
336.597	995.44
336.825	992.44
337.053	957.44
337.281	942.44
337.51	938.44
337.738	909.44
337.966	872.44
338.194	875.44
338.422	855.44
338.65	884.44
338.878	869.44
339.106	857.44
339.334	867.44
339.562	905.44
339.79	865.44
340.018	833.44
340.246	821.44
340.474	842.44
340.702	828.44
340.93	850.44
341.158	830.44
341.386	861.44
341.614	842.44
341.842	791.44
342.07	817.44
342.298	832.44
342.526	820.44
342.754	827.44
342.981	821.44
343.209	866.44
343.437	888.44
343.665	965.44
343.893	1053.44
344.12	1049.44
344.348	981.44
344.576	952.44
344.804	921.44
345.031	853.44
345.259	873.44
345.487	837.44
345.714	840.44
345.942	839.44
346.17	826.44
346.397	819.44
346.625	819.44
346.853	800.44
347.08	798.44
347.308	821.44
347.535	809.44
347.763	821.44
347.99	835.44
348.218	830.44
348.445	806.44
348.673	792.44
348.9	821.44
349.128	810.44
349.355	783.44
349.583	782.44
349.81	800.44
350.037	796.44
350.265	794.44
350.492	802.44
350.72	786.44
350.947	802.44
351.174	768.44
351.402	754.44
351.629	772.44
351.856	782.44
352.083	766.44
352.311	783.44
352.538	774.44
352.765	778.44
352.992	731.44
353.22	763.44
353.447	743.44
353.674	747.44
353.901	798.44
354.128	779.44
354.355	757.44
354.583	779.44
354.81	795.44
355.037	796.44
355.264	783.44
355.491	774.44
355.718	789.44
355.945	745.44
356.172	768.44
356.399	806.44
356.626	812.44
356.853	784.44
357.08	771.44
357.307	779.44
357.534	772.44
357.761	777.44
357.988	780.44
358.215	787.44
358.441	782.44
358.668	756.44
358.895	786.44
359.122	774.44
359.349	782.44
359.576	793.44
359.802	772.44
360.029	777.44
360.256	795.44
360.483	781.44
360.709	757.44
360.936	785.44
361.163	777.44
361.39	777.44
361.616	776.44
361.843	755.44
362.07	782.44
362.296	789.44
362.523	793.44
362.749	777.44
362.976	803.44
363.203	776.44
363.429	771.44
363.656	804.44
363.882	778.44
364.109	755.44
364.335	779.44
364.562	755.44
364.788	777.44
365.015	772.44
365.241	757.44
365.468	769.44
365.694	775.44
365.92	791.44
366.147	767.44
366.373	791.44
366.599	773.44
366.826	777.44
367.052	792.44
367.278	795.44
367.505	784.44
367.731	789.44
367.957	791.44
368.184	802.44
368.41	761.44
368.636	764.44
368.862	793.44
369.089	800.44
369.315	789.44
369.541	828.44
369.767	821.44
369.993	788.44
370.219	812.44
370.445	828.44
370.672	825.44
370.898	841.44
371.124	823.44
371.35	864.44
371.576	850.44
371.802	837.44
372.028	849.44
372.254	837.44
372.48	836.44
372.706	877.44
372.932	894.44
373.158	857.44
373.384	875.44
373.61	831.44
373.835	875.44
374.061	857.44
374.287	862.44
374.513	884.44
374.739	901.44
374.965	901.44
375.191	951.44
375.416	929.44
375.642	901.44
375.868	893.44
376.094	887.44
376.319	859.44
376.545	865.44
376.771	858.44
376.997	854.44
377.222	871.44
377.448	850.44
377.674	846.44
377.899	855.44
378.125	876.44
378.35	799.44
378.576	849.44
378.802	858.44
379.027	835.44
379.253	836.44
379.478	813.44
379.704	843.44
379.929	806.44
380.155	833.44
380.38	821.44
380.606	840.44
380.831	861.44
381.057	859.44
381.282	835.44
381.507	844.44
381.733	853.44
381.958	846.44
382.184	872.44
382.409	841.44
382.634	881.44
382.86	879.44
383.085	899.44
383.31	910.44
383.535	934.44
383.761	959.44
383.986	974.44
384.211	958.44
384.436	985.44
384.662	1012.44
384.887	1050.44
385.112	1034.44
385.337	1015.44
385.562	1034.44
385.787	1018.44
386.013	1017.44
386.238	1065.44
386.463	1036.44
386.688	1016.44
386.913	1013.44
387.138	1006.44
387.363	1018.44
387.588	1020.44
387.813	1005.44
388.038	1017.44
388.263	1021.44
388.488	1032.44
388.713	1042.44
388.938	997.44
389.163	986.44
389.387	1005.44
389.612	994.44
389.837	1008.44
390.062	991.44
390.287	963.44
390.512	959.44
390.736	1012.44
390.961	1013.44
391.186	1062.44
391.411	1092.44
391.636	1125.44
391.86	1110.44
392.085	1165.44
392.31	1157.44
392.534	1115.44
392.759	1107.44
392.984	1075.44
393.208	1077.44
393.433	1053.44
393.658	1076.44
393.882	1133.44
394.107	1097.44
394.331	1104.44
394.556	1100.44
394.78	1100.44
395.005	1069.44
395.229	1102.44
395.454	1136.44
395.678	1183.44
395.903	1171.44
396.127	1113.44
396.352	1068.44
396.576	1064.44
396.801	1051.44
397.025	1071.44
397.249	1124.44
397.474	1147.44
397.698	1177.44
397.922	1182.44
398.147	1127.44
398.371	1186.44
398.595	1211.44
398.82	1247.44
399.044	1352.44
399.268	1504.44
399.492	1781.44
399.717	2023.44
399.941	2053.44
400.165	1756.44
400.389	1522.44
400.613	1406.44
400.837	1351.44
401.062	1319.44
401.286	1304.44
401.51	1282.44
401.734	1297.44
401.958	1282.44
402.182	1310.44
402.406	1347.44
402.63	1324.44
402.854	1376.44
403.078	1407.44
403.302	1460.44
403.526	1466.44
403.75	1543.44
403.974	1550.44
404.198	1587.44
404.422	1539.44
404.645	1503.44
404.869	1465.44
405.093	1447.44
405.317	1442.44
405.541	1428.44
405.765	1410.44
405.988	1405.44
406.212	1426.44
406.436	1434.44
406.66	1437.44
406.883	1485.44
407.107	1562.44
407.331	1625.44
407.555	1685.44
407.778	1670.44
408.002	1643.44
408.226	1607.44
408.449	1550.44
408.673	1496.44
408.896	1484.44
409.12	1441.44
409.344	1472.44
409.567	1457.44
409.791	1483.44
410.014	1474.44
410.238	1461.44
410.461	1447.44
410.685	1409.44
410.908	1419.44
411.132	1389.44
411.355	1331.44
411.578	1349.44
411.802	1349.44
412.025	1364.44
412.249	1411.44
412.472	1388.44
412.695	1343.44
412.919	1277.44
413.142	1279.44
413.365	1314.44
413.589	1313.44
413.812	1263.44
414.035	1242.44
414.258	1275.44
414.482	1319.44
414.705	1345.44
414.928	1341.44
415.151	1337.44
415.374	1293.44
415.597	1281.44
415.821	1259.44
416.044	1259.44
416.267	1242.44
416.49	1243.44
416.713	1256.44
416.936	1258.44
417.159	1304.44
417.382	1263.44
417.605	1247.44
417.828	1258.44
418.051	1291.44
418.274	1285.44
418.497	1313.44
418.72	1294.44
418.943	1313.44
419.166	1403.44
419.389	1482.44
419.611	1451.44
419.834	1422.44
420.057	1353.44
420.28	1276.44
420.503	1271.44
420.726	1255.44
420.948	1246.44
421.171	1266.44
421.394	1237.44
421.617	1253.44
421.839	1242.44
422.062	1309.44
422.285	1271.44
422.507	1296.44
422.73	1308.44
422.953	1334.44
423.175	1314.44
423.398	1351.44
423.621	1395.44
423.843	1378.44
424.066	1378.44
424.288	1370.44
424.511	1386.44
424.733	1347.44
424.956	1340.44
425.178	1314.44
425.401	1289.44
425.623	1256.44
425.846	1237.44
426.068	1267.44
426.291	1185.44
426.513	1205.44
426.735	1177.44
426.958	1166.44
427.18	1149.44
427.402	1148.44
427.625	1140.44
427.847	1126.44
428.069	1134.44
428.292	1141.44
428.514	1113.44
428.736	1109.44
428.958	1141.44
429.181	1112.44
429.403	1113.44
429.625	1102.44
429.847	1079.44
430.069	1109.44
430.292	1114.44
430.514	1083.44
430.736	1091.44
430.958	1125.44
431.18	1101.44
431.402	1119.44
431.624	1114.44
431.846	1115.44
432.068	1124.44
432.29	1167.44
432.512	1121.44
432.734	1158.44
432.956	1151.44
433.178	1151.44
433.4	1132.44
433.622	1123.44
433.844	1153.44
434.066	1133.44
434.287	1134.44
434.509	1173.44
434.731	1223.44
434.953	1246.44
435.175	1263.44
435.397	1258.44
435.618	1234.44
435.84	1156.44
436.062	1139.44
436.284	1133.44
436.505	1150.44
436.727	1119.44
436.949	1122.44
437.17	1129.44
437.392	1114.44
437.614	1084.44
437.835	1070.44
438.057	1085.44
438.278	1080.44
438.5	1081.44
438.721	1097.44
438.943	1094.44
439.165	1075.44
439.386	1093.44
439.608	1086.44
439.829	1099.44
440.05	1132.44
440.272	1141.44
440.493	1142.44
440.715	1137.44
440.936	1178.44
441.158	1188.44
441.379	1218.44
441.6	1281.44
441.822	1288.44
442.043	1308.44
442.264	1244.44
442.486	1208.44
442.707	1244.44
442.928	1250.44
443.149	1252.44
443.371	1253.44
443.592	1267.44
443.813	1277.44
444.034	1280.44
444.255	1310.44
444.476	1407.44
444.698	1493.44
444.919	1593.44
445.14	1653.44
445.361	1455.44
445.582	1315.44
445.803	1263.44
446.024	1212.44
446.245	1189.44
446.466	1175.44
446.687	1123.44
446.908	1161.44
447.129	1110.44
447.35	1096.44
447.571	1067.44
447.792	1063.44
448.013	1049.44
448.234	1057.44
448.455	1054.44
448.675	1059.44
448.896	1054.44
449.117	1016.44
449.338	1013.44
449.559	994.44
449.779	1045.44
450	1012.44
450.221	1048.44
450.442	1025.44
450.662	1047.44
450.883	1070.44
451.104	1057.44
451.324	1065.44
451.545	1051.44
451.766	1035.44
451.986	1024.44
452.207	1044.44
452.428	1023.44
452.648	1037.44
452.869	994.44
453.089	1014.44
453.31	1034.44
453.53	1027.44
453.751	1007.44
453.971	1001.44
454.192	961.44
454.412	969.44
454.633	990.44
454.853	1004.44
455.073	949.44
455.294	1000.44
455.514	981.44
455.734	946.44
455.955	943.44
456.175	965.44
456.395	925.44
456.616	960.44
456.836	971.44
457.056	951.44
457.276	941.44
457.497	969.44
457.717	929.44
457.937	957.44
458.157	970.44
458.377	999.44
458.598	1016.44
458.818	1057.44
459.038	1070.44
459.258	1113.44
459.478	1120.44
459.698	1151.44
459.918	1191.44
460.138	1227.44
460.358	1317.44
460.578	1339.44
460.798	1360.44
461.018	1350.44
461.238	1341.44
461.458	1318.44
461.678	1340.44
461.898	1317.44
462.118	1348.44
462.338	1469.44
462.558	1497.44
462.777	1528.44
462.997	1677.44
463.217	1875.44
463.437	1865.44
463.657	1661.44
463.876	1555.44
464.096	1595.44
464.316	1583.44
464.536	1595.44
464.755	1518.44
464.975	1454.44
465.195	1398.44
465.414	1287.44
465.634	1246.44
465.854	1177.44
466.073	1187.44
466.293	1127.44
466.512	1111.44
466.732	1116.44
466.951	1119.44
467.171	1103.44
467.391	1111.44
467.61	1100.44
467.829	1081.44
468.049	1069.44
468.268	1013.44
468.488	1011.44
468.707	1002.44
468.927	1013.44
469.146	1025.44
469.365	1040.44
469.585	1027.44
469.804	1083.44
470.023	1116.44
470.243	1108.44
470.462	1139.44
470.681	1134.44
470.901	1126.44
471.12	1125.44
471.339	1069.44
471.558	1043.44
471.777	993.44
471.997	1041.44
472.216	1027.44
472.435	1017.44
472.654	1013.44
472.873	1004.44
473.092	999.44
473.311	1020.44
473.53	998.44
473.749	1004.44
473.968	976.44
474.187	989.44
474.406	964.44
474.625	999.44
474.844	983.44
475.063	1003.44
475.282	1006.44
475.501	1016.44
475.72	1026.44
475.939	1003.44
476.158	1009.44
476.377	1025.44
476.596	1054.44
476.814	1048.44
477.033	1068.44
477.252	1073.44
477.471	1109.44
477.69	1118.44
477.908	1164.44
478.127	1175.44
478.346	1212.44
478.564	1186.44
478.783	1275.44
479.002	1270.44
479.22	1285.44
479.439	1234.44
479.658	1250.44
479.876	1242.44
480.095	1283.44
480.313	1367.44
480.532	1408.44
480.751	1370.44
480.969	1294.44
481.188	1268.44
481.406	1207.44
481.624	1180.44
481.843	1173.44
482.061	1155.44
482.28	1120.44
482.498	1108.44
482.717	1124.44
482.935	1111.44
483.153	1118.44
483.372	1118.44
483.59	1109.44
483.808	1123.44
484.027	1127.44
484.245	1159.44
484.463	1165.44
484.681	1133.44
484.9	1148.44
485.118	1179.44
485.336	1163.44
485.554	1212.44
485.772	1174.44
485.99	1195.44
486.209	1235.44
486.427	1217.44
486.645	1200.44
486.863	1219.44
487.081	1201.44
487.299	1167.44
487.517	1201.44
487.735	1190.44
487.953	1207.44
488.171	1143.44
488.389	1182.44
488.607	1189.44
488.825	1155.44
489.043	1167.44
489.261	1190.44
489.479	1165.44
489.696	1190.44
489.914	1181.44
490.132	1188.44
490.35	1193.44
490.568	1187.44
490.786	1205.44
491.003	1178.44
491.221	1185.44
491.439	1233.44
491.657	1196.44
491.874	1185.44
492.092	1211.44
492.31	1230.44
492.527	1245.44
492.745	1215.44
492.963	1257.44
493.18	1221.44
493.398	1234.44
493.615	1245.44
493.833	1266.44
494.05	1254.44
494.268	1276.44
494.485	1245.44
494.703	1248.44
494.92	1242.44
