Data from Ni(NO3)2@0.0625M.TitratingCurve.Agarose3%dH2O.NegLispCup.LampEnergy10.LIBS07252019_HRD10591_18-14-57-569.txt Node
Date: Thu Jul 25 18:14:57 EDT 2019
User: cochatt
Spectrometer: HR+D1059
Trigger mode: 1
Integration Time (sec): 1.000000E-1
Scans to average: 1
Electric dark correction enabled: true
Nonlinearity correction enabled: false
Boxcar width: 0
XAxis mode: Wavelengths
Number of Pixels in Spectrum: 2048
>>>>>Begin Spectral Data<<<<<
223.165	-21.75
223.4	-21.75
223.635	-21.75
223.869	-16.75
224.104	-32.75
224.338	-15.75
224.573	-16.75
224.808	-3.75
225.042	-1.75
225.277	2.25
225.511	-9.75
225.746	9.25
225.98	-8.75
226.215	9.25
226.449	18.25
226.683	33.25
226.918	21.25
227.152	34.25
227.387	26.25
227.621	33.25
227.856	50.25
228.09	34.25
228.324	32.25
228.559	67.25
228.793	55.25
229.027	114.25
229.262	108.25
229.496	105.25
229.73	103.25
229.964	116.25
230.199	115.25
230.433	124.25
230.667	116.25
230.901	107.25
231.136	123.25
231.37	130.25
231.604	133.25
231.838	142.25
232.072	127.25
232.306	128.25
232.541	129.25
232.775	123.25
233.009	136.25
233.243	140.25
233.477	136.25
233.711	141.25
233.945	129.25
234.179	146.25
234.413	139.25
234.647	137.25
234.881	136.25
235.115	147.25
235.349	140.25
235.583	141.25
235.817	136.25
236.051	133.25
236.285	153.25
236.519	147.25
236.753	151.25
236.987	137.25
237.221	150.25
237.455	154.25
237.689	154.25
237.922	160.25
238.156	169.25
238.39	154.25
238.624	155.25
238.858	140.25
239.091	158.25
239.325	150.25
239.559	162.25
239.793	152.25
240.027	168.25
240.26	160.25
240.494	165.25
240.728	160.25
240.961	160.25
241.195	183.25
241.429	165.25
241.662	157.25
241.896	186.25
242.13	178.25
242.363	178.25
242.597	173.25
242.83	183.25
243.064	172.25
243.298	187.25
243.531	195.25
243.765	176.25
243.998	177.25
244.232	198.25
244.465	197.25
244.699	191.25
244.932	194.25
245.166	207.25
245.399	203.25
245.633	193.25
245.866	195.25
246.099	209.25
246.333	211.25
246.566	210.25
246.8	196.25
247.033	219.25
247.266	195.25
247.5	211.25
247.733	204.25
247.966	204.25
248.2	211.25
248.433	209.25
248.666	210.25
248.899	226.25
249.133	210.25
249.366	217.25
249.599	230.25
249.832	229.25
250.066	223.25
250.299	222.25
250.532	228.25
250.765	226.25
250.998	213.25
251.231	225.25
251.465	248.25
251.698	241.25
251.931	242.25
252.164	234.25
252.397	227.25
252.63	242.25
252.863	251.25
253.096	235.25
253.329	255.25
253.562	252.25
253.795	243.25
254.028	249.25
254.261	253.25
254.494	241.25
254.727	249.25
254.96	240.25
255.193	256.25
255.426	250.25
255.659	245.25
255.892	257.25
256.124	236.25
256.357	246.25
256.59	253.25
256.823	260.25
257.056	251.25
257.289	269.25
257.521	280.25
257.754	261.25
257.987	269.25
258.22	284.25
258.452	272.25
258.685	268.25
258.918	280.25
259.151	289.25
259.383	285.25
259.616	278.25
259.849	280.25
260.081	295.25
260.314	287.25
260.547	293.25
260.779	288.25
261.012	281.25
261.244	293.25
261.477	289.25
261.71	298.25
261.942	285.25
262.175	282.25
262.407	303.25
262.64	280.25
262.872	293.25
263.105	287.25
263.337	303.25
263.57	295.25
263.802	298.25
264.035	290.25
264.267	306.25
264.499	295.25
264.732	313.25
264.964	308.25
265.197	308.25
265.429	313.25
265.661	315.25
265.894	316.25
266.126	323.25
266.358	307.25
266.591	322.25
266.823	325.25
267.055	325.25
267.287	320.25
267.52	322.25
267.752	315.25
267.984	316.25
268.216	322.25
268.448	338.25
268.681	317.25
268.913	332.25
269.145	341.25
269.377	338.25
269.609	325.25
269.841	347.25
270.073	348.25
270.306	315.25
270.538	333.25
270.77	319.25
271.002	348.25
271.234	343.25
271.466	336.25
271.698	349.25
271.93	354.25
272.162	332.25
272.394	348.25
272.626	339.25
272.858	367.25
273.09	351.25
273.322	349.25
273.553	359.25
273.785	347.25
274.017	348.25
274.249	360.25
274.481	360.25
274.713	354.25
274.945	357.25
275.176	367.25
275.408	369.25
275.64	361.25
275.872	364.25
276.104	365.25
276.335	359.25
276.567	357.25
276.799	351.25
277.031	380.25
277.262	375.25
277.494	374.25
277.726	379.25
277.957	392.25
278.189	375.25
278.421	370.25
278.652	372.25
278.884	384.25
279.115	363.25
279.347	397.25
279.579	387.25
279.81	405.25
280.042	403.25
280.273	385.25
280.505	372.25
280.736	404.25
280.968	395.25
281.199	406.25
281.431	396.25
281.662	399.25
281.894	419.25
282.125	412.25
282.356	421.25
282.588	400.25
282.819	407.25
283.051	413.25
283.282	402.25
283.513	424.25
283.745	435.25
283.976	439.25
284.207	418.25
284.439	419.25
284.67	415.25
284.901	449.25
285.132	438.25
285.364	420.25
285.595	425.25
285.826	422.25
286.057	456.25
286.288	428.25
286.52	448.25
286.751	443.25
286.982	448.25
287.213	440.25
287.444	459.25
287.675	435.25
287.906	452.25
288.138	459.25
288.369	451.25
288.6	463.25
288.831	447.25
289.062	449.25
289.293	433.25
289.524	458.25
289.755	459.25
289.986	461.25
290.217	449.25
290.448	453.25
290.679	455.25
290.91	444.25
291.141	455.25
291.371	469.25
291.602	467.25
291.833	462.25
292.064	457.25
292.295	480.25
292.526	472.25
292.757	474.25
292.987	465.25
293.218	467.25
293.449	455.25
293.68	465.25
293.91	465.25
294.141	466.25
294.372	447.25
294.603	476.25
294.833	473.25
295.064	459.25
295.295	467.25
295.525	466.25
295.756	483.25
295.987	484.25
296.217	495.25
296.448	475.25
296.679	501.25
296.909	478.25
297.14	488.25
297.37	501.25
297.601	519.25
297.831	503.25
298.062	537.25
298.292	531.25
298.523	519.25
298.753	515.25
298.984	500.25
299.214	514.25
299.445	493.25
299.675	480.25
299.905	523.25
300.136	531.25
300.366	506.25
300.597	518.25
300.827	517.25
301.057	545.25
301.288	548.25
301.518	550.25
301.748	540.25
301.979	553.25
302.209	536.25
302.439	523.25
302.669	546.25
302.9	535.25
303.13	517.25
303.36	528.25
303.59	509.25
303.82	504.25
304.051	533.25
304.281	519.25
304.511	521.25
304.741	507.25
304.971	529.25
305.201	535.25
305.431	519.25
305.661	521.25
305.891	534.25
306.121	527.25
306.352	514.25
306.582	529.25
306.812	513.25
307.042	509.25
307.272	514.25
307.502	505.25
307.731	509.25
307.961	509.25
308.191	513.25
308.421	509.25
308.651	504.25
308.881	502.25
309.111	501.25
309.341	511.25
309.571	521.25
309.8	499.25
310.03	517.25
310.26	516.25
310.49	513.25
310.72	523.25
310.949	510.25
311.179	527.25
311.409	535.25
311.639	521.25
311.868	547.25
312.098	515.25
312.328	547.25
312.557	546.25
312.787	514.25
313.017	534.25
313.246	537.25
313.476	560.25
313.706	539.25
313.935	559.25
314.165	580.25
314.394	555.25
314.624	541.25
314.853	553.25
315.083	548.25
315.312	551.25
315.542	553.25
315.771	552.25
316.001	546.25
316.23	541.25
316.46	557.25
316.689	531.25
316.919	536.25
317.148	542.25
317.377	540.25
317.607	540.25
317.836	541.25
318.065	528.25
318.295	532.25
318.524	553.25
318.753	557.25
318.983	555.25
319.212	536.25
319.441	561.25
319.67	550.25
319.9	548.25
320.129	560.25
320.358	549.25
320.587	579.25
320.816	556.25
321.046	541.25
321.275	549.25
321.504	548.25
321.733	562.25
321.962	571.25
322.191	548.25
322.42	555.25
322.649	527.25
322.878	542.25
323.108	546.25
323.337	574.25
323.566	554.25
323.795	551.25
324.024	553.25
324.253	569.25
324.482	563.25
324.71	573.25
324.939	577.25
325.168	579.25
325.397	567.25
325.626	568.25
325.855	579.25
326.084	601.25
326.313	590.25
326.542	579.25
326.77	629.25
326.999	594.25
327.228	577.25
327.457	572.25
327.686	577.25
327.914	599.25
328.143	597.25
328.372	609.25
328.6	606.25
328.829	606.25
329.058	594.25
329.287	607.25
329.515	601.25
329.744	583.25
329.972	585.25
330.201	603.25
330.43	595.25
330.658	631.25
330.887	629.25
331.115	625.25
331.344	644.25
331.572	623.25
331.801	639.25
332.03	661.25
332.258	679.25
332.486	697.25
332.715	725.25
332.943	761.25
333.172	765.25
333.4	822.25
333.629	813.25
333.857	826.25
334.085	826.25
334.314	811.25
334.542	774.25
334.771	783.25
334.999	747.25
335.227	746.25
335.455	737.25
335.684	744.25
335.912	771.25
336.14	728.25
336.369	733.25
336.597	730.25
336.825	733.25
337.053	718.25
337.281	705.25
337.51	695.25
337.738	688.25
337.966	673.25
338.194	688.25
338.422	688.25
338.65	643.25
338.878	652.25
339.106	646.25
339.334	675.25
339.562	667.25
339.79	629.25
340.018	642.25
340.246	651.25
340.474	645.25
340.702	616.25
340.93	608.25
341.158	615.25
341.386	611.25
341.614	633.25
341.842	582.25
342.07	611.25
342.298	632.25
342.526	619.25
342.754	613.25
342.981	640.25
343.209	654.25
343.437	672.25
343.665	726.25
343.893	762.25
344.12	790.25
344.348	752.25
344.576	689.25
344.804	677.25
345.031	683.25
345.259	653.25
345.487	637.25
345.714	613.25
345.942	608.25
346.17	627.25
346.397	619.25
346.625	603.25
346.853	623.25
347.08	610.25
347.308	619.25
347.535	625.25
347.763	610.25
347.99	620.25
348.218	610.25
348.445	599.25
348.673	620.25
348.9	606.25
349.128	592.25
349.355	605.25
349.583	611.25
349.81	615.25
350.037	597.25
350.265	598.25
350.492	582.25
350.72	577.25
350.947	606.25
351.174	569.25
351.402	576.25
351.629	586.25
351.856	596.25
352.083	592.25
352.311	602.25
352.538	573.25
352.765	573.25
352.992	579.25
353.22	587.25
353.447	576.25
353.674	564.25
353.901	587.25
354.128	601.25
354.355	566.25
354.583	598.25
354.81	595.25
355.037	596.25
355.264	601.25
355.491	568.25
355.718	595.25
355.945	581.25
356.172	586.25
356.399	589.25
356.626	584.25
356.853	596.25
357.08	588.25
357.307	608.25
357.534	604.25
357.761	602.25
357.988	603.25
358.215	595.25
358.441	598.25
358.668	584.25
358.895	596.25
359.122	587.25
359.349	593.25
359.576	603.25
359.802	603.25
360.029	588.25
360.256	572.25
360.483	592.25
360.709	567.25
360.936	586.25
361.163	579.25
361.39	601.25
361.616	577.25
361.843	594.25
362.07	604.25
362.296	580.25
362.523	591.25
362.749	592.25
362.976	584.25
363.203	582.25
363.429	584.25
363.656	579.25
363.882	592.25
364.109	593.25
364.335	567.25
364.562	579.25
364.788	594.25
365.015	585.25
365.241	573.25
365.468	584.25
365.694	555.25
365.92	584.25
366.147	575.25
366.373	556.25
366.599	574.25
366.826	581.25
367.052	595.25
367.278	591.25
367.505	584.25
367.731	607.25
367.957	573.25
368.184	585.25
368.41	581.25
368.636	588.25
368.862	620.25
369.089	607.25
369.315	627.25
369.541	588.25
369.767	617.25
369.993	617.25
370.219	610.25
370.445	607.25
370.672	624.25
370.898	613.25
371.124	617.25
371.35	634.25
371.576	642.25
371.802	637.25
372.028	649.25
372.254	621.25
372.48	625.25
372.706	655.25
372.932	652.25
373.158	673.25
373.384	643.25
373.61	645.25
373.835	644.25
374.061	643.25
374.287	647.25
374.513	659.25
374.739	659.25
374.965	714.25
375.191	727.25
375.416	733.25
375.642	675.25
375.868	683.25
376.094	678.25
376.319	656.25
376.545	659.25
376.771	647.25
376.997	669.25
377.222	651.25
377.448	637.25
377.674	626.25
377.899	616.25
378.125	647.25
378.35	612.25
378.576	635.25
378.802	633.25
379.027	627.25
379.253	639.25
379.478	618.25
379.704	625.25
379.929	659.25
380.155	641.25
380.38	635.25
380.606	623.25
380.831	620.25
381.057	623.25
381.282	633.25
381.507	643.25
381.733	628.25
381.958	635.25
382.184	648.25
382.409	682.25
382.634	649.25
382.86	678.25
383.085	682.25
383.31	714.25
383.535	696.25
383.761	701.25
383.986	701.25
384.211	742.25
384.436	751.25
384.662	751.25
384.887	769.25
385.112	780.25
385.337	785.25
385.562	789.25
385.787	768.25
386.013	760.25
386.238	808.25
386.463	751.25
386.688	765.25
386.913	751.25
387.138	756.25
387.363	767.25
387.588	763.25
387.813	728.25
388.038	740.25
388.263	751.25
388.488	755.25
388.713	785.25
388.938	745.25
389.163	742.25
389.387	746.25
389.612	748.25
389.837	753.25
390.062	738.25
390.287	739.25
390.512	740.25
390.736	746.25
390.961	784.25
391.186	794.25
391.411	795.25
391.636	824.25
391.86	844.25
392.085	877.25
392.31	861.25
392.534	840.25
392.759	810.25
392.984	822.25
393.208	819.25
393.433	799.25
393.658	813.25
393.882	828.25
394.107	827.25
394.331	841.25
394.556	823.25
394.78	836.25
395.005	847.25
395.229	827.25
395.454	841.25
395.678	893.25
395.903	879.25
396.127	860.25
396.352	821.25
396.576	791.25
396.801	780.25
397.025	815.25
397.249	798.25
397.474	839.25
397.698	835.25
397.922	863.25
398.147	864.25
398.371	853.25
398.595	892.25
398.82	933.25
399.044	1013.25
399.268	1103.25
399.492	1330.25
399.717	1491.25
399.941	1487.25
400.165	1297.25
400.389	1159.25
400.613	1058.25
400.837	973.25
401.062	968.25
401.286	936.25
401.51	961.25
401.734	963.25
401.958	962.25
402.182	979.25
402.406	1003.25
402.63	1017.25
402.854	1036.25
403.078	1039.25
403.302	1065.25
403.526	1118.25
403.75	1119.25
403.974	1135.25
404.198	1137.25
404.422	1155.25
404.645	1150.25
404.869	1128.25
405.093	1095.25
405.317	1083.25
405.541	1089.25
405.765	1058.25
405.988	1042.25
406.212	1061.25
406.436	1067.25
406.66	1077.25
406.883	1097.25
407.107	1169.25
407.331	1219.25
407.555	1292.25
407.778	1244.25
408.002	1226.25
408.226	1189.25
408.449	1190.25
408.673	1139.25
408.896	1107.25
409.12	1122.25
409.344	1121.25
409.567	1078.25
409.791	1140.25
410.014	1122.25
410.238	1116.25
410.461	1093.25
410.685	1071.25
410.908	1059.25
411.132	1045.25
411.355	1010.25
411.578	1000.25
411.802	1018.25
412.025	1008.25
412.249	1007.25
412.472	1028.25
412.695	967.25
412.919	980.25
413.142	936.25
413.365	967.25
413.589	955.25
413.812	949.25
414.035	936.25
414.258	925.25
414.482	973.25
414.705	995.25
414.928	989.25
415.151	992.25
415.374	975.25
415.597	949.25
415.821	962.25
416.044	947.25
416.267	941.25
416.49	923.25
416.713	933.25
416.936	928.25
417.159	927.25
417.382	930.25
417.605	955.25
417.828	951.25
418.051	983.25
418.274	968.25
418.497	963.25
418.72	990.25
418.943	978.25
419.166	1025.25
419.389	1135.25
419.611	1066.25
419.834	1023.25
420.057	1013.25
420.28	959.25
420.503	938.25
420.726	958.25
420.948	926.25
421.171	963.25
421.394	931.25
421.617	941.25
421.839	941.25
422.062	970.25
422.285	932.25
422.507	987.25
422.73	992.25
422.953	961.25
423.175	990.25
423.398	981.25
423.621	1006.25
423.843	1059.25
424.066	1056.25
424.288	1039.25
424.511	1036.25
424.733	997.25
424.956	993.25
425.178	954.25
425.401	993.25
425.623	947.25
425.846	924.25
426.068	917.25
426.291	898.25
426.513	887.25
426.735	860.25
426.958	876.25
427.18	860.25
427.402	869.25
427.625	863.25
427.847	874.25
428.069	851.25
428.292	863.25
428.514	845.25
428.736	813.25
428.958	838.25
429.181	812.25
429.403	827.25
429.625	805.25
429.847	827.25
430.069	811.25
430.292	844.25
430.514	812.25
430.736	822.25
430.958	837.25
431.18	830.25
431.402	816.25
431.624	848.25
431.846	843.25
432.068	849.25
432.29	840.25
432.512	845.25
432.734	840.25
432.956	817.25
433.178	833.25
433.4	836.25
433.622	842.25
433.844	830.25
434.066	840.25
434.287	875.25
434.509	896.25
434.731	927.25
434.953	938.25
435.175	983.25
435.397	968.25
435.618	909.25
435.84	889.25
436.062	848.25
436.284	841.25
436.505	849.25
436.727	855.25
436.949	843.25
437.17	831.25
437.392	836.25
437.614	837.25
437.835	801.25
438.057	781.25
438.278	791.25
438.5	796.25
438.721	803.25
438.943	848.25
439.165	807.25
439.386	812.25
439.608	842.25
439.829	844.25
440.05	840.25
440.272	833.25
440.493	832.25
440.715	876.25
440.936	880.25
441.158	871.25
441.379	893.25
441.6	964.25
441.822	969.25
442.043	977.25
442.264	957.25
442.486	907.25
442.707	947.25
442.928	955.25
443.149	909.25
443.371	944.25
443.592	955.25
443.813	939.25
444.034	975.25
444.255	1018.25
444.476	1044.25
444.698	1121.25
444.919	1201.25
445.14	1204.25
445.361	1057.25
445.582	955.25
445.803	931.25
446.024	890.25
446.245	889.25
446.466	859.25
446.687	851.25
446.908	843.25
447.129	841.25
447.35	829.25
447.571	801.25
447.792	799.25
448.013	824.25
448.234	788.25
448.455	791.25
448.675	757.25
448.896	780.25
449.117	765.25
449.338	790.25
449.559	800.25
449.779	754.25
450	767.25
450.221	778.25
450.442	790.25
450.662	792.25
450.883	801.25
451.104	776.25
451.324	812.25
451.545	788.25
451.766	821.25
451.986	787.25
452.207	812.25
452.428	794.25
452.648	776.25
452.869	751.25
453.089	737.25
453.31	747.25
453.53	755.25
453.751	758.25
453.971	739.25
454.192	754.25
454.412	751.25
454.633	743.25
454.853	760.25
455.073	741.25
455.294	746.25
455.514	713.25
455.734	735.25
455.955	700.25
456.175	726.25
456.395	702.25
456.616	728.25
456.836	723.25
457.056	709.25
457.276	695.25
457.497	730.25
457.717	723.25
457.937	730.25
458.157	727.25
458.377	754.25
458.598	759.25
458.818	782.25
459.038	816.25
459.258	824.25
459.478	860.25
459.698	886.25
459.918	883.25
460.138	956.25
460.358	986.25
460.578	984.25
460.798	995.25
461.018	1052.25
461.238	992.25
461.458	974.25
461.678	961.25
461.898	1018.25
462.118	1018.25
462.338	1061.25
462.558	1097.25
462.777	1113.25
462.997	1263.25
463.217	1391.25
463.437	1388.25
463.657	1263.25
463.876	1179.25
464.096	1196.25
464.316	1192.25
464.536	1192.25
464.755	1119.25
464.975	1083.25
465.195	1058.25
465.414	983.25
465.634	908.25
465.854	887.25
466.073	865.25
466.293	841.25
466.512	822.25
466.732	800.25
466.951	804.25
467.171	801.25
467.391	818.25
467.61	809.25
467.829	822.25
468.049	793.25
468.268	776.25
468.488	791.25
468.707	755.25
468.927	755.25
469.146	784.25
469.365	785.25
469.585	801.25
469.804	842.25
470.023	821.25
470.243	840.25
470.462	839.25
470.681	842.25
470.901	844.25
471.12	825.25
471.339	837.25
471.558	805.25
471.777	785.25
471.997	785.25
472.216	791.25
472.435	775.25
472.654	754.25
472.873	760.25
473.092	772.25
473.311	737.25
473.53	737.25
473.749	755.25
473.968	764.25
474.187	757.25
474.406	751.25
474.625	741.25
474.844	763.25
475.063	733.25
475.282	700.25
475.501	737.25
475.72	773.25
475.939	780.25
476.158	779.25
476.377	798.25
476.596	781.25
476.814	765.25
477.033	761.25
477.252	831.25
477.471	801.25
477.69	835.25
477.908	853.25
478.127	901.25
478.346	901.25
478.564	903.25
478.783	927.25
479.002	950.25
479.22	943.25
479.439	961.25
479.658	937.25
479.876	957.25
480.095	944.25
480.313	987.25
480.532	999.25
480.751	1012.25
480.969	1001.25
481.188	919.25
481.406	919.25
481.624	876.25
481.843	859.25
482.061	837.25
482.28	872.25
482.498	873.25
482.717	841.25
482.935	860.25
483.153	849.25
483.372	850.25
483.59	862.25
483.808	873.25
484.027	857.25
484.245	832.25
484.463	881.25
484.681	889.25
484.9	886.25
485.118	905.25
485.336	884.25
485.554	910.25
485.772	931.25
485.99	892.25
486.209	913.25
486.427	938.25
486.645	927.25
486.863	916.25
487.081	893.25
487.299	917.25
487.517	899.25
487.735	901.25
487.953	910.25
488.171	909.25
488.389	899.25
488.607	877.25
488.825	901.25
489.043	875.25
489.261	883.25
489.479	881.25
489.696	884.25
489.914	885.25
490.132	846.25
490.35	894.25
490.568	901.25
490.786	890.25
491.003	873.25
491.221	906.25
491.439	883.25
491.657	911.25
491.874	893.25
492.092	902.25
492.31	910.25
492.527	922.25
492.745	929.25
492.963	909.25
493.18	928.25
493.398	924.25
493.615	916.25
493.833	965.25
494.05	955.25
494.268	945.25
494.485	920.25
494.703	933.25
494.92	941.25
495.138	959.25
495.355	935.25
495.573	933.25
495.79	961.25
496.008	979.25
496.225	958.25
496.442	984.25
496.66	988.25
496.877	984.25
497.094	988.25
497.312	1034.25
497.529	1036.25
497.746	1049.25
497.963	1116.25
498.181	1114.25
498.398	1186.25
498.615	1261.25
498.832	1381.25
499.049	1482.25
499.267	1602.25
499.484	1763.25
499.701	1953.25
499.918	2166.25
500.135	2479.25
