Data from Ni(NO3)2Standard.Agarose3%.GreenCap.LampEnergy5.5.E.O_HRD10591_14-41-24-188.txt Node
Date: Mon Jul 22 14:41:24 EDT 2019
User: cochatt
Spectrometer: HR+D1059
Trigger mode: 1
Integration Time (sec): 1.000000E-1
Scans to average: 1
Electric dark correction enabled: true
Nonlinearity correction enabled: false
Boxcar width: 0
XAxis mode: Wavelengths
Number of Pixels in Spectrum: 2048
>>>>>Begin Spectral Data<<<<<
223.165	-20.94
223.4	-20.94
223.635	-20.94
223.869	-15.94
224.104	-30.94
224.338	-13.94
224.573	-12.94
224.808	-11.94
225.042	6.06
225.277	-0.94
225.511	8.06
225.746	-3.94
225.98	-2.94
226.215	14.06
226.449	11.06
226.683	27.06
226.918	28.06
227.152	20.06
227.387	34.06
227.621	40.06
227.856	47.06
228.09	49.06
228.324	37.06
228.559	40.06
228.793	50.06
229.027	47.06
229.262	67.06
229.496	52.06
229.73	83.06
229.964	55.06
230.199	74.06
230.433	59.06
230.667	71.06
230.901	71.06
231.136	85.06
231.37	74.06
231.604	77.06
231.838	77.06
232.072	69.06
232.306	88.06
232.541	81.06
232.775	78.06
233.009	88.06
233.243	83.06
233.477	89.06
233.711	89.06
233.945	83.06
234.179	81.06
234.413	80.06
234.647	79.06
234.881	75.06
235.115	76.06
235.349	72.06
235.583	66.06
235.817	75.06
236.051	69.06
236.285	75.06
236.519	88.06
236.753	83.06
236.987	73.06
237.221	69.06
237.455	72.06
237.689	82.06
237.922	67.06
238.156	81.06
238.39	65.06
238.624	73.06
238.858	75.06
239.091	69.06
239.325	71.06
239.559	84.06
239.793	79.06
240.027	74.06
240.26	63.06
240.494	70.06
240.728	77.06
240.961	72.06
241.195	89.06
241.429	71.06
241.662	65.06
241.896	73.06
242.13	81.06
242.363	80.06
242.597	67.06
242.83	90.06
243.064	83.06
243.298	72.06
243.531	83.06
243.765	77.06
243.998	66.06
244.232	69.06
244.465	85.06
244.699	73.06
244.932	74.06
245.166	65.06
245.399	79.06
245.633	86.06
245.866	65.06
246.099	62.06
246.333	62.06
246.566	79.06
246.8	73.06
247.033	68.06
247.266	77.06
247.5	72.06
247.733	90.06
247.966	70.06
248.2	62.06
248.433	73.06
248.666	66.06
248.899	63.06
249.133	76.06
249.366	81.06
249.599	79.06
249.832	67.06
250.066	75.06
250.299	69.06
250.532	71.06
250.765	81.06
250.998	87.06
251.231	70.06
251.465	63.06
251.698	72.06
251.931	83.06
252.164	65.06
252.397	71.06
252.63	74.06
252.863	74.06
253.096	75.06
253.329	68.06
253.562	84.06
253.795	71.06
254.028	80.06
254.261	90.06
254.494	83.06
254.727	86.06
254.96	75.06
255.193	90.06
255.426	79.06
255.659	87.06
255.892	76.06
256.124	77.06
256.357	78.06
256.59	85.06
256.823	96.06
257.056	87.06
257.289	58.06
257.521	75.06
257.754	87.06
257.987	76.06
258.22	91.06
258.452	77.06
258.685	73.06
258.918	87.06
259.151	81.06
259.383	90.06
259.616	89.06
259.849	91.06
260.081	84.06
260.314	85.06
260.547	76.06
260.779	84.06
261.012	74.06
261.244	71.06
261.477	72.06
261.71	88.06
261.942	73.06
262.175	74.06
262.407	77.06
262.64	90.06
262.872	85.06
263.105	73.06
263.337	88.06
263.57	68.06
263.802	91.06
264.035	87.06
264.267	95.06
264.499	83.06
264.732	86.06
264.964	85.06
265.197	80.06
265.429	85.06
265.661	83.06
265.894	81.06
266.126	89.06
266.358	95.06
266.591	77.06
266.823	75.06
267.055	67.06
267.287	79.06
267.52	80.06
267.752	78.06
267.984	72.06
268.216	81.06
268.448	85.06
268.681	67.06
268.913	75.06
269.145	81.06
269.377	55.06
269.609	75.06
269.841	77.06
270.073	77.06
270.306	85.06
270.538	77.06
270.77	69.06
271.002	80.06
271.234	85.06
271.466	81.06
271.698	76.06
271.93	74.06
272.162	81.06
272.394	83.06
272.626	88.06
272.858	94.06
273.09	84.06
273.322	83.06
273.553	73.06
273.785	86.06
274.017	87.06
274.249	80.06
274.481	74.06
274.713	79.06
274.945	94.06
275.176	81.06
275.408	93.06
275.64	76.06
275.872	81.06
276.104	106.06
276.335	84.06
276.567	68.06
276.799	78.06
277.031	84.06
277.262	85.06
277.494	70.06
277.726	83.06
277.957	83.06
278.189	92.06
278.421	81.06
278.652	97.06
278.884	79.06
279.115	94.06
279.347	94.06
279.579	74.06
279.81	89.06
280.042	81.06
280.273	87.06
280.505	71.06
280.736	71.06
280.968	73.06
281.199	91.06
281.431	84.06
281.662	88.06
281.894	75.06
282.125	98.06
282.356	78.06
282.588	82.06
282.819	88.06
283.051	89.06
283.282	86.06
283.513	79.06
283.745	82.06
283.976	84.06
284.207	88.06
284.439	80.06
284.67	85.06
284.901	95.06
285.132	89.06
285.364	84.06
285.595	91.06
285.826	96.06
286.057	86.06
286.288	85.06
286.52	94.06
286.751	82.06
286.982	89.06
287.213	84.06
287.444	85.06
287.675	77.06
287.906	84.06
288.138	80.06
288.369	85.06
288.6	89.06
288.831	87.06
289.062	80.06
289.293	90.06
289.524	79.06
289.755	91.06
289.986	82.06
290.217	92.06
290.448	89.06
290.679	73.06
290.91	94.06
291.141	85.06
291.371	111.06
291.602	80.06
291.833	82.06
292.064	92.06
292.295	76.06
292.526	86.06
292.757	84.06
292.987	84.06
293.218	91.06
293.449	88.06
293.68	77.06
293.91	79.06
294.141	85.06
294.372	83.06
294.603	83.06
294.833	82.06
295.064	86.06
295.295	79.06
295.525	85.06
295.756	89.06
295.987	71.06
296.217	80.06
296.448	84.06
296.679	76.06
296.909	80.06
297.14	92.06
297.37	76.06
297.601	76.06
297.831	90.06
298.062	81.06
298.292	81.06
298.523	86.06
298.753	80.06
298.984	76.06
299.214	88.06
299.445	92.06
299.675	77.06
299.905	87.06
300.136	81.06
300.366	85.06
300.597	88.06
300.827	83.06
301.057	94.06
301.288	83.06
301.518	77.06
301.748	79.06
301.979	83.06
302.209	75.06
302.439	76.06
302.669	87.06
302.9	84.06
303.13	88.06
303.36	82.06
303.59	92.06
303.82	99.06
304.051	81.06
304.281	84.06
304.511	67.06
304.741	89.06
304.971	91.06
305.201	85.06
305.431	75.06
305.661	87.06
305.891	80.06
306.121	97.06
306.352	89.06
306.582	83.06
306.812	83.06
307.042	98.06
307.272	89.06
307.502	87.06
307.731	76.06
307.961	69.06
308.191	76.06
308.421	73.06
308.651	75.06
308.881	85.06
309.111	96.06
309.341	95.06
309.571	75.06
309.8	90.06
310.03	91.06
310.26	86.06
310.49	80.06
310.72	80.06
310.949	92.06
311.179	81.06
311.409	78.06
311.639	88.06
311.868	91.06
312.098	84.06
312.328	83.06
312.557	60.06
312.787	83.06
313.017	81.06
313.246	90.06
313.476	82.06
313.706	87.06
313.935	78.06
314.165	79.06
314.394	82.06
314.624	74.06
314.853	77.06
315.083	84.06
315.312	81.06
315.542	88.06
315.771	98.06
316.001	88.06
316.23	80.06
316.46	68.06
316.689	91.06
316.919	78.06
317.148	77.06
317.377	100.06
317.607	77.06
317.836	94.06
318.065	85.06
318.295	83.06
318.524	81.06
318.753	79.06
318.983	87.06
319.212	86.06
319.441	83.06
319.67	88.06
319.9	99.06
320.129	96.06
320.358	83.06
320.587	89.06
320.816	76.06
321.046	89.06
321.275	61.06
321.504	89.06
321.733	62.06
321.962	75.06
322.191	78.06
322.42	83.06
322.649	80.06
322.878	82.06
323.108	83.06
323.337	87.06
323.566	78.06
323.795	80.06
324.024	93.06
324.253	97.06
324.482	74.06
324.71	89.06
324.939	75.06
325.168	90.06
325.397	93.06
325.626	91.06
325.855	77.06
326.084	97.06
326.313	90.06
326.542	84.06
326.77	95.06
326.999	88.06
327.228	99.06
327.457	87.06
327.686	88.06
327.914	85.06
328.143	99.06
328.372	83.06
328.6	76.06
328.829	82.06
329.058	76.06
329.287	86.06
329.515	85.06
329.744	93.06
329.972	84.06
330.201	105.06
330.43	88.06
330.658	90.06
330.887	89.06
331.115	76.06
331.344	93.06
331.572	95.06
331.801	84.06
332.03	81.06
332.258	81.06
332.486	88.06
332.715	87.06
332.943	88.06
333.172	75.06
333.4	85.06
333.629	95.06
333.857	82.06
334.085	87.06
334.314	90.06
334.542	87.06
334.771	92.06
334.999	81.06
335.227	74.06
335.455	87.06
335.684	92.06
335.912	85.06
336.14	84.06
336.369	99.06
336.597	92.06
336.825	99.06
337.053	87.06
337.281	88.06
337.51	84.06
337.738	96.06
337.966	85.06
338.194	88.06
338.422	91.06
338.65	90.06
338.878	105.06
339.106	94.06
339.334	87.06
339.562	80.06
339.79	80.06
340.018	104.06
340.246	68.06
340.474	88.06
340.702	86.06
340.93	81.06
341.158	95.06
341.386	85.06
341.614	79.06
341.842	95.06
342.07	94.06
342.298	85.06
342.526	82.06
342.754	84.06
342.981	72.06
343.209	80.06
343.437	97.06
343.665	90.06
343.893	76.06
344.12	89.06
344.348	79.06
344.576	91.06
344.804	88.06
345.031	83.06
345.259	75.06
345.487	93.06
345.714	77.06
345.942	88.06
346.17	89.06
346.397	94.06
346.625	83.06
346.853	88.06
347.08	72.06
347.308	83.06
347.535	77.06
347.763	94.06
347.99	87.06
348.218	79.06
348.445	75.06
348.673	85.06
348.9	79.06
349.128	73.06
349.355	78.06
349.583	91.06
349.81	82.06
350.037	84.06
350.265	81.06
350.492	87.06
350.72	82.06
350.947	88.06
351.174	80.06
351.402	78.06
351.629	75.06
351.856	80.06
352.083	95.06
352.311	85.06
352.538	75.06
352.765	89.06
352.992	87.06
353.22	80.06
353.447	80.06
353.674	94.06
353.901	83.06
354.128	83.06
354.355	90.06
354.583	92.06
354.81	83.06
355.037	98.06
355.264	76.06
355.491	84.06
355.718	85.06
355.945	87.06
356.172	91.06
356.399	90.06
356.626	85.06
356.853	82.06
357.08	78.06
357.307	74.06
357.534	84.06
357.761	82.06
357.988	95.06
358.215	82.06
358.441	87.06
358.668	87.06
358.895	78.06
359.122	80.06
359.349	94.06
359.576	92.06
359.802	63.06
360.029	63.06
360.256	83.06
360.483	90.06
360.709	95.06
360.936	98.06
361.163	65.06
361.39	74.06
361.616	82.06
361.843	91.06
362.07	81.06
362.296	80.06
362.523	71.06
362.749	103.06
362.976	67.06
363.203	71.06
363.429	79.06
363.656	76.06
363.882	59.06
364.109	83.06
364.335	84.06
364.562	100.06
364.788	79.06
365.015	98.06
365.241	77.06
365.468	70.06
365.694	83.06
365.92	73.06
366.147	85.06
366.373	70.06
366.599	92.06
366.826	79.06
367.052	88.06
367.278	78.06
367.505	72.06
367.731	86.06
367.957	84.06
368.184	86.06
368.41	89.06
368.636	84.06
368.862	86.06
369.089	72.06
369.315	88.06
369.541	83.06
369.767	86.06
369.993	97.06
370.219	84.06
370.445	90.06
370.672	79.06
370.898	89.06
371.124	88.06
371.35	102.06
371.576	80.06
371.802	96.06
372.028	79.06
372.254	79.06
372.48	80.06
372.706	76.06
372.932	73.06
373.158	74.06
373.384	79.06
373.61	71.06
373.835	85.06
374.061	72.06
374.287	75.06
374.513	70.06
374.739	81.06
374.965	75.06
375.191	91.06
375.416	79.06
375.642	90.06
375.868	83.06
376.094	92.06
376.319	72.06
376.545	83.06
376.771	80.06
376.997	88.06
377.222	84.06
377.448	95.06
377.674	70.06
377.899	87.06
378.125	92.06
378.35	75.06
378.576	75.06
378.802	88.06
379.027	83.06
379.253	82.06
379.478	84.06
379.704	77.06
379.929	75.06
380.155	101.06
380.38	86.06
380.606	89.06
380.831	82.06
381.057	83.06
381.282	84.06
381.507	70.06
381.733	83.06
381.958	79.06
382.184	87.06
382.409	90.06
382.634	74.06
382.86	75.06
383.085	83.06
383.31	80.06
383.535	87.06
383.761	74.06
383.986	77.06
384.211	77.06
384.436	84.06
384.662	93.06
384.887	77.06
385.112	92.06
385.337	86.06
385.562	91.06
385.787	79.06
386.013	91.06
386.238	97.06
386.463	82.06
386.688	86.06
386.913	85.06
387.138	86.06
387.363	89.06
387.588	90.06
387.813	81.06
388.038	84.06
388.263	96.06
388.488	82.06
388.713	76.06
388.938	76.06
389.163	89.06
389.387	77.06
389.612	76.06
389.837	83.06
390.062	87.06
390.287	80.06
390.512	91.06
390.736	89.06
390.961	87.06
391.186	85.06
391.411	88.06
391.636	73.06
391.86	81.06
392.085	78.06
392.31	93.06
392.534	88.06
392.759	86.06
392.984	90.06
393.208	75.06
393.433	83.06
393.658	87.06
393.882	87.06
394.107	92.06
394.331	86.06
394.556	96.06
394.78	90.06
395.005	75.06
395.229	93.06
395.454	85.06
395.678	91.06
395.903	82.06
396.127	84.06
396.352	81.06
396.576	77.06
396.801	88.06
397.025	88.06
397.249	82.06
397.474	75.06
397.698	76.06
397.922	83.06
398.147	83.06
398.371	80.06
398.595	89.06
398.82	76.06
399.044	70.06
399.268	79.06
399.492	79.06
399.717	75.06
399.941	96.06
400.165	95.06
400.389	81.06
400.613	89.06
400.837	86.06
401.062	81.06
401.286	83.06
401.51	91.06
401.734	68.06
401.958	88.06
402.182	72.06
402.406	76.06
402.63	83.06
402.854	69.06
403.078	89.06
403.302	94.06
403.526	69.06
403.75	79.06
403.974	87.06
404.198	88.06
404.422	88.06
404.645	92.06
404.869	89.06
405.093	101.06
405.317	82.06
405.541	90.06
405.765	83.06
405.988	69.06
406.212	93.06
406.436	99.06
406.66	78.06
406.883	91.06
407.107	83.06
407.331	84.06
407.555	81.06
407.778	75.06
408.002	85.06
408.226	91.06
408.449	82.06
408.673	75.06
408.896	75.06
409.12	83.06
409.344	78.06
409.567	96.06
409.791	88.06
410.014	87.06
410.238	87.06
410.461	81.06
410.685	91.06
410.908	90.06
411.132	73.06
411.355	86.06
411.578	73.06
411.802	81.06
412.025	78.06
412.249	83.06
412.472	83.06
412.695	81.06
412.919	85.06
413.142	73.06
413.365	67.06
413.589	80.06
413.812	83.06
414.035	81.06
414.258	69.06
414.482	62.06
414.705	83.06
414.928	85.06
415.151	85.06
415.374	83.06
415.597	85.06
415.821	84.06
416.044	89.06
416.267	82.06
416.49	84.06
416.713	81.06
416.936	82.06
417.159	73.06
417.382	82.06
417.605	97.06
417.828	87.06
418.051	83.06
418.274	83.06
418.497	80.06
418.72	86.06
418.943	73.06
419.166	73.06
419.389	86.06
419.611	82.06
419.834	74.06
420.057	98.06
420.28	88.06
420.503	80.06
420.726	93.06
420.948	72.06
421.171	85.06
421.394	97.06
421.617	77.06
421.839	72.06
422.062	92.06
422.285	94.06
422.507	77.06
422.73	85.06
422.953	81.06
423.175	77.06
423.398	83.06
423.621	63.06
423.843	86.06
424.066	76.06
424.288	100.06
424.511	97.06
424.733	86.06
424.956	77.06
425.178	85.06
425.401	77.06
425.623	80.06
425.846	83.06
426.068	80.06
426.291	80.06
426.513	96.06
426.735	89.06
426.958	79.06
427.18	77.06
427.402	82.06
427.625	77.06
427.847	83.06
428.069	92.06
428.292	104.06
428.514	82.06
428.736	62.06
428.958	81.06
429.181	78.06
429.403	74.06
429.625	67.06
429.847	75.06
430.069	74.06
430.292	83.06
430.514	99.06
430.736	67.06
430.958	94.06
431.18	83.06
431.402	69.06
431.624	71.06
431.846	75.06
432.068	82.06
432.29	79.06
432.512	88.06
432.734	83.06
432.956	90.06
433.178	76.06
433.4	76.06
433.622	84.06
433.844	80.06
434.066	76.06
434.287	81.06
434.509	103.06
434.731	79.06
434.953	86.06
435.175	105.06
435.397	90.06
435.618	87.06
435.84	100.06
436.062	95.06
436.284	79.06
436.505	79.06
436.727	80.06
436.949	76.06
437.17	65.06
437.392	72.06
437.614	76.06
437.835	73.06
438.057	80.06
438.278	85.06
438.5	78.06
438.721	70.06
438.943	72.06
439.165	85.06
439.386	84.06
439.608	81.06
439.829	90.06
440.05	84.06
440.272	69.06
440.493	87.06
440.715	70.06
440.936	107.06
441.158	78.06
441.379	83.06
441.6	86.06
441.822	78.06
442.043	86.06
442.264	84.06
442.486	91.06
442.707	73.06
442.928	84.06
443.149	81.06
443.371	95.06
443.592	92.06
443.813	82.06
444.034	87.06
444.255	84.06
444.476	75.06
444.698	74.06
444.919	90.06
445.14	179.06
445.361	145.06
445.582	82.06
445.803	90.06
446.024	90.06
446.245	93.06
446.466	77.06
446.687	91.06
446.908	76.06
447.129	84.06
447.35	80.06
447.571	96.06
447.792	99.06
448.013	74.06
448.234	82.06
448.455	74.06
448.675	67.06
448.896	81.06
449.117	95.06
449.338	86.06
449.559	85.06
449.779	91.06
450	82.06
450.221	87.06
450.442	70.06
450.662	77.06
450.883	74.06
451.104	90.06
451.324	80.06
451.545	91.06
451.766	89.06
451.986	89.06
452.207	84.06
452.428	76.06
452.648	77.06
452.869	82.06
453.089	75.06
453.31	80.06
453.53	90.06
453.751	78.06
453.971	87.06
454.192	82.06
454.412	86.06
454.633	75.06
454.853	77.06
455.073	90.06
455.294	83.06
455.514	68.06
455.734	64.06
455.955	74.06
456.175	82.06
456.395	94.06
456.616	78.06
456.836	81.06
457.056	78.06
457.276	69.06
457.497	86.06
457.717	89.06
457.937	82.06
458.157	80.06
458.377	90.06
458.598	80.06
458.818	82.06
459.038	79.06
459.258	81.06
459.478	89.06
459.698	80.06
459.918	83.06
460.138	87.06
460.358	93.06
460.578	92.06
460.798	84.06
461.018	80.06
461.238	87.06
461.458	87.06
461.678	99.06
461.898	104.06
462.118	83.06
462.338	80.06
462.558	85.06
462.777	80.06
462.997	112.06
463.217	91.06
463.437	87.06
463.657	76.06
463.876	87.06
464.096	91.06
464.316	89.06
464.536	79.06
464.755	92.06
464.975	85.06
465.195	89.06
465.414	96.06
465.634	103.06
465.854	74.06
466.073	100.06
466.293	84.06
466.512	78.06
466.732	80.06
466.951	90.06
467.171	79.06
467.391	87.06
467.61	81.06
467.829	67.06
468.049	75.06
468.268	84.06
468.488	79.06
468.707	83.06
468.927	86.06
469.146	83.06
469.365	72.06
469.585	89.06
469.804	94.06
470.023	82.06
470.243	90.06
470.462	83.06
470.681	82.06
470.901	77.06
471.12	90.06
471.339	97.06
471.558	87.06
471.777	74.06
471.997	91.06
472.216	78.06
472.435	70.06
472.654	75.06
472.873	82.06
473.092	91.06
473.311	90.06
473.53	88.06
473.749	87.06
473.968	89.06
474.187	91.06
474.406	80.06
474.625	91.06
474.844	87.06
475.063	87.06
475.282	73.06
475.501	81.06
475.72	70.06
475.939	84.06
476.158	81.06
476.377	85.06
476.596	89.06
476.814	74.06
477.033	77.06
477.252	105.06
477.471	85.06
477.69	78.06
477.908	82.06
478.127	88.06
478.346	92.06
478.564	86.06
478.783	86.06
479.002	88.06
479.22	88.06
479.439	80.06
479.658	85.06
479.876	80.06
480.095	77.06
480.313	93.06
480.532	91.06
480.751	84.06
480.969	79.06
481.188	88.06
481.406	88.06
481.624	91.06
481.843	66.06
482.061	84.06
482.28	84.06
482.498	96.06
482.717	87.06
482.935	84.06
483.153	83.06
483.372	92.06
483.59	99.06
483.808	82.06
484.027	81.06
484.245	89.06
484.463	87.06
484.681	104.06
484.9	82.06
485.118	88.06
485.336	76.06
485.554	88.06
485.772	95.06
485.99	93.06
486.209	100.06
486.427	85.06
486.645	80.06
486.863	85.06
487.081	98.06
487.299	89.06
487.517	90.06
487.735	92.06
487.953	90.06
488.171	99.06
488.389	85.06
488.607	89.06
488.825	98.06
489.043	90.06
489.261	96.06
489.479	81.06
489.696	102.06
489.914	100.06
490.132	91.06
490.35	91.06
490.568	102.06
490.786	84.06
491.003	99.06
491.221	94.06
491.439	96.06
491.657	88.06
491.874	90.06
492.092	102.06
492.31	77.06
492.527	98.06
492.745	86.06
492.963	117.06
493.18	86.06
493.398	88.06
493.615	98.06
493.833	71.06
494.05	84.06
494.268	76.06
494.485	90.06
494.703	99.06
494.92	98.06
495.138	95.06
495.355	96.06
495.573	95.06
495.79	92.06
496.008	92.06
496.225	91.06
496.442	97.06
496.66	98.06
496.877	94.06
497.094	81.06
497.312	91.06
497.529	98.06
497.746	85.06
497.963	75.06
498.181	84.06
498.398	96.06
498.615	90.06
498.832	92.06
499.049	91.06
499.267	90.06
499.484	102.06
499.701	117.06
499.918	89.06
500.135	109.06
500.352	107.06
500.569	95.06
500.786	122.06
501.003	114.06
501.22	97.06
501.437	100.06
501.654	85.06
501.871	104.06
502.088	99.06
502.305	102.06
502.522	87.06
502.739	96.06
502.956	95.06
503.172	76.06
503.389	99.06
503.606	103.06
503.823	104.06
504.04	92.06
504.256	92.06
504.473	82.06
504.69	95.06
504.907	81.06
505.123	90.06
505.34	98.06
505.557	88.06
505.773	88.06
505.99	96.06
506.207	95.06
506.423	99.06
506.64	94.06
506.856	100.06
507.073	89.06
507.289	78.06
507.506	82.06
507.722	95.06
507.939	92.06
508.155	90.06
508.372	92.06
508.588	103.06
508.805	95.06
509.021	85.06
509.238	100.06
509.454	90.06
509.67	74.06
509.887	87.06
510.103	83.06
510.319	89.06
510.536	100.06
510.752	85.06
510.968	92.06
511.184	66.06
511.401	88.06
511.617	91.06
511.833	94.06
512.049	94.06
512.265	99.06
512.481	93.06
512.698	80.06
512.914	99.06
513.13	92.06
513.346	93.06
513.562	101.06
513.778	96.06
513.994	99.06
514.21	90.06
514.426	88.06
514.642	72.06
514.858	93.06
515.074	85.06
515.29	89.06
515.506	84.06
515.721	81.06
515.937	97.06
516.153	83.06
516.369	100.06
516.585	92.06
516.801	89.06
517.016	79.06
517.232	84.06
517.448	92.06
517.664	96.06
517.879	101.06
518.095	106.06
518.311	94.06
518.527	84.06
518.742	98.06
