Data from Ni(NO3)2@0.125M.TitratingCurve.Agarose3%dH2O.NegLispCup.LampEnergy10.LIBS07252019_HRD10591_18-11-28-568.txt Node
Date: Thu Jul 25 18:11:28 EDT 2019
User: cochatt
Spectrometer: HR+D1059
Trigger mode: 1
Integration Time (sec): 1.000000E-1
Scans to average: 1
Electric dark correction enabled: true
Nonlinearity correction enabled: false
Boxcar width: 0
XAxis mode: Wavelengths
Number of Pixels in Spectrum: 2048
>>>>>Begin Spectral Data<<<<<
223.165	-14.56
223.4	-14.56
223.635	-14.56
223.869	-26.56
224.104	10.44
224.338	-27.56
224.573	-15.56
224.808	-24.56
225.042	-1.56
225.277	-25.56
225.511	-2.56
225.746	5.44
225.98	6.44
226.215	18.44
226.449	17.44
226.683	27.44
226.918	20.44
227.152	32.44
227.387	35.44
227.621	46.44
227.856	41.44
228.09	30.44
228.324	42.44
228.559	42.44
228.793	73.44
229.027	111.44
229.262	140.44
229.496	128.44
229.73	130.44
229.964	126.44
230.199	156.44
230.433	140.44
230.667	144.44
230.901	138.44
231.136	147.44
231.37	161.44
231.604	163.44
231.838	147.44
232.072	150.44
232.306	184.44
232.541	178.44
232.775	170.44
233.009	153.44
233.243	171.44
233.477	170.44
233.711	174.44
233.945	171.44
234.179	182.44
234.413	166.44
234.647	168.44
234.881	169.44
235.115	171.44
235.349	182.44
235.583	170.44
235.817	169.44
236.051	187.44
236.285	183.44
236.519	175.44
236.753	176.44
236.987	175.44
237.221	179.44
237.455	177.44
237.689	187.44
237.922	192.44
238.156	204.44
238.39	186.44
238.624	190.44
238.858	171.44
239.091	206.44
239.325	209.44
239.559	204.44
239.793	202.44
240.027	192.44
240.26	213.44
240.494	204.44
240.728	215.44
240.961	203.44
241.195	202.44
241.429	221.44
241.662	221.44
241.896	219.44
242.13	217.44
242.363	234.44
242.597	233.44
242.83	226.44
243.064	230.44
243.298	244.44
243.531	233.44
243.765	240.44
243.998	251.44
244.232	225.44
244.465	240.44
244.699	235.44
244.932	257.44
245.166	256.44
245.399	267.44
245.633	260.44
245.866	251.44
246.099	268.44
246.333	254.44
246.566	246.44
246.8	264.44
247.033	273.44
247.266	263.44
247.5	292.44
247.733	280.44
247.966	295.44
248.2	288.44
248.433	294.44
248.666	290.44
248.899	266.44
249.133	292.44
249.366	300.44
249.599	289.44
249.832	297.44
250.066	308.44
250.299	290.44
250.532	308.44
250.765	321.44
250.998	298.44
251.231	299.44
251.465	307.44
251.698	313.44
251.931	305.44
252.164	325.44
252.397	315.44
252.63	325.44
252.863	343.44
253.096	337.44
253.329	355.44
253.562	327.44
253.795	317.44
254.028	324.44
254.261	352.44
254.494	334.44
254.727	321.44
254.96	326.44
255.193	339.44
255.426	343.44
255.659	333.44
255.892	331.44
256.124	347.44
256.357	356.44
256.59	336.44
256.823	360.44
257.056	359.44
257.289	353.44
257.521	359.44
257.754	342.44
257.987	342.44
258.22	358.44
258.452	368.44
258.685	367.44
258.918	364.44
259.151	364.44
259.383	377.44
259.616	372.44
259.849	372.44
260.081	393.44
260.314	380.44
260.547	388.44
260.779	393.44
261.012	388.44
261.244	403.44
261.477	391.44
261.71	393.44
261.942	406.44
262.175	401.44
262.407	392.44
262.64	392.44
262.872	408.44
263.105	418.44
263.337	436.44
263.57	428.44
263.802	413.44
264.035	412.44
264.267	430.44
264.499	423.44
264.732	414.44
264.964	426.44
265.197	411.44
265.429	417.44
265.661	416.44
265.894	438.44
266.126	437.44
266.358	441.44
266.591	424.44
266.823	421.44
267.055	446.44
267.287	429.44
267.52	441.44
267.752	434.44
267.984	448.44
268.216	453.44
268.448	448.44
268.681	436.44
268.913	449.44
269.145	434.44
269.377	457.44
269.609	456.44
269.841	436.44
270.073	460.44
270.306	459.44
270.538	451.44
270.77	485.44
271.002	464.44
271.234	473.44
271.466	471.44
271.698	473.44
271.93	480.44
272.162	487.44
272.394	475.44
272.626	490.44
272.858	485.44
273.09	488.44
273.322	507.44
273.553	506.44
273.785	499.44
274.017	505.44
274.249	497.44
274.481	513.44
274.713	507.44
274.945	488.44
275.176	486.44
275.408	504.44
275.64	524.44
275.872	502.44
276.104	518.44
276.335	526.44
276.567	513.44
276.799	539.44
277.031	539.44
277.262	538.44
277.494	520.44
277.726	530.44
277.957	548.44
278.189	520.44
278.421	546.44
278.652	545.44
278.884	556.44
279.115	555.44
279.347	538.44
279.579	532.44
279.81	549.44
280.042	526.44
280.273	551.44
280.505	555.44
280.736	562.44
280.968	570.44
281.199	564.44
281.431	566.44
281.662	574.44
281.894	587.44
282.125	569.44
282.356	593.44
282.588	580.44
282.819	588.44
283.051	586.44
283.282	580.44
283.513	606.44
283.745	595.44
283.976	570.44
284.207	595.44
284.439	628.44
284.67	610.44
284.901	588.44
285.132	600.44
285.364	598.44
285.595	632.44
285.826	604.44
286.057	622.44
286.288	597.44
286.52	621.44
286.751	628.44
286.982	634.44
287.213	636.44
287.444	622.44
287.675	640.44
287.906	630.44
288.138	636.44
288.369	635.44
288.6	661.44
288.831	655.44
289.062	628.44
289.293	631.44
289.524	645.44
289.755	653.44
289.986	634.44
290.217	653.44
290.448	638.44
290.679	668.44
290.91	670.44
291.141	650.44
291.371	660.44
291.602	633.44
291.833	648.44
292.064	658.44
292.295	653.44
292.526	658.44
292.757	649.44
292.987	644.44
293.218	634.44
293.449	663.44
293.68	685.44
293.91	652.44
294.141	662.44
294.372	639.44
294.603	676.44
294.833	662.44
295.064	662.44
295.295	653.44
295.525	637.44
295.756	663.44
295.987	665.44
296.217	679.44
296.448	712.44
296.679	673.44
296.909	662.44
297.14	692.44
297.37	668.44
297.601	699.44
297.831	694.44
298.062	704.44
298.292	717.44
298.523	710.44
298.753	743.44
298.984	692.44
299.214	702.44
299.445	684.44
299.675	713.44
299.905	728.44
300.136	705.44
300.366	699.44
300.597	729.44
300.827	756.44
301.057	776.44
301.288	755.44
301.518	744.44
301.748	766.44
301.979	762.44
302.209	766.44
302.439	777.44
302.669	723.44
302.9	754.44
303.13	740.44
303.36	760.44
303.59	755.44
303.82	736.44
304.051	752.44
304.281	746.44
304.511	745.44
304.741	758.44
304.971	758.44
305.201	746.44
305.431	734.44
305.661	733.44
305.891	759.44
306.121	758.44
306.352	724.44
306.582	693.44
306.812	725.44
307.042	713.44
307.272	744.44
307.502	718.44
307.731	729.44
307.961	720.44
308.191	736.44
308.421	732.44
308.651	736.44
308.881	722.44
309.111	729.44
309.341	735.44
309.571	777.44
309.8	748.44
310.03	753.44
310.26	753.44
310.49	740.44
310.72	724.44
310.949	758.44
311.179	763.44
311.409	731.44
311.639	757.44
311.868	754.44
312.098	754.44
312.328	763.44
312.557	766.44
312.787	795.44
313.017	772.44
313.246	792.44
313.476	768.44
313.706	782.44
313.935	796.44
314.165	796.44
314.394	817.44
314.624	811.44
314.853	799.44
315.083	804.44
315.312	783.44
315.542	786.44
315.771	791.44
316.001	791.44
316.23	768.44
316.46	747.44
316.689	775.44
316.919	798.44
317.148	774.44
317.377	784.44
317.607	770.44
317.836	811.44
318.065	770.44
318.295	785.44
318.524	795.44
318.753	806.44
318.983	783.44
319.212	786.44
319.441	773.44
319.67	796.44
319.9	786.44
320.129	786.44
320.358	763.44
320.587	805.44
320.816	802.44
321.046	804.44
321.275	801.44
321.504	809.44
321.733	770.44
321.962	775.44
322.191	808.44
322.42	779.44
322.649	778.44
322.878	784.44
323.108	796.44
323.337	808.44
323.566	804.44
323.795	815.44
324.024	839.44
324.253	828.44
324.482	814.44
324.71	810.44
324.939	817.44
325.168	816.44
325.397	831.44
325.626	853.44
325.855	858.44
326.084	843.44
326.313	873.44
326.542	855.44
326.77	885.44
326.999	884.44
327.228	855.44
327.457	852.44
327.686	842.44
327.914	892.44
328.143	879.44
328.372	861.44
328.6	874.44
328.829	850.44
329.058	853.44
329.287	872.44
329.515	885.44
329.744	874.44
329.972	908.44
330.201	888.44
330.43	921.44
330.658	909.44
330.887	919.44
331.115	916.44
331.344	913.44
331.572	910.44
331.801	938.44
332.03	958.44
332.258	1015.44
332.486	1036.44
332.715	1060.44
332.943	1103.44
333.172	1140.44
333.4	1220.44
333.629	1229.44
333.857	1220.44
334.085	1176.44
334.314	1151.44
334.542	1150.44
334.771	1109.44
334.999	1106.44
335.227	1105.44
335.455	1102.44
335.684	1092.44
335.912	1075.44
336.14	1091.44
336.369	1060.44
336.597	1090.44
336.825	1050.44
337.053	1077.44
337.281	1053.44
337.51	988.44
337.738	992.44
337.966	1006.44
338.194	1006.44
338.422	973.44
338.65	978.44
338.878	979.44
339.106	971.44
339.334	973.44
339.562	955.44
339.79	928.44
340.018	916.44
340.246	939.44
340.474	907.44
340.702	901.44
340.93	933.44
341.158	925.44
341.386	911.44
341.614	947.44
341.842	897.44
342.07	923.44
342.298	902.44
342.526	908.44
342.754	899.44
342.981	913.44
343.209	944.44
343.437	983.44
343.665	1045.44
343.893	1153.44
344.12	1160.44
344.348	1093.44
344.576	1042.44
344.804	990.44
345.031	930.44
345.259	958.44
345.487	938.44
345.714	920.44
345.942	880.44
346.17	934.44
346.397	901.44
346.625	907.44
346.853	889.44
347.08	884.44
347.308	896.44
347.535	892.44
347.763	894.44
347.99	898.44
348.218	915.44
348.445	888.44
348.673	875.44
348.9	874.44
349.128	910.44
349.355	876.44
349.583	871.44
349.81	897.44
350.037	868.44
350.265	845.44
350.492	872.44
350.72	853.44
350.947	830.44
351.174	869.44
351.402	862.44
351.629	856.44
351.856	853.44
352.083	840.44
352.311	833.44
352.538	844.44
352.765	818.44
352.992	865.44
353.22	835.44
353.447	852.44
353.674	840.44
353.901	858.44
354.128	852.44
354.355	841.44
354.583	832.44
354.81	845.44
355.037	852.44
355.264	859.44
355.491	861.44
355.718	864.44
355.945	853.44
356.172	876.44
356.399	867.44
356.626	848.44
356.853	883.44
357.08	829.44
357.307	851.44
357.534	868.44
357.761	886.44
357.988	869.44
358.215	854.44
358.441	824.44
358.668	862.44
358.895	852.44
359.122	867.44
359.349	865.44
359.576	878.44
359.802	868.44
360.029	845.44
360.256	858.44
360.483	861.44
360.709	863.44
360.936	856.44
361.163	851.44
361.39	854.44
361.616	849.44
361.843	834.44
362.07	847.44
362.296	842.44
362.523	842.44
362.749	854.44
362.976	845.44
363.203	833.44
363.429	875.44
363.656	876.44
363.882	856.44
364.109	854.44
364.335	846.44
364.562	854.44
364.788	818.44
365.015	843.44
365.241	867.44
365.468	873.44
365.694	877.44
365.92	853.44
366.147	849.44
366.373	853.44
366.599	852.44
366.826	839.44
367.052	832.44
367.278	866.44
367.505	840.44
367.731	873.44
367.957	846.44
368.184	859.44
368.41	877.44
368.636	861.44
368.862	858.44
369.089	857.44
369.315	857.44
369.541	892.44
369.767	868.44
369.993	887.44
370.219	869.44
370.445	884.44
370.672	898.44
370.898	904.44
371.124	949.44
371.35	931.44
371.576	930.44
371.802	910.44
372.028	914.44
372.254	929.44
372.48	948.44
372.706	931.44
372.932	979.44
373.158	960.44
373.384	966.44
373.61	946.44
373.835	949.44
374.061	908.44
374.287	964.44
374.513	954.44
374.739	995.44
374.965	1012.44
375.191	1032.44
375.416	1015.44
375.642	985.44
375.868	965.44
376.094	966.44
376.319	967.44
376.545	959.44
376.771	926.44
376.997	944.44
377.222	929.44
377.448	934.44
377.674	948.44
377.899	931.44
378.125	909.44
378.35	922.44
378.576	914.44
378.802	948.44
379.027	941.44
379.253	898.44
379.478	900.44
379.704	920.44
379.929	906.44
380.155	906.44
380.38	904.44
380.606	936.44
380.831	945.44
381.057	934.44
381.282	940.44
381.507	916.44
381.733	933.44
381.958	945.44
382.184	977.44
382.409	978.44
382.634	975.44
382.86	969.44
383.085	997.44
383.31	1010.44
383.535	1038.44
383.761	1042.44
383.986	1065.44
384.211	1082.44
384.436	1110.44
384.662	1145.44
384.887	1143.44
385.112	1146.44
385.337	1162.44
385.562	1124.44
385.787	1108.44
386.013	1114.44
386.238	1131.44
386.463	1161.44
386.688	1131.44
386.913	1096.44
387.138	1092.44
387.363	1106.44
387.588	1130.44
387.813	1116.44
388.038	1097.44
388.263	1092.44
388.488	1144.44
388.713	1139.44
388.938	1111.44
389.163	1101.44
389.387	1115.44
389.612	1114.44
389.837	1115.44
390.062	1091.44
390.287	1080.44
390.512	1101.44
390.736	1137.44
390.961	1136.44
391.186	1157.44
391.411	1187.44
391.636	1221.44
391.86	1264.44
392.085	1281.44
392.31	1280.44
392.534	1250.44
392.759	1207.44
392.984	1179.44
393.208	1204.44
393.433	1190.44
393.658	1195.44
393.882	1210.44
394.107	1233.44
394.331	1217.44
394.556	1219.44
394.78	1208.44
395.005	1201.44
395.229	1179.44
395.454	1252.44
395.678	1288.44
395.903	1313.44
396.127	1252.44
396.352	1196.44
396.576	1159.44
396.801	1178.44
397.025	1190.44
397.249	1240.44
397.474	1251.44
397.698	1278.44
397.922	1271.44
398.147	1278.44
398.371	1306.44
398.595	1329.44
398.82	1398.44
399.044	1507.44
399.268	1700.44
399.492	1960.44
399.717	2215.44
399.941	2196.44
400.165	1885.44
400.389	1732.44
400.613	1602.44
400.837	1509.44
401.062	1438.44
401.286	1470.44
401.51	1451.44
401.734	1386.44
401.958	1438.44
402.182	1453.44
402.406	1498.44
402.63	1494.44
402.854	1516.44
403.078	1577.44
403.302	1578.44
403.526	1620.44
403.75	1630.44
403.974	1688.44
404.198	1702.44
404.422	1720.44
404.645	1643.44
404.869	1641.44
405.093	1654.44
405.317	1586.44
405.541	1594.44
405.765	1552.44
405.988	1526.44
406.212	1545.44
406.436	1566.44
406.66	1615.44
406.883	1660.44
407.107	1740.44
407.331	1798.44
407.555	1876.44
407.778	1857.44
408.002	1781.44
408.226	1748.44
408.449	1710.44
408.673	1652.44
408.896	1613.44
409.12	1601.44
409.344	1622.44
409.567	1611.44
409.791	1670.44
410.014	1616.44
410.238	1612.44
410.461	1564.44
410.685	1589.44
410.908	1515.44
411.132	1526.44
411.355	1488.44
411.578	1473.44
411.802	1476.44
412.025	1471.44
412.249	1506.44
412.472	1499.44
412.695	1440.44
412.919	1420.44
413.142	1394.44
413.365	1417.44
413.589	1444.44
413.812	1406.44
414.035	1397.44
414.258	1387.44
414.482	1396.44
414.705	1465.44
414.928	1463.44
415.151	1422.44
415.374	1430.44
415.597	1436.44
415.821	1410.44
416.044	1400.44
416.267	1347.44
416.49	1350.44
416.713	1373.44
416.936	1422.44
417.159	1414.44
417.382	1404.44
417.605	1366.44
417.828	1392.44
418.051	1384.44
418.274	1401.44
418.497	1376.44
418.72	1462.44
418.943	1446.44
419.166	1554.44
419.389	1596.44
419.611	1593.44
419.834	1515.44
420.057	1459.44
420.28	1446.44
420.503	1376.44
420.726	1363.44
420.948	1358.44
421.171	1376.44
421.394	1404.44
421.617	1375.44
421.839	1364.44
422.062	1438.44
422.285	1410.44
422.507	1484.44
422.73	1451.44
422.953	1438.44
423.175	1461.44
423.398	1508.44
423.621	1491.44
423.843	1508.44
424.066	1512.44
424.288	1482.44
424.511	1473.44
424.733	1449.44
424.956	1377.44
425.178	1394.44
425.401	1414.44
425.623	1388.44
425.846	1369.44
426.068	1350.44
426.291	1344.44
426.513	1298.44
426.735	1296.44
426.958	1303.44
427.18	1268.44
427.402	1249.44
427.625	1266.44
427.847	1218.44
428.069	1223.44
428.292	1284.44
428.514	1206.44
428.736	1212.44
428.958	1226.44
429.181	1181.44
429.403	1186.44
429.625	1202.44
429.847	1192.44
430.069	1206.44
430.292	1204.44
430.514	1201.44
430.736	1179.44
430.958	1228.44
431.18	1204.44
431.402	1242.44
431.624	1212.44
431.846	1255.44
432.068	1251.44
432.29	1312.44
432.512	1204.44
432.734	1243.44
432.956	1225.44
433.178	1245.44
433.4	1237.44
433.622	1240.44
433.844	1260.44
434.066	1235.44
434.287	1272.44
434.509	1334.44
434.731	1363.44
434.953	1397.44
435.175	1422.44
435.397	1393.44
435.618	1345.44
435.84	1286.44
436.062	1214.44
436.284	1228.44
436.505	1226.44
436.727	1256.44
436.949	1246.44
437.17	1236.44
437.392	1209.44
437.614	1188.44
437.835	1200.44
438.057	1204.44
438.278	1170.44
438.5	1176.44
438.721	1173.44
438.943	1204.44
439.165	1168.44
439.386	1186.44
439.608	1192.44
439.829	1213.44
440.05	1222.44
440.272	1236.44
440.493	1224.44
440.715	1232.44
440.936	1286.44
441.158	1308.44
441.379	1318.44
441.6	1348.44
441.822	1385.44
442.043	1399.44
442.264	1356.44
442.486	1342.44
442.707	1382.44
442.928	1355.44
443.149	1376.44
443.371	1385.44
443.592	1411.44
443.813	1398.44
444.034	1417.44
444.255	1461.44
444.476	1510.44
444.698	1624.44
444.919	1683.44
445.14	1741.44
445.361	1566.44
445.582	1436.44
445.803	1372.44
446.024	1296.44
446.245	1307.44
446.466	1283.44
446.687	1245.44
446.908	1253.44
447.129	1212.44
447.35	1202.44
447.571	1194.44
447.792	1152.44
448.013	1174.44
448.234	1145.44
448.455	1179.44
448.675	1106.44
448.896	1131.44
449.117	1115.44
449.338	1130.44
449.559	1124.44
449.779	1106.44
450	1108.44
450.221	1086.44
450.442	1170.44
450.662	1120.44
450.883	1163.44
451.104	1129.44
451.324	1173.44
451.545	1146.44
451.766	1134.44
451.986	1116.44
452.207	1096.44
452.428	1138.44
452.648	1128.44
452.869	1083.44
453.089	1073.44
453.31	1109.44
453.53	1086.44
453.751	1071.44
453.971	1100.44
454.192	1100.44
454.412	1077.44
454.633	1032.44
454.853	1058.44
455.073	1040.44
455.294	1073.44
455.514	1044.44
455.734	1056.44
455.955	1013.44
456.175	1028.44
456.395	1029.44
456.616	1036.44
456.836	1018.44
457.056	1041.44
457.276	1032.44
457.497	1063.44
457.717	1037.44
457.937	1047.44
458.157	1088.44
458.377	1080.44
458.598	1131.44
458.818	1127.44
459.038	1157.44
459.258	1196.44
459.478	1236.44
459.698	1269.44
459.918	1313.44
460.138	1371.44
460.358	1482.44
460.578	1500.44
460.798	1459.44
461.018	1526.44
461.238	1471.44
461.458	1434.44
461.678	1481.44
461.898	1486.44
462.118	1464.44
462.338	1566.44
462.558	1613.44
462.777	1664.44
462.997	1817.44
463.217	2017.44
463.437	2001.44
463.657	1815.44
463.876	1701.44
464.096	1712.44
464.316	1722.44
464.536	1806.44
464.755	1638.44
464.975	1573.44
465.195	1511.44
465.414	1405.44
465.634	1304.44
465.854	1254.44
466.073	1247.44
466.293	1226.44
466.512	1206.44
466.732	1167.44
466.951	1176.44
467.171	1180.44
467.391	1196.44
467.61	1143.44
467.829	1123.44
468.049	1142.44
468.268	1138.44
468.488	1129.44
468.707	1100.44
468.927	1080.44
469.146	1093.44
469.365	1100.44
469.585	1118.44
469.804	1157.44
470.023	1220.44
470.243	1206.44
470.462	1210.44
470.681	1185.44
470.901	1209.44
471.12	1197.44
471.339	1146.44
471.558	1146.44
471.777	1144.44
471.997	1123.44
472.216	1120.44
472.435	1106.44
472.654	1100.44
472.873	1068.44
473.092	1083.44
473.311	1076.44
473.53	1088.44
473.749	1078.44
473.968	1090.44
474.187	1086.44
474.406	1063.44
474.625	1086.44
474.844	1088.44
475.063	1104.44
475.282	1072.44
475.501	1101.44
475.72	1137.44
475.939	1133.44
476.158	1124.44
476.377	1122.44
476.596	1132.44
476.814	1164.44
477.033	1174.44
477.252	1194.44
477.471	1194.44
477.69	1236.44
477.908	1254.44
478.127	1287.44
478.346	1302.44
478.564	1329.44
478.783	1341.44
479.002	1408.44
479.22	1398.44
479.439	1372.44
479.658	1370.44
479.876	1350.44
480.095	1381.44
480.313	1456.44
480.532	1527.44
480.751	1524.44
480.969	1453.44
481.188	1326.44
481.406	1294.44
481.624	1276.44
481.843	1282.44
482.061	1282.44
482.28	1300.44
482.498	1258.44
482.717	1232.44
482.935	1234.44
483.153	1238.44
483.372	1235.44
483.59	1240.44
483.808	1257.44
484.027	1242.44
484.245	1267.44
484.463	1291.44
484.681	1299.44
484.9	1296.44
485.118	1328.44
485.336	1291.44
485.554	1330.44
485.772	1348.44
485.99	1318.44
486.209	1330.44
486.427	1343.44
486.645	1322.44
486.863	1339.44
487.081	1330.44
487.299	1309.44
487.517	1332.44
487.735	1323.44
487.953	1322.44
488.171	1353.44
488.389	1348.44
488.607	1314.44
488.825	1306.44
489.043	1321.44
489.261	1299.44
489.479	1316.44
489.696	1261.44
489.914	1314.44
490.132	1312.44
490.35	1330.44
490.568	1293.44
490.786	1341.44
491.003	1314.44
491.221	1319.44
491.439	1316.44
491.657	1327.44
491.874	1349.44
492.092	1304.44
492.31	1314.44
492.527	1336.44
492.745	1350.44
492.963	1360.44
493.18	1341.44
493.398	1366.44
493.615	1394.44
493.833	1373.44
494.05	1397.44
494.268	1386.44
