Data from Ni(NO3)2@0.25M.TitratingCurve.Agarose3%dH2O.NegLispCup.LampEnergy10.LIBS07252019_HRD10591_18-03-19-565.txt Node
Date: Thu Jul 25 18:03:19 EDT 2019
User: cochatt
Spectrometer: HR+D1059
Trigger mode: 1
Integration Time (sec): 1.000000E-1
Scans to average: 1
Electric dark correction enabled: true
Nonlinearity correction enabled: false
Boxcar width: 0
XAxis mode: Wavelengths
Number of Pixels in Spectrum: 2048
>>>>>Begin Spectral Data<<<<<
223.165	-12.81
223.4	-12.81
223.635	-12.81
223.869	-25.81
224.104	-35.81
224.338	-10.81
224.573	-20.81
224.808	-10.81
225.042	-9.81
225.277	1.19
225.511	8.19
225.746	15.19
225.98	6.19
226.215	5.19
226.449	21.19
226.683	24.19
226.918	31.19
227.152	14.19
227.387	37.19
227.621	43.19
227.856	53.19
228.09	36.19
228.324	42.19
228.559	38.19
228.793	69.19
229.027	67.19
229.262	76.19
229.496	85.19
229.73	93.19
229.964	95.19
230.199	110.19
230.433	115.19
230.667	106.19
230.901	99.19
231.136	91.19
231.37	86.19
231.604	100.19
231.838	127.19
232.072	129.19
232.306	104.19
232.541	97.19
232.775	101.19
233.009	105.19
233.243	89.19
233.477	90.19
233.711	99.19
233.945	107.19
234.179	119.19
234.413	99.19
234.647	88.19
234.881	99.19
235.115	93.19
235.349	91.19
235.583	107.19
235.817	104.19
236.051	106.19
236.285	88.19
236.519	108.19
236.753	114.19
236.987	79.19
237.221	87.19
237.455	108.19
237.689	103.19
237.922	91.19
238.156	98.19
238.39	95.19
238.624	107.19
238.858	111.19
239.091	105.19
239.325	111.19
239.559	121.19
239.793	108.19
240.027	106.19
240.26	99.19
240.494	101.19
240.728	93.19
240.961	105.19
241.195	87.19
241.429	100.19
241.662	99.19
241.896	111.19
242.13	131.19
242.363	107.19
242.597	97.19
242.83	111.19
243.064	111.19
243.298	112.19
243.531	112.19
243.765	100.19
243.998	91.19
244.232	114.19
244.465	122.19
244.699	109.19
244.932	116.19
245.166	124.19
245.399	115.19
245.633	114.19
245.866	122.19
246.099	125.19
246.333	133.19
246.566	126.19
246.8	129.19
247.033	125.19
247.266	139.19
247.5	128.19
247.733	149.19
247.966	152.19
248.2	136.19
248.433	156.19
248.666	142.19
248.899	173.19
249.133	143.19
249.366	166.19
249.599	152.19
249.832	164.19
250.066	178.19
250.299	157.19
250.532	194.19
250.765	191.19
250.998	173.19
251.231	213.19
251.465	205.19
251.698	199.19
251.931	206.19
252.164	207.19
252.397	211.19
252.63	214.19
252.863	236.19
253.096	239.19
253.329	232.19
253.562	250.19
253.795	258.19
254.028	246.19
254.261	262.19
254.494	261.19
254.727	261.19
254.96	262.19
255.193	266.19
255.426	262.19
255.659	270.19
255.892	292.19
256.124	275.19
256.357	291.19
256.59	267.19
256.823	304.19
257.056	290.19
257.289	286.19
257.521	318.19
257.754	308.19
257.987	322.19
258.22	303.19
258.452	321.19
258.685	328.19
258.918	328.19
259.151	322.19
259.383	340.19
259.616	323.19
259.849	343.19
260.081	334.19
260.314	334.19
260.547	347.19
260.779	354.19
261.012	360.19
261.244	366.19
261.477	351.19
261.71	347.19
261.942	371.19
262.175	357.19
262.407	398.19
262.64	377.19
262.872	364.19
263.105	364.19
263.337	360.19
263.57	375.19
263.802	384.19
264.035	390.19
264.267	380.19
264.499	390.19
264.732	382.19
264.964	396.19
265.197	382.19
265.429	382.19
265.661	415.19
265.894	391.19
266.126	395.19
266.358	389.19
266.591	392.19
266.823	392.19
267.055	398.19
267.287	402.19
267.52	394.19
267.752	400.19
267.984	421.19
268.216	406.19
268.448	410.19
268.681	395.19
268.913	401.19
269.145	425.19
269.377	400.19
269.609	396.19
269.841	410.19
270.073	410.19
270.306	405.19
270.538	411.19
270.77	425.19
271.002	438.19
271.234	405.19
271.466	405.19
271.698	433.19
271.93	409.19
272.162	394.19
272.394	412.19
272.626	402.19
272.858	391.19
273.09	419.19
273.322	423.19
273.553	399.19
273.785	414.19
274.017	414.19
274.249	419.19
274.481	430.19
274.713	399.19
274.945	426.19
275.176	421.19
275.408	398.19
275.64	412.19
275.872	404.19
276.104	413.19
276.335	406.19
276.567	415.19
276.799	412.19
277.031	413.19
277.262	406.19
277.494	411.19
277.726	418.19
277.957	416.19
278.189	419.19
278.421	397.19
278.652	425.19
278.884	417.19
279.115	424.19
279.347	427.19
279.579	429.19
279.81	412.19
280.042	411.19
280.273	425.19
280.505	391.19
280.736	429.19
280.968	412.19
281.199	404.19
281.431	393.19
281.662	413.19
281.894	414.19
282.125	416.19
282.356	421.19
282.588	398.19
282.819	401.19
283.051	405.19
283.282	389.19
283.513	406.19
283.745	417.19
283.976	434.19
284.207	428.19
284.439	418.19
284.67	415.19
284.901	409.19
285.132	406.19
285.364	426.19
285.595	415.19
285.826	402.19
286.057	406.19
286.288	400.19
286.52	422.19
286.751	407.19
286.982	392.19
287.213	391.19
287.444	411.19
287.675	404.19
287.906	404.19
288.138	429.19
288.369	389.19
288.6	408.19
288.831	380.19
289.062	385.19
289.293	414.19
289.524	384.19
289.755	401.19
289.986	417.19
290.217	418.19
290.448	390.19
290.679	400.19
290.91	390.19
291.141	382.19
291.371	390.19
291.602	381.19
291.833	383.19
292.064	402.19
292.295	388.19
292.526	397.19
292.757	404.19
292.987	398.19
293.218	390.19
293.449	406.19
293.68	395.19
293.91	398.19
294.141	366.19
294.372	370.19
294.603	380.19
294.833	385.19
295.064	380.19
295.295	382.19
295.525	397.19
295.756	395.19
295.987	382.19
296.217	393.19
296.448	410.19
296.679	386.19
296.909	386.19
297.14	391.19
297.37	399.19
297.601	394.19
297.831	386.19
298.062	407.19
298.292	382.19
298.523	405.19
298.753	406.19
298.984	400.19
299.214	406.19
299.445	395.19
299.675	426.19
299.905	390.19
300.136	406.19
300.366	411.19
300.597	427.19
300.827	415.19
301.057	410.19
301.288	402.19
301.518	414.19
301.748	421.19
301.979	426.19
302.209	433.19
302.439	427.19
302.669	428.19
302.9	417.19
303.13	440.19
303.36	414.19
303.59	443.19
303.82	435.19
304.051	438.19
304.281	422.19
304.511	416.19
304.741	456.19
304.971	431.19
305.201	458.19
305.431	441.19
305.661	453.19
305.891	444.19
306.121	465.19
306.352	466.19
306.582	457.19
306.812	444.19
307.042	449.19
307.272	448.19
307.502	451.19
307.731	461.19
307.961	471.19
308.191	465.19
308.421	462.19
308.651	456.19
308.881	476.19
309.111	477.19
309.341	492.19
309.571	482.19
309.8	470.19
310.03	490.19
310.26	513.19
310.49	517.19
310.72	491.19
310.949	493.19
311.179	487.19
311.409	512.19
311.639	504.19
311.868	520.19
312.098	523.19
312.328	535.19
312.557	513.19
312.787	544.19
313.017	582.19
313.246	558.19
313.476	570.19
313.706	556.19
313.935	592.19
314.165	572.19
314.394	580.19
314.624	583.19
314.853	599.19
315.083	590.19
315.312	603.19
315.542	617.19
315.771	621.19
316.001	599.19
316.23	614.19
316.46	597.19
316.689	614.19
316.919	635.19
317.148	654.19
317.377	645.19
317.607	652.19
317.836	648.19
318.065	666.19
318.295	672.19
318.524	687.19
318.753	694.19
318.983	687.19
319.212	680.19
319.441	693.19
319.67	721.19
319.9	733.19
320.129	747.19
320.358	729.19
320.587	743.19
320.816	734.19
321.046	745.19
321.275	786.19
321.504	758.19
321.733	793.19
321.962	804.19
322.191	799.19
322.42	769.19
322.649	816.19
322.878	840.19
323.108	834.19
323.337	846.19
323.566	867.19
323.795	853.19
324.024	856.19
324.253	869.19
324.482	871.19
324.71	869.19
324.939	907.19
325.168	926.19
325.397	900.19
325.626	916.19
325.855	935.19
326.084	927.19
326.313	927.19
326.542	939.19
326.77	971.19
326.999	952.19
327.228	959.19
327.457	990.19
327.686	1001.19
327.914	984.19
328.143	967.19
328.372	992.19
328.6	1030.19
328.829	1012.19
329.058	996.19
329.287	1040.19
329.515	1019.19
329.744	1016.19
329.972	1081.19
330.201	1056.19
330.43	1065.19
330.658	1061.19
330.887	1084.19
331.115	1079.19
331.344	1090.19
331.572	1095.19
331.801	1078.19
332.03	1117.19
332.258	1127.19
332.486	1125.19
332.715	1149.19
332.943	1110.19
333.172	1122.19
333.4	1129.19
333.629	1122.19
333.857	1186.19
334.085	1157.19
334.314	1189.19
334.542	1159.19
334.771	1186.19
334.999	1192.19
335.227	1223.19
335.455	1229.19
335.684	1219.19
335.912	1214.19
336.14	1215.19
336.369	1232.19
336.597	1251.19
336.825	1249.19
337.053	1238.19
337.281	1239.19
337.51	1227.19
337.738	1245.19
337.966	1215.19
338.194	1242.19
338.422	1260.19
338.65	1206.19
338.878	1210.19
339.106	1224.19
339.334	1240.19
339.562	1221.19
339.79	1190.19
340.018	1169.19
340.246	1196.19
340.474	1222.19
340.702	1200.19
340.93	1216.19
341.158	1214.19
341.386	1215.19
341.614	1221.19
341.842	1229.19
342.07	1230.19
342.298	1235.19
342.526	1222.19
342.754	1232.19
342.981	1196.19
343.209	1233.19
343.437	1254.19
343.665	1241.19
343.893	1284.19
344.12	1240.19
344.348	1252.19
344.576	1269.19
344.804	1274.19
345.031	1249.19
345.259	1263.19
345.487	1253.19
345.714	1242.19
345.942	1251.19
346.17	1197.19
346.397	1242.19
346.625	1243.19
346.853	1193.19
347.08	1225.19
347.308	1229.19
347.535	1230.19
347.763	1200.19
347.99	1199.19
348.218	1207.19
348.445	1236.19
348.673	1215.19
348.9	1198.19
349.128	1238.19
349.355	1193.19
349.583	1225.19
349.81	1190.19
350.037	1178.19
350.265	1197.19
350.492	1214.19
350.72	1207.19
350.947	1159.19
351.174	1169.19
351.402	1226.19
351.629	1212.19
351.856	1182.19
352.083	1184.19
352.311	1177.19
352.538	1184.19
352.765	1170.19
352.992	1144.19
353.22	1142.19
353.447	1160.19
353.674	1168.19
353.901	1134.19
354.128	1135.19
354.355	1159.19
354.583	1154.19
354.81	1147.19
355.037	1183.19
355.264	1172.19
355.491	1158.19
355.718	1132.19
355.945	1159.19
356.172	1152.19
356.399	1152.19
356.626	1198.19
356.853	1164.19
357.08	1186.19
357.307	1162.19
357.534	1176.19
357.761	1169.19
357.988	1150.19
358.215	1141.19
358.441	1146.19
358.668	1143.19
358.895	1119.19
359.122	1144.19
359.349	1162.19
359.576	1136.19
359.802	1148.19
360.029	1146.19
360.256	1125.19
360.483	1121.19
360.709	1112.19
360.936	1159.19
361.163	1150.19
361.39	1143.19
361.616	1129.19
361.843	1147.19
362.07	1174.19
362.296	1169.19
362.523	1126.19
362.749	1123.19
362.976	1152.19
363.203	1132.19
363.429	1135.19
363.656	1118.19
363.882	1162.19
364.109	1144.19
364.335	1132.19
364.562	1124.19
364.788	1137.19
365.015	1130.19
365.241	1132.19
365.468	1125.19
365.694	1125.19
365.92	1114.19
366.147	1105.19
366.373	1094.19
366.599	1140.19
366.826	1113.19
367.052	1112.19
367.278	1144.19
367.505	1140.19
367.731	1160.19
367.957	1128.19
368.184	1131.19
368.41	1118.19
368.636	1122.19
368.862	1136.19
369.089	1142.19
369.315	1142.19
369.541	1114.19
369.767	1108.19
369.993	1083.19
370.219	1080.19
370.445	1118.19
370.672	1096.19
370.898	1110.19
371.124	1096.19
371.35	1125.19
371.576	1143.19
371.802	1102.19
372.028	1122.19
372.254	1088.19
372.48	1126.19
372.706	1128.19
372.932	1098.19
373.158	1102.19
373.384	1096.19
373.61	1104.19
373.835	1098.19
374.061	1081.19
374.287	1107.19
374.513	1095.19
374.739	1110.19
374.965	1078.19
375.191	1098.19
375.416	1091.19
375.642	1072.19
375.868	1090.19
376.094	1071.19
376.319	1074.19
376.545	1076.19
376.771	1078.19
376.997	1051.19
377.222	1046.19
377.448	1039.19
377.674	1052.19
377.899	1045.19
378.125	1065.19
378.35	1023.19
378.576	1022.19
378.802	1028.19
379.027	1034.19
379.253	1037.19
379.478	1045.19
379.704	1013.19
379.929	1012.19
380.155	1016.19
380.38	1040.19
380.606	1018.19
380.831	1052.19
381.057	1015.19
381.282	1015.19
381.507	998.19
381.733	996.19
381.958	1014.19
382.184	1012.19
382.409	1011.19
382.634	1018.19
382.86	1019.19
383.085	988.19
383.31	1042.19
383.535	1015.19
383.761	1023.19
383.986	1033.19
384.211	1038.19
384.436	1031.19
384.662	1012.19
384.887	1027.19
385.112	1033.19
385.337	1082.19
385.562	1075.19
385.787	1043.19
386.013	1050.19
386.238	1083.19
386.463	1047.19
386.688	1041.19
386.913	1084.19
387.138	1070.19
387.363	1048.19
387.588	1051.19
387.813	1068.19
388.038	1015.19
388.263	1060.19
388.488	1079.19
388.713	1082.19
388.938	1069.19
389.163	1071.19
389.387	1051.19
389.612	1041.19
389.837	1038.19
390.062	1063.19
390.287	1057.19
390.512	1061.19
390.736	1081.19
390.961	1077.19
391.186	1064.19
391.411	1094.19
391.636	1075.19
391.86	1089.19
392.085	1063.19
392.31	1078.19
392.534	1082.19
392.759	1099.19
392.984	1095.19
393.208	1106.19
393.433	1094.19
393.658	1072.19
393.882	1060.19
394.107	1056.19
394.331	1096.19
394.556	1056.19
394.78	1069.19
395.005	1090.19
395.229	1068.19
395.454	1094.19
395.678	1074.19
395.903	1109.19
396.127	1112.19
396.352	1090.19
396.576	1105.19
396.801	1111.19
397.025	1103.19
397.249	1102.19
397.474	1153.19
397.698	1102.19
397.922	1128.19
398.147	1103.19
398.371	1126.19
398.595	1157.19
398.82	1176.19
399.044	1187.19
399.268	1179.19
399.492	1229.19
399.717	1225.19
399.941	1258.19
400.165	1251.19
400.389	1263.19
400.613	1253.19
400.837	1228.19
401.062	1175.19
401.286	1232.19
401.51	1209.19
401.734	1218.19
401.958	1188.19
402.182	1184.19
402.406	1214.19
402.63	1218.19
402.854	1190.19
403.078	1189.19
403.302	1188.19
403.526	1184.19
403.75	1233.19
403.974	1220.19
404.198	1221.19
404.422	1254.19
404.645	1250.19
404.869	1229.19
405.093	1311.19
405.317	1247.19
405.541	1280.19
405.765	1261.19
405.988	1266.19
406.212	1300.19
406.436	1286.19
406.66	1292.19
406.883	1266.19
407.107	1332.19
407.331	1305.19
407.555	1336.19
407.778	1313.19
408.002	1341.19
408.226	1321.19
408.449	1358.19
408.673	1348.19
408.896	1322.19
409.12	1355.19
409.344	1354.19
409.567	1272.19
409.791	1350.19
410.014	1308.19
410.238	1318.19
410.461	1303.19
410.685	1320.19
410.908	1328.19
411.132	1318.19
411.355	1270.19
411.578	1314.19
411.802	1310.19
412.025	1282.19
412.249	1310.19
412.472	1332.19
412.695	1346.19
412.919	1317.19
413.142	1289.19
413.365	1262.19
413.589	1302.19
413.812	1288.19
414.035	1297.19
414.258	1308.19
414.482	1322.19
414.705	1308.19
414.928	1339.19
415.151	1322.19
415.374	1295.19
415.597	1308.19
415.821	1292.19
416.044	1318.19
416.267	1261.19
416.49	1341.19
416.713	1292.19
416.936	1315.19
417.159	1273.19
417.382	1302.19
417.605	1290.19
417.828	1298.19
418.051	1275.19
418.274	1280.19
418.497	1271.19
418.72	1294.19
418.943	1259.19
419.166	1356.19
419.389	1438.19
419.611	1412.19
419.834	1407.19
420.057	1342.19
420.28	1316.19
420.503	1266.19
420.726	1303.19
420.948	1295.19
421.171	1285.19
421.394	1324.19
421.617	1309.19
421.839	1338.19
422.062	1335.19
422.285	1325.19
422.507	1346.19
422.73	1332.19
422.953	1318.19
423.175	1363.19
423.398	1351.19
423.621	1344.19
423.843	1340.19
424.066	1374.19
424.288	1356.19
424.511	1328.19
424.733	1354.19
424.956	1367.19
425.178	1366.19
425.401	1371.19
425.623	1389.19
425.846	1314.19
426.068	1338.19
426.291	1345.19
426.513	1388.19
426.735	1346.19
426.958	1359.19
427.18	1377.19
427.402	1359.19
427.625	1396.19
427.847	1354.19
428.069	1350.19
428.292	1386.19
428.514	1326.19
428.736	1389.19
428.958	1405.19
429.181	1391.19
429.403	1355.19
429.625	1355.19
429.847	1370.19
430.069	1389.19
430.292	1365.19
430.514	1405.19
430.736	1383.19
430.958	1396.19
431.18	1363.19
431.402	1404.19
431.624	1354.19
431.846	1349.19
432.068	1375.19
432.29	1398.19
432.512	1359.19
432.734	1380.19
432.956	1399.19
433.178	1408.19
433.4	1390.19
433.622	1414.19
433.844	1423.19
434.066	1396.19
434.287	1378.19
434.509	1388.19
434.731	1394.19
434.953	1413.19
435.175	1395.19
435.397	1468.19
435.618	1404.19
435.84	1395.19
436.062	1430.19
436.284	1396.19
436.505	1387.19
436.727	1399.19
436.949	1448.19
437.17	1417.19
437.392	1387.19
437.614	1398.19
437.835	1322.19
438.057	1406.19
438.278	1365.19
438.5	1370.19
438.721	1383.19
438.943	1418.19
439.165	1380.19
439.386	1368.19
439.608	1391.19
439.829	1413.19
440.05	1413.19
440.272	1406.19
440.493	1398.19
440.715	1404.19
440.936	1422.19
441.158	1419.19
441.379	1398.19
441.6	1402.19
441.822	1438.19
442.043	1429.19
442.264	1386.19
442.486	1400.19
442.707	1406.19
442.928	1406.19
443.149	1432.19
443.371	1444.19
443.592	1452.19
443.813	1410.19
444.034	1418.19
444.255	1436.19
444.476	1425.19
444.698	1416.19
444.919	1450.19
445.14	1521.19
445.361	1453.19
445.582	1463.19
445.803	1435.19
446.024	1426.19
446.245	1435.19
446.466	1414.19
446.687	1396.19
446.908	1447.19
447.129	1370.19
447.35	1373.19
447.571	1426.19
447.792	1337.19
448.013	1374.19
448.234	1351.19
448.455	1332.19
448.675	1344.19
448.896	1354.19
449.117	1325.19
449.338	1323.19
449.559	1323.19
449.779	1313.19
450	1306.19
450.221	1336.19
450.442	1343.19
450.662	1303.19
450.883	1346.19
451.104	1310.19
451.324	1302.19
451.545	1302.19
451.766	1314.19
451.986	1310.19
452.207	1303.19
452.428	1284.19
452.648	1280.19
452.869	1271.19
453.089	1275.19
453.31	1300.19
453.53	1257.19
453.751	1298.19
453.971	1256.19
454.192	1298.19
454.412	1286.19
454.633	1259.19
454.853	1274.19
455.073	1235.19
455.294	1245.19
455.514	1278.19
455.734	1276.19
455.955	1279.19
456.175	1247.19
456.395	1245.19
456.616	1262.19
456.836	1306.19
457.056	1276.19
457.276	1244.19
457.497	1323.19
457.717	1276.19
457.937	1286.19
458.157	1274.19
458.377	1260.19
458.598	1287.19
458.818	1290.19
459.038	1316.19
459.258	1324.19
459.478	1338.19
459.698	1348.19
459.918	1386.19
460.138	1361.19
460.358	1416.19
460.578	1381.19
460.798	1430.19
461.018	1472.19
461.238	1379.19
461.458	1413.19
461.678	1421.19
461.898	1405.19
462.118	1445.19
462.338	1458.19
462.558	1494.19
462.777	1474.19
462.997	1533.19
463.217	1482.19
463.437	1537.19
463.657	1493.19
463.876	1488.19
464.096	1513.19
464.316	1472.19
464.536	1467.19
464.755	1473.19
464.975	1467.19
465.195	1436.19
465.414	1448.19
465.634	1407.19
465.854	1448.19
466.073	1413.19
466.293	1389.19
466.512	1387.19
466.732	1388.19
466.951	1386.19
467.171	1402.19
467.391	1368.19
467.61	1373.19
467.829	1390.19
468.049	1394.19
468.268	1377.19
468.488	1376.19
468.707	1340.19
468.927	1362.19
469.146	1343.19
469.365	1436.19
469.585	1366.19
469.804	1398.19
470.023	1412.19
470.243	1380.19
470.462	1402.19
470.681	1370.19
470.901	1408.19
471.12	1407.19
471.339	1421.19
471.558	1414.19
471.777	1397.19
471.997	1406.19
472.216	1390.19
472.435	1408.19
472.654	1402.19
472.873	1419.19
473.092	1423.19
473.311	1425.19
473.53	1443.19
473.749	1431.19
473.968	1417.19
474.187	1450.19
474.406	1402.19
474.625	1411.19
474.844	1455.19
475.063	1433.19
475.282	1474.19
475.501	1443.19
475.72	1470.19
475.939	1504.19
476.158	1518.19
476.377	1482.19
476.596	1484.19
476.814	1502.19
477.033	1479.19
477.252	1519.19
477.471	1523.19
477.69	1550.19
477.908	1594.19
478.127	1612.19
478.346	1598.19
478.564	1643.19
478.783	1618.19
479.002	1644.19
479.22	1655.19
479.439	1620.19
479.658	1658.19
479.876	1640.19
480.095	1642.19
480.313	1652.19
480.532	1664.19
480.751	1646.19
480.969	1672.19
481.188	1660.19
481.406	1662.19
481.624	1650.19
481.843	1670.19
482.061	1667.19
482.28	1664.19
482.498	1708.19
482.717	1706.19
482.935	1701.19
483.153	1702.19
483.372	1765.19
483.59	1761.19
483.808	1709.19
484.027	1718.19
484.245	1755.19
484.463	1705.19
484.681	1747.19
484.9	1749.19
485.118	1747.19
485.336	1766.19
485.554	1766.19
485.772	1762.19
485.99	1736.19
486.209	1714.19
486.427	1735.19
486.645	1789.19
486.863	1754.19
487.081	1757.19
487.299	1749.19
487.517	1781.19
487.735	1787.19
487.953	1808.19
488.171	1806.19
488.389	1764.19
488.607	1781.19
488.825	1783.19
489.043	1765.19
489.261	1774.19
489.479	1772.19
489.696	1766.19
489.914	1811.19
490.132	1804.19
490.35	1784.19
490.568	1803.19
490.786	1828.19
491.003	1810.19
491.221	1872.19
491.439	1842.19
491.657	1832.19
491.874	1853.19
