Data from Ni(NO3)2@0.125M.TitratingCurve.Agarose3%dH2O.NegLispCup.LampEnergy10.LIBS07252019_HRD10591_18-09-15-567.txt Node
Date: Thu Jul 25 18:09:15 EDT 2019
User: cochatt
Spectrometer: HR+D1059
Trigger mode: 1
Integration Time (sec): 1.000000E-1
Scans to average: 1
Electric dark correction enabled: true
Nonlinearity correction enabled: false
Boxcar width: 0
XAxis mode: Wavelengths
Number of Pixels in Spectrum: 2048
>>>>>Begin Spectral Data<<<<<
223.165	-14.75
223.4	-14.75
223.635	-14.75
223.869	-4.75
224.104	-29.75
224.338	-26.75
224.573	-16.75
224.808	-9.75
225.042	-9.75
225.277	-7.75
225.511	-10.75
225.746	13.25
225.98	30.25
226.215	13.25
226.449	5.25
226.683	16.25
226.918	31.25
227.152	21.25
227.387	33.25
227.621	27.25
227.856	43.25
228.09	33.25
228.324	39.25
228.559	41.25
228.793	68.25
229.027	104.25
229.262	107.25
229.496	94.25
229.73	109.25
229.964	119.25
230.199	114.25
230.433	119.25
230.667	115.25
230.901	110.25
231.136	123.25
231.37	121.25
231.604	128.25
231.838	125.25
232.072	127.25
232.306	147.25
232.541	122.25
232.775	121.25
233.009	119.25
233.243	129.25
233.477	142.25
233.711	143.25
233.945	129.25
234.179	129.25
234.413	133.25
234.647	138.25
234.881	129.25
235.115	130.25
235.349	149.25
235.583	138.25
235.817	128.25
236.051	125.25
236.285	136.25
236.519	143.25
236.753	131.25
236.987	138.25
237.221	135.25
237.455	150.25
237.689	142.25
237.922	162.25
238.156	139.25
238.39	137.25
238.624	152.25
238.858	157.25
239.091	159.25
239.325	148.25
239.559	154.25
239.793	157.25
240.027	151.25
240.26	153.25
240.494	161.25
240.728	143.25
240.961	156.25
241.195	162.25
241.429	183.25
241.662	155.25
241.896	170.25
242.13	161.25
242.363	173.25
242.597	163.25
242.83	171.25
243.064	171.25
243.298	176.25
243.531	173.25
243.765	170.25
243.998	182.25
244.232	187.25
244.465	171.25
244.699	191.25
244.932	200.25
245.166	196.25
245.399	175.25
245.633	207.25
245.866	199.25
246.099	211.25
246.333	198.25
246.566	202.25
246.8	177.25
247.033	200.25
247.266	225.25
247.5	205.25
247.733	203.25
247.966	201.25
248.2	204.25
248.433	190.25
248.666	216.25
248.899	212.25
249.133	197.25
249.366	220.25
249.599	213.25
249.832	241.25
250.066	245.25
250.299	215.25
250.532	220.25
250.765	231.25
250.998	204.25
251.231	213.25
251.465	232.25
251.698	252.25
251.931	232.25
252.164	240.25
252.397	241.25
252.63	233.25
252.863	235.25
253.096	225.25
253.329	253.25
253.562	241.25
253.795	239.25
254.028	259.25
254.261	248.25
254.494	256.25
254.727	213.25
254.96	227.25
255.193	251.25
255.426	248.25
255.659	261.25
255.892	267.25
256.124	262.25
256.357	259.25
256.59	240.25
256.823	258.25
257.056	255.25
257.289	261.25
257.521	256.25
257.754	254.25
257.987	273.25
258.22	249.25
258.452	260.25
258.685	273.25
258.918	268.25
259.151	271.25
259.383	261.25
259.616	263.25
259.849	287.25
260.081	263.25
260.314	262.25
260.547	278.25
260.779	270.25
261.012	279.25
261.244	280.25
261.477	280.25
261.71	276.25
261.942	277.25
262.175	286.25
262.407	298.25
262.64	280.25
262.872	297.25
263.105	277.25
263.337	289.25
263.57	290.25
263.802	288.25
264.035	293.25
264.267	303.25
264.499	307.25
264.732	317.25
264.964	296.25
265.197	297.25
265.429	307.25
265.661	313.25
265.894	296.25
266.126	329.25
266.358	315.25
266.591	321.25
266.823	324.25
267.055	317.25
267.287	305.25
267.52	317.25
267.752	330.25
267.984	313.25
268.216	325.25
268.448	336.25
268.681	324.25
268.913	327.25
269.145	314.25
269.377	329.25
269.609	329.25
269.841	316.25
270.073	309.25
270.306	338.25
270.538	337.25
270.77	346.25
271.002	314.25
271.234	336.25
271.466	334.25
271.698	358.25
271.93	311.25
272.162	336.25
272.394	352.25
272.626	323.25
272.858	336.25
273.09	344.25
273.322	368.25
273.553	315.25
273.785	332.25
274.017	342.25
274.249	337.25
274.481	353.25
274.713	350.25
274.945	346.25
275.176	375.25
275.408	363.25
275.64	365.25
275.872	355.25
276.104	365.25
276.335	373.25
276.567	371.25
276.799	375.25
277.031	361.25
277.262	366.25
277.494	351.25
277.726	381.25
277.957	370.25
278.189	365.25
278.421	403.25
278.652	390.25
278.884	371.25
279.115	397.25
279.347	403.25
279.579	377.25
279.81	361.25
280.042	391.25
280.273	402.25
280.505	397.25
280.736	376.25
280.968	390.25
281.199	406.25
281.431	415.25
281.662	390.25
281.894	402.25
282.125	377.25
282.356	411.25
282.588	431.25
282.819	408.25
283.051	381.25
283.282	419.25
283.513	418.25
283.745	407.25
283.976	429.25
284.207	425.25
284.439	406.25
284.67	405.25
284.901	425.25
285.132	423.25
285.364	414.25
285.595	426.25
285.826	410.25
286.057	408.25
286.288	439.25
286.52	422.25
286.751	417.25
286.982	441.25
287.213	429.25
287.444	429.25
287.675	434.25
287.906	452.25
288.138	442.25
288.369	447.25
288.6	443.25
288.831	441.25
289.062	454.25
289.293	455.25
289.524	422.25
289.755	444.25
289.986	458.25
290.217	431.25
290.448	446.25
290.679	450.25
290.91	452.25
291.141	446.25
291.371	442.25
291.602	464.25
291.833	473.25
292.064	479.25
292.295	461.25
292.526	445.25
292.757	446.25
292.987	448.25
293.218	445.25
293.449	470.25
293.68	475.25
293.91	469.25
294.141	443.25
294.372	465.25
294.603	456.25
294.833	464.25
295.064	484.25
295.295	450.25
295.525	464.25
295.756	472.25
295.987	461.25
296.217	465.25
296.448	467.25
296.679	478.25
296.909	468.25
297.14	469.25
297.37	496.25
297.601	505.25
297.831	478.25
298.062	495.25
298.292	519.25
298.523	509.25
298.753	507.25
298.984	495.25
299.214	502.25
299.445	494.25
299.675	491.25
299.905	513.25
300.136	481.25
300.366	491.25
300.597	515.25
300.827	523.25
301.057	537.25
301.288	529.25
301.518	538.25
301.748	536.25
301.979	525.25
302.209	525.25
302.439	527.25
302.669	523.25
302.9	522.25
303.13	529.25
303.36	507.25
303.59	513.25
303.82	519.25
304.051	516.25
304.281	502.25
304.511	522.25
304.741	517.25
304.971	531.25
305.201	514.25
305.431	522.25
305.661	523.25
305.891	497.25
306.121	511.25
306.352	487.25
306.582	496.25
306.812	507.25
307.042	511.25
307.272	522.25
307.502	498.25
307.731	520.25
307.961	539.25
308.191	501.25
308.421	515.25
308.651	523.25
308.881	505.25
309.111	497.25
309.341	489.25
309.571	488.25
309.8	513.25
310.03	515.25
310.26	509.25
310.49	504.25
310.72	514.25
310.949	521.25
311.179	487.25
311.409	543.25
311.639	510.25
311.868	511.25
312.098	534.25
312.328	525.25
312.557	553.25
312.787	529.25
313.017	553.25
313.246	542.25
313.476	542.25
313.706	551.25
313.935	554.25
314.165	572.25
314.394	541.25
314.624	545.25
314.853	533.25
315.083	535.25
315.312	554.25
315.542	569.25
315.771	559.25
316.001	541.25
316.23	539.25
316.46	565.25
316.689	539.25
316.919	533.25
317.148	526.25
317.377	530.25
317.607	537.25
317.836	520.25
318.065	558.25
318.295	546.25
318.524	516.25
318.753	523.25
318.983	548.25
319.212	555.25
319.441	545.25
319.67	549.25
319.9	535.25
320.129	530.25
320.358	552.25
320.587	538.25
320.816	511.25
321.046	544.25
321.275	552.25
321.504	549.25
321.733	533.25
321.962	534.25
322.191	555.25
322.42	551.25
322.649	542.25
322.878	512.25
323.108	553.25
323.337	549.25
323.566	562.25
323.795	559.25
324.024	572.25
324.253	571.25
324.482	585.25
324.71	569.25
324.939	547.25
325.168	570.25
325.397	554.25
325.626	576.25
325.855	587.25
326.084	593.25
326.313	631.25
326.542	591.25
326.77	586.25
326.999	599.25
327.228	603.25
327.457	594.25
327.686	587.25
327.914	602.25
328.143	597.25
328.372	610.25
328.6	590.25
328.829	577.25
329.058	576.25
329.287	610.25
329.515	611.25
329.744	602.25
329.972	608.25
330.201	624.25
330.43	613.25
330.658	632.25
330.887	624.25
331.115	642.25
331.344	634.25
331.572	637.25
331.801	634.25
332.03	665.25
332.258	680.25
332.486	713.25
332.715	722.25
332.943	738.25
333.172	800.25
333.4	827.25
333.629	850.25
333.857	857.25
334.085	825.25
334.314	790.25
334.542	793.25
334.771	758.25
334.999	744.25
335.227	760.25
335.455	767.25
335.684	744.25
335.912	745.25
336.14	754.25
336.369	736.25
336.597	735.25
336.825	730.25
337.053	719.25
337.281	724.25
337.51	678.25
337.738	701.25
337.966	687.25
338.194	683.25
338.422	671.25
338.65	657.25
338.878	663.25
339.106	671.25
339.334	661.25
339.562	655.25
339.79	659.25
340.018	642.25
340.246	623.25
340.474	635.25
340.702	635.25
340.93	643.25
341.158	638.25
341.386	624.25
341.614	645.25
341.842	634.25
342.07	623.25
342.298	606.25
342.526	637.25
342.754	624.25
342.981	619.25
343.209	631.25
343.437	688.25
343.665	732.25
343.893	785.25
344.12	833.25
344.348	737.25
344.576	692.25
344.804	670.25
345.031	650.25
345.259	657.25
345.487	661.25
345.714	627.25
345.942	645.25
346.17	642.25
346.397	612.25
346.625	633.25
346.853	601.25
347.08	603.25
347.308	630.25
347.535	624.25
347.763	644.25
347.99	630.25
348.218	617.25
348.445	618.25
348.673	638.25
348.9	628.25
349.128	613.25
349.355	605.25
349.583	617.25
349.81	613.25
350.037	600.25
350.265	603.25
350.492	581.25
350.72	593.25
350.947	585.25
351.174	590.25
351.402	605.25
351.629	622.25
351.856	588.25
352.083	581.25
352.311	577.25
352.538	583.25
352.765	604.25
352.992	590.25
353.22	578.25
353.447	592.25
353.674	562.25
353.901	591.25
354.128	607.25
354.355	558.25
354.583	591.25
354.81	578.25
355.037	615.25
355.264	583.25
355.491	603.25
355.718	592.25
355.945	584.25
356.172	605.25
356.399	612.25
356.626	594.25
356.853	603.25
357.08	603.25
357.307	607.25
357.534	591.25
357.761	614.25
357.988	594.25
358.215	615.25
358.441	600.25
358.668	592.25
358.895	573.25
359.122	586.25
359.349	578.25
359.576	606.25
359.802	601.25
360.029	598.25
360.256	579.25
360.483	610.25
360.709	595.25
360.936	596.25
361.163	596.25
361.39	587.25
361.616	583.25
361.843	597.25
362.07	578.25
362.296	603.25
362.523	567.25
362.749	602.25
362.976	569.25
363.203	600.25
363.429	591.25
363.656	591.25
363.882	586.25
364.109	603.25
364.335	599.25
364.562	606.25
364.788	610.25
365.015	592.25
365.241	557.25
365.468	586.25
365.694	579.25
365.92	561.25
366.147	606.25
366.373	594.25
366.599	598.25
366.826	566.25
367.052	597.25
367.278	604.25
367.505	594.25
367.731	595.25
367.957	578.25
368.184	569.25
368.41	610.25
368.636	592.25
368.862	608.25
369.089	632.25
369.315	606.25
369.541	606.25
369.767	609.25
369.993	615.25
370.219	589.25
370.445	622.25
370.672	641.25
370.898	634.25
371.124	646.25
371.35	639.25
371.576	643.25
371.802	637.25
372.028	656.25
372.254	625.25
372.48	658.25
372.706	653.25
372.932	640.25
373.158	666.25
373.384	635.25
373.61	654.25
373.835	651.25
374.061	645.25
374.287	638.25
374.513	652.25
374.739	685.25
374.965	713.25
375.191	736.25
375.416	699.25
375.642	685.25
375.868	705.25
376.094	675.25
376.319	663.25
376.545	651.25
376.771	675.25
376.997	629.25
377.222	635.25
377.448	633.25
377.674	663.25
377.899	619.25
378.125	639.25
378.35	639.25
378.576	633.25
378.802	628.25
379.027	618.25
379.253	647.25
379.478	632.25
379.704	634.25
379.929	647.25
380.155	610.25
380.38	644.25
380.606	621.25
380.831	639.25
381.057	670.25
381.282	643.25
381.507	656.25
381.733	667.25
381.958	667.25
382.184	667.25
382.409	664.25
382.634	689.25
382.86	664.25
383.085	700.25
383.31	695.25
383.535	696.25
383.761	713.25
383.986	698.25
384.211	734.25
384.436	775.25
384.662	759.25
384.887	766.25
385.112	812.25
385.337	778.25
385.562	773.25
385.787	772.25
386.013	811.25
386.238	771.25
386.463	797.25
386.688	776.25
386.913	785.25
387.138	745.25
387.363	728.25
387.588	758.25
387.813	764.25
388.038	731.25
388.263	755.25
388.488	750.25
388.713	757.25
388.938	761.25
389.163	758.25
389.387	768.25
389.612	739.25
389.837	769.25
390.062	741.25
390.287	725.25
390.512	757.25
390.736	767.25
390.961	782.25
391.186	770.25
391.411	810.25
391.636	817.25
391.86	843.25
392.085	881.25
392.31	891.25
392.534	854.25
392.759	825.25
392.984	807.25
393.208	804.25
393.433	789.25
393.658	812.25
393.882	817.25
394.107	842.25
394.331	828.25
394.556	838.25
394.78	840.25
395.005	825.25
395.229	846.25
395.454	876.25
395.678	859.25
395.903	878.25
396.127	845.25
396.352	811.25
396.576	798.25
396.801	796.25
397.025	805.25
397.249	846.25
397.474	844.25
397.698	860.25
397.922	834.25
398.147	855.25
398.371	903.25
398.595	891.25
398.82	946.25
399.044	1009.25
399.268	1114.25
399.492	1323.25
399.717	1525.25
399.941	1498.25
400.165	1301.25
400.389	1161.25
400.613	1054.25
400.837	1025.25
401.062	974.25
401.286	955.25
401.51	963.25
401.734	975.25
401.958	958.25
402.182	961.25
402.406	1019.25
402.63	1012.25
402.854	1019.25
403.078	1045.25
403.302	1058.25
403.526	1091.25
403.75	1135.25
403.974	1146.25
404.198	1143.25
404.422	1162.25
404.645	1106.25
404.869	1109.25
405.093	1129.25
405.317	1069.25
405.541	1090.25
405.765	1050.25
405.988	1069.25
406.212	1049.25
406.436	1052.25
406.66	1113.25
406.883	1119.25
407.107	1168.25
407.331	1258.25
407.555	1283.25
407.778	1256.25
408.002	1233.25
408.226	1203.25
408.449	1191.25
408.673	1128.25
408.896	1135.25
409.12	1105.25
409.344	1121.25
409.567	1116.25
409.791	1092.25
410.014	1133.25
410.238	1089.25
410.461	1085.25
410.685	1083.25
410.908	1079.25
411.132	1057.25
411.355	992.25
411.578	1009.25
411.802	1011.25
412.025	1007.25
412.249	1024.25
412.472	1036.25
412.695	975.25
412.919	989.25
413.142	979.25
413.365	948.25
413.589	986.25
413.812	936.25
414.035	955.25
414.258	967.25
414.482	961.25
414.705	995.25
414.928	994.25
415.151	991.25
415.374	961.25
415.597	977.25
415.821	926.25
416.044	943.25
416.267	943.25
416.49	921.25
416.713	954.25
416.936	959.25
417.159	930.25
417.382	959.25
417.605	952.25
417.828	955.25
418.051	946.25
418.274	961.25
418.497	973.25
418.72	1013.25
418.943	1014.25
419.166	1081.25
419.389	1079.25
419.611	1109.25
419.834	1059.25
420.057	998.25
420.28	1001.25
420.503	977.25
420.726	960.25
420.948	953.25
421.171	960.25
421.394	963.25
421.617	967.25
421.839	963.25
422.062	989.25
422.285	972.25
422.507	984.25
422.73	1013.25
422.953	1006.25
423.175	1043.25
423.398	1069.25
423.621	1052.25
423.843	1077.25
424.066	1030.25
424.288	1041.25
424.511	1032.25
424.733	1048.25
424.956	977.25
425.178	983.25
425.401	986.25
425.623	969.25
425.846	937.25
426.068	952.25
426.291	929.25
426.513	922.25
426.735	937.25
426.958	897.25
427.18	871.25
427.402	866.25
427.625	913.25
427.847	876.25
428.069	866.25
428.292	880.25
428.514	859.25
428.736	845.25
428.958	861.25
429.181	835.25
429.403	826.25
429.625	868.25
429.847	803.25
430.069	825.25
430.292	850.25
430.514	840.25
430.736	846.25
430.958	847.25
431.18	829.25
431.402	864.25
431.624	855.25
431.846	866.25
432.068	869.25
432.29	890.25
432.512	856.25
432.734	859.25
432.956	865.25
433.178	863.25
433.4	887.25
433.622	889.25
433.844	905.25
434.066	897.25
434.287	882.25
434.509	925.25
434.731	935.25
434.953	979.25
435.175	985.25
435.397	964.25
435.618	950.25
435.84	907.25
436.062	885.25
436.284	866.25
436.505	857.25
436.727	867.25
436.949	836.25
437.17	832.25
437.392	865.25
437.614	868.25
437.835	805.25
438.057	821.25
438.278	822.25
438.5	827.25
438.721	837.25
438.943	857.25
439.165	853.25
439.386	853.25
439.608	872.25
439.829	882.25
440.05	870.25
440.272	881.25
440.493	887.25
440.715	901.25
440.936	924.25
441.158	917.25
441.379	941.25
441.6	970.25
441.822	1006.25
442.043	972.25
442.264	992.25
442.486	939.25
442.707	946.25
442.928	971.25
443.149	953.25
443.371	982.25
443.592	981.25
443.813	988.25
444.034	967.25
444.255	1048.25
444.476	1065.25
444.698	1128.25
444.919	1216.25
445.14	1282.25
445.361	1134.25
445.582	1026.25
445.803	945.25
446.024	913.25
446.245	910.25
446.466	913.25
446.687	872.25
446.908	893.25
447.129	849.25
447.35	852.25
447.571	825.25
447.792	808.25
448.013	851.25
448.234	813.25
448.455	809.25
448.675	788.25
448.896	794.25
449.117	777.25
449.338	779.25
449.559	804.25
449.779	800.25
450	781.25
450.221	796.25
450.442	805.25
450.662	801.25
450.883	835.25
451.104	854.25
451.324	833.25
451.545	808.25
451.766	825.25
451.986	823.25
452.207	793.25
452.428	797.25
452.648	792.25
452.869	805.25
453.089	778.25
453.31	806.25
453.53	784.25
453.751	784.25
453.971	783.25
454.192	778.25
454.412	785.25
454.633	747.25
454.853	767.25
455.073	744.25
455.294	757.25
455.514	749.25
455.734	753.25
455.955	756.25
456.175	753.25
456.395	741.25
456.616	739.25
456.836	732.25
457.056	745.25
457.276	721.25
457.497	729.25
457.717	705.25
457.937	750.25
458.157	737.25
458.377	752.25
458.598	783.25
458.818	798.25
459.038	837.25
459.258	835.25
459.478	874.25
459.698	878.25
459.918	915.25
460.138	946.25
460.358	1040.25
460.578	1027.25
460.798	1053.25
461.018	1035.25
461.238	1028.25
461.458	1008.25
461.678	1046.25
461.898	1047.25
462.118	1044.25
462.338	1110.25
462.558	1114.25
462.777	1154.25
462.997	1266.25
463.217	1418.25
463.437	1427.25
463.657	1269.25
463.876	1179.25
464.096	1187.25
464.316	1234.25
464.536	1217.25
464.755	1181.25
464.975	1121.25
465.195	1086.25
465.414	989.25
465.634	962.25
465.854	906.25
466.073	900.25
466.293	879.25
466.512	855.25
466.732	855.25
466.951	843.25
467.171	843.25
467.391	862.25
467.61	849.25
467.829	843.25
468.049	835.25
468.268	839.25
468.488	788.25
468.707	784.25
468.927	790.25
469.146	841.25
469.365	805.25
469.585	806.25
469.804	847.25
470.023	876.25
470.243	842.25
470.462	855.25
470.681	849.25
470.901	864.25
471.12	865.25
471.339	858.25
471.558	824.25
471.777	836.25
471.997	807.25
472.216	799.25
472.435	789.25
472.654	751.25
472.873	786.25
473.092	766.25
473.311	750.25
473.53	799.25
473.749	754.25
473.968	760.25
474.187	771.25
474.406	763.25
474.625	767.25
474.844	796.25
475.063	754.25
475.282	761.25
475.501	769.25
475.72	781.25
475.939	786.25
476.158	793.25
476.377	798.25
476.596	822.25
476.814	808.25
477.033	822.25
477.252	858.25
477.471	832.25
477.69	862.25
477.908	881.25
478.127	913.25
478.346	934.25
478.564	960.25
478.783	934.25
479.002	991.25
479.22	998.25
479.439	961.25
479.658	946.25
479.876	938.25
480.095	972.25
480.313	1009.25
480.532	1077.25
480.751	1033.25
480.969	1003.25
481.188	949.25
481.406	921.25
481.624	911.25
481.843	903.25
482.061	901.25
482.28	871.25
482.498	883.25
482.717	887.25
482.935	891.25
483.153	882.25
483.372	877.25
483.59	861.25
483.808	887.25
484.027	873.25
484.245	893.25
484.463	893.25
484.681	910.25
484.9	949.25
485.118	939.25
485.336	911.25
485.554	933.25
485.772	908.25
485.99	915.25
486.209	945.25
486.427	940.25
486.645	941.25
486.863	941.25
487.081	925.25
487.299	956.25
487.517	953.25
487.735	943.25
487.953	930.25
488.171	929.25
488.389	945.25
488.607	915.25
488.825	927.25
489.043	896.25
489.261	913.25
489.479	929.25
489.696	915.25
489.914	931.25
490.132	930.25
490.35	923.25
490.568	941.25
490.786	930.25
491.003	924.25
491.221	961.25
491.439	937.25
491.657	919.25
491.874	969.25
492.092	945.25
492.31	987.25
492.527	952.25
492.745	937.25
492.963	970.25
493.18	953.25
493.398	972.25
493.615	1001.25
493.833	980.25
494.05	967.25
494.268	983.25
494.485	969.25
494.703	990.25
494.92	992.25
495.138	1011.25
495.355	976.25
495.573	987.25
495.79	985.25
496.008	958.25
496.225	1005.25
496.442	1001.25
496.66	1019.25
496.877	1026.25
497.094	1059.25
497.312	1046.25
497.529	1089.25
497.746	1109.25
497.963	1153.25
498.181	1185.25
498.398	1241.25
498.615	1313.25
498.832	1385.25
499.049	1498.25
499.267	1649.25
499.484	1866.25
499.701	2006.25
499.918	2236.25
