Data from Ni(NO3)2Standard.Agarose3%.GreenCap.LampEnergy5.5.E.O_HRD10591_14-42-54-188.txt Node
Date: Mon Jul 22 14:42:54 EDT 2019
User: cochatt
Spectrometer: HR+D1059
Trigger mode: 1
Integration Time (sec): 1.000000E-1
Scans to average: 1
Electric dark correction enabled: true
Nonlinearity correction enabled: false
Boxcar width: 0
XAxis mode: Wavelengths
Number of Pixels in Spectrum: 2048
>>>>>Begin Spectral Data<<<<<
223.165	-14.12
223.4	-14.12
223.635	-14.12
223.869	-12.12
224.104	-17.12
224.338	-22.12
224.573	-16.12
224.808	-19.12
225.042	-5.12
225.277	1.88
225.511	11.88
225.746	5.88
225.98	14.88
226.215	-0.12
226.449	10.88
226.683	25.88
226.918	21.88
227.152	12.88
227.387	35.88
227.621	34.88
227.856	37.88
228.09	47.88
228.324	57.88
228.559	60.88
228.793	57.88
229.027	48.88
229.262	71.88
229.496	60.88
229.73	80.88
229.964	81.88
230.199	78.88
230.433	75.88
230.667	80.88
230.901	79.88
231.136	80.88
231.37	84.88
231.604	84.88
231.838	82.88
232.072	82.88
232.306	100.88
232.541	77.88
232.775	77.88
233.009	88.88
233.243	70.88
233.477	74.88
233.711	80.88
233.945	76.88
234.179	76.88
234.413	77.88
234.647	79.88
234.881	77.88
235.115	72.88
235.349	67.88
235.583	56.88
235.817	65.88
236.051	71.88
236.285	74.88
236.519	68.88
236.753	83.88
236.987	83.88
237.221	65.88
237.455	75.88
237.689	67.88
237.922	58.88
238.156	83.88
238.39	76.88
238.624	70.88
238.858	68.88
239.091	76.88
239.325	71.88
239.559	78.88
239.793	77.88
240.027	84.88
240.26	82.88
240.494	81.88
240.728	79.88
240.961	71.88
241.195	85.88
241.429	87.88
241.662	68.88
241.896	59.88
242.13	92.88
242.363	72.88
242.597	65.88
242.83	80.88
243.064	66.88
243.298	66.88
243.531	76.88
243.765	71.88
243.998	84.88
244.232	76.88
244.465	74.88
244.699	74.88
244.932	75.88
245.166	68.88
245.399	74.88
245.633	82.88
245.866	78.88
246.099	68.88
246.333	60.88
246.566	82.88
246.8	72.88
247.033	79.88
247.266	83.88
247.5	66.88
247.733	83.88
247.966	72.88
248.2	64.88
248.433	75.88
248.666	83.88
248.899	81.88
249.133	74.88
249.366	85.88
249.599	65.88
249.832	76.88
250.066	88.88
250.299	57.88
250.532	75.88
250.765	95.88
250.998	77.88
251.231	76.88
251.465	71.88
251.698	64.88
251.931	82.88
252.164	85.88
252.397	89.88
252.63	71.88
252.863	68.88
253.096	83.88
253.329	93.88
253.562	76.88
253.795	76.88
254.028	88.88
254.261	79.88
254.494	80.88
254.727	74.88
254.96	84.88
255.193	70.88
255.426	76.88
255.659	65.88
255.892	78.88
256.124	77.88
256.357	72.88
256.59	85.88
256.823	70.88
257.056	76.88
257.289	86.88
257.521	83.88
257.754	81.88
257.987	67.88
258.22	86.88
258.452	99.88
258.685	79.88
258.918	83.88
259.151	80.88
259.383	85.88
259.616	81.88
259.849	84.88
260.081	64.88
260.314	83.88
260.547	67.88
260.779	73.88
261.012	89.88
261.244	81.88
261.477	70.88
261.71	78.88
261.942	81.88
262.175	71.88
262.407	79.88
262.64	73.88
262.872	73.88
263.105	91.88
263.337	83.88
263.57	75.88
263.802	78.88
264.035	85.88
264.267	72.88
264.499	85.88
264.732	80.88
264.964	87.88
265.197	85.88
265.429	89.88
265.661	74.88
265.894	68.88
266.126	82.88
266.358	96.88
266.591	97.88
266.823	95.88
267.055	81.88
267.287	77.88
267.52	81.88
267.752	85.88
267.984	82.88
268.216	77.88
268.448	66.88
268.681	74.88
268.913	72.88
269.145	71.88
269.377	80.88
269.609	66.88
269.841	79.88
270.073	87.88
270.306	71.88
270.538	82.88
270.77	89.88
271.002	80.88
271.234	72.88
271.466	78.88
271.698	79.88
271.93	76.88
272.162	97.88
272.394	71.88
272.626	64.88
272.858	63.88
273.09	78.88
273.322	97.88
273.553	80.88
273.785	84.88
274.017	74.88
274.249	82.88
274.481	85.88
274.713	83.88
274.945	68.88
275.176	92.88
275.408	83.88
275.64	85.88
275.872	80.88
276.104	76.88
276.335	86.88
276.567	74.88
276.799	67.88
277.031	80.88
277.262	70.88
277.494	69.88
277.726	75.88
277.957	84.88
278.189	79.88
278.421	83.88
278.652	84.88
278.884	72.88
279.115	77.88
279.347	84.88
279.579	79.88
279.81	77.88
280.042	87.88
280.273	83.88
280.505	77.88
280.736	65.88
280.968	76.88
281.199	82.88
281.431	89.88
281.662	64.88
281.894	76.88
282.125	95.88
282.356	90.88
282.588	84.88
282.819	89.88
283.051	72.88
283.282	92.88
283.513	76.88
283.745	77.88
283.976	79.88
284.207	80.88
284.439	86.88
284.67	82.88
284.901	101.88
285.132	90.88
285.364	77.88
285.595	76.88
285.826	77.88
286.057	88.88
286.288	87.88
286.52	80.88
286.751	96.88
286.982	77.88
287.213	88.88
287.444	95.88
287.675	84.88
287.906	96.88
288.138	79.88
288.369	82.88
288.6	63.88
288.831	66.88
289.062	84.88
289.293	91.88
289.524	77.88
289.755	90.88
289.986	86.88
290.217	88.88
290.448	83.88
290.679	69.88
290.91	73.88
291.141	84.88
291.371	87.88
291.602	69.88
291.833	82.88
292.064	83.88
292.295	96.88
292.526	97.88
292.757	85.88
292.987	94.88
293.218	68.88
293.449	97.88
293.68	94.88
293.91	74.88
294.141	79.88
294.372	82.88
294.603	90.88
294.833	88.88
295.064	78.88
295.295	99.88
295.525	73.88
295.756	86.88
295.987	87.88
296.217	83.88
296.448	80.88
296.679	70.88
296.909	84.88
297.14	92.88
297.37	83.88
297.601	83.88
297.831	84.88
298.062	98.88
298.292	93.88
298.523	92.88
298.753	91.88
298.984	85.88
299.214	73.88
299.445	93.88
299.675	88.88
299.905	96.88
300.136	77.88
300.366	79.88
300.597	77.88
300.827	93.88
301.057	92.88
301.288	85.88
301.518	80.88
301.748	84.88
301.979	88.88
302.209	87.88
302.439	83.88
302.669	79.88
302.9	93.88
303.13	82.88
303.36	88.88
303.59	73.88
303.82	84.88
304.051	85.88
304.281	88.88
304.511	93.88
304.741	83.88
304.971	90.88
305.201	80.88
305.431	76.88
305.661	80.88
305.891	77.88
306.121	87.88
306.352	82.88
306.582	89.88
306.812	84.88
307.042	85.88
307.272	96.88
307.502	89.88
307.731	83.88
307.961	85.88
308.191	73.88
308.421	87.88
308.651	82.88
308.881	75.88
309.111	97.88
309.341	87.88
309.571	87.88
309.8	98.88
310.03	74.88
310.26	82.88
310.49	76.88
310.72	96.88
310.949	84.88
311.179	91.88
311.409	90.88
311.639	87.88
311.868	88.88
312.098	84.88
312.328	95.88
312.557	83.88
312.787	87.88
313.017	85.88
313.246	76.88
313.476	86.88
313.706	85.88
313.935	72.88
314.165	89.88
314.394	76.88
314.624	79.88
314.853	88.88
315.083	101.88
315.312	89.88
315.542	90.88
315.771	94.88
316.001	88.88
316.23	96.88
316.46	81.88
316.689	83.88
316.919	84.88
317.148	81.88
317.377	94.88
317.607	78.88
317.836	89.88
318.065	85.88
318.295	88.88
318.524	87.88
318.753	82.88
318.983	84.88
319.212	92.88
319.441	80.88
319.67	101.88
319.9	95.88
320.129	77.88
320.358	77.88
320.587	73.88
320.816	99.88
321.046	85.88
321.275	97.88
321.504	76.88
321.733	79.88
321.962	81.88
322.191	88.88
322.42	95.88
322.649	84.88
322.878	73.88
323.108	89.88
323.337	80.88
323.566	83.88
323.795	88.88
324.024	77.88
324.253	90.88
324.482	81.88
324.71	80.88
324.939	90.88
325.168	88.88
325.397	89.88
325.626	77.88
325.855	79.88
326.084	81.88
326.313	92.88
326.542	90.88
326.77	87.88
326.999	78.88
327.228	77.88
327.457	85.88
327.686	90.88
327.914	87.88
328.143	86.88
328.372	73.88
328.6	87.88
328.829	94.88
329.058	74.88
329.287	74.88
329.515	77.88
329.744	87.88
329.972	85.88
330.201	86.88
330.43	76.88
330.658	101.88
330.887	90.88
331.115	80.88
331.344	71.88
331.572	98.88
331.801	76.88
332.03	87.88
332.258	90.88
332.486	85.88
332.715	84.88
332.943	89.88
333.172	92.88
333.4	80.88
333.629	88.88
333.857	79.88
334.085	83.88
334.314	79.88
334.542	82.88
334.771	75.88
334.999	88.88
335.227	72.88
335.455	87.88
335.684	87.88
335.912	94.88
336.14	77.88
336.369	89.88
336.597	88.88
336.825	87.88
337.053	74.88
337.281	90.88
337.51	76.88
337.738	83.88
337.966	87.88
338.194	70.88
338.422	83.88
338.65	91.88
338.878	84.88
339.106	95.88
339.334	103.88
339.562	88.88
339.79	93.88
340.018	105.88
340.246	92.88
340.474	81.88
340.702	83.88
340.93	96.88
341.158	83.88
341.386	83.88
341.614	91.88
341.842	102.88
342.07	82.88
342.298	83.88
342.526	88.88
342.754	95.88
342.981	88.88
343.209	86.88
343.437	86.88
343.665	89.88
343.893	99.88
344.12	77.88
344.348	93.88
344.576	80.88
344.804	84.88
345.031	82.88
345.259	79.88
345.487	91.88
345.714	75.88
345.942	90.88
346.17	75.88
346.397	83.88
346.625	89.88
346.853	72.88
347.08	91.88
347.308	88.88
347.535	96.88
347.763	97.88
347.99	88.88
348.218	83.88
348.445	86.88
348.673	88.88
348.9	89.88
349.128	98.88
349.355	85.88
349.583	94.88
349.81	87.88
350.037	82.88
350.265	76.88
350.492	82.88
350.72	85.88
350.947	89.88
351.174	88.88
351.402	95.88
351.629	78.88
351.856	90.88
352.083	84.88
352.311	83.88
352.538	96.88
352.765	74.88
352.992	75.88
353.22	93.88
353.447	91.88
353.674	93.88
353.901	83.88
354.128	93.88
354.355	72.88
354.583	81.88
354.81	83.88
355.037	93.88
355.264	91.88
355.491	91.88
355.718	84.88
355.945	91.88
356.172	93.88
356.399	89.88
356.626	82.88
356.853	80.88
357.08	84.88
357.307	94.88
357.534	90.88
357.761	98.88
357.988	97.88
358.215	81.88
358.441	87.88
358.668	82.88
358.895	70.88
359.122	84.88
359.349	93.88
359.576	94.88
359.802	88.88
360.029	90.88
360.256	92.88
360.483	69.88
360.709	81.88
360.936	85.88
361.163	81.88
361.39	79.88
361.616	87.88
361.843	81.88
362.07	74.88
362.296	82.88
362.523	85.88
362.749	80.88
362.976	87.88
363.203	85.88
363.429	80.88
363.656	77.88
363.882	91.88
364.109	85.88
364.335	80.88
364.562	93.88
364.788	81.88
365.015	88.88
365.241	105.88
365.468	80.88
365.694	78.88
365.92	83.88
366.147	82.88
366.373	83.88
366.599	80.88
366.826	95.88
367.052	94.88
367.278	85.88
367.505	94.88
367.731	93.88
367.957	81.88
368.184	91.88
368.41	84.88
368.636	85.88
368.862	85.88
369.089	84.88
369.315	84.88
369.541	73.88
369.767	62.88
369.993	90.88
370.219	88.88
370.445	84.88
370.672	86.88
370.898	94.88
371.124	91.88
371.35	88.88
371.576	89.88
371.802	93.88
372.028	89.88
372.254	69.88
372.48	76.88
372.706	77.88
372.932	85.88
373.158	81.88
373.384	85.88
373.61	79.88
373.835	93.88
374.061	92.88
374.287	91.88
374.513	90.88
374.739	85.88
374.965	72.88
375.191	81.88
375.416	86.88
375.642	81.88
375.868	90.88
376.094	76.88
376.319	80.88
376.545	76.88
376.771	86.88
376.997	90.88
377.222	70.88
377.448	87.88
377.674	78.88
377.899	76.88
378.125	80.88
378.35	74.88
378.576	78.88
378.802	86.88
379.027	80.88
379.253	84.88
379.478	72.88
379.704	92.88
379.929	75.88
380.155	79.88
380.38	85.88
380.606	87.88
380.831	72.88
381.057	92.88
381.282	101.88
381.507	77.88
381.733	89.88
381.958	92.88
382.184	86.88
382.409	70.88
382.634	87.88
382.86	90.88
383.085	94.88
383.31	78.88
383.535	89.88
383.761	83.88
383.986	83.88
384.211	98.88
384.436	78.88
384.662	82.88
384.887	97.88
385.112	81.88
385.337	100.88
385.562	74.88
385.787	87.88
386.013	102.88
386.238	81.88
386.463	85.88
386.688	89.88
386.913	96.88
387.138	92.88
387.363	85.88
387.588	85.88
387.813	89.88
388.038	84.88
388.263	72.88
388.488	74.88
388.713	96.88
388.938	97.88
389.163	91.88
389.387	86.88
389.612	85.88
389.837	76.88
390.062	79.88
390.287	83.88
390.512	69.88
390.736	72.88
390.961	82.88
391.186	89.88
391.411	82.88
391.636	92.88
391.86	96.88
392.085	84.88
392.31	79.88
392.534	83.88
392.759	86.88
392.984	88.88
393.208	88.88
393.433	94.88
393.658	92.88
393.882	77.88
394.107	85.88
394.331	85.88
394.556	78.88
394.78	85.88
395.005	73.88
395.229	87.88
395.454	83.88
395.678	78.88
395.903	90.88
396.127	84.88
396.352	83.88
396.576	88.88
396.801	77.88
397.025	88.88
397.249	95.88
397.474	80.88
397.698	87.88
397.922	92.88
398.147	81.88
398.371	77.88
398.595	78.88
398.82	85.88
399.044	88.88
399.268	91.88
399.492	88.88
399.717	72.88
399.941	90.88
400.165	82.88
400.389	76.88
400.613	87.88
400.837	79.88
401.062	96.88
401.286	84.88
401.51	76.88
401.734	82.88
401.958	85.88
402.182	87.88
402.406	83.88
402.63	83.88
402.854	85.88
403.078	84.88
403.302	94.88
403.526	86.88
403.75	83.88
403.974	81.88
404.198	84.88
404.422	90.88
404.645	73.88
404.869	89.88
405.093	100.88
405.317	94.88
405.541	89.88
405.765	72.88
405.988	85.88
406.212	81.88
406.436	98.88
406.66	96.88
406.883	89.88
407.107	84.88
407.331	87.88
407.555	84.88
407.778	76.88
408.002	88.88
408.226	91.88
408.449	95.88
408.673	80.88
408.896	83.88
409.12	86.88
409.344	85.88
409.567	91.88
409.791	94.88
410.014	77.88
410.238	83.88
410.461	91.88
410.685	90.88
410.908	85.88
411.132	92.88
411.355	75.88
411.578	89.88
411.802	92.88
412.025	88.88
412.249	86.88
412.472	79.88
412.695	84.88
412.919	84.88
413.142	87.88
413.365	91.88
413.589	77.88
413.812	81.88
414.035	83.88
414.258	79.88
414.482	82.88
414.705	86.88
414.928	84.88
415.151	77.88
415.374	84.88
415.597	84.88
415.821	87.88
416.044	85.88
416.267	96.88
416.49	90.88
416.713	89.88
416.936	84.88
417.159	89.88
417.382	81.88
417.605	93.88
417.828	85.88
418.051	84.88
418.274	86.88
418.497	86.88
418.72	83.88
418.943	82.88
419.166	83.88
419.389	87.88
419.611	76.88
419.834	91.88
420.057	80.88
420.28	77.88
420.503	87.88
420.726	95.88
420.948	76.88
421.171	84.88
421.394	75.88
421.617	82.88
421.839	86.88
422.062	69.88
422.285	84.88
422.507	81.88
422.73	85.88
422.953	78.88
423.175	95.88
423.398	86.88
423.621	75.88
423.843	82.88
424.066	70.88
424.288	94.88
424.511	75.88
424.733	85.88
424.956	81.88
425.178	82.88
425.401	89.88
425.623	74.88
425.846	85.88
426.068	99.88
426.291	83.88
426.513	95.88
426.735	101.88
426.958	82.88
427.18	80.88
427.402	90.88
427.625	76.88
427.847	73.88
428.069	87.88
428.292	82.88
428.514	87.88
428.736	85.88
428.958	93.88
429.181	78.88
429.403	91.88
429.625	65.88
429.847	78.88
430.069	95.88
430.292	92.88
430.514	82.88
430.736	91.88
430.958	82.88
431.18	99.88
431.402	80.88
431.624	87.88
431.846	81.88
432.068	83.88
432.29	84.88
432.512	93.88
432.734	72.88
432.956	82.88
433.178	91.88
433.4	100.88
433.622	83.88
433.844	87.88
434.066	84.88
434.287	95.88
434.509	100.88
434.731	98.88
434.953	94.88
435.175	88.88
435.397	85.88
435.618	90.88
435.84	89.88
436.062	87.88
436.284	73.88
436.505	91.88
436.727	89.88
436.949	73.88
437.17	75.88
437.392	79.88
437.614	97.88
437.835	77.88
438.057	75.88
438.278	78.88
438.5	76.88
438.721	84.88
438.943	86.88
439.165	82.88
439.386	83.88
439.608	96.88
439.829	83.88
440.05	93.88
440.272	95.88
440.493	88.88
440.715	81.88
440.936	102.88
441.158	81.88
441.379	73.88
441.6	98.88
441.822	75.88
442.043	83.88
442.264	83.88
442.486	91.88
442.707	86.88
442.928	90.88
443.149	86.88
443.371	83.88
443.592	97.88
443.813	66.88
444.034	76.88
444.255	75.88
444.476	74.88
444.698	86.88
444.919	91.88
445.14	202.88
445.361	138.88
445.582	76.88
445.803	83.88
446.024	76.88
446.245	104.88
446.466	87.88
446.687	86.88
446.908	77.88
447.129	89.88
447.35	92.88
447.571	87.88
447.792	77.88
448.013	83.88
448.234	83.88
448.455	81.88
448.675	87.88
448.896	80.88
449.117	76.88
449.338	81.88
449.559	83.88
449.779	92.88
450	83.88
450.221	79.88
450.442	96.88
450.662	75.88
450.883	71.88
451.104	81.88
451.324	77.88
451.545	84.88
451.766	69.88
451.986	75.88
452.207	71.88
452.428	85.88
452.648	80.88
452.869	84.88
453.089	88.88
453.31	98.88
453.53	83.88
453.751	93.88
453.971	85.88
454.192	90.88
454.412	87.88
454.633	89.88
454.853	91.88
455.073	79.88
455.294	88.88
455.514	78.88
455.734	81.88
455.955	93.88
456.175	90.88
456.395	87.88
456.616	84.88
456.836	90.88
457.056	89.88
457.276	82.88
457.497	91.88
457.717	94.88
457.937	99.88
458.157	81.88
458.377	78.88
458.598	88.88
458.818	86.88
459.038	81.88
459.258	76.88
459.478	77.88
459.698	65.88
459.918	96.88
460.138	85.88
460.358	89.88
460.578	86.88
460.798	88.88
461.018	91.88
461.238	90.88
461.458	81.88
461.678	87.88
461.898	78.88
462.118	90.88
462.338	91.88
462.558	63.88
462.777	93.88
462.997	85.88
463.217	96.88
463.437	92.88
463.657	79.88
463.876	80.88
464.096	91.88
464.316	88.88
464.536	92.88
464.755	96.88
464.975	78.88
465.195	74.88
465.414	100.88
465.634	98.88
465.854	95.88
466.073	87.88
466.293	98.88
466.512	83.88
466.732	82.88
466.951	90.88
467.171	95.88
467.391	84.88
467.61	86.88
467.829	85.88
468.049	78.88
468.268	79.88
468.488	90.88
468.707	79.88
468.927	75.88
469.146	73.88
469.365	86.88
469.585	78.88
469.804	83.88
470.023	84.88
470.243	82.88
470.462	79.88
470.681	76.88
470.901	97.88
471.12	86.88
471.339	84.88
471.558	77.88
471.777	84.88
471.997	89.88
472.216	88.88
472.435	81.88
472.654	88.88
472.873	92.88
473.092	85.88
473.311	89.88
473.53	75.88
473.749	74.88
473.968	91.88
474.187	89.88
474.406	81.88
474.625	71.88
474.844	87.88
475.063	77.88
475.282	89.88
475.501	80.88
475.72	89.88
475.939	90.88
476.158	98.88
476.377	70.88
476.596	95.88
476.814	96.88
477.033	67.88
477.252	94.88
477.471	87.88
477.69	86.88
477.908	95.88
478.127	84.88
478.346	91.88
478.564	103.88
478.783	81.88
479.002	84.88
479.22	92.88
479.439	101.88
479.658	85.88
479.876	70.88
480.095	92.88
480.313	84.88
480.532	77.88
480.751	85.88
480.969	87.88
481.188	76.88
481.406	89.88
481.624	96.88
481.843	88.88
482.061	82.88
482.28	85.88
482.498	91.88
482.717	92.88
482.935	90.88
483.153	82.88
483.372	94.88
483.59	95.88
483.808	82.88
484.027	86.88
484.245	76.88
484.463	65.88
484.681	85.88
484.9	97.88
485.118	94.88
485.336	81.88
485.554	81.88
485.772	86.88
485.99	85.88
486.209	85.88
486.427	103.88
486.645	83.88
486.863	83.88
487.081	93.88
487.299	86.88
487.517	75.88
487.735	91.88
487.953	96.88
488.171	101.88
488.389	104.88
488.607	98.88
488.825	88.88
489.043	76.88
489.261	94.88
489.479	99.88
489.696	101.88
489.914	81.88
490.132	85.88
490.35	97.88
490.568	81.88
490.786	93.88
491.003	91.88
491.221	85.88
491.439	95.88
491.657	83.88
491.874	97.88
492.092	104.88
492.31	105.88
492.527	91.88
492.745	80.88
492.963	90.88
493.18	84.88
493.398	105.88
493.615	96.88
493.833	98.88
494.05	91.88
494.268	93.88
494.485	99.88
494.703	93.88
494.92	98.88
495.138	80.88
495.355	100.88
495.573	87.88
495.79	101.88
496.008	93.88
496.225	75.88
496.442	115.88
496.66	94.88
496.877	86.88
497.094	106.88
497.312	96.88
497.529	73.88
497.746	90.88
497.963	91.88
498.181	101.88
498.398	92.88
498.615	80.88
498.832	88.88
499.049	108.88
499.267	93.88
499.484	87.88
499.701	96.88
499.918	113.88
500.135	101.88
500.352	100.88
500.569	122.88
500.786	122.88
501.003	106.88
501.22	99.88
501.437	92.88
501.654	99.88
501.871	107.88
502.088	91.88
502.305	86.88
502.522	97.88
502.739	100.88
502.956	91.88
503.172	93.88
503.389	105.88
503.606	92.88
503.823	84.88
504.04	102.88
504.256	91.88
504.473	91.88
504.69	98.88
504.907	100.88
505.123	85.88
505.34	87.88
505.557	98.88
505.773	102.88
505.99	78.88
506.207	90.88
506.423	98.88
506.64	95.88
506.856	89.88
507.073	90.88
507.289	87.88
507.506	88.88
507.722	87.88
507.939	93.88
508.155	95.88
508.372	75.88
508.588	90.88
508.805	87.88
509.021	81.88
509.238	96.88
509.454	91.88
509.67	109.88
509.887	93.88
510.103	92.88
510.319	84.88
510.536	89.88
510.752	88.88
510.968	79.88
511.184	84.88
511.401	90.88
511.617	90.88
511.833	88.88
512.049	101.88
512.265	87.88
512.481	82.88
512.698	83.88
512.914	88.88
513.13	91.88
513.346	81.88
513.562	93.88
513.778	86.88
513.994	89.88
514.21	95.88
514.426	89.88
514.642	90.88
514.858	94.88
515.074	86.88
515.29	103.88
515.506	96.88
515.721	100.88
515.937	89.88
516.153	91.88
516.369	97.88
516.585	88.88
516.801	84.88
517.016	106.88
517.232	77.88
517.448	85.88
517.664	95.88
517.879	91.88
518.095	88.88
518.311	88.88
518.527	99.88
518.742	95.88
