Data from Ni(NO3)2@0.0625M.TitratingCurve.Agarose3%dH2O.NegLispCup.LampEnergy10.LIBS07252019_HRD10591_18-13-27-569.txt Node
Date: Thu Jul 25 18:13:27 EDT 2019
User: cochatt
Spectrometer: HR+D1059
Trigger mode: 1
Integration Time (sec): 1.000000E-1
Scans to average: 1
Electric dark correction enabled: true
Nonlinearity correction enabled: false
Boxcar width: 0
XAxis mode: Wavelengths
Number of Pixels in Spectrum: 2048
>>>>>Begin Spectral Data<<<<<
223.165	-23.5
223.4	-23.5
223.635	-23.5
223.869	-14.5
224.104	-16.5
224.338	-12.5
224.573	-12.5
224.808	-6.5
225.042	-8.5
225.277	2.5
225.511	1.5
225.746	-11.5
225.98	13.5
226.215	9.5
226.449	9.5
226.683	17.5
226.918	25.5
227.152	26.5
227.387	44.5
227.621	52.5
227.856	38.5
228.09	46.5
228.324	37.5
228.559	53.5
228.793	72.5
229.027	104.5
229.262	132.5
229.496	106.5
229.73	99.5
229.964	136.5
230.199	129.5
230.433	140.5
230.667	134.5
230.901	145.5
231.136	138.5
231.37	149.5
231.604	136.5
231.838	149.5
232.072	145.5
232.306	153.5
232.541	147.5
232.775	142.5
233.009	141.5
233.243	150.5
233.477	146.5
233.711	151.5
233.945	158.5
234.179	159.5
234.413	140.5
234.647	144.5
234.881	148.5
235.115	160.5
235.349	161.5
235.583	164.5
235.817	154.5
236.051	146.5
236.285	155.5
236.519	144.5
236.753	175.5
236.987	163.5
237.221	151.5
237.455	163.5
237.689	165.5
237.922	177.5
238.156	169.5
238.39	160.5
238.624	161.5
238.858	183.5
239.091	171.5
239.325	166.5
239.559	187.5
239.793	187.5
240.027	171.5
240.26	191.5
240.494	192.5
240.728	193.5
240.961	200.5
241.195	170.5
241.429	199.5
241.662	191.5
241.896	188.5
242.13	204.5
242.363	211.5
242.597	213.5
242.83	212.5
243.064	206.5
243.298	209.5
243.531	212.5
243.765	215.5
243.998	218.5
244.232	208.5
244.465	221.5
244.699	220.5
244.932	215.5
245.166	205.5
245.399	235.5
245.633	232.5
245.866	217.5
246.099	202.5
246.333	228.5
246.566	229.5
246.8	241.5
247.033	236.5
247.266	227.5
247.5	221.5
247.733	246.5
247.966	240.5
248.2	242.5
248.433	250.5
248.666	243.5
248.899	240.5
249.133	252.5
249.366	274.5
249.599	257.5
249.832	260.5
250.066	261.5
250.299	261.5
250.532	269.5
250.765	243.5
250.998	275.5
251.231	241.5
251.465	273.5
251.698	268.5
251.931	267.5
252.164	276.5
252.397	280.5
252.63	277.5
252.863	271.5
253.096	268.5
253.329	285.5
253.562	262.5
253.795	281.5
254.028	295.5
254.261	295.5
254.494	315.5
254.727	280.5
254.96	290.5
255.193	300.5
255.426	293.5
255.659	300.5
255.892	304.5
256.124	306.5
256.357	305.5
256.59	301.5
256.823	304.5
257.056	311.5
257.289	294.5
257.521	297.5
257.754	303.5
257.987	320.5
258.22	305.5
258.452	312.5
258.685	315.5
258.918	302.5
259.151	317.5
259.383	331.5
259.616	300.5
259.849	331.5
260.081	321.5
260.314	312.5
260.547	313.5
260.779	349.5
261.012	339.5
261.244	336.5
261.477	322.5
261.71	329.5
261.942	332.5
262.175	346.5
262.407	329.5
262.64	316.5
262.872	361.5
263.105	323.5
263.337	339.5
263.57	345.5
263.802	355.5
264.035	362.5
264.267	352.5
264.499	350.5
264.732	347.5
264.964	337.5
265.197	355.5
265.429	371.5
265.661	369.5
265.894	361.5
266.126	372.5
266.358	358.5
266.591	368.5
266.823	386.5
267.055	383.5
267.287	381.5
267.52	387.5
267.752	376.5
267.984	347.5
268.216	380.5
268.448	391.5
268.681	384.5
268.913	392.5
269.145	364.5
269.377	393.5
269.609	371.5
269.841	378.5
270.073	381.5
270.306	384.5
270.538	411.5
270.77	387.5
271.002	390.5
271.234	402.5
271.466	419.5
271.698	407.5
271.93	401.5
272.162	383.5
272.394	405.5
272.626	392.5
272.858	407.5
273.09	416.5
273.322	402.5
273.553	405.5
273.785	412.5
274.017	428.5
274.249	403.5
274.481	412.5
274.713	404.5
274.945	409.5
275.176	408.5
275.408	431.5
275.64	441.5
275.872	450.5
276.104	449.5
276.335	426.5
276.567	418.5
276.799	428.5
277.031	450.5
277.262	443.5
277.494	409.5
277.726	439.5
277.957	427.5
278.189	438.5
278.421	426.5
278.652	436.5
278.884	444.5
279.115	460.5
279.347	460.5
279.579	459.5
279.81	441.5
280.042	466.5
280.273	479.5
280.505	469.5
280.736	451.5
280.968	481.5
281.199	470.5
281.431	476.5
281.662	472.5
281.894	481.5
282.125	473.5
282.356	483.5
282.588	469.5
282.819	469.5
283.051	468.5
283.282	491.5
283.513	482.5
283.745	480.5
283.976	488.5
284.207	488.5
284.439	498.5
284.67	505.5
284.901	501.5
285.132	496.5
285.364	509.5
285.595	503.5
285.826	504.5
286.057	484.5
286.288	518.5
286.52	513.5
286.751	519.5
286.982	512.5
287.213	529.5
287.444	538.5
287.675	522.5
287.906	519.5
288.138	523.5
288.369	525.5
288.6	538.5
288.831	533.5
289.062	557.5
289.293	500.5
289.524	518.5
289.755	532.5
289.986	564.5
290.217	534.5
290.448	539.5
290.679	554.5
290.91	522.5
291.141	552.5
291.371	525.5
291.602	531.5
291.833	525.5
292.064	525.5
292.295	555.5
292.526	537.5
292.757	529.5
292.987	530.5
293.218	530.5
293.449	546.5
293.68	555.5
293.91	559.5
294.141	557.5
294.372	525.5
294.603	560.5
294.833	549.5
295.064	555.5
295.295	547.5
295.525	551.5
295.756	554.5
295.987	556.5
296.217	554.5
296.448	572.5
296.679	565.5
296.909	565.5
297.14	561.5
297.37	587.5
297.601	588.5
297.831	597.5
298.062	585.5
298.292	589.5
298.523	595.5
298.753	609.5
298.984	592.5
299.214	592.5
299.445	612.5
299.675	573.5
299.905	609.5
300.136	610.5
300.366	573.5
300.597	605.5
300.827	596.5
301.057	615.5
301.288	641.5
301.518	619.5
301.748	601.5
301.979	623.5
302.209	616.5
302.439	623.5
302.669	623.5
302.9	609.5
303.13	604.5
303.36	624.5
303.59	599.5
303.82	591.5
304.051	631.5
304.281	625.5
304.511	598.5
304.741	614.5
304.971	617.5
305.201	621.5
305.431	603.5
305.661	611.5
305.891	585.5
306.121	614.5
306.352	624.5
306.582	602.5
306.812	604.5
307.042	603.5
307.272	579.5
307.502	600.5
307.731	567.5
307.961	599.5
308.191	610.5
308.421	587.5
308.651	595.5
308.881	599.5
309.111	592.5
309.341	597.5
309.571	599.5
309.8	587.5
310.03	594.5
310.26	594.5
310.49	586.5
310.72	607.5
310.949	595.5
311.179	605.5
311.409	614.5
311.639	602.5
311.868	628.5
312.098	629.5
312.328	607.5
312.557	647.5
312.787	616.5
313.017	648.5
313.246	628.5
313.476	633.5
313.706	635.5
313.935	641.5
314.165	649.5
314.394	638.5
314.624	662.5
314.853	634.5
315.083	659.5
315.312	630.5
315.542	649.5
315.771	644.5
316.001	642.5
316.23	624.5
316.46	634.5
316.689	611.5
316.919	632.5
317.148	636.5
317.377	641.5
317.607	643.5
317.836	601.5
318.065	622.5
318.295	617.5
318.524	602.5
318.753	599.5
318.983	613.5
319.212	621.5
319.441	642.5
319.67	625.5
319.9	630.5
320.129	642.5
320.358	629.5
320.587	638.5
320.816	620.5
321.046	653.5
321.275	630.5
321.504	603.5
321.733	620.5
321.962	646.5
322.191	627.5
322.42	639.5
322.649	623.5
322.878	639.5
323.108	621.5
323.337	633.5
323.566	651.5
323.795	664.5
324.024	669.5
324.253	683.5
324.482	647.5
324.71	643.5
324.939	653.5
325.168	660.5
325.397	683.5
325.626	672.5
325.855	700.5
326.084	675.5
326.313	711.5
326.542	707.5
326.77	687.5
326.999	670.5
327.228	687.5
327.457	694.5
327.686	692.5
327.914	689.5
328.143	692.5
328.372	693.5
328.6	679.5
328.829	678.5
329.058	689.5
329.287	692.5
329.515	711.5
329.744	684.5
329.972	690.5
330.201	704.5
330.43	706.5
330.658	707.5
330.887	717.5
331.115	730.5
331.344	711.5
331.572	731.5
331.801	765.5
332.03	749.5
332.258	788.5
332.486	830.5
332.715	838.5
332.943	880.5
333.172	898.5
333.4	938.5
333.629	960.5
333.857	968.5
334.085	928.5
334.314	922.5
334.542	913.5
334.771	895.5
334.999	848.5
335.227	873.5
335.455	857.5
335.684	852.5
335.912	867.5
336.14	850.5
336.369	858.5
336.597	844.5
336.825	844.5
337.053	829.5
337.281	836.5
337.51	810.5
337.738	798.5
337.966	788.5
338.194	779.5
338.422	762.5
338.65	754.5
338.878	738.5
339.106	752.5
339.334	760.5
339.562	748.5
339.79	722.5
340.018	730.5
340.246	740.5
340.474	720.5
340.702	708.5
340.93	724.5
341.158	729.5
341.386	739.5
341.614	724.5
341.842	750.5
342.07	725.5
342.298	720.5
342.526	729.5
342.754	720.5
342.981	716.5
343.209	738.5
343.437	792.5
343.665	826.5
343.893	930.5
344.12	919.5
344.348	874.5
344.576	820.5
344.804	758.5
345.031	779.5
345.259	757.5
345.487	716.5
345.714	716.5
345.942	715.5
346.17	705.5
346.397	706.5
346.625	706.5
346.853	705.5
347.08	693.5
347.308	724.5
347.535	725.5
347.763	758.5
347.99	713.5
348.218	711.5
348.445	712.5
348.673	696.5
348.9	731.5
349.128	706.5
349.355	710.5
349.583	696.5
349.81	688.5
350.037	669.5
350.265	675.5
350.492	692.5
350.72	691.5
350.947	699.5
351.174	673.5
351.402	661.5
351.629	673.5
351.856	692.5
352.083	687.5
352.311	683.5
352.538	671.5
352.765	674.5
352.992	666.5
353.22	650.5
353.447	660.5
353.674	680.5
353.901	683.5
354.128	697.5
354.355	663.5
354.583	679.5
354.81	672.5
355.037	679.5
355.264	690.5
355.491	672.5
355.718	671.5
355.945	696.5
356.172	663.5
356.399	711.5
356.626	681.5
356.853	695.5
357.08	687.5
357.307	700.5
357.534	677.5
357.761	685.5
357.988	699.5
358.215	675.5
358.441	652.5
358.668	679.5
358.895	671.5
359.122	704.5
359.349	706.5
359.576	693.5
359.802	697.5
360.029	705.5
360.256	677.5
360.483	683.5
360.709	667.5
360.936	659.5
361.163	693.5
361.39	649.5
361.616	673.5
361.843	659.5
362.07	673.5
362.296	679.5
362.523	676.5
362.749	688.5
362.976	663.5
363.203	672.5
363.429	678.5
363.656	654.5
363.882	671.5
364.109	698.5
364.335	677.5
364.562	676.5
364.788	674.5
365.015	657.5
365.241	663.5
365.468	659.5
365.694	687.5
365.92	671.5
366.147	668.5
366.373	663.5
366.599	669.5
366.826	672.5
367.052	668.5
367.278	683.5
367.505	657.5
367.731	673.5
367.957	690.5
368.184	678.5
368.41	691.5
368.636	689.5
368.862	675.5
369.089	682.5
369.315	687.5
369.541	695.5
369.767	691.5
369.993	729.5
370.219	721.5
370.445	708.5
370.672	708.5
370.898	711.5
371.124	726.5
371.35	717.5
371.576	752.5
371.802	739.5
372.028	728.5
372.254	731.5
372.48	732.5
372.706	778.5
372.932	778.5
373.158	793.5
373.384	765.5
373.61	726.5
373.835	736.5
374.061	735.5
374.287	734.5
374.513	753.5
374.739	805.5
374.965	818.5
375.191	815.5
375.416	807.5
375.642	821.5
375.868	803.5
376.094	762.5
376.319	741.5
376.545	759.5
376.771	755.5
376.997	751.5
377.222	769.5
377.448	723.5
377.674	755.5
377.899	741.5
378.125	729.5
378.35	726.5
378.576	752.5
378.802	721.5
379.027	731.5
379.253	716.5
379.478	720.5
379.704	716.5
379.929	724.5
380.155	735.5
380.38	735.5
380.606	729.5
380.831	761.5
381.057	739.5
381.282	737.5
381.507	738.5
381.733	728.5
381.958	746.5
382.184	759.5
382.409	760.5
382.634	791.5
382.86	799.5
383.085	801.5
383.31	792.5
383.535	828.5
383.761	832.5
383.986	825.5
384.211	868.5
384.436	854.5
384.662	897.5
384.887	901.5
385.112	908.5
385.337	913.5
385.562	891.5
385.787	890.5
386.013	921.5
386.238	920.5
386.463	920.5
386.688	892.5
386.913	888.5
387.138	904.5
387.363	887.5
387.588	852.5
387.813	857.5
388.038	861.5
388.263	865.5
388.488	865.5
388.713	875.5
388.938	878.5
389.163	864.5
389.387	859.5
389.612	859.5
389.837	869.5
390.062	857.5
390.287	864.5
390.512	846.5
390.736	886.5
390.961	893.5
391.186	893.5
391.411	927.5
391.636	980.5
391.86	999.5
392.085	1043.5
392.31	1028.5
392.534	975.5
392.759	931.5
392.984	949.5
393.208	941.5
393.433	934.5
393.658	934.5
393.882	958.5
394.107	959.5
394.331	938.5
394.556	939.5
394.78	962.5
395.005	989.5
395.229	920.5
395.454	986.5
395.678	1028.5
395.903	991.5
396.127	991.5
396.352	952.5
396.576	957.5
396.801	946.5
397.025	931.5
397.249	969.5
397.474	983.5
397.698	995.5
397.922	983.5
398.147	991.5
398.371	1017.5
398.595	1040.5
398.82	1068.5
399.044	1165.5
399.268	1313.5
399.492	1536.5
399.717	1813.5
399.941	1730.5
400.165	1551.5
400.389	1405.5
400.613	1232.5
400.837	1180.5
401.062	1119.5
401.286	1111.5
401.51	1097.5
401.734	1091.5
401.958	1119.5
402.182	1115.5
402.406	1157.5
402.63	1173.5
402.854	1217.5
403.078	1223.5
403.302	1239.5
403.526	1281.5
403.75	1313.5
403.974	1354.5
404.198	1329.5
404.422	1363.5
404.645	1309.5
404.869	1284.5
405.093	1269.5
405.317	1237.5
405.541	1236.5
405.765	1244.5
405.988	1226.5
406.212	1227.5
406.436	1250.5
406.66	1240.5
406.883	1289.5
407.107	1341.5
407.331	1392.5
407.555	1485.5
407.778	1492.5
408.002	1419.5
408.226	1395.5
408.449	1359.5
408.673	1292.5
408.896	1226.5
409.12	1296.5
409.344	1291.5
409.567	1289.5
409.791	1303.5
410.014	1289.5
410.238	1279.5
410.461	1257.5
410.685	1250.5
410.908	1206.5
411.132	1196.5
411.355	1209.5
411.578	1143.5
411.802	1139.5
412.025	1176.5
412.249	1173.5
412.472	1183.5
412.695	1146.5
412.919	1135.5
413.142	1130.5
413.365	1087.5
413.589	1136.5
413.812	1115.5
414.035	1115.5
414.258	1104.5
414.482	1152.5
414.705	1149.5
414.928	1183.5
415.151	1128.5
415.374	1124.5
415.597	1127.5
415.821	1083.5
416.044	1061.5
416.267	1087.5
416.49	1088.5
416.713	1113.5
416.936	1085.5
417.159	1097.5
417.382	1111.5
417.605	1106.5
417.828	1092.5
418.051	1112.5
418.274	1145.5
418.497	1108.5
418.72	1135.5
418.943	1159.5
419.166	1192.5
419.389	1311.5
419.611	1246.5
419.834	1193.5
420.057	1177.5
420.28	1116.5
420.503	1108.5
420.726	1084.5
420.948	1072.5
421.171	1104.5
421.394	1115.5
421.617	1096.5
421.839	1114.5
422.062	1143.5
422.285	1108.5
422.507	1129.5
422.73	1124.5
422.953	1166.5
423.175	1171.5
423.398	1183.5
423.621	1182.5
423.843	1223.5
424.066	1194.5
424.288	1187.5
424.511	1181.5
424.733	1165.5
424.956	1124.5
425.178	1138.5
425.401	1144.5
425.623	1120.5
425.846	1081.5
426.068	1088.5
426.291	1057.5
426.513	1035.5
426.735	1037.5
426.958	1045.5
427.18	1010.5
427.402	1012.5
427.625	1017.5
427.847	1008.5
428.069	977.5
428.292	1001.5
428.514	990.5
428.736	961.5
428.958	993.5
429.181	970.5
429.403	955.5
429.625	943.5
429.847	908.5
430.069	942.5
430.292	966.5
430.514	975.5
430.736	948.5
430.958	926.5
431.18	939.5
431.402	983.5
431.624	946.5
431.846	990.5
432.068	1010.5
432.29	996.5
432.512	984.5
432.734	957.5
432.956	996.5
433.178	1000.5
433.4	982.5
433.622	1001.5
433.844	1023.5
434.066	1010.5
434.287	999.5
434.509	1049.5
434.731	1082.5
434.953	1148.5
435.175	1142.5
435.397	1126.5
435.618	1095.5
435.84	1031.5
436.062	1018.5
436.284	990.5
436.505	964.5
436.727	1007.5
436.949	1024.5
437.17	998.5
437.392	973.5
437.614	986.5
437.835	967.5
438.057	962.5
438.278	913.5
438.5	928.5
438.721	949.5
438.943	968.5
439.165	957.5
439.386	981.5
439.608	999.5
439.829	991.5
440.05	969.5
440.272	1008.5
440.493	1011.5
440.715	1002.5
440.936	1028.5
441.158	1005.5
441.379	1051.5
441.6	1085.5
441.822	1158.5
442.043	1139.5
442.264	1097.5
442.486	1105.5
442.707	1074.5
442.928	1070.5
443.149	1113.5
443.371	1111.5
443.592	1096.5
443.813	1145.5
444.034	1129.5
444.255	1156.5
444.476	1204.5
444.698	1324.5
444.919	1381.5
445.14	1416.5
445.361	1258.5
445.582	1143.5
445.803	1119.5
446.024	1049.5
446.245	1065.5
446.466	1018.5
446.687	992.5
446.908	965.5
447.129	987.5
447.35	941.5
447.571	955.5
447.792	928.5
448.013	923.5
448.234	890.5
448.455	909.5
448.675	905.5
448.896	928.5
449.117	891.5
449.338	895.5
449.559	892.5
449.779	924.5
450	873.5
450.221	913.5
450.442	929.5
450.662	907.5
450.883	926.5
451.104	947.5
451.324	960.5
451.545	947.5
451.766	899.5
451.986	917.5
452.207	930.5
452.428	891.5
452.648	918.5
452.869	899.5
453.089	881.5
453.31	875.5
453.53	887.5
453.751	882.5
453.971	865.5
454.192	883.5
454.412	855.5
454.633	868.5
454.853	856.5
455.073	862.5
455.294	861.5
455.514	859.5
455.734	865.5
455.955	840.5
456.175	850.5
456.395	838.5
456.616	805.5
456.836	847.5
457.056	823.5
457.276	829.5
457.497	866.5
457.717	843.5
457.937	885.5
458.157	889.5
458.377	899.5
458.598	884.5
458.818	916.5
459.038	965.5
459.258	983.5
459.478	1009.5
459.698	1062.5
459.918	1055.5
460.138	1117.5
460.358	1161.5
460.578	1203.5
460.798	1181.5
461.018	1202.5
461.238	1171.5
461.458	1143.5
461.678	1153.5
461.898	1180.5
462.118	1170.5
462.338	1275.5
462.558	1271.5
462.777	1347.5
462.997	1418.5
463.217	1639.5
463.437	1677.5
463.657	1508.5
463.876	1352.5
464.096	1391.5
464.316	1381.5
464.536	1407.5
464.755	1360.5
464.975	1277.5
465.195	1227.5
465.414	1163.5
465.634	1075.5
465.854	1035.5
466.073	1042.5
466.293	999.5
466.512	967.5
466.732	997.5
466.951	958.5
467.171	979.5
467.391	950.5
467.61	961.5
467.829	947.5
468.049	947.5
468.268	897.5
468.488	883.5
468.707	902.5
468.927	910.5
469.146	919.5
469.365	947.5
469.585	915.5
469.804	950.5
470.023	949.5
470.243	954.5
470.462	981.5
470.681	998.5
470.901	999.5
471.12	963.5
471.339	947.5
471.558	921.5
471.777	908.5
471.997	909.5
472.216	915.5
472.435	892.5
472.654	914.5
472.873	884.5
473.092	874.5
473.311	858.5
473.53	898.5
473.749	890.5
473.968	915.5
474.187	873.5
474.406	884.5
474.625	904.5
474.844	872.5
475.063	892.5
475.282	892.5
475.501	891.5
475.72	900.5
475.939	905.5
476.158	914.5
476.377	915.5
476.596	898.5
476.814	935.5
477.033	914.5
477.252	947.5
477.471	971.5
477.69	1010.5
477.908	1022.5
478.127	1053.5
478.346	1068.5
478.564	1080.5
478.783	1092.5
479.002	1120.5
479.22	1113.5
479.439	1148.5
479.658	1123.5
479.876	1125.5
480.095	1140.5
480.313	1178.5
480.532	1242.5
480.751	1238.5
480.969	1149.5
481.188	1093.5
481.406	1083.5
481.624	1051.5
481.843	1043.5
482.061	1004.5
482.28	1002.5
482.498	1002.5
482.717	1017.5
482.935	1029.5
483.153	990.5
483.372	958.5
483.59	1016.5
483.808	1008.5
484.027	1012.5
484.245	1014.5
484.463	1011.5
484.681	1064.5
484.9	1040.5
485.118	1072.5
485.336	1067.5
485.554	1086.5
485.772	1059.5
485.99	1060.5
486.209	1073.5
486.427	1080.5
486.645	1092.5
486.863	1082.5
487.081	1081.5
487.299	1050.5
487.517	1082.5
487.735	1076.5
487.953	1092.5
488.171	1068.5
488.389	1048.5
488.607	1014.5
488.825	1041.5
489.043	1005.5
489.261	1020.5
489.479	1028.5
489.696	1079.5
489.914	1064.5
490.132	1088.5
490.35	1066.5
490.568	1071.5
490.786	1102.5
491.003	1074.5
491.221	1066.5
491.439	1070.5
491.657	1058.5
491.874	1057.5
492.092	1063.5
492.31	1083.5
492.527	1081.5
492.745	1086.5
492.963	1113.5
493.18	1103.5
493.398	1089.5
493.615	1119.5
493.833	1101.5
494.05	1119.5
494.268	1119.5
494.485	1100.5
494.703	1130.5
494.92	1086.5
495.138	1148.5
495.355	1118.5
495.573	1110.5
495.79	1131.5
496.008	1144.5
496.225	1121.5
496.442	1136.5
496.66	1189.5
496.877	1155.5
497.094	1176.5
497.312	1189.5
497.529	1227.5
497.746	1255.5
497.963	1329.5
498.181	1367.5
498.398	1407.5
498.615	1491.5
498.832	1599.5
499.049	1747.5
499.267	1868.5
499.484	2087.5
499.701	2266.5
499.918	2540.5
500.135	2957.5
500.352	3412.5
500.569	3666.5
500.786	3644.5
501.003	3365.5
501.22	2986.5
501.437	2584.5
501.654	2250.5
501.871	2024.5
502.088	1853.5
502.305	1711.5
502.522	1596.5
502.739	1596.5
502.956	1469.5
503.172	1408.5
503.389	1334.5
503.606	1299.5
503.823	1300.5
504.04	1284.5
504.256	1260.5
504.473	1304.5
504.69	1395.5
504.907	1386.5
505.123	1251.5
505.34	1194.5
505.557	1147.5
505.773	1078.5
505.99	1067.5
506.207	1034.5
506.423	1037.5
506.64	985.5
506.856	996.5
507.073	1012.5
507.289	995.5
507.506	988.5
507.722	983.5
507.939	996.5
508.155	973.5
508.372	983.5
508.588	951.5
508.805	939.5
509.021	947.5
509.238	946.5
509.454	930.5
509.67	929.5
509.887	927.5
510.103	945.5
510.319	919.5
510.536	906.5
510.752	916.5
510.968	899.5
511.184	927.5
511.401	936.5
511.617	903.5
511.833	907.5
512.049	912.5
512.265	923.5
512.481	914.5
512.698	881.5
512.914	894.5
513.13	924.5
513.346	897.5
513.562	899.5
513.778	925.5
513.994	902.5
514.21	908.5
514.426	888.5
