Data from Ni(NO3)2Standard.Agarose3%.GreenCap.LampEnergy5.5.E.O_HRD10591_14-42-33-188.txt Node
Date: Mon Jul 22 14:42:33 EDT 2019
User: cochatt
Spectrometer: HR+D1059
Trigger mode: 1
Integration Time (sec): 1.000000E-1
Scans to average: 1
Electric dark correction enabled: true
Nonlinearity correction enabled: false
Boxcar width: 0
XAxis mode: Wavelengths
Number of Pixels in Spectrum: 2048
>>>>>Begin Spectral Data<<<<<
223.165	-11.62
223.4	-11.62
223.635	-11.62
223.869	-14.62
224.104	-12.62
224.338	-20.62
224.573	-20.62
224.808	-16.62
225.042	0.38
225.277	-11.62
225.511	1.38
225.746	11.38
225.98	-1.62
226.215	8.38
226.449	14.38
226.683	9.38
226.918	34.38
227.152	30.38
227.387	29.38
227.621	45.38
227.856	44.38
228.09	34.38
228.324	40.38
228.559	62.38
228.793	60.38
229.027	52.38
229.262	71.38
229.496	61.38
229.73	60.38
229.964	77.38
230.199	75.38
230.433	83.38
230.667	85.38
230.901	82.38
231.136	77.38
231.37	87.38
231.604	79.38
231.838	68.38
232.072	83.38
232.306	84.38
232.541	93.38
232.775	81.38
233.009	90.38
233.243	82.38
233.477	77.38
233.711	77.38
233.945	95.38
234.179	76.38
234.413	77.38
234.647	86.38
234.881	81.38
235.115	78.38
235.349	87.38
235.583	58.38
235.817	88.38
236.051	78.38
236.285	79.38
236.519	73.38
236.753	73.38
236.987	75.38
237.221	72.38
237.455	71.38
237.689	73.38
237.922	71.38
238.156	77.38
238.39	79.38
238.624	66.38
238.858	81.38
239.091	85.38
239.325	83.38
239.559	77.38
239.793	88.38
240.027	80.38
240.26	85.38
240.494	78.38
240.728	76.38
240.961	62.38
241.195	81.38
241.429	61.38
241.662	79.38
241.896	76.38
242.13	76.38
242.363	84.38
242.597	74.38
242.83	76.38
243.064	76.38
243.298	76.38
243.531	76.38
243.765	87.38
243.998	86.38
244.232	77.38
244.465	81.38
244.699	81.38
244.932	64.38
245.166	91.38
245.399	86.38
245.633	77.38
245.866	70.38
246.099	84.38
246.333	78.38
246.566	77.38
246.8	78.38
247.033	87.38
247.266	85.38
247.5	87.38
247.733	84.38
247.966	69.38
248.2	78.38
248.433	97.38
248.666	87.38
248.899	73.38
249.133	69.38
249.366	89.38
249.599	63.38
249.832	87.38
250.066	99.38
250.299	87.38
250.532	80.38
250.765	69.38
250.998	74.38
251.231	64.38
251.465	71.38
251.698	76.38
251.931	88.38
252.164	86.38
252.397	66.38
252.63	81.38
252.863	88.38
253.096	75.38
253.329	78.38
253.562	73.38
253.795	87.38
254.028	83.38
254.261	69.38
254.494	90.38
254.727	63.38
254.96	76.38
255.193	81.38
255.426	82.38
255.659	79.38
255.892	82.38
256.124	80.38
256.357	80.38
256.59	86.38
256.823	62.38
257.056	83.38
257.289	89.38
257.521	80.38
257.754	81.38
257.987	86.38
258.22	93.38
258.452	90.38
258.685	80.38
258.918	93.38
259.151	83.38
259.383	97.38
259.616	102.38
259.849	75.38
260.081	91.38
260.314	83.38
260.547	82.38
260.779	74.38
261.012	89.38
261.244	67.38
261.477	98.38
261.71	72.38
261.942	82.38
262.175	79.38
262.407	71.38
262.64	84.38
262.872	74.38
263.105	82.38
263.337	92.38
263.57	79.38
263.802	78.38
264.035	93.38
264.267	84.38
264.499	82.38
264.732	81.38
264.964	79.38
265.197	85.38
265.429	82.38
265.661	77.38
265.894	81.38
266.126	75.38
266.358	92.38
266.591	78.38
266.823	70.38
267.055	86.38
267.287	93.38
267.52	90.38
267.752	84.38
267.984	91.38
268.216	80.38
268.448	84.38
268.681	75.38
268.913	78.38
269.145	99.38
269.377	92.38
269.609	83.38
269.841	76.38
270.073	72.38
270.306	86.38
270.538	71.38
270.77	71.38
271.002	81.38
271.234	77.38
271.466	77.38
271.698	78.38
271.93	86.38
272.162	70.38
272.394	95.38
272.626	83.38
272.858	85.38
273.09	90.38
273.322	90.38
273.553	77.38
273.785	84.38
274.017	68.38
274.249	81.38
274.481	70.38
274.713	87.38
274.945	86.38
275.176	89.38
275.408	93.38
275.64	89.38
275.872	78.38
276.104	88.38
276.335	80.38
276.567	78.38
276.799	86.38
277.031	74.38
277.262	79.38
277.494	68.38
277.726	90.38
277.957	79.38
278.189	89.38
278.421	83.38
278.652	89.38
278.884	87.38
279.115	81.38
279.347	96.38
279.579	93.38
279.81	63.38
280.042	91.38
280.273	89.38
280.505	79.38
280.736	89.38
280.968	85.38
281.199	87.38
281.431	78.38
281.662	87.38
281.894	83.38
282.125	98.38
282.356	104.38
282.588	84.38
282.819	92.38
283.051	94.38
283.282	98.38
283.513	98.38
283.745	83.38
283.976	91.38
284.207	78.38
284.439	81.38
284.67	80.38
284.901	77.38
285.132	90.38
285.364	90.38
285.595	81.38
285.826	88.38
286.057	87.38
286.288	86.38
286.52	90.38
286.751	72.38
286.982	97.38
287.213	88.38
287.444	85.38
287.675	88.38
287.906	91.38
288.138	88.38
288.369	79.38
288.6	77.38
288.831	71.38
289.062	85.38
289.293	84.38
289.524	76.38
289.755	72.38
289.986	96.38
290.217	91.38
290.448	78.38
290.679	88.38
290.91	89.38
291.141	93.38
291.371	82.38
291.602	92.38
291.833	83.38
292.064	101.38
292.295	90.38
292.526	87.38
292.757	70.38
292.987	88.38
293.218	82.38
293.449	76.38
293.68	87.38
293.91	73.38
294.141	84.38
294.372	85.38
294.603	81.38
294.833	83.38
295.064	84.38
295.295	89.38
295.525	84.38
295.756	96.38
295.987	94.38
296.217	77.38
296.448	94.38
296.679	86.38
296.909	88.38
297.14	90.38
297.37	83.38
297.601	94.38
297.831	80.38
298.062	90.38
298.292	77.38
298.523	91.38
298.753	86.38
298.984	100.38
299.214	71.38
299.445	96.38
299.675	78.38
299.905	91.38
300.136	84.38
300.366	91.38
300.597	76.38
300.827	76.38
301.057	98.38
301.288	78.38
301.518	82.38
301.748	101.38
301.979	94.38
302.209	87.38
302.439	71.38
302.669	84.38
302.9	77.38
303.13	94.38
303.36	100.38
303.59	78.38
303.82	82.38
304.051	78.38
304.281	93.38
304.511	94.38
304.741	85.38
304.971	80.38
305.201	90.38
305.431	100.38
305.661	75.38
305.891	95.38
306.121	94.38
306.352	87.38
306.582	63.38
306.812	103.38
307.042	100.38
307.272	94.38
307.502	91.38
307.731	89.38
307.961	81.38
308.191	84.38
308.421	88.38
308.651	82.38
308.881	80.38
309.111	91.38
309.341	93.38
309.571	97.38
309.8	100.38
310.03	80.38
310.26	78.38
310.49	80.38
310.72	82.38
310.949	93.38
311.179	79.38
311.409	102.38
311.639	105.38
311.868	90.38
312.098	96.38
312.328	99.38
312.557	69.38
312.787	76.38
313.017	96.38
313.246	97.38
313.476	92.38
313.706	91.38
313.935	93.38
314.165	94.38
314.394	90.38
314.624	86.38
314.853	80.38
315.083	75.38
315.312	85.38
315.542	90.38
315.771	83.38
316.001	87.38
316.23	86.38
316.46	90.38
316.689	84.38
316.919	74.38
317.148	105.38
317.377	108.38
317.607	82.38
317.836	87.38
318.065	96.38
318.295	92.38
318.524	81.38
318.753	82.38
318.983	95.38
319.212	77.38
319.441	81.38
319.67	98.38
319.9	83.38
320.129	107.38
320.358	91.38
320.587	85.38
320.816	100.38
321.046	72.38
321.275	77.38
321.504	87.38
321.733	77.38
321.962	104.38
322.191	103.38
322.42	100.38
322.649	94.38
322.878	101.38
323.108	88.38
323.337	93.38
323.566	105.38
323.795	92.38
324.024	77.38
324.253	91.38
324.482	81.38
324.71	88.38
324.939	91.38
325.168	88.38
325.397	79.38
325.626	84.38
325.855	78.38
326.084	81.38
326.313	86.38
326.542	80.38
326.77	86.38
326.999	87.38
327.228	85.38
327.457	83.38
327.686	84.38
327.914	98.38
328.143	96.38
328.372	97.38
328.6	92.38
328.829	80.38
329.058	91.38
329.287	93.38
329.515	86.38
329.744	85.38
329.972	72.38
330.201	76.38
330.43	104.38
330.658	74.38
330.887	85.38
331.115	85.38
331.344	84.38
331.572	86.38
331.801	105.38
332.03	80.38
332.258	104.38
332.486	85.38
332.715	90.38
332.943	86.38
333.172	86.38
333.4	94.38
333.629	87.38
333.857	95.38
334.085	82.38
334.314	80.38
334.542	89.38
334.771	100.38
334.999	89.38
335.227	103.38
335.455	80.38
335.684	78.38
335.912	99.38
336.14	87.38
336.369	91.38
336.597	98.38
336.825	97.38
337.053	84.38
337.281	84.38
337.51	80.38
337.738	84.38
337.966	83.38
338.194	85.38
338.422	91.38
338.65	90.38
338.878	85.38
339.106	97.38
339.334	87.38
339.562	105.38
339.79	98.38
340.018	87.38
340.246	83.38
340.474	97.38
340.702	87.38
340.93	94.38
341.158	78.38
341.386	90.38
341.614	82.38
341.842	78.38
342.07	80.38
342.298	86.38
342.526	72.38
342.754	81.38
342.981	81.38
343.209	87.38
343.437	104.38
343.665	91.38
343.893	91.38
344.12	98.38
344.348	91.38
344.576	77.38
344.804	80.38
345.031	97.38
345.259	82.38
345.487	86.38
345.714	94.38
345.942	91.38
346.17	93.38
346.397	89.38
346.625	99.38
346.853	91.38
347.08	73.38
347.308	69.38
347.535	102.38
347.763	80.38
347.99	77.38
348.218	82.38
348.445	84.38
348.673	97.38
348.9	84.38
349.128	81.38
349.355	78.38
349.583	91.38
349.81	92.38
350.037	88.38
350.265	82.38
350.492	87.38
350.72	83.38
350.947	81.38
351.174	99.38
351.402	83.38
351.629	94.38
351.856	87.38
352.083	82.38
352.311	78.38
352.538	74.38
352.765	94.38
352.992	88.38
353.22	83.38
353.447	78.38
353.674	88.38
353.901	100.38
354.128	93.38
354.355	85.38
354.583	99.38
354.81	61.38
355.037	90.38
355.264	98.38
355.491	93.38
355.718	82.38
355.945	93.38
356.172	87.38
356.399	82.38
356.626	81.38
356.853	83.38
357.08	85.38
357.307	89.38
357.534	80.38
357.761	88.38
357.988	94.38
358.215	77.38
358.441	104.38
358.668	88.38
358.895	90.38
359.122	90.38
359.349	98.38
359.576	91.38
359.802	89.38
360.029	107.38
360.256	77.38
360.483	93.38
360.709	78.38
360.936	89.38
361.163	99.38
361.39	78.38
361.616	90.38
361.843	91.38
362.07	104.38
362.296	89.38
362.523	88.38
362.749	83.38
362.976	76.38
363.203	89.38
363.429	89.38
363.656	82.38
363.882	93.38
364.109	79.38
364.335	86.38
364.562	90.38
364.788	91.38
365.015	93.38
365.241	87.38
365.468	89.38
365.694	77.38
365.92	89.38
366.147	102.38
366.373	81.38
366.599	93.38
366.826	88.38
367.052	90.38
367.278	74.38
367.505	92.38
367.731	77.38
367.957	81.38
368.184	90.38
368.41	77.38
368.636	98.38
368.862	102.38
369.089	88.38
369.315	81.38
369.541	85.38
369.767	96.38
369.993	94.38
370.219	81.38
370.445	83.38
370.672	78.38
370.898	82.38
371.124	82.38
371.35	84.38
371.576	89.38
371.802	78.38
372.028	77.38
372.254	95.38
372.48	85.38
372.706	84.38
372.932	87.38
373.158	77.38
373.384	97.38
373.61	98.38
373.835	82.38
374.061	98.38
374.287	95.38
374.513	86.38
374.739	90.38
374.965	93.38
375.191	72.38
375.416	84.38
375.642	87.38
375.868	92.38
376.094	71.38
376.319	69.38
376.545	80.38
376.771	78.38
376.997	85.38
377.222	83.38
377.448	93.38
377.674	82.38
377.899	100.38
378.125	92.38
378.35	89.38
378.576	82.38
378.802	82.38
379.027	95.38
379.253	98.38
379.478	79.38
379.704	87.38
379.929	89.38
380.155	84.38
380.38	95.38
380.606	110.38
380.831	90.38
381.057	72.38
381.282	72.38
381.507	80.38
381.733	86.38
381.958	85.38
382.184	91.38
382.409	86.38
382.634	94.38
382.86	83.38
383.085	90.38
383.31	83.38
383.535	93.38
383.761	97.38
383.986	101.38
384.211	93.38
384.436	84.38
384.662	82.38
384.887	84.38
385.112	94.38
385.337	84.38
385.562	78.38
385.787	86.38
386.013	94.38
386.238	86.38
386.463	91.38
386.688	92.38
386.913	93.38
387.138	72.38
387.363	95.38
387.588	81.38
387.813	86.38
388.038	77.38
388.263	80.38
388.488	97.38
388.713	96.38
388.938	81.38
389.163	81.38
389.387	75.38
389.612	88.38
389.837	78.38
390.062	95.38
390.287	98.38
390.512	95.38
390.736	99.38
390.961	90.38
391.186	80.38
391.411	92.38
391.636	85.38
391.86	77.38
392.085	86.38
392.31	83.38
392.534	99.38
392.759	76.38
392.984	83.38
393.208	89.38
393.433	86.38
393.658	80.38
393.882	100.38
394.107	86.38
394.331	93.38
394.556	86.38
394.78	100.38
395.005	83.38
395.229	93.38
395.454	85.38
395.678	71.38
395.903	84.38
396.127	97.38
396.352	98.38
396.576	84.38
396.801	82.38
397.025	96.38
397.249	89.38
397.474	92.38
397.698	92.38
397.922	77.38
398.147	95.38
398.371	74.38
398.595	88.38
398.82	106.38
399.044	93.38
399.268	84.38
399.492	105.38
399.717	88.38
399.941	82.38
400.165	83.38
400.389	96.38
400.613	70.38
400.837	79.38
401.062	78.38
401.286	81.38
401.51	85.38
401.734	90.38
401.958	92.38
402.182	82.38
402.406	78.38
402.63	89.38
402.854	84.38
403.078	83.38
403.302	83.38
403.526	78.38
403.75	90.38
403.974	76.38
404.198	86.38
404.422	92.38
404.645	80.38
404.869	98.38
405.093	85.38
405.317	93.38
405.541	83.38
405.765	85.38
405.988	80.38
406.212	102.38
406.436	85.38
406.66	80.38
406.883	90.38
407.107	101.38
407.331	76.38
407.555	87.38
407.778	89.38
408.002	90.38
408.226	94.38
408.449	85.38
408.673	75.38
408.896	93.38
409.12	90.38
409.344	66.38
409.567	106.38
409.791	93.38
410.014	79.38
410.238	91.38
410.461	85.38
410.685	85.38
410.908	84.38
411.132	87.38
411.355	87.38
411.578	78.38
411.802	83.38
412.025	98.38
412.249	80.38
412.472	80.38
412.695	87.38
412.919	78.38
413.142	88.38
413.365	88.38
413.589	97.38
413.812	73.38
414.035	77.38
414.258	80.38
414.482	81.38
414.705	88.38
414.928	78.38
415.151	84.38
415.374	89.38
415.597	98.38
415.821	93.38
416.044	75.38
416.267	78.38
416.49	87.38
416.713	93.38
416.936	82.38
417.159	81.38
417.382	92.38
417.605	86.38
417.828	75.38
418.051	86.38
418.274	94.38
418.497	105.38
418.72	86.38
418.943	82.38
419.166	85.38
419.389	98.38
419.611	91.38
419.834	82.38
420.057	85.38
420.28	89.38
420.503	83.38
420.726	92.38
420.948	95.38
421.171	81.38
421.394	91.38
421.617	86.38
421.839	89.38
422.062	94.38
422.285	92.38
422.507	88.38
422.73	83.38
422.953	102.38
423.175	87.38
423.398	75.38
423.621	91.38
423.843	84.38
424.066	78.38
424.288	80.38
424.511	88.38
424.733	90.38
424.956	85.38
425.178	92.38
425.401	85.38
425.623	81.38
425.846	88.38
426.068	76.38
426.291	86.38
426.513	96.38
426.735	83.38
426.958	90.38
427.18	80.38
427.402	74.38
427.625	72.38
427.847	77.38
428.069	83.38
428.292	77.38
428.514	99.38
428.736	89.38
428.958	84.38
429.181	83.38
429.403	92.38
429.625	84.38
429.847	75.38
430.069	90.38
430.292	97.38
430.514	95.38
430.736	88.38
430.958	85.38
431.18	76.38
431.402	92.38
431.624	82.38
431.846	79.38
432.068	96.38
432.29	89.38
432.512	94.38
432.734	76.38
432.956	92.38
433.178	73.38
433.4	72.38
433.622	89.38
433.844	88.38
434.066	76.38
434.287	80.38
434.509	88.38
434.731	84.38
434.953	78.38
435.175	75.38
435.397	96.38
435.618	88.38
435.84	80.38
436.062	78.38
436.284	81.38
436.505	93.38
436.727	92.38
436.949	64.38
437.17	75.38
437.392	83.38
437.614	87.38
437.835	80.38
438.057	81.38
438.278	94.38
438.5	77.38
438.721	84.38
438.943	84.38
439.165	84.38
439.386	94.38
439.608	90.38
439.829	81.38
440.05	88.38
440.272	80.38
440.493	84.38
440.715	82.38
440.936	90.38
441.158	78.38
441.379	107.38
441.6	77.38
441.822	100.38
442.043	76.38
442.264	94.38
442.486	91.38
442.707	95.38
442.928	83.38
443.149	94.38
443.371	95.38
443.592	87.38
443.813	89.38
444.034	89.38
444.255	85.38
444.476	79.38
444.698	95.38
444.919	77.38
445.14	203.38
445.361	138.38
445.582	105.38
445.803	90.38
446.024	87.38
446.245	81.38
446.466	86.38
446.687	89.38
446.908	89.38
447.129	93.38
447.35	74.38
447.571	107.38
447.792	88.38
448.013	85.38
448.234	82.38
448.455	90.38
448.675	82.38
448.896	85.38
449.117	85.38
449.338	96.38
449.559	85.38
449.779	86.38
450	86.38
450.221	81.38
450.442	97.38
450.662	98.38
450.883	78.38
451.104	77.38
451.324	86.38
451.545	82.38
451.766	94.38
451.986	83.38
452.207	84.38
452.428	82.38
452.648	84.38
452.869	89.38
453.089	86.38
453.31	72.38
453.53	91.38
453.751	97.38
453.971	96.38
454.192	109.38
454.412	81.38
454.633	88.38
454.853	75.38
455.073	89.38
455.294	82.38
455.514	91.38
455.734	78.38
455.955	95.38
456.175	91.38
456.395	81.38
456.616	85.38
456.836	85.38
457.056	93.38
457.276	83.38
457.497	98.38
457.717	87.38
457.937	85.38
458.157	82.38
458.377	82.38
458.598	97.38
458.818	82.38
459.038	81.38
459.258	81.38
459.478	76.38
459.698	88.38
459.918	68.38
460.138	75.38
460.358	95.38
460.578	99.38
460.798	85.38
461.018	84.38
461.238	93.38
461.458	83.38
461.678	88.38
461.898	88.38
462.118	102.38
462.338	92.38
462.558	76.38
462.777	87.38
462.997	80.38
463.217	98.38
463.437	92.38
463.657	81.38
463.876	83.38
464.096	84.38
464.316	89.38
464.536	86.38
464.755	92.38
464.975	81.38
465.195	83.38
465.414	77.38
465.634	77.38
465.854	88.38
466.073	96.38
466.293	94.38
466.512	89.38
466.732	93.38
466.951	99.38
467.171	79.38
467.391	90.38
467.61	81.38
467.829	85.38
468.049	102.38
468.268	88.38
468.488	81.38
468.707	78.38
468.927	95.38
469.146	103.38
469.365	85.38
469.585	89.38
469.804	87.38
470.023	100.38
470.243	90.38
470.462	93.38
470.681	90.38
470.901	93.38
471.12	85.38
471.339	84.38
471.558	73.38
471.777	90.38
471.997	93.38
472.216	91.38
472.435	87.38
472.654	93.38
472.873	85.38
473.092	91.38
473.311	74.38
473.53	94.38
473.749	87.38
473.968	80.38
474.187	74.38
474.406	95.38
474.625	104.38
474.844	84.38
475.063	82.38
475.282	79.38
475.501	84.38
475.72	83.38
475.939	89.38
476.158	79.38
476.377	88.38
476.596	85.38
476.814	96.38
477.033	89.38
477.252	88.38
477.471	84.38
477.69	103.38
477.908	88.38
478.127	98.38
478.346	89.38
478.564	99.38
478.783	89.38
479.002	105.38
479.22	81.38
479.439	104.38
479.658	90.38
479.876	74.38
480.095	85.38
480.313	94.38
480.532	101.38
480.751	98.38
480.969	83.38
481.188	88.38
481.406	85.38
481.624	91.38
481.843	91.38
482.061	94.38
482.28	97.38
482.498	101.38
482.717	88.38
482.935	91.38
483.153	80.38
483.372	85.38
483.59	94.38
483.808	78.38
484.027	79.38
484.245	68.38
484.463	84.38
484.681	89.38
484.9	84.38
485.118	95.38
485.336	80.38
485.554	83.38
485.772	105.38
485.99	88.38
486.209	91.38
486.427	91.38
486.645	81.38
486.863	91.38
487.081	87.38
487.299	96.38
487.517	94.38
487.735	93.38
487.953	101.38
488.171	108.38
488.389	97.38
488.607	97.38
488.825	89.38
489.043	93.38
489.261	97.38
489.479	78.38
489.696	100.38
489.914	105.38
490.132	91.38
490.35	94.38
490.568	101.38
490.786	97.38
491.003	90.38
491.221	99.38
491.439	93.38
491.657	95.38
491.874	95.38
492.092	97.38
492.31	100.38
492.527	101.38
492.745	91.38
492.963	100.38
493.18	85.38
493.398	86.38
493.615	94.38
493.833	97.38
494.05	90.38
494.268	93.38
494.485	87.38
494.703	100.38
494.92	108.38
495.138	105.38
495.355	98.38
495.573	91.38
495.79	100.38
496.008	100.38
496.225	100.38
496.442	97.38
496.66	105.38
496.877	107.38
497.094	92.38
497.312	107.38
497.529	97.38
497.746	101.38
497.963	90.38
498.181	96.38
498.398	81.38
498.615	105.38
498.832	97.38
499.049	88.38
499.267	102.38
499.484	88.38
499.701	85.38
499.918	101.38
500.135	106.38
500.352	115.38
500.569	117.38
500.786	117.38
501.003	119.38
501.22	104.38
501.437	91.38
501.654	102.38
501.871	104.38
502.088	101.38
502.305	86.38
502.522	93.38
502.739	97.38
502.956	94.38
503.172	81.38
503.389	97.38
503.606	90.38
503.823	100.38
504.04	91.38
504.256	90.38
504.473	95.38
504.69	93.38
504.907	97.38
505.123	108.38
505.34	105.38
505.557	85.38
505.773	97.38
505.99	88.38
506.207	82.38
506.423	91.38
506.64	83.38
506.856	100.38
507.073	108.38
507.289	97.38
507.506	96.38
507.722	88.38
507.939	103.38
508.155	85.38
508.372	91.38
508.588	94.38
508.805	100.38
509.021	76.38
509.238	94.38
509.454	78.38
509.67	91.38
509.887	94.38
510.103	92.38
510.319	108.38
510.536	87.38
510.752	91.38
510.968	92.38
511.184	92.38
511.401	82.38
511.617	86.38
511.833	88.38
512.049	88.38
512.265	97.38
512.481	85.38
512.698	81.38
512.914	85.38
513.13	96.38
513.346	90.38
513.562	94.38
513.778	96.38
513.994	102.38
514.21	77.38
514.426	93.38
514.642	96.38
514.858	94.38
515.074	97.38
515.29	88.38
515.506	94.38
515.721	104.38
515.937	85.38
516.153	97.38
516.369	87.38
516.585	95.38
516.801	91.38
517.016	91.38
517.232	77.38
517.448	94.38
517.664	114.38
517.879	95.38
