Data from Ni(NO3)2@0.0625M.TitratingCurve.Agarose3%dH2O.NegLispCup.LampEnergy10.LIBS07252019_HRD10591_18-13-22-569.txt Node
Date: Thu Jul 25 18:13:22 EDT 2019
User: cochatt
Spectrometer: HR+D1059
Trigger mode: 1
Integration Time (sec): 1.000000E-1
Scans to average: 1
Electric dark correction enabled: true
Nonlinearity correction enabled: false
Boxcar width: 0
XAxis mode: Wavelengths
Number of Pixels in Spectrum: 2048
>>>>>Begin Spectral Data<<<<<
223.165	-14.94
223.4	-14.94
223.635	-14.94
223.869	-27.94
224.104	-26.94
224.338	-7.94
224.573	-5.94
224.808	-12.94
225.042	-12.94
225.277	1.06
225.511	-7.94
225.746	-14.94
225.98	24.06
226.215	8.06
226.449	20.06
226.683	22.06
226.918	26.06
227.152	31.06
227.387	34.06
227.621	35.06
227.856	36.06
228.09	53.06
228.324	40.06
228.559	50.06
228.793	71.06
229.027	93.06
229.262	103.06
229.496	105.06
229.73	102.06
229.964	95.06
230.199	116.06
230.433	112.06
230.667	113.06
230.901	106.06
231.136	119.06
231.37	103.06
231.604	125.06
231.838	132.06
232.072	120.06
232.306	133.06
232.541	115.06
232.775	97.06
233.009	133.06
233.243	134.06
233.477	128.06
233.711	126.06
233.945	127.06
234.179	131.06
234.413	136.06
234.647	121.06
234.881	125.06
235.115	136.06
235.349	128.06
235.583	126.06
235.817	126.06
236.051	129.06
236.285	142.06
236.519	138.06
236.753	137.06
236.987	125.06
237.221	119.06
237.455	128.06
237.689	140.06
237.922	139.06
238.156	137.06
238.39	133.06
238.624	149.06
238.858	145.06
239.091	121.06
239.325	143.06
239.559	142.06
239.793	138.06
240.027	143.06
240.26	145.06
240.494	149.06
240.728	142.06
240.961	150.06
241.195	144.06
241.429	149.06
241.662	159.06
241.896	164.06
242.13	161.06
242.363	153.06
242.597	161.06
242.83	139.06
243.064	167.06
243.298	168.06
243.531	170.06
243.765	162.06
243.998	159.06
244.232	167.06
244.465	158.06
244.699	170.06
244.932	175.06
245.166	170.06
245.399	177.06
245.633	170.06
245.866	154.06
246.099	188.06
246.333	175.06
246.566	174.06
246.8	157.06
247.033	193.06
247.266	173.06
247.5	181.06
247.733	184.06
247.966	190.06
248.2	184.06
248.433	200.06
248.666	191.06
248.899	180.06
249.133	182.06
249.366	208.06
249.599	201.06
249.832	202.06
250.066	183.06
250.299	193.06
250.532	199.06
250.765	203.06
250.998	199.06
251.231	213.06
251.465	194.06
251.698	210.06
251.931	207.06
252.164	196.06
252.397	208.06
252.63	234.06
252.863	227.06
253.096	225.06
253.329	211.06
253.562	223.06
253.795	205.06
254.028	229.06
254.261	221.06
254.494	224.06
254.727	230.06
254.96	217.06
255.193	222.06
255.426	228.06
255.659	225.06
255.892	233.06
256.124	228.06
256.357	219.06
256.59	211.06
256.823	224.06
257.056	209.06
257.289	207.06
257.521	216.06
257.754	245.06
257.987	226.06
258.22	243.06
258.452	249.06
258.685	219.06
258.918	214.06
259.151	258.06
259.383	243.06
259.616	231.06
259.849	241.06
260.081	245.06
260.314	245.06
260.547	249.06
260.779	242.06
261.012	261.06
261.244	245.06
261.477	253.06
261.71	233.06
261.942	234.06
262.175	247.06
262.407	258.06
262.64	246.06
262.872	249.06
263.105	243.06
263.337	256.06
263.57	254.06
263.802	272.06
264.035	264.06
264.267	273.06
264.499	259.06
264.732	262.06
264.964	268.06
265.197	243.06
265.429	263.06
265.661	267.06
265.894	270.06
266.126	263.06
266.358	289.06
266.591	275.06
266.823	279.06
267.055	266.06
267.287	276.06
267.52	270.06
267.752	288.06
267.984	262.06
268.216	296.06
268.448	281.06
268.681	304.06
268.913	280.06
269.145	289.06
269.377	282.06
269.609	284.06
269.841	284.06
270.073	288.06
270.306	270.06
270.538	300.06
270.77	290.06
271.002	285.06
271.234	301.06
271.466	296.06
271.698	292.06
271.93	295.06
272.162	293.06
272.394	317.06
272.626	293.06
272.858	293.06
273.09	292.06
273.322	289.06
273.553	298.06
273.785	312.06
274.017	320.06
274.249	294.06
274.481	288.06
274.713	307.06
274.945	331.06
275.176	320.06
275.408	320.06
275.64	313.06
275.872	343.06
276.104	324.06
276.335	317.06
276.567	326.06
276.799	324.06
277.031	324.06
277.262	326.06
277.494	318.06
277.726	328.06
277.957	337.06
278.189	334.06
278.421	306.06
278.652	315.06
278.884	342.06
279.115	327.06
279.347	339.06
279.579	342.06
279.81	331.06
280.042	341.06
280.273	342.06
280.505	339.06
280.736	341.06
280.968	344.06
281.199	340.06
281.431	353.06
281.662	345.06
281.894	354.06
282.125	345.06
282.356	338.06
282.588	341.06
282.819	356.06
283.051	367.06
283.282	367.06
283.513	368.06
283.745	371.06
283.976	373.06
284.207	372.06
284.439	348.06
284.67	351.06
284.901	376.06
285.132	360.06
285.364	359.06
285.595	385.06
285.826	362.06
286.057	367.06
286.288	361.06
286.52	395.06
286.751	369.06
286.982	379.06
287.213	381.06
287.444	360.06
287.675	394.06
287.906	375.06
288.138	391.06
288.369	388.06
288.6	377.06
288.831	378.06
289.062	371.06
289.293	401.06
289.524	381.06
289.755	385.06
289.986	381.06
290.217	412.06
290.448	380.06
290.679	392.06
290.91	404.06
291.141	385.06
291.371	391.06
291.602	392.06
291.833	405.06
292.064	367.06
292.295	404.06
292.526	398.06
292.757	407.06
292.987	400.06
293.218	382.06
293.449	407.06
293.68	395.06
293.91	401.06
294.141	392.06
294.372	392.06
294.603	403.06
294.833	399.06
295.064	424.06
295.295	395.06
295.525	395.06
295.756	405.06
295.987	412.06
296.217	403.06
296.448	415.06
296.679	417.06
296.909	426.06
297.14	423.06
297.37	421.06
297.601	417.06
297.831	435.06
298.062	424.06
298.292	442.06
298.523	419.06
298.753	426.06
298.984	429.06
299.214	433.06
299.445	434.06
299.675	426.06
299.905	435.06
300.136	422.06
300.366	426.06
300.597	458.06
300.827	446.06
301.057	442.06
301.288	451.06
301.518	460.06
301.748	456.06
301.979	449.06
302.209	459.06
302.439	448.06
302.669	431.06
302.9	449.06
303.13	445.06
303.36	454.06
303.59	457.06
303.82	441.06
304.051	434.06
304.281	458.06
304.511	430.06
304.741	442.06
304.971	445.06
305.201	448.06
305.431	452.06
305.661	464.06
305.891	432.06
306.121	443.06
306.352	437.06
306.582	413.06
306.812	425.06
307.042	447.06
307.272	438.06
307.502	447.06
307.731	420.06
307.961	439.06
308.191	430.06
308.421	435.06
308.651	468.06
308.881	436.06
309.111	434.06
309.341	413.06
309.571	442.06
309.8	439.06
310.03	445.06
310.26	456.06
310.49	437.06
310.72	420.06
310.949	424.06
311.179	449.06
311.409	447.06
311.639	440.06
311.868	443.06
312.098	454.06
312.328	438.06
312.557	453.06
312.787	467.06
313.017	457.06
313.246	457.06
313.476	469.06
313.706	476.06
313.935	477.06
314.165	471.06
314.394	483.06
314.624	496.06
314.853	437.06
315.083	475.06
315.312	472.06
315.542	462.06
315.771	445.06
316.001	453.06
316.23	473.06
316.46	456.06
316.689	440.06
316.919	463.06
317.148	453.06
317.377	479.06
317.607	483.06
317.836	440.06
318.065	469.06
318.295	467.06
318.524	451.06
318.753	459.06
318.983	459.06
319.212	447.06
319.441	446.06
319.67	457.06
319.9	465.06
320.129	465.06
320.358	460.06
320.587	442.06
320.816	461.06
321.046	460.06
321.275	482.06
321.504	455.06
321.733	477.06
321.962	467.06
322.191	454.06
322.42	481.06
322.649	474.06
322.878	468.06
323.108	474.06
323.337	467.06
323.566	451.06
323.795	479.06
324.024	493.06
324.253	513.06
324.482	491.06
324.71	482.06
324.939	474.06
325.168	489.06
325.397	474.06
325.626	490.06
325.855	497.06
326.084	495.06
326.313	498.06
326.542	513.06
326.77	528.06
326.999	526.06
327.228	494.06
327.457	521.06
327.686	523.06
327.914	505.06
328.143	522.06
328.372	502.06
328.6	518.06
328.829	505.06
329.058	493.06
329.287	500.06
329.515	519.06
329.744	511.06
329.972	536.06
330.201	534.06
330.43	529.06
330.658	522.06
330.887	553.06
331.115	554.06
331.344	543.06
331.572	547.06
331.801	563.06
332.03	570.06
332.258	581.06
332.486	590.06
332.715	611.06
332.943	635.06
333.172	669.06
333.4	703.06
333.629	686.06
333.857	682.06
334.085	691.06
334.314	672.06
334.542	649.06
334.771	647.06
334.999	630.06
335.227	626.06
335.455	623.06
335.684	616.06
335.912	607.06
336.14	618.06
336.369	614.06
336.597	608.06
336.825	619.06
337.053	626.06
337.281	613.06
337.51	585.06
337.738	584.06
337.966	559.06
338.194	575.06
338.422	554.06
338.65	577.06
338.878	569.06
339.106	558.06
339.334	565.06
339.562	560.06
339.79	521.06
340.018	545.06
340.246	530.06
340.474	527.06
340.702	538.06
340.93	534.06
341.158	537.06
341.386	531.06
341.614	538.06
341.842	543.06
342.07	527.06
342.298	542.06
342.526	536.06
342.754	538.06
342.981	527.06
343.209	559.06
343.437	573.06
343.665	607.06
343.893	640.06
344.12	665.06
344.348	639.06
344.576	609.06
344.804	586.06
345.031	571.06
345.259	555.06
345.487	548.06
345.714	536.06
345.942	535.06
346.17	516.06
346.397	527.06
346.625	518.06
346.853	509.06
347.08	514.06
347.308	544.06
347.535	535.06
347.763	539.06
347.99	538.06
348.218	522.06
348.445	502.06
348.673	538.06
348.9	531.06
349.128	520.06
349.355	515.06
349.583	515.06
349.81	522.06
350.037	503.06
350.265	493.06
350.492	520.06
350.72	499.06
350.947	504.06
351.174	515.06
351.402	513.06
351.629	495.06
351.856	516.06
352.083	481.06
352.311	520.06
352.538	509.06
352.765	513.06
352.992	478.06
353.22	487.06
353.447	481.06
353.674	491.06
353.901	489.06
354.128	507.06
354.355	474.06
354.583	495.06
354.81	488.06
355.037	521.06
355.264	499.06
355.491	500.06
355.718	484.06
355.945	515.06
356.172	520.06
356.399	503.06
356.626	510.06
356.853	521.06
357.08	507.06
357.307	505.06
357.534	512.06
357.761	481.06
357.988	515.06
358.215	499.06
358.441	505.06
358.668	517.06
358.895	513.06
359.122	493.06
359.349	496.06
359.576	495.06
359.802	500.06
360.029	497.06
360.256	509.06
360.483	494.06
360.709	497.06
360.936	497.06
361.163	505.06
361.39	523.06
361.616	493.06
361.843	500.06
362.07	489.06
362.296	486.06
362.523	493.06
362.749	493.06
362.976	510.06
363.203	515.06
363.429	503.06
363.656	495.06
363.882	499.06
364.109	507.06
364.335	510.06
364.562	487.06
364.788	497.06
365.015	505.06
365.241	522.06
365.468	519.06
365.694	488.06
365.92	489.06
366.147	495.06
366.373	499.06
366.599	498.06
366.826	505.06
367.052	512.06
367.278	512.06
367.505	503.06
367.731	510.06
367.957	499.06
368.184	520.06
368.41	494.06
368.636	513.06
368.862	510.06
369.089	505.06
369.315	507.06
369.541	536.06
369.767	525.06
369.993	540.06
370.219	513.06
370.445	532.06
370.672	524.06
370.898	540.06
371.124	544.06
371.35	563.06
371.576	543.06
371.802	549.06
372.028	526.06
372.254	537.06
372.48	536.06
372.706	563.06
372.932	578.06
373.158	561.06
373.384	561.06
373.61	544.06
373.835	533.06
374.061	559.06
374.287	559.06
374.513	555.06
374.739	573.06
374.965	598.06
375.191	615.06
375.416	592.06
375.642	590.06
375.868	590.06
376.094	573.06
376.319	556.06
376.545	579.06
376.771	578.06
376.997	560.06
377.222	567.06
377.448	533.06
377.674	545.06
377.899	549.06
378.125	561.06
378.35	524.06
378.576	571.06
378.802	533.06
379.027	543.06
379.253	537.06
379.478	556.06
379.704	545.06
379.929	550.06
380.155	521.06
380.38	534.06
380.606	539.06
380.831	552.06
381.057	543.06
381.282	553.06
381.507	565.06
381.733	534.06
381.958	541.06
382.184	571.06
382.409	561.06
382.634	565.06
382.86	578.06
383.085	573.06
383.31	602.06
383.535	607.06
383.761	596.06
383.986	605.06
384.211	630.06
384.436	657.06
384.662	670.06
384.887	672.06
385.112	631.06
385.337	677.06
385.562	636.06
385.787	650.06
386.013	667.06
386.238	660.06
386.463	673.06
386.688	665.06
386.913	678.06
387.138	649.06
387.363	651.06
387.588	651.06
387.813	641.06
388.038	639.06
388.263	644.06
388.488	645.06
388.713	661.06
388.938	642.06
389.163	633.06
389.387	645.06
389.612	634.06
389.837	647.06
390.062	624.06
390.287	646.06
390.512	648.06
390.736	645.06
390.961	667.06
391.186	667.06
391.411	715.06
391.636	724.06
391.86	729.06
392.085	729.06
392.31	740.06
392.534	755.06
392.759	677.06
392.984	688.06
393.208	696.06
393.433	681.06
393.658	677.06
393.882	703.06
394.107	707.06
394.331	687.06
394.556	691.06
394.78	720.06
395.005	719.06
395.229	716.06
395.454	744.06
395.678	742.06
395.903	734.06
396.127	733.06
396.352	677.06
396.576	670.06
396.801	687.06
397.025	705.06
397.249	712.06
397.474	747.06
397.698	734.06
397.922	742.06
398.147	720.06
398.371	747.06
398.595	769.06
398.82	789.06
399.044	842.06
399.268	960.06
399.492	1124.06
399.717	1290.06
399.941	1257.06
400.165	1103.06
400.389	967.06
400.613	900.06
400.837	836.06
401.062	813.06
401.286	818.06
401.51	815.06
401.734	802.06
401.958	846.06
402.182	840.06
402.406	852.06
402.63	856.06
402.854	873.06
403.078	891.06
403.302	911.06
403.526	930.06
403.75	950.06
403.974	1009.06
404.198	981.06
404.422	973.06
404.645	949.06
404.869	968.06
405.093	919.06
405.317	882.06
405.541	914.06
405.765	897.06
405.988	906.06
406.212	897.06
406.436	916.06
406.66	925.06
406.883	936.06
407.107	962.06
407.331	1051.06
407.555	1082.06
407.778	1059.06
408.002	1027.06
408.226	982.06
408.449	979.06
408.673	939.06
408.896	917.06
409.12	925.06
409.344	934.06
409.567	931.06
409.791	957.06
410.014	916.06
410.238	925.06
410.461	928.06
410.685	906.06
410.908	891.06
411.132	906.06
411.355	839.06
411.578	871.06
411.802	844.06
412.025	844.06
412.249	854.06
412.472	850.06
412.695	826.06
412.919	809.06
413.142	811.06
413.365	832.06
413.589	820.06
413.812	824.06
414.035	799.06
414.258	808.06
414.482	843.06
414.705	831.06
414.928	826.06
415.151	835.06
415.374	838.06
415.597	833.06
415.821	807.06
416.044	799.06
416.267	785.06
416.49	806.06
416.713	786.06
416.936	819.06
417.159	806.06
417.382	816.06
417.605	801.06
417.828	830.06
418.051	855.06
418.274	829.06
418.497	791.06
418.72	832.06
418.943	826.06
419.166	899.06
419.389	943.06
419.611	915.06
419.834	879.06
420.057	858.06
420.28	828.06
420.503	808.06
420.726	808.06
420.948	758.06
421.171	798.06
421.394	824.06
421.617	815.06
421.839	786.06
422.062	811.06
422.285	787.06
422.507	823.06
422.73	829.06
422.953	826.06
423.175	838.06
423.398	850.06
423.621	847.06
423.843	880.06
424.066	871.06
424.288	877.06
424.511	856.06
424.733	825.06
424.956	819.06
425.178	824.06
425.401	816.06
425.623	815.06
425.846	780.06
426.068	790.06
426.291	761.06
426.513	758.06
426.735	733.06
426.958	760.06
427.18	727.06
427.402	749.06
427.625	728.06
427.847	714.06
428.069	741.06
428.292	732.06
428.514	736.06
428.736	730.06
428.958	703.06
429.181	708.06
429.403	728.06
429.625	702.06
429.847	680.06
430.069	687.06
430.292	727.06
430.514	695.06
430.736	694.06
430.958	725.06
431.18	689.06
431.402	693.06
431.624	728.06
431.846	699.06
432.068	745.06
432.29	728.06
432.512	712.06
432.734	707.06
432.956	709.06
433.178	743.06
433.4	730.06
433.622	725.06
433.844	738.06
434.066	721.06
434.287	734.06
434.509	758.06
434.731	813.06
434.953	825.06
435.175	830.06
435.397	817.06
435.618	757.06
435.84	754.06
436.062	719.06
436.284	721.06
436.505	709.06
436.727	725.06
436.949	727.06
437.17	752.06
437.392	695.06
437.614	691.06
437.835	660.06
438.057	687.06
438.278	691.06
438.5	697.06
438.721	688.06
438.943	712.06
439.165	706.06
439.386	714.06
439.608	717.06
439.829	719.06
440.05	709.06
440.272	742.06
440.493	717.06
440.715	740.06
440.936	737.06
441.158	766.06
441.379	783.06
441.6	798.06
441.822	832.06
442.043	797.06
442.264	783.06
442.486	793.06
442.707	808.06
442.928	829.06
443.149	785.06
443.371	815.06
443.592	822.06
443.813	824.06
444.034	854.06
444.255	861.06
444.476	903.06
444.698	942.06
444.919	1010.06
445.14	1062.06
445.361	944.06
445.582	847.06
445.803	792.06
446.024	771.06
446.245	742.06
446.466	769.06
446.687	713.06
446.908	769.06
447.129	695.06
447.35	711.06
447.571	688.06
447.792	709.06
448.013	685.06
448.234	691.06
448.455	669.06
448.675	678.06
448.896	666.06
449.117	658.06
449.338	670.06
449.559	662.06
449.779	651.06
450	667.06
450.221	639.06
450.442	665.06
450.662	688.06
450.883	707.06
451.104	694.06
451.324	694.06
451.545	704.06
451.766	664.06
451.986	675.06
452.207	666.06
452.428	693.06
452.648	660.06
452.869	666.06
453.089	652.06
453.31	638.06
453.53	667.06
453.751	640.06
453.971	642.06
454.192	670.06
454.412	627.06
454.633	626.06
454.853	639.06
455.073	637.06
455.294	626.06
455.514	626.06
455.734	633.06
455.955	619.06
456.175	636.06
456.395	616.06
456.616	621.06
456.836	627.06
457.056	615.06
457.276	585.06
457.497	619.06
457.717	625.06
457.937	631.06
458.157	648.06
458.377	640.06
458.598	659.06
458.818	689.06
459.038	674.06
459.258	697.06
459.478	693.06
459.698	769.06
459.918	776.06
460.138	798.06
460.358	865.06
460.578	874.06
460.798	863.06
461.018	870.06
461.238	847.06
461.458	833.06
461.678	854.06
461.898	843.06
462.118	854.06
462.338	936.06
462.558	937.06
462.777	988.06
462.997	1069.06
463.217	1186.06
463.437	1181.06
463.657	1055.06
463.876	1007.06
464.096	1011.06
464.316	1025.06
464.536	1023.06
464.755	965.06
464.975	957.06
465.195	889.06
465.414	838.06
465.634	791.06
465.854	764.06
466.073	765.06
466.293	722.06
466.512	705.06
466.732	731.06
466.951	717.06
467.171	717.06
467.391	721.06
467.61	687.06
467.829	701.06
468.049	685.06
468.268	654.06
468.488	649.06
468.707	656.06
468.927	666.06
469.146	654.06
469.365	682.06
469.585	674.06
469.804	695.06
470.023	746.06
470.243	719.06
470.462	723.06
470.681	735.06
470.901	715.06
471.12	709.06
471.339	691.06
471.558	705.06
471.777	675.06
471.997	671.06
472.216	670.06
472.435	662.06
472.654	665.06
472.873	650.06
473.092	666.06
473.311	646.06
473.53	637.06
473.749	652.06
473.968	678.06
474.187	648.06
474.406	656.06
474.625	651.06
474.844	647.06
475.063	661.06
475.282	648.06
475.501	671.06
475.72	687.06
475.939	655.06
476.158	658.06
476.377	685.06
476.596	682.06
476.814	691.06
477.033	671.06
477.252	669.06
477.471	711.06
477.69	727.06
477.908	758.06
478.127	792.06
478.346	779.06
478.564	810.06
478.783	802.06
479.002	829.06
479.22	829.06
479.439	796.06
479.658	803.06
479.876	813.06
480.095	833.06
480.313	846.06
480.532	903.06
480.751	875.06
480.969	836.06
481.188	780.06
481.406	778.06
481.624	765.06
481.843	755.06
482.061	735.06
482.28	751.06
482.498	727.06
482.717	740.06
482.935	737.06
483.153	735.06
483.372	734.06
483.59	741.06
483.808	729.06
484.027	745.06
484.245	755.06
484.463	730.06
484.681	777.06
484.9	776.06
485.118	764.06
485.336	791.06
485.554	772.06
485.772	787.06
485.99	765.06
486.209	790.06
486.427	767.06
486.645	769.06
486.863	772.06
487.081	778.06
487.299	778.06
487.517	799.06
487.735	777.06
487.953	791.06
488.171	777.06
488.389	752.06
488.607	747.06
488.825	756.06
489.043	752.06
489.261	779.06
489.479	749.06
489.696	751.06
489.914	762.06
490.132	787.06
490.35	776.06
490.568	773.06
490.786	791.06
491.003	764.06
491.221	786.06
491.439	769.06
491.657	785.06
491.874	797.06
492.092	799.06
492.31	780.06
492.527	771.06
492.745	791.06
492.963	798.06
493.18	795.06
493.398	789.06
493.615	829.06
493.833	794.06
494.05	825.06
494.268	807.06
494.485	814.06
494.703	815.06
494.92	824.06
495.138	829.06
495.355	793.06
495.573	818.06
495.79	811.06
496.008	827.06
496.225	824.06
496.442	834.06
496.66	869.06
496.877	823.06
497.094	852.06
497.312	872.06
497.529	894.06
497.746	895.06
497.963	957.06
498.181	978.06
498.398	1014.06
498.615	1095.06
498.832	1166.06
499.049	1279.06
499.267	1353.06
499.484	1509.06
499.701	1665.06
499.918	1831.06
500.135	2141.06
500.352	2471.06
500.569	2623.06
500.786	2536.06
501.003	2320.06
501.22	2051.06
