Data from Ni(NO3)2@0.125M.TitratingCurve.Agarose3%dH2O.NegLispCup.LampEnergy10.LIBS07252019_HRD10591_18-11-30-569.txt Node
Date: Thu Jul 25 18:11:30 EDT 2019
User: cochatt
Spectrometer: HR+D1059
Trigger mode: 1
Integration Time (sec): 1.000000E-1
Scans to average: 1
Electric dark correction enabled: true
Nonlinearity correction enabled: false
Boxcar width: 0
XAxis mode: Wavelengths
Number of Pixels in Spectrum: 2048
>>>>>Begin Spectral Data<<<<<
223.165	-21.31
223.4	-21.31
223.635	-21.31
223.869	-16.31
224.104	-19.31
224.338	-11.31
224.573	-14.31
224.808	-25.31
225.042	0.69
225.277	4.69
225.511	-2.31
225.746	7.69
225.98	3.69
226.215	7.69
226.449	11.69
226.683	17.69
226.918	23.69
227.152	32.69
227.387	31.69
227.621	28.69
227.856	38.69
228.09	42.69
228.324	45.69
228.559	47.69
228.793	59.69
229.027	92.69
229.262	106.69
229.496	118.69
229.73	113.69
229.964	122.69
230.199	136.69
230.433	130.69
230.667	123.69
230.901	142.69
231.136	132.69
231.37	132.69
231.604	144.69
231.838	150.69
232.072	144.69
232.306	147.69
232.541	161.69
232.775	146.69
233.009	152.69
233.243	154.69
233.477	156.69
233.711	148.69
233.945	157.69
234.179	148.69
234.413	164.69
234.647	156.69
234.881	153.69
235.115	136.69
235.349	135.69
235.583	151.69
235.817	159.69
236.051	160.69
236.285	165.69
236.519	170.69
236.753	157.69
236.987	166.69
237.221	145.69
237.455	166.69
237.689	160.69
237.922	165.69
238.156	177.69
238.39	166.69
238.624	184.69
238.858	155.69
239.091	169.69
239.325	173.69
239.559	162.69
239.793	170.69
240.027	183.69
240.26	200.69
240.494	198.69
240.728	189.69
240.961	192.69
241.195	196.69
241.429	178.69
241.662	186.69
241.896	197.69
242.13	198.69
242.363	182.69
242.597	183.69
242.83	200.69
243.064	192.69
243.298	199.69
243.531	189.69
243.765	200.69
243.998	219.69
244.232	207.69
244.465	215.69
244.699	209.69
244.932	211.69
245.166	231.69
245.399	202.69
245.633	212.69
245.866	214.69
246.099	231.69
246.333	224.69
246.566	226.69
246.8	232.69
247.033	230.69
247.266	241.69
247.5	224.69
247.733	225.69
247.966	238.69
248.2	242.69
248.433	235.69
248.666	254.69
248.899	240.69
249.133	246.69
249.366	246.69
249.599	263.69
249.832	237.69
250.066	248.69
250.299	245.69
250.532	256.69
250.765	253.69
250.998	260.69
251.231	240.69
251.465	257.69
251.698	267.69
251.931	287.69
252.164	264.69
252.397	268.69
252.63	270.69
252.863	282.69
253.096	281.69
253.329	281.69
253.562	290.69
253.795	284.69
254.028	291.69
254.261	293.69
254.494	290.69
254.727	284.69
254.96	282.69
255.193	297.69
255.426	282.69
255.659	308.69
255.892	288.69
256.124	300.69
256.357	290.69
256.59	330.69
256.823	301.69
257.056	285.69
257.289	314.69
257.521	311.69
257.754	321.69
257.987	302.69
258.22	311.69
258.452	326.69
258.685	305.69
258.918	297.69
259.151	317.69
259.383	320.69
259.616	308.69
259.849	321.69
260.081	315.69
260.314	324.69
260.547	327.69
260.779	327.69
261.012	349.69
261.244	321.69
261.477	333.69
261.71	331.69
261.942	328.69
262.175	322.69
262.407	349.69
262.64	337.69
262.872	338.69
263.105	342.69
263.337	348.69
263.57	366.69
263.802	338.69
264.035	342.69
264.267	346.69
264.499	342.69
264.732	364.69
264.964	376.69
265.197	359.69
265.429	347.69
265.661	371.69
265.894	376.69
266.126	382.69
266.358	366.69
266.591	352.69
266.823	373.69
267.055	380.69
267.287	403.69
267.52	370.69
267.752	364.69
267.984	378.69
268.216	384.69
268.448	377.69
268.681	363.69
268.913	365.69
269.145	394.69
269.377	402.69
269.609	388.69
269.841	375.69
270.073	385.69
270.306	389.69
270.538	393.69
270.77	385.69
271.002	391.69
271.234	402.69
271.466	402.69
271.698	389.69
271.93	375.69
272.162	396.69
272.394	404.69
272.626	395.69
272.858	382.69
273.09	405.69
273.322	404.69
273.553	387.69
273.785	406.69
274.017	412.69
274.249	410.69
274.481	424.69
274.713	410.69
274.945	414.69
275.176	408.69
275.408	422.69
275.64	421.69
275.872	406.69
276.104	436.69
276.335	404.69
276.567	414.69
276.799	434.69
277.031	437.69
277.262	418.69
277.494	430.69
277.726	436.69
277.957	421.69
278.189	439.69
278.421	437.69
278.652	445.69
278.884	460.69
279.115	439.69
279.347	475.69
279.579	448.69
279.81	444.69
280.042	458.69
280.273	466.69
280.505	463.69
280.736	433.69
280.968	491.69
281.199	468.69
281.431	467.69
281.662	479.69
281.894	487.69
282.125	465.69
282.356	474.69
282.588	474.69
282.819	509.69
283.051	493.69
283.282	478.69
283.513	487.69
283.745	478.69
283.976	481.69
284.207	482.69
284.439	514.69
284.67	472.69
284.901	489.69
285.132	501.69
285.364	485.69
285.595	487.69
285.826	503.69
286.057	509.69
286.288	500.69
286.52	507.69
286.751	532.69
286.982	522.69
287.213	537.69
287.444	512.69
287.675	516.69
287.906	542.69
288.138	524.69
288.369	532.69
288.6	526.69
288.831	510.69
289.062	533.69
289.293	537.69
289.524	536.69
289.755	537.69
289.986	533.69
290.217	548.69
290.448	539.69
290.679	500.69
290.91	532.69
291.141	534.69
291.371	544.69
291.602	532.69
291.833	548.69
292.064	548.69
292.295	536.69
292.526	530.69
292.757	529.69
292.987	553.69
293.218	550.69
293.449	541.69
293.68	546.69
293.91	541.69
294.141	528.69
294.372	527.69
294.603	560.69
294.833	547.69
295.064	540.69
295.295	548.69
295.525	524.69
295.756	545.69
295.987	520.69
296.217	557.69
296.448	564.69
296.679	549.69
296.909	593.69
297.14	562.69
297.37	562.69
297.601	578.69
297.831	594.69
298.062	602.69
298.292	595.69
298.523	617.69
298.753	587.69
298.984	587.69
299.214	589.69
299.445	615.69
299.675	557.69
299.905	572.69
300.136	580.69
300.366	563.69
300.597	605.69
300.827	598.69
301.057	628.69
301.288	636.69
301.518	607.69
301.748	616.69
301.979	636.69
302.209	635.69
302.439	614.69
302.669	594.69
302.9	602.69
303.13	608.69
303.36	628.69
303.59	603.69
303.82	620.69
304.051	588.69
304.281	608.69
304.511	611.69
304.741	600.69
304.971	611.69
305.201	594.69
305.431	602.69
305.661	606.69
305.891	600.69
306.121	605.69
306.352	613.69
306.582	594.69
306.812	593.69
307.042	576.69
307.272	602.69
307.502	605.69
307.731	615.69
307.961	597.69
308.191	589.69
308.421	592.69
308.651	604.69
308.881	604.69
309.111	574.69
309.341	593.69
309.571	608.69
309.8	582.69
310.03	582.69
310.26	587.69
310.49	587.69
310.72	562.69
310.949	606.69
311.179	585.69
311.409	609.69
311.639	617.69
311.868	605.69
312.098	590.69
312.328	618.69
312.557	645.69
312.787	598.69
313.017	634.69
313.246	636.69
313.476	629.69
313.706	620.69
313.935	632.69
314.165	669.69
314.394	644.69
314.624	632.69
314.853	632.69
315.083	657.69
315.312	642.69
315.542	630.69
315.771	631.69
316.001	622.69
316.23	635.69
316.46	628.69
316.689	624.69
316.919	624.69
317.148	641.69
317.377	628.69
317.607	617.69
317.836	611.69
318.065	611.69
318.295	650.69
318.524	623.69
318.753	610.69
318.983	630.69
319.212	623.69
319.441	633.69
319.67	634.69
319.9	652.69
320.129	624.69
320.358	632.69
320.587	635.69
320.816	650.69
321.046	628.69
321.275	649.69
321.504	611.69
321.733	621.69
321.962	642.69
322.191	642.69
322.42	646.69
322.649	658.69
322.878	634.69
323.108	630.69
323.337	644.69
323.566	629.69
323.795	625.69
324.024	666.69
324.253	681.69
324.482	658.69
324.71	646.69
324.939	654.69
325.168	674.69
325.397	644.69
325.626	665.69
325.855	648.69
326.084	682.69
326.313	678.69
326.542	684.69
326.77	719.69
326.999	672.69
327.228	677.69
327.457	702.69
327.686	691.69
327.914	686.69
328.143	699.69
328.372	696.69
328.6	688.69
328.829	676.69
329.058	673.69
329.287	705.69
329.515	725.69
329.744	701.69
329.972	701.69
330.201	703.69
330.43	709.69
330.658	724.69
330.887	711.69
331.115	733.69
331.344	734.69
331.572	716.69
331.801	747.69
332.03	747.69
332.258	760.69
332.486	810.69
332.715	825.69
332.943	846.69
333.172	908.69
333.4	946.69
333.629	973.69
333.857	937.69
334.085	944.69
334.314	916.69
334.542	901.69
334.771	885.69
334.999	871.69
335.227	856.69
335.455	847.69
335.684	857.69
335.912	872.69
336.14	841.69
336.369	803.69
336.597	861.69
336.825	813.69
337.053	823.69
337.281	827.69
337.51	796.69
337.738	775.69
337.966	791.69
338.194	778.69
338.422	735.69
338.65	734.69
338.878	741.69
339.106	745.69
339.334	764.69
339.562	749.69
339.79	728.69
340.018	728.69
340.246	705.69
340.474	728.69
340.702	730.69
340.93	726.69
341.158	728.69
341.386	738.69
341.614	719.69
341.842	725.69
342.07	715.69
342.298	701.69
342.526	714.69
342.754	718.69
342.981	702.69
343.209	753.69
343.437	766.69
343.665	828.69
343.893	879.69
344.12	943.69
344.348	880.69
344.576	788.69
344.804	780.69
345.031	741.69
345.259	752.69
345.487	737.69
345.714	719.69
345.942	700.69
346.17	729.69
346.397	696.69
346.625	712.69
346.853	717.69
347.08	708.69
347.308	710.69
347.535	708.69
347.763	747.69
347.99	713.69
348.218	701.69
348.445	708.69
348.673	690.69
348.9	699.69
349.128	696.69
349.355	693.69
349.583	719.69
349.81	695.69
350.037	666.69
350.265	683.69
350.492	665.69
350.72	661.69
350.947	656.69
351.174	679.69
351.402	694.69
351.629	664.69
351.856	674.69
352.083	675.69
352.311	670.69
352.538	666.69
352.765	639.69
352.992	659.69
353.22	638.69
353.447	662.69
353.674	678.69
353.901	653.69
354.128	679.69
354.355	667.69
354.583	692.69
354.81	674.69
355.037	666.69
355.264	675.69
355.491	678.69
355.718	668.69
355.945	709.69
356.172	666.69
356.399	684.69
356.626	673.69
356.853	674.69
357.08	667.69
357.307	686.69
357.534	660.69
357.761	690.69
357.988	666.69
358.215	682.69
358.441	677.69
358.668	684.69
358.895	670.69
359.122	699.69
359.349	677.69
359.576	670.69
359.802	677.69
360.029	673.69
360.256	694.69
360.483	661.69
360.709	675.69
360.936	676.69
361.163	699.69
361.39	668.69
361.616	665.69
361.843	683.69
362.07	670.69
362.296	664.69
362.523	658.69
362.749	661.69
362.976	669.69
363.203	695.69
363.429	671.69
363.656	685.69
363.882	651.69
364.109	654.69
364.335	650.69
364.562	660.69
364.788	662.69
365.015	667.69
365.241	685.69
365.468	686.69
365.694	676.69
365.92	662.69
366.147	627.69
366.373	656.69
366.599	671.69
366.826	678.69
367.052	665.69
367.278	679.69
367.505	668.69
367.731	678.69
367.957	675.69
368.184	666.69
368.41	672.69
368.636	677.69
368.862	710.69
369.089	694.69
369.315	699.69
369.541	694.69
369.767	716.69
369.993	709.69
370.219	696.69
370.445	698.69
370.672	711.69
370.898	713.69
371.124	725.69
371.35	748.69
371.576	732.69
371.802	731.69
372.028	705.69
372.254	736.69
372.48	729.69
372.706	753.69
372.932	742.69
373.158	752.69
373.384	735.69
373.61	750.69
373.835	746.69
374.061	713.69
374.287	746.69
374.513	744.69
374.739	792.69
374.965	812.69
375.191	833.69
375.416	826.69
375.642	806.69
375.868	788.69
376.094	764.69
376.319	747.69
376.545	749.69
376.771	726.69
376.997	736.69
377.222	733.69
377.448	753.69
377.674	728.69
377.899	709.69
378.125	724.69
378.35	740.69
378.576	738.69
378.802	736.69
379.027	716.69
379.253	700.69
379.478	711.69
379.704	720.69
379.929	739.69
380.155	731.69
380.38	721.69
380.606	729.69
380.831	730.69
381.057	742.69
381.282	736.69
381.507	718.69
381.733	749.69
381.958	722.69
382.184	752.69
382.409	733.69
382.634	751.69
382.86	745.69
383.085	758.69
383.31	798.69
383.535	793.69
383.761	813.69
383.986	839.69
384.211	814.69
384.436	853.69
384.662	870.69
384.887	869.69
385.112	864.69
385.337	872.69
385.562	886.69
385.787	920.69
386.013	892.69
386.238	897.69
386.463	891.69
386.688	882.69
386.913	876.69
387.138	883.69
387.363	852.69
387.588	888.69
387.813	867.69
388.038	861.69
388.263	852.69
388.488	896.69
388.713	874.69
388.938	880.69
389.163	870.69
389.387	859.69
389.612	858.69
389.837	866.69
390.062	873.69
390.287	854.69
390.512	861.69
390.736	889.69
390.961	893.69
391.186	913.69
391.411	902.69
391.636	953.69
391.86	968.69
392.085	984.69
392.31	1000.69
392.534	983.69
392.759	956.69
392.984	930.69
393.208	916.69
393.433	910.69
393.658	929.69
393.882	930.69
394.107	940.69
394.331	929.69
394.556	938.69
394.78	933.69
395.005	954.69
395.229	950.69
395.454	954.69
395.678	995.69
395.903	979.69
396.127	977.69
396.352	933.69
396.576	923.69
396.801	938.69
397.025	952.69
397.249	943.69
397.474	969.69
397.698	999.69
397.922	1019.69
398.147	954.69
398.371	1016.69
398.595	1029.69
398.82	1099.69
399.044	1123.69
399.268	1266.69
399.492	1492.69
399.717	1752.69
399.941	1722.69
400.165	1501.69
400.389	1308.69
400.613	1221.69
400.837	1163.69
401.062	1143.69
401.286	1102.69
401.51	1068.69
401.734	1101.69
401.958	1123.69
402.182	1102.69
402.406	1156.69
402.63	1181.69
402.854	1209.69
403.078	1176.69
403.302	1213.69
403.526	1267.69
403.75	1282.69
403.974	1348.69
404.198	1297.69
404.422	1325.69
404.645	1279.69
404.869	1257.69
405.093	1271.69
405.317	1240.69
405.541	1264.69
405.765	1206.69
405.988	1214.69
406.212	1213.69
406.436	1209.69
406.66	1243.69
406.883	1220.69
407.107	1330.69
407.331	1383.69
407.555	1501.69
407.778	1452.69
408.002	1396.69
408.226	1367.69
408.449	1322.69
408.673	1294.69
408.896	1280.69
409.12	1244.69
409.344	1249.69
409.567	1260.69
409.791	1323.69
410.014	1255.69
410.238	1267.69
410.461	1262.69
410.685	1232.69
410.908	1196.69
411.132	1202.69
411.355	1156.69
411.578	1158.69
411.802	1169.69
412.025	1184.69
412.249	1203.69
412.472	1180.69
412.695	1104.69
412.919	1122.69
413.142	1104.69
413.365	1094.69
413.589	1148.69
413.812	1087.69
414.035	1098.69
414.258	1118.69
414.482	1102.69
414.705	1138.69
414.928	1133.69
415.151	1098.69
415.374	1102.69
415.597	1085.69
415.821	1081.69
416.044	1079.69
416.267	1061.69
416.49	1081.69
416.713	1067.69
416.936	1089.69
417.159	1115.69
417.382	1084.69
417.605	1053.69
417.828	1088.69
418.051	1100.69
418.274	1102.69
418.497	1092.69
418.72	1120.69
418.943	1144.69
419.166	1218.69
419.389	1292.69
419.611	1277.69
419.834	1201.69
420.057	1192.69
420.28	1116.69
420.503	1093.69
420.726	1079.69
420.948	1113.69
421.171	1090.69
421.394	1098.69
421.617	1081.69
421.839	1101.69
422.062	1108.69
422.285	1102.69
422.507	1156.69
422.73	1131.69
422.953	1123.69
423.175	1159.69
423.398	1187.69
423.621	1167.69
423.843	1183.69
424.066	1194.69
424.288	1182.69
424.511	1144.69
424.733	1173.69
424.956	1143.69
425.178	1107.69
425.401	1094.69
425.623	1107.69
425.846	1060.69
426.068	1059.69
426.291	1036.69
426.513	1072.69
426.735	1032.69
426.958	1049.69
427.18	1016.69
427.402	1019.69
427.625	989.69
427.847	1001.69
428.069	975.69
428.292	975.69
428.514	949.69
428.736	982.69
428.958	958.69
429.181	957.69
429.403	958.69
429.625	930.69
429.847	964.69
430.069	955.69
430.292	965.69
430.514	940.69
430.736	960.69
430.958	957.69
431.18	971.69
431.402	959.69
431.624	977.69
431.846	991.69
432.068	993.69
432.29	1029.69
432.512	1004.69
432.734	985.69
432.956	941.69
433.178	982.69
433.4	1002.69
433.622	981.69
433.844	1010.69
434.066	999.69
434.287	977.69
434.509	1028.69
434.731	1068.69
434.953	1126.69
435.175	1134.69
435.397	1114.69
435.618	1075.69
435.84	1027.69
436.062	995.69
436.284	970.69
436.505	986.69
436.727	984.69
436.949	1029.69
437.17	1021.69
437.392	979.69
437.614	941.69
437.835	935.69
438.057	969.69
438.278	931.69
438.5	934.69
438.721	898.69
438.943	954.69
439.165	946.69
439.386	963.69
439.608	972.69
439.829	979.69
440.05	970.69
440.272	1012.69
440.493	998.69
440.715	984.69
440.936	1037.69
441.158	1018.69
441.379	1061.69
441.6	1101.69
441.822	1113.69
442.043	1123.69
442.264	1061.69
442.486	1091.69
442.707	1058.69
442.928	1063.69
443.149	1092.69
443.371	1112.69
443.592	1118.69
443.813	1097.69
444.034	1088.69
444.255	1154.69
444.476	1218.69
444.698	1268.69
444.919	1333.69
445.14	1394.69
445.361	1257.69
445.582	1141.69
445.803	1090.69
446.024	1058.69
446.245	1011.69
446.466	990.69
446.687	970.69
446.908	968.69
447.129	1013.69
447.35	918.69
447.571	950.69
447.792	922.69
448.013	926.69
448.234	916.69
448.455	914.69
448.675	907.69
448.896	902.69
449.117	905.69
449.338	919.69
449.559	890.69
449.779	889.69
450	903.69
450.221	882.69
450.442	896.69
450.662	907.69
450.883	922.69
451.104	925.69
451.324	917.69
451.545	926.69
451.766	915.69
451.986	909.69
452.207	911.69
452.428	900.69
452.648	885.69
452.869	887.69
453.089	880.69
453.31	890.69
453.53	893.69
453.751	874.69
453.971	846.69
454.192	872.69
454.412	882.69
454.633	868.69
454.853	851.69
455.073	841.69
455.294	824.69
455.514	860.69
455.734	828.69
455.955	839.69
456.175	817.69
456.395	813.69
456.616	816.69
456.836	830.69
457.056	819.69
457.276	813.69
457.497	844.69
457.717	828.69
457.937	846.69
458.157	849.69
458.377	843.69
458.598	862.69
458.818	905.69
459.038	936.69
459.258	964.69
459.478	995.69
459.698	1025.69
459.918	1051.69
460.138	1112.69
460.358	1174.69
460.578	1170.69
460.798	1177.69
461.018	1183.69
461.238	1171.69
461.458	1113.69
461.678	1170.69
461.898	1163.69
462.118	1173.69
462.338	1300.69
462.558	1260.69
462.777	1294.69
462.997	1428.69
463.217	1640.69
463.437	1628.69
463.657	1459.69
463.876	1358.69
464.096	1394.69
464.316	1385.69
464.536	1409.69
464.755	1312.69
464.975	1292.69
465.195	1216.69
465.414	1138.69
465.634	1061.69
465.854	1046.69
466.073	1006.69
466.293	959.69
466.512	963.69
466.732	958.69
466.951	951.69
467.171	926.69
467.391	956.69
467.61	952.69
467.829	944.69
468.049	929.69
468.268	909.69
468.488	927.69
468.707	911.69
468.927	911.69
469.146	865.69
469.365	905.69
469.585	933.69
469.804	951.69
470.023	963.69
470.243	946.69
470.462	972.69
470.681	983.69
470.901	958.69
471.12	972.69
471.339	960.69
471.558	910.69
471.777	910.69
471.997	906.69
472.216	901.69
472.435	913.69
472.654	873.69
472.873	892.69
473.092	869.69
473.311	884.69
473.53	857.69
473.749	878.69
473.968	880.69
474.187	856.69
474.406	839.69
474.625	864.69
474.844	856.69
475.063	924.69
475.282	882.69
475.501	869.69
475.72	910.69
475.939	886.69
476.158	927.69
476.377	912.69
476.596	919.69
476.814	923.69
477.033	952.69
477.252	938.69
477.471	974.69
477.69	962.69
477.908	991.69
478.127	1056.69
478.346	1038.69
478.564	1068.69
478.783	1079.69
479.002	1109.69
479.22	1144.69
479.439	1108.69
479.658	1072.69
479.876	1068.69
480.095	1093.69
480.313	1149.69
480.532	1208.69
480.751	1197.69
480.969	1152.69
481.188	1082.69
481.406	1063.69
481.624	1055.69
481.843	1009.69
482.061	1001.69
482.28	1004.69
482.498	1012.69
482.717	976.69
482.935	999.69
483.153	1005.69
483.372	1014.69
483.59	1006.69
483.808	1000.69
484.027	1017.69
484.245	1012.69
484.463	1035.69
484.681	1049.69
484.9	1039.69
485.118	1030.69
485.336	1050.69
485.554	1079.69
485.772	1064.69
485.99	1095.69
486.209	1061.69
486.427	1086.69
486.645	1043.69
486.863	1053.69
487.081	1069.69
487.299	1052.69
487.517	1053.69
487.735	1061.69
487.953	1056.69
488.171	1022.69
488.389	1060.69
488.607	1046.69
488.825	1035.69
489.043	1037.69
489.261	1058.69
489.479	1019.69
489.696	1060.69
489.914	1094.69
490.132	1029.69
490.35	1025.69
490.568	1071.69
490.786	1076.69
491.003	1070.69
491.221	1065.69
491.439	1047.69
491.657	1046.69
491.874	1057.69
492.092	1072.69
492.31	1049.69
492.527	1069.69
492.745	1077.69
492.963	1131.69
493.18	1082.69
493.398	1117.69
493.615	1101.69
493.833	1113.69
494.05	1110.69
494.268	1094.69
494.485	1133.69
494.703	1089.69
494.92	1116.69
495.138	1086.69
495.355	1093.69
495.573	1086.69
495.79	1097.69
496.008	1138.69
496.225	1160.69
496.442	1154.69
496.66	1157.69
496.877	1158.69
497.094	1232.69
497.312	1224.69
497.529	1221.69
