Data from Ni(NO3)2Standard.Agarose3%.GreenCap.LampEnergy5.5.E.O_HRD10591_14-42-12-187.txt Node
Date: Mon Jul 22 14:42:12 EDT 2019
User: cochatt
Spectrometer: HR+D1059
Trigger mode: 1
Integration Time (sec): 1.000000E-1
Scans to average: 1
Electric dark correction enabled: true
Nonlinearity correction enabled: false
Boxcar width: 0
XAxis mode: Wavelengths
Number of Pixels in Spectrum: 2048
>>>>>Begin Spectral Data<<<<<
223.165	-10.38
223.4	-10.38
223.635	-10.38
223.869	-16.38
224.104	-9.38
224.338	-15.38
224.573	-21.38
224.808	-16.38
225.042	-13.38
225.277	-8.38
225.511	-5.38
225.746	16.62
225.98	-5.38
226.215	18.62
226.449	24.62
226.683	17.62
226.918	18.62
227.152	25.62
227.387	36.62
227.621	42.62
227.856	44.62
228.09	52.62
228.324	65.62
228.559	58.62
228.793	59.62
229.027	63.62
229.262	73.62
229.496	81.62
229.73	79.62
229.964	71.62
230.199	61.62
230.433	75.62
230.667	80.62
230.901	72.62
231.136	75.62
231.37	73.62
231.604	69.62
231.838	89.62
232.072	92.62
232.306	79.62
232.541	80.62
232.775	97.62
233.009	102.62
233.243	75.62
233.477	76.62
233.711	80.62
233.945	89.62
234.179	86.62
234.413	91.62
234.647	88.62
234.881	84.62
235.115	76.62
235.349	86.62
235.583	94.62
235.817	81.62
236.051	72.62
236.285	84.62
236.519	79.62
236.753	78.62
236.987	90.62
237.221	82.62
237.455	73.62
237.689	65.62
237.922	85.62
238.156	70.62
238.39	86.62
238.624	88.62
238.858	72.62
239.091	80.62
239.325	72.62
239.559	75.62
239.793	73.62
240.027	82.62
240.26	69.62
240.494	99.62
240.728	79.62
240.961	78.62
241.195	73.62
241.429	72.62
241.662	84.62
241.896	69.62
242.13	79.62
242.363	82.62
242.597	75.62
242.83	86.62
243.064	71.62
243.298	88.62
243.531	85.62
243.765	73.62
243.998	90.62
244.232	91.62
244.465	88.62
244.699	85.62
244.932	79.62
245.166	71.62
245.399	75.62
245.633	90.62
245.866	71.62
246.099	87.62
246.333	83.62
246.566	79.62
246.8	81.62
247.033	71.62
247.266	84.62
247.5	76.62
247.733	69.62
247.966	79.62
248.2	65.62
248.433	70.62
248.666	73.62
248.899	75.62
249.133	89.62
249.366	91.62
249.599	91.62
249.832	85.62
250.066	77.62
250.299	79.62
250.532	88.62
250.765	81.62
250.998	71.62
251.231	60.62
251.465	67.62
251.698	80.62
251.931	75.62
252.164	83.62
252.397	84.62
252.63	75.62
252.863	90.62
253.096	95.62
253.329	97.62
253.562	80.62
253.795	85.62
254.028	75.62
254.261	87.62
254.494	97.62
254.727	89.62
254.96	76.62
255.193	90.62
255.426	78.62
255.659	73.62
255.892	74.62
256.124	93.62
256.357	84.62
256.59	93.62
256.823	89.62
257.056	101.62
257.289	87.62
257.521	83.62
257.754	78.62
257.987	92.62
258.22	82.62
258.452	87.62
258.685	91.62
258.918	87.62
259.151	80.62
259.383	73.62
259.616	75.62
259.849	92.62
260.081	87.62
260.314	81.62
260.547	92.62
260.779	83.62
261.012	71.62
261.244	78.62
261.477	95.62
261.71	97.62
261.942	74.62
262.175	76.62
262.407	73.62
262.64	79.62
262.872	82.62
263.105	91.62
263.337	84.62
263.57	87.62
263.802	90.62
264.035	92.62
264.267	76.62
264.499	97.62
264.732	95.62
264.964	73.62
265.197	86.62
265.429	70.62
265.661	82.62
265.894	82.62
266.126	77.62
266.358	88.62
266.591	82.62
266.823	79.62
267.055	80.62
267.287	89.62
267.52	85.62
267.752	90.62
267.984	71.62
268.216	84.62
268.448	88.62
268.681	79.62
268.913	86.62
269.145	100.62
269.377	69.62
269.609	84.62
269.841	78.62
270.073	90.62
270.306	91.62
270.538	90.62
270.77	67.62
271.002	78.62
271.234	84.62
271.466	83.62
271.698	82.62
271.93	84.62
272.162	81.62
272.394	92.62
272.626	81.62
272.858	84.62
273.09	89.62
273.322	86.62
273.553	93.62
273.785	82.62
274.017	88.62
274.249	84.62
274.481	77.62
274.713	85.62
274.945	92.62
275.176	100.62
275.408	88.62
275.64	88.62
275.872	79.62
276.104	75.62
276.335	80.62
276.567	95.62
276.799	93.62
277.031	81.62
277.262	77.62
277.494	76.62
277.726	87.62
277.957	75.62
278.189	81.62
278.421	83.62
278.652	77.62
278.884	84.62
279.115	90.62
279.347	87.62
279.579	83.62
279.81	83.62
280.042	92.62
280.273	88.62
280.505	85.62
280.736	61.62
280.968	87.62
281.199	78.62
281.431	79.62
281.662	90.62
281.894	91.62
282.125	86.62
282.356	99.62
282.588	78.62
282.819	89.62
283.051	100.62
283.282	95.62
283.513	92.62
283.745	89.62
283.976	94.62
284.207	88.62
284.439	80.62
284.67	81.62
284.901	81.62
285.132	92.62
285.364	98.62
285.595	95.62
285.826	102.62
286.057	93.62
286.288	73.62
286.52	82.62
286.751	97.62
286.982	87.62
287.213	96.62
287.444	90.62
287.675	88.62
287.906	80.62
288.138	93.62
288.369	79.62
288.6	106.62
288.831	93.62
289.062	85.62
289.293	78.62
289.524	80.62
289.755	91.62
289.986	78.62
290.217	75.62
290.448	82.62
290.679	95.62
290.91	98.62
291.141	79.62
291.371	85.62
291.602	89.62
291.833	89.62
292.064	86.62
292.295	86.62
292.526	88.62
292.757	98.62
292.987	91.62
293.218	79.62
293.449	78.62
293.68	82.62
293.91	84.62
294.141	88.62
294.372	90.62
294.603	102.62
294.833	88.62
295.064	72.62
295.295	77.62
295.525	102.62
295.756	89.62
295.987	105.62
296.217	83.62
296.448	83.62
296.679	85.62
296.909	89.62
297.14	100.62
297.37	83.62
297.601	91.62
297.831	81.62
298.062	73.62
298.292	88.62
298.523	94.62
298.753	86.62
298.984	106.62
299.214	68.62
299.445	96.62
299.675	93.62
299.905	80.62
300.136	86.62
300.366	90.62
300.597	91.62
300.827	95.62
301.057	88.62
301.288	95.62
301.518	96.62
301.748	81.62
301.979	89.62
302.209	92.62
302.439	93.62
302.669	100.62
302.9	70.62
303.13	84.62
303.36	96.62
303.59	78.62
303.82	93.62
304.051	89.62
304.281	98.62
304.511	80.62
304.741	80.62
304.971	87.62
305.201	84.62
305.431	78.62
305.661	89.62
305.891	91.62
306.121	71.62
306.352	84.62
306.582	93.62
306.812	96.62
307.042	79.62
307.272	83.62
307.502	95.62
307.731	91.62
307.961	94.62
308.191	77.62
308.421	105.62
308.651	81.62
308.881	84.62
309.111	80.62
309.341	82.62
309.571	96.62
309.8	94.62
310.03	79.62
310.26	99.62
310.49	93.62
310.72	87.62
310.949	90.62
311.179	87.62
311.409	80.62
311.639	78.62
311.868	80.62
312.098	96.62
312.328	80.62
312.557	92.62
312.787	86.62
313.017	80.62
313.246	93.62
313.476	86.62
313.706	83.62
313.935	86.62
314.165	78.62
314.394	95.62
314.624	83.62
314.853	97.62
315.083	79.62
315.312	93.62
315.542	90.62
315.771	86.62
316.001	80.62
316.23	92.62
316.46	87.62
316.689	85.62
316.919	94.62
317.148	95.62
317.377	92.62
317.607	82.62
317.836	89.62
318.065	79.62
318.295	90.62
318.524	73.62
318.753	98.62
318.983	104.62
319.212	94.62
319.441	85.62
319.67	75.62
319.9	85.62
320.129	87.62
320.358	87.62
320.587	87.62
320.816	106.62
321.046	78.62
321.275	91.62
321.504	87.62
321.733	95.62
321.962	85.62
322.191	80.62
322.42	91.62
322.649	95.62
322.878	70.62
323.108	83.62
323.337	91.62
323.566	94.62
323.795	66.62
324.024	87.62
324.253	84.62
324.482	90.62
324.71	84.62
324.939	95.62
325.168	102.62
325.397	91.62
325.626	98.62
325.855	88.62
326.084	87.62
326.313	99.62
326.542	85.62
326.77	87.62
326.999	89.62
327.228	93.62
327.457	87.62
327.686	77.62
327.914	93.62
328.143	83.62
328.372	77.62
328.6	81.62
328.829	88.62
329.058	91.62
329.287	82.62
329.515	79.62
329.744	77.62
329.972	88.62
330.201	100.62
330.43	85.62
330.658	87.62
330.887	89.62
331.115	82.62
331.344	77.62
331.572	83.62
331.801	84.62
332.03	94.62
332.258	94.62
332.486	85.62
332.715	85.62
332.943	92.62
333.172	98.62
333.4	78.62
333.629	78.62
333.857	80.62
334.085	90.62
334.314	87.62
334.542	81.62
334.771	81.62
334.999	89.62
335.227	83.62
335.455	91.62
335.684	84.62
335.912	89.62
336.14	97.62
336.369	92.62
336.597	81.62
336.825	104.62
337.053	105.62
337.281	81.62
337.51	99.62
337.738	76.62
337.966	88.62
338.194	80.62
338.422	96.62
338.65	85.62
338.878	83.62
339.106	92.62
339.334	104.62
339.562	87.62
339.79	84.62
340.018	74.62
340.246	96.62
340.474	84.62
340.702	80.62
340.93	88.62
341.158	86.62
341.386	95.62
341.614	86.62
341.842	97.62
342.07	90.62
342.298	106.62
342.526	94.62
342.754	96.62
342.981	84.62
343.209	86.62
343.437	105.62
343.665	98.62
343.893	91.62
344.12	85.62
344.348	82.62
344.576	94.62
344.804	79.62
345.031	101.62
345.259	92.62
345.487	101.62
345.714	101.62
345.942	92.62
346.17	97.62
346.397	96.62
346.625	79.62
346.853	90.62
347.08	89.62
347.308	93.62
347.535	90.62
347.763	98.62
347.99	84.62
348.218	96.62
348.445	69.62
348.673	78.62
348.9	91.62
349.128	108.62
349.355	84.62
349.583	94.62
349.81	86.62
350.037	88.62
350.265	76.62
350.492	79.62
350.72	79.62
350.947	81.62
351.174	95.62
351.402	83.62
351.629	89.62
351.856	89.62
352.083	87.62
352.311	80.62
352.538	76.62
352.765	85.62
352.992	111.62
353.22	88.62
353.447	81.62
353.674	64.62
353.901	94.62
354.128	83.62
354.355	88.62
354.583	90.62
354.81	88.62
355.037	104.62
355.264	80.62
355.491	87.62
355.718	85.62
355.945	88.62
356.172	92.62
356.399	94.62
356.626	80.62
356.853	80.62
357.08	82.62
357.307	94.62
357.534	86.62
357.761	93.62
357.988	97.62
358.215	71.62
358.441	94.62
358.668	87.62
358.895	80.62
359.122	92.62
359.349	89.62
359.576	75.62
359.802	79.62
360.029	95.62
360.256	94.62
360.483	88.62
360.709	94.62
360.936	100.62
361.163	91.62
361.39	94.62
361.616	90.62
361.843	86.62
362.07	81.62
362.296	94.62
362.523	79.62
362.749	83.62
362.976	91.62
363.203	89.62
363.429	81.62
363.656	80.62
363.882	89.62
364.109	95.62
364.335	85.62
364.562	99.62
364.788	86.62
365.015	73.62
365.241	83.62
365.468	89.62
365.694	96.62
365.92	92.62
366.147	89.62
366.373	79.62
366.599	77.62
366.826	80.62
367.052	91.62
367.278	86.62
367.505	95.62
367.731	72.62
367.957	88.62
368.184	98.62
368.41	90.62
368.636	99.62
368.862	85.62
369.089	90.62
369.315	79.62
369.541	95.62
369.767	97.62
369.993	73.62
370.219	95.62
370.445	83.62
370.672	83.62
370.898	76.62
371.124	95.62
371.35	85.62
371.576	84.62
371.802	92.62
372.028	90.62
372.254	89.62
372.48	81.62
372.706	90.62
372.932	95.62
373.158	101.62
373.384	91.62
373.61	88.62
373.835	80.62
374.061	91.62
374.287	86.62
374.513	90.62
374.739	94.62
374.965	80.62
375.191	87.62
375.416	91.62
375.642	81.62
375.868	97.62
376.094	86.62
376.319	95.62
376.545	86.62
376.771	89.62
376.997	84.62
377.222	85.62
377.448	94.62
377.674	85.62
377.899	95.62
378.125	96.62
378.35	100.62
378.576	76.62
378.802	93.62
379.027	88.62
379.253	91.62
379.478	79.62
379.704	94.62
379.929	95.62
380.155	72.62
380.38	92.62
380.606	100.62
380.831	88.62
381.057	97.62
381.282	92.62
381.507	81.62
381.733	95.62
381.958	87.62
382.184	79.62
382.409	91.62
382.634	87.62
382.86	83.62
383.085	92.62
383.31	86.62
383.535	97.62
383.761	95.62
383.986	98.62
384.211	82.62
384.436	85.62
384.662	77.62
384.887	75.62
385.112	95.62
385.337	87.62
385.562	88.62
385.787	78.62
386.013	92.62
386.238	84.62
386.463	77.62
386.688	97.62
386.913	81.62
387.138	82.62
387.363	79.62
387.588	88.62
387.813	66.62
388.038	81.62
388.263	67.62
388.488	88.62
388.713	88.62
388.938	86.62
389.163	85.62
389.387	76.62
389.612	80.62
389.837	75.62
390.062	87.62
390.287	88.62
390.512	96.62
390.736	93.62
390.961	75.62
391.186	96.62
391.411	87.62
391.636	91.62
391.86	95.62
392.085	86.62
392.31	76.62
392.534	86.62
392.759	84.62
392.984	80.62
393.208	86.62
393.433	80.62
393.658	79.62
393.882	81.62
394.107	84.62
394.331	90.62
394.556	91.62
394.78	95.62
395.005	91.62
395.229	73.62
395.454	92.62
395.678	87.62
395.903	83.62
396.127	82.62
396.352	91.62
396.576	96.62
396.801	83.62
397.025	85.62
397.249	98.62
397.474	94.62
397.698	99.62
397.922	89.62
398.147	85.62
398.371	95.62
398.595	87.62
398.82	88.62
399.044	90.62
399.268	95.62
399.492	89.62
399.717	96.62
399.941	99.62
400.165	91.62
400.389	95.62
400.613	81.62
400.837	98.62
401.062	100.62
401.286	76.62
401.51	89.62
401.734	78.62
401.958	90.62
402.182	85.62
402.406	73.62
402.63	92.62
402.854	94.62
403.078	95.62
403.302	85.62
403.526	93.62
403.75	75.62
403.974	99.62
404.198	95.62
404.422	88.62
404.645	73.62
404.869	87.62
405.093	83.62
405.317	92.62
405.541	90.62
405.765	85.62
405.988	91.62
406.212	81.62
406.436	95.62
406.66	92.62
406.883	74.62
407.107	86.62
407.331	90.62
407.555	91.62
407.778	89.62
408.002	85.62
408.226	87.62
408.449	92.62
408.673	78.62
408.896	85.62
409.12	91.62
409.344	88.62
409.567	91.62
409.791	90.62
410.014	92.62
410.238	87.62
410.461	78.62
410.685	68.62
410.908	81.62
411.132	74.62
411.355	82.62
411.578	103.62
411.802	94.62
412.025	93.62
412.249	86.62
412.472	83.62
412.695	82.62
412.919	77.62
413.142	86.62
413.365	88.62
413.589	111.62
413.812	92.62
414.035	86.62
414.258	91.62
414.482	80.62
414.705	87.62
414.928	100.62
415.151	101.62
415.374	89.62
415.597	80.62
415.821	102.62
416.044	86.62
416.267	89.62
416.49	92.62
416.713	85.62
416.936	93.62
417.159	90.62
417.382	82.62
417.605	91.62
417.828	97.62
418.051	68.62
418.274	89.62
418.497	107.62
418.72	98.62
418.943	93.62
419.166	93.62
419.389	80.62
419.611	92.62
419.834	90.62
420.057	81.62
420.28	81.62
420.503	80.62
420.726	92.62
420.948	88.62
421.171	95.62
421.394	93.62
421.617	73.62
421.839	85.62
422.062	96.62
422.285	74.62
422.507	83.62
422.73	84.62
422.953	91.62
423.175	86.62
423.398	91.62
423.621	104.62
423.843	95.62
424.066	72.62
424.288	93.62
424.511	89.62
424.733	88.62
424.956	103.62
425.178	90.62
425.401	89.62
425.623	87.62
425.846	75.62
426.068	86.62
426.291	87.62
426.513	89.62
426.735	95.62
426.958	84.62
427.18	94.62
427.402	75.62
427.625	92.62
427.847	87.62
428.069	91.62
428.292	78.62
428.514	85.62
428.736	96.62
428.958	92.62
429.181	93.62
429.403	77.62
429.625	85.62
429.847	76.62
430.069	89.62
430.292	78.62
430.514	88.62
430.736	86.62
430.958	102.62
431.18	100.62
431.402	91.62
431.624	83.62
431.846	86.62
432.068	73.62
432.29	93.62
432.512	99.62
432.734	84.62
432.956	88.62
433.178	86.62
433.4	97.62
433.622	99.62
433.844	88.62
434.066	86.62
434.287	87.62
434.509	87.62
434.731	84.62
434.953	89.62
435.175	99.62
435.397	84.62
435.618	87.62
435.84	80.62
436.062	82.62
436.284	81.62
436.505	90.62
436.727	92.62
436.949	84.62
437.17	94.62
437.392	93.62
437.614	88.62
437.835	87.62
438.057	74.62
438.278	89.62
438.5	91.62
438.721	87.62
438.943	87.62
439.165	88.62
439.386	78.62
439.608	97.62
439.829	89.62
440.05	83.62
440.272	76.62
440.493	90.62
440.715	91.62
440.936	90.62
441.158	105.62
441.379	95.62
441.6	73.62
441.822	86.62
442.043	94.62
442.264	101.62
442.486	96.62
442.707	79.62
442.928	89.62
443.149	99.62
443.371	79.62
443.592	87.62
443.813	81.62
444.034	86.62
444.255	82.62
444.476	89.62
444.698	80.62
444.919	85.62
445.14	233.62
445.361	141.62
445.582	90.62
445.803	79.62
446.024	87.62
446.245	85.62
446.466	99.62
446.687	80.62
446.908	92.62
447.129	105.62
447.35	88.62
447.571	79.62
447.792	89.62
448.013	87.62
448.234	100.62
448.455	100.62
448.675	86.62
448.896	76.62
449.117	84.62
449.338	83.62
449.559	93.62
449.779	81.62
450	85.62
450.221	100.62
450.442	106.62
450.662	101.62
450.883	82.62
451.104	67.62
451.324	79.62
451.545	79.62
451.766	87.62
451.986	81.62
452.207	85.62
452.428	87.62
452.648	86.62
452.869	79.62
453.089	92.62
453.31	82.62
453.53	98.62
453.751	96.62
453.971	101.62
454.192	87.62
454.412	97.62
454.633	73.62
454.853	74.62
455.073	96.62
455.294	92.62
455.514	71.62
455.734	92.62
455.955	96.62
456.175	92.62
456.395	81.62
456.616	82.62
456.836	76.62
457.056	85.62
457.276	80.62
457.497	101.62
457.717	78.62
457.937	105.62
458.157	97.62
458.377	87.62
458.598	93.62
458.818	87.62
459.038	89.62
459.258	86.62
459.478	92.62
459.698	68.62
459.918	74.62
460.138	84.62
460.358	100.62
460.578	99.62
460.798	84.62
461.018	83.62
461.238	89.62
461.458	100.62
461.678	83.62
461.898	96.62
462.118	91.62
462.338	84.62
462.558	89.62
462.777	81.62
462.997	82.62
463.217	89.62
463.437	91.62
463.657	80.62
463.876	89.62
464.096	87.62
464.316	91.62
464.536	86.62
464.755	93.62
464.975	99.62
465.195	101.62
465.414	103.62
465.634	80.62
465.854	94.62
466.073	96.62
466.293	106.62
466.512	87.62
466.732	94.62
466.951	94.62
467.171	97.62
467.391	88.62
467.61	84.62
467.829	94.62
468.049	93.62
468.268	99.62
468.488	96.62
468.707	108.62
468.927	83.62
469.146	86.62
469.365	83.62
469.585	87.62
469.804	84.62
470.023	104.62
470.243	91.62
470.462	90.62
470.681	89.62
470.901	91.62
471.12	88.62
471.339	93.62
471.558	92.62
471.777	89.62
471.997	84.62
472.216	76.62
472.435	91.62
472.654	82.62
472.873	79.62
473.092	89.62
473.311	92.62
473.53	99.62
473.749	90.62
473.968	88.62
474.187	74.62
474.406	92.62
474.625	79.62
474.844	86.62
475.063	90.62
475.282	83.62
475.501	92.62
475.72	92.62
475.939	103.62
476.158	83.62
476.377	86.62
476.596	79.62
476.814	106.62
477.033	83.62
477.252	91.62
477.471	97.62
477.69	107.62
477.908	86.62
478.127	111.62
478.346	95.62
478.564	89.62
478.783	92.62
479.002	94.62
479.22	74.62
479.439	96.62
479.658	109.62
479.876	91.62
480.095	73.62
480.313	95.62
480.532	100.62
480.751	96.62
480.969	83.62
481.188	86.62
481.406	91.62
481.624	98.62
481.843	95.62
482.061	87.62
482.28	97.62
482.498	101.62
482.717	89.62
482.935	81.62
483.153	91.62
483.372	100.62
483.59	96.62
483.808	84.62
484.027	90.62
484.245	96.62
484.463	81.62
484.681	88.62
484.9	72.62
485.118	84.62
485.336	86.62
485.554	87.62
485.772	92.62
485.99	93.62
486.209	94.62
486.427	94.62
486.645	88.62
486.863	88.62
487.081	94.62
487.299	90.62
487.517	93.62
487.735	102.62
487.953	100.62
488.171	99.62
488.389	95.62
488.607	84.62
488.825	94.62
489.043	88.62
489.261	91.62
489.479	93.62
489.696	99.62
489.914	87.62
490.132	95.62
490.35	100.62
490.568	96.62
490.786	81.62
491.003	93.62
491.221	67.62
491.439	86.62
491.657	93.62
491.874	100.62
492.092	86.62
492.31	103.62
492.527	107.62
492.745	98.62
492.963	97.62
493.18	92.62
493.398	110.62
493.615	87.62
493.833	110.62
494.05	108.62
494.268	98.62
494.485	94.62
494.703	100.62
494.92	93.62
495.138	91.62
495.355	105.62
495.573	104.62
495.79	103.62
496.008	96.62
496.225	96.62
496.442	75.62
496.66	93.62
496.877	98.62
497.094	105.62
497.312	98.62
497.529	92.62
497.746	99.62
497.963	95.62
498.181	106.62
498.398	105.62
498.615	93.62
498.832	98.62
499.049	107.62
499.267	99.62
499.484	108.62
499.701	92.62
499.918	118.62
500.135	115.62
500.352	110.62
500.569	101.62
500.786	102.62
501.003	111.62
501.22	103.62
501.437	95.62
501.654	92.62
501.871	99.62
502.088	88.62
502.305	100.62
502.522	84.62
502.739	100.62
502.956	89.62
503.172	93.62
503.389	105.62
503.606	97.62
503.823	79.62
504.04	81.62
504.256	104.62
504.473	98.62
504.69	84.62
504.907	97.62
505.123	95.62
505.34	115.62
505.557	94.62
505.773	107.62
505.99	91.62
506.207	86.62
506.423	91.62
506.64	100.62
506.856	92.62
507.073	92.62
507.289	85.62
507.506	92.62
507.722	92.62
507.939	96.62
508.155	92.62
508.372	71.62
508.588	98.62
508.805	94.62
509.021	96.62
509.238	95.62
509.454	73.62
509.67	77.62
509.887	93.62
510.103	88.62
510.319	80.62
510.536	103.62
510.752	113.62
510.968	98.62
511.184	84.62
511.401	97.62
511.617	87.62
511.833	85.62
512.049	93.62
512.265	92.62
512.481	111.62
512.698	96.62
512.914	87.62
513.13	84.62
513.346	99.62
513.562	79.62
513.778	85.62
513.994	87.62
514.21	94.62
514.426	88.62
514.642	95.62
514.858	89.62
515.074	94.62
515.29	86.62
515.506	107.62
515.721	84.62
515.937	90.62
516.153	88.62
516.369	92.62
516.585	84.62
516.801	90.62
517.016	101.62
517.232	103.62
517.448	103.62
517.664	87.62
517.879	87.62
