Data from Ni(NO3)2@0.0625M.TitratingCurve.Agarose3%dH2O.NegLispCup.LampEnergy10.LIBS07252019_HRD10591_18-15-36-570.txt Node
Date: Thu Jul 25 18:15:36 EDT 2019
User: cochatt
Spectrometer: HR+D1059
Trigger mode: 1
Integration Time (sec): 1.000000E-1
Scans to average: 1
Electric dark correction enabled: true
Nonlinearity correction enabled: false
Boxcar width: 0
XAxis mode: Wavelengths
Number of Pixels in Spectrum: 2048
>>>>>Begin Spectral Data<<<<<
223.165	-24.56
223.4	-24.56
223.635	-24.56
223.869	-18.56
224.104	-25.56
224.338	-12.56
224.573	-12.56
224.808	-19.56
225.042	-5.56
225.277	-11.56
225.511	-1.56
225.746	7.44
225.98	12.44
226.215	11.44
226.449	13.44
226.683	13.44
226.918	29.44
227.152	44.44
227.387	24.44
227.621	26.44
227.856	42.44
228.09	49.44
228.324	62.44
228.559	58.44
228.793	69.44
229.027	88.44
229.262	83.44
229.496	107.44
229.73	120.44
229.964	124.44
230.199	109.44
230.433	122.44
230.667	115.44
230.901	117.44
231.136	122.44
231.37	126.44
231.604	124.44
231.838	123.44
232.072	131.44
232.306	133.44
232.541	153.44
232.775	122.44
233.009	126.44
233.243	126.44
233.477	130.44
233.711	126.44
233.945	130.44
234.179	135.44
234.413	124.44
234.647	125.44
234.881	140.44
235.115	132.44
235.349	134.44
235.583	135.44
235.817	137.44
236.051	141.44
236.285	132.44
236.519	129.44
236.753	130.44
236.987	123.44
237.221	130.44
237.455	123.44
237.689	123.44
237.922	133.44
238.156	125.44
238.39	128.44
238.624	149.44
238.858	141.44
239.091	140.44
239.325	140.44
239.559	141.44
239.793	160.44
240.027	154.44
240.26	141.44
240.494	150.44
240.728	151.44
240.961	153.44
241.195	160.44
241.429	149.44
241.662	154.44
241.896	145.44
242.13	162.44
242.363	161.44
242.597	171.44
242.83	173.44
243.064	158.44
243.298	158.44
243.531	166.44
243.765	178.44
243.998	176.44
244.232	182.44
244.465	176.44
244.699	161.44
244.932	167.44
245.166	189.44
245.399	180.44
245.633	178.44
245.866	179.44
246.099	165.44
246.333	190.44
246.566	171.44
246.8	187.44
247.033	176.44
247.266	178.44
247.5	189.44
247.733	172.44
247.966	174.44
248.2	172.44
248.433	177.44
248.666	200.44
248.899	188.44
249.133	177.44
249.366	211.44
249.599	201.44
249.832	205.44
250.066	191.44
250.299	182.44
250.532	193.44
250.765	201.44
250.998	188.44
251.231	194.44
251.465	220.44
251.698	195.44
251.931	207.44
252.164	210.44
252.397	212.44
252.63	195.44
252.863	194.44
253.096	213.44
253.329	212.44
253.562	224.44
253.795	207.44
254.028	204.44
254.261	206.44
254.494	220.44
254.727	200.44
254.96	218.44
255.193	207.44
255.426	235.44
255.659	209.44
255.892	234.44
256.124	216.44
256.357	227.44
256.59	223.44
256.823	218.44
257.056	233.44
257.289	226.44
257.521	238.44
257.754	218.44
257.987	225.44
258.22	231.44
258.452	237.44
258.685	238.44
258.918	234.44
259.151	235.44
259.383	241.44
259.616	240.44
259.849	252.44
260.081	241.44
260.314	237.44
260.547	231.44
260.779	235.44
261.012	249.44
261.244	256.44
261.477	244.44
261.71	243.44
261.942	236.44
262.175	251.44
262.407	246.44
262.64	243.44
262.872	241.44
263.105	261.44
263.337	254.44
263.57	263.44
263.802	260.44
264.035	260.44
264.267	272.44
264.499	268.44
264.732	269.44
264.964	281.44
265.197	250.44
265.429	269.44
265.661	279.44
265.894	289.44
266.126	278.44
266.358	264.44
266.591	264.44
266.823	286.44
267.055	295.44
267.287	295.44
267.52	264.44
267.752	258.44
267.984	285.44
268.216	264.44
268.448	290.44
268.681	279.44
268.913	282.44
269.145	301.44
269.377	301.44
269.609	285.44
269.841	286.44
270.073	265.44
270.306	272.44
270.538	278.44
270.77	278.44
271.002	273.44
271.234	289.44
271.466	299.44
271.698	308.44
271.93	283.44
272.162	292.44
272.394	293.44
272.626	313.44
272.858	300.44
273.09	315.44
273.322	307.44
273.553	293.44
273.785	319.44
274.017	292.44
274.249	311.44
274.481	286.44
274.713	301.44
274.945	327.44
275.176	315.44
275.408	315.44
275.64	317.44
275.872	306.44
276.104	299.44
276.335	318.44
276.567	315.44
276.799	305.44
277.031	348.44
277.262	333.44
277.494	326.44
277.726	335.44
277.957	322.44
278.189	323.44
278.421	328.44
278.652	332.44
278.884	332.44
279.115	332.44
279.347	335.44
279.579	325.44
279.81	339.44
280.042	337.44
280.273	343.44
280.505	346.44
280.736	353.44
280.968	346.44
281.199	354.44
281.431	347.44
281.662	365.44
281.894	356.44
282.125	364.44
282.356	353.44
282.588	342.44
282.819	332.44
283.051	341.44
283.282	368.44
283.513	363.44
283.745	357.44
283.976	356.44
284.207	352.44
284.439	360.44
284.67	347.44
284.901	379.44
285.132	351.44
285.364	361.44
285.595	369.44
285.826	384.44
286.057	376.44
286.288	381.44
286.52	384.44
286.751	396.44
286.982	368.44
287.213	384.44
287.444	382.44
287.675	392.44
287.906	380.44
288.138	386.44
288.369	375.44
288.6	394.44
288.831	387.44
289.062	393.44
289.293	399.44
289.524	397.44
289.755	408.44
289.986	383.44
290.217	392.44
290.448	394.44
290.679	396.44
290.91	396.44
291.141	396.44
291.371	395.44
291.602	402.44
291.833	382.44
292.064	374.44
292.295	391.44
292.526	369.44
292.757	389.44
292.987	393.44
293.218	390.44
293.449	403.44
293.68	382.44
293.91	391.44
294.141	393.44
294.372	401.44
294.603	405.44
294.833	409.44
295.064	428.44
295.295	423.44
295.525	394.44
295.756	390.44
295.987	408.44
296.217	393.44
296.448	420.44
296.679	406.44
296.909	412.44
297.14	421.44
297.37	419.44
297.601	428.44
297.831	423.44
298.062	428.44
298.292	429.44
298.523	420.44
298.753	436.44
298.984	446.44
299.214	432.44
299.445	447.44
299.675	432.44
299.905	441.44
300.136	438.44
300.366	432.44
300.597	451.44
300.827	454.44
301.057	448.44
301.288	458.44
301.518	443.44
301.748	454.44
301.979	438.44
302.209	486.44
302.439	463.44
302.669	463.44
302.9	446.44
303.13	420.44
303.36	421.44
303.59	452.44
303.82	447.44
304.051	447.44
304.281	444.44
304.511	473.44
304.741	428.44
304.971	456.44
305.201	484.44
305.431	453.44
305.661	441.44
305.891	452.44
306.121	430.44
306.352	467.44
306.582	452.44
306.812	440.44
307.042	442.44
307.272	446.44
307.502	451.44
307.731	448.44
307.961	444.44
308.191	417.44
308.421	451.44
308.651	436.44
308.881	427.44
309.111	436.44
309.341	444.44
309.571	450.44
309.8	436.44
310.03	439.44
310.26	458.44
310.49	455.44
310.72	435.44
310.949	444.44
311.179	445.44
311.409	452.44
311.639	434.44
311.868	447.44
312.098	456.44
312.328	452.44
312.557	458.44
312.787	466.44
313.017	472.44
313.246	467.44
313.476	464.44
313.706	490.44
313.935	478.44
314.165	473.44
314.394	469.44
314.624	472.44
314.853	481.44
315.083	483.44
315.312	463.44
315.542	464.44
315.771	458.44
316.001	488.44
316.23	446.44
316.46	444.44
316.689	467.44
316.919	457.44
317.148	458.44
317.377	461.44
317.607	452.44
317.836	456.44
318.065	460.44
318.295	460.44
318.524	469.44
318.753	466.44
318.983	456.44
319.212	452.44
319.441	457.44
319.67	478.44
319.9	479.44
320.129	459.44
320.358	478.44
320.587	465.44
320.816	471.44
321.046	477.44
321.275	486.44
321.504	464.44
321.733	477.44
321.962	470.44
322.191	480.44
322.42	480.44
322.649	494.44
322.878	468.44
323.108	446.44
323.337	468.44
323.566	469.44
323.795	474.44
324.024	498.44
324.253	493.44
324.482	470.44
324.71	476.44
324.939	477.44
325.168	481.44
325.397	501.44
325.626	510.44
325.855	504.44
326.084	497.44
326.313	512.44
326.542	516.44
326.77	517.44
326.999	509.44
327.228	501.44
327.457	494.44
327.686	489.44
327.914	473.44
328.143	515.44
328.372	503.44
328.6	498.44
328.829	499.44
329.058	522.44
329.287	499.44
329.515	502.44
329.744	514.44
329.972	510.44
330.201	524.44
330.43	518.44
330.658	512.44
330.887	546.44
331.115	529.44
331.344	531.44
331.572	528.44
331.801	554.44
332.03	555.44
332.258	576.44
332.486	577.44
332.715	621.44
332.943	646.44
333.172	678.44
333.4	685.44
333.629	723.44
333.857	709.44
334.085	692.44
334.314	681.44
334.542	650.44
334.771	662.44
334.999	644.44
335.227	635.44
335.455	626.44
335.684	620.44
335.912	630.44
336.14	611.44
336.369	585.44
336.597	629.44
336.825	617.44
337.053	605.44
337.281	619.44
337.51	584.44
337.738	596.44
337.966	569.44
338.194	562.44
338.422	561.44
338.65	554.44
338.878	547.44
339.106	569.44
339.334	588.44
339.562	553.44
339.79	548.44
340.018	522.44
340.246	512.44
340.474	526.44
340.702	536.44
340.93	564.44
341.158	549.44
341.386	562.44
341.614	559.44
341.842	546.44
342.07	547.44
342.298	528.44
342.526	507.44
342.754	548.44
342.981	544.44
343.209	548.44
343.437	587.44
343.665	612.44
343.893	640.44
344.12	679.44
344.348	633.44
344.576	596.44
344.804	573.44
345.031	583.44
345.259	562.44
345.487	540.44
345.714	530.44
345.942	541.44
346.17	550.44
346.397	550.44
346.625	546.44
346.853	533.44
347.08	521.44
347.308	540.44
347.535	544.44
347.763	523.44
347.99	548.44
348.218	560.44
348.445	541.44
348.673	534.44
348.9	529.44
349.128	538.44
349.355	523.44
349.583	509.44
349.81	505.44
350.037	507.44
350.265	504.44
350.492	507.44
350.72	518.44
350.947	501.44
351.174	517.44
351.402	513.44
351.629	496.44
351.856	493.44
352.083	491.44
352.311	516.44
352.538	522.44
352.765	511.44
352.992	468.44
353.22	506.44
353.447	487.44
353.674	480.44
353.901	513.44
354.128	504.44
354.355	508.44
354.583	529.44
354.81	489.44
355.037	506.44
355.264	508.44
355.491	498.44
355.718	492.44
355.945	510.44
356.172	512.44
356.399	516.44
356.626	492.44
356.853	516.44
357.08	511.44
357.307	515.44
357.534	501.44
357.761	500.44
357.988	497.44
358.215	502.44
358.441	518.44
358.668	514.44
358.895	501.44
359.122	506.44
359.349	501.44
359.576	490.44
359.802	508.44
360.029	508.44
360.256	512.44
360.483	510.44
360.709	511.44
360.936	508.44
361.163	508.44
361.39	490.44
361.616	512.44
361.843	507.44
362.07	515.44
362.296	522.44
362.523	506.44
362.749	499.44
362.976	478.44
363.203	508.44
363.429	507.44
363.656	510.44
363.882	484.44
364.109	492.44
364.335	488.44
364.562	473.44
364.788	494.44
365.015	507.44
365.241	490.44
365.468	502.44
365.694	497.44
365.92	500.44
366.147	510.44
366.373	488.44
366.599	515.44
366.826	510.44
367.052	501.44
367.278	498.44
367.505	502.44
367.731	535.44
367.957	503.44
368.184	516.44
368.41	516.44
368.636	519.44
368.862	532.44
369.089	546.44
369.315	504.44
369.541	536.44
369.767	535.44
369.993	534.44
370.219	520.44
370.445	536.44
370.672	550.44
370.898	545.44
371.124	541.44
371.35	533.44
371.576	561.44
371.802	562.44
372.028	560.44
372.254	540.44
372.48	549.44
372.706	547.44
372.932	575.44
373.158	585.44
373.384	538.44
373.61	550.44
373.835	572.44
374.061	559.44
374.287	576.44
374.513	552.44
374.739	584.44
374.965	600.44
375.191	621.44
375.416	624.44
375.642	596.44
375.868	590.44
376.094	580.44
376.319	590.44
376.545	581.44
376.771	544.44
376.997	554.44
377.222	570.44
377.448	530.44
377.674	578.44
377.899	533.44
378.125	550.44
378.35	571.44
378.576	541.44
378.802	544.44
379.027	558.44
379.253	544.44
379.478	540.44
379.704	544.44
379.929	539.44
380.155	560.44
380.38	551.44
380.606	542.44
380.831	548.44
381.057	534.44
381.282	546.44
381.507	560.44
381.733	566.44
381.958	529.44
382.184	567.44
382.409	569.44
382.634	564.44
382.86	571.44
383.085	598.44
383.31	585.44
383.535	613.44
383.761	626.44
383.986	616.44
384.211	638.44
384.436	647.44
384.662	674.44
384.887	679.44
385.112	644.44
385.337	664.44
385.562	680.44
385.787	651.44
386.013	677.44
386.238	663.44
386.463	679.44
386.688	647.44
386.913	640.44
387.138	661.44
387.363	659.44
387.588	636.44
387.813	617.44
388.038	650.44
388.263	650.44
388.488	669.44
388.713	640.44
388.938	640.44
389.163	637.44
389.387	652.44
389.612	642.44
389.837	657.44
390.062	640.44
390.287	630.44
390.512	643.44
390.736	648.44
390.961	669.44
391.186	692.44
391.411	708.44
391.636	689.44
391.86	744.44
392.085	754.44
392.31	766.44
392.534	728.44
392.759	698.44
392.984	689.44
393.208	692.44
393.433	702.44
393.658	705.44
393.882	700.44
394.107	706.44
394.331	704.44
394.556	698.44
394.78	684.44
395.005	697.44
395.229	730.44
395.454	725.44
395.678	709.44
395.903	752.44
396.127	736.44
396.352	708.44
396.576	679.44
396.801	688.44
397.025	721.44
397.249	704.44
397.474	714.44
397.698	731.44
397.922	724.44
398.147	723.44
398.371	749.44
398.595	770.44
398.82	811.44
399.044	893.44
399.268	974.44
399.492	1126.44
399.717	1265.44
399.941	1238.44
400.165	1087.44
400.389	970.44
400.613	914.44
400.837	868.44
401.062	816.44
401.286	818.44
401.51	836.44
401.734	830.44
401.958	844.44
402.182	832.44
402.406	852.44
402.63	861.44
402.854	891.44
403.078	888.44
403.302	901.44
403.526	954.44
403.75	924.44
403.974	925.44
404.198	977.44
404.422	967.44
404.645	985.44
404.869	952.44
405.093	952.44
405.317	907.44
405.541	908.44
405.765	909.44
405.988	874.44
406.212	921.44
406.436	892.44
406.66	939.44
406.883	930.44
407.107	992.44
407.331	1029.44
407.555	1038.44
407.778	1077.44
408.002	1043.44
408.226	998.44
408.449	989.44
408.673	958.44
408.896	943.44
409.12	942.44
409.344	952.44
409.567	928.44
409.791	982.44
410.014	965.44
410.238	936.44
410.461	918.44
410.685	933.44
410.908	891.44
411.132	903.44
411.355	846.44
411.578	819.44
411.802	854.44
412.025	852.44
412.249	885.44
412.472	856.44
412.695	843.44
412.919	834.44
413.142	826.44
413.365	806.44
413.589	798.44
413.812	825.44
414.035	804.44
414.258	784.44
414.482	821.44
414.705	830.44
414.928	809.44
415.151	844.44
415.374	846.44
415.597	833.44
415.821	836.44
416.044	832.44
416.267	805.44
416.49	789.44
416.713	794.44
416.936	804.44
417.159	781.44
417.382	802.44
417.605	818.44
417.828	821.44
418.051	817.44
418.274	793.44
418.497	830.44
418.72	884.44
418.943	845.44
419.166	870.44
419.389	961.44
419.611	935.44
419.834	873.44
420.057	856.44
420.28	818.44
420.503	772.44
420.726	778.44
420.948	821.44
421.171	801.44
421.394	827.44
421.617	798.44
421.839	818.44
422.062	848.44
422.285	808.44
422.507	819.44
422.73	834.44
422.953	811.44
423.175	869.44
423.398	872.44
423.621	859.44
423.843	869.44
424.066	863.44
424.288	857.44
424.511	873.44
424.733	859.44
424.956	816.44
425.178	839.44
425.401	828.44
425.623	838.44
425.846	791.44
426.068	800.44
426.291	807.44
426.513	774.44
426.735	774.44
426.958	740.44
427.18	752.44
427.402	726.44
427.625	746.44
427.847	713.44
428.069	715.44
428.292	744.44
428.514	747.44
428.736	744.44
428.958	731.44
429.181	741.44
429.403	716.44
429.625	699.44
429.847	717.44
430.069	683.44
430.292	721.44
430.514	695.44
430.736	708.44
430.958	706.44
431.18	732.44
431.402	724.44
431.624	741.44
431.846	739.44
432.068	746.44
432.29	753.44
432.512	721.44
432.734	741.44
432.956	698.44
433.178	729.44
433.4	739.44
433.622	742.44
433.844	740.44
434.066	766.44
434.287	756.44
434.509	812.44
434.731	823.44
434.953	830.44
435.175	833.44
435.397	811.44
435.618	805.44
435.84	778.44
436.062	740.44
436.284	769.44
436.505	715.44
436.727	750.44
436.949	744.44
437.17	726.44
437.392	723.44
437.614	726.44
437.835	715.44
438.057	687.44
438.278	707.44
438.5	717.44
438.721	689.44
438.943	745.44
439.165	692.44
439.386	721.44
439.608	733.44
439.829	712.44
440.05	732.44
440.272	744.44
440.493	729.44
440.715	768.44
440.936	752.44
441.158	776.44
441.379	780.44
441.6	807.44
441.822	839.44
442.043	838.44
442.264	810.44
442.486	813.44
442.707	797.44
442.928	812.44
443.149	794.44
443.371	812.44
443.592	841.44
443.813	824.44
444.034	849.44
444.255	850.44
444.476	899.44
444.698	987.44
444.919	1004.44
445.14	1119.44
445.361	952.44
445.582	850.44
445.803	798.44
446.024	779.44
446.245	782.44
446.466	770.44
446.687	736.44
446.908	732.44
447.129	691.44
447.35	711.44
447.571	701.44
447.792	695.44
448.013	686.44
448.234	688.44
448.455	663.44
448.675	692.44
448.896	677.44
449.117	683.44
449.338	674.44
449.559	666.44
449.779	682.44
450	668.44
450.221	662.44
450.442	686.44
450.662	697.44
450.883	720.44
451.104	712.44
451.324	702.44
451.545	705.44
451.766	677.44
451.986	687.44
452.207	685.44
452.428	664.44
452.648	694.44
452.869	682.44
453.089	669.44
453.31	686.44
453.53	680.44
453.751	669.44
453.971	680.44
454.192	674.44
454.412	649.44
454.633	669.44
454.853	647.44
455.073	653.44
455.294	660.44
455.514	650.44
455.734	644.44
455.955	645.44
456.175	646.44
456.395	666.44
456.616	633.44
456.836	637.44
457.056	628.44
457.276	631.44
457.497	650.44
457.717	645.44
457.937	654.44
458.157	642.44
458.377	655.44
458.598	653.44
458.818	676.44
459.038	684.44
459.258	741.44
459.478	762.44
459.698	780.44
459.918	809.44
460.138	856.44
460.358	846.44
460.578	864.44
460.798	862.44
461.018	868.44
461.238	852.44
461.458	869.44
461.678	883.44
461.898	879.44
462.118	905.44
462.338	926.44
462.558	934.44
462.777	996.44
462.997	1072.44
463.217	1201.44
463.437	1230.44
463.657	1105.44
463.876	1014.44
464.096	1026.44
464.316	1047.44
464.536	1060.44
464.755	1008.44
464.975	928.44
465.195	935.44
465.414	887.44
465.634	800.44
465.854	776.44
466.073	789.44
466.293	746.44
466.512	722.44
466.732	723.44
466.951	754.44
467.171	714.44
467.391	741.44
467.61	722.44
467.829	707.44
468.049	717.44
468.268	705.44
468.488	698.44
468.707	682.44
468.927	670.44
469.146	686.44
469.365	667.44
469.585	676.44
469.804	720.44
470.023	750.44
470.243	732.44
470.462	748.44
470.681	748.44
470.901	740.44
471.12	730.44
471.339	714.44
471.558	698.44
471.777	693.44
471.997	697.44
472.216	696.44
472.435	683.44
472.654	669.44
472.873	650.44
473.092	683.44
473.311	679.44
473.53	678.44
473.749	657.44
473.968	654.44
474.187	668.44
474.406	659.44
474.625	662.44
474.844	672.44
475.063	679.44
475.282	657.44
475.501	667.44
475.72	672.44
475.939	714.44
476.158	698.44
476.377	697.44
476.596	692.44
476.814	706.44
477.033	703.44
477.252	722.44
477.471	763.44
477.69	743.44
477.908	747.44
478.127	806.44
478.346	789.44
478.564	827.44
478.783	811.44
479.002	873.44
479.22	840.44
479.439	845.44
479.658	849.44
479.876	845.44
480.095	852.44
480.313	904.44
480.532	904.44
480.751	913.44
480.969	885.44
481.188	825.44
481.406	843.44
481.624	807.44
481.843	779.44
482.061	748.44
482.28	805.44
482.498	799.44
482.717	791.44
482.935	774.44
483.153	780.44
483.372	783.44
483.59	802.44
483.808	799.44
484.027	774.44
484.245	760.44
484.463	805.44
484.681	804.44
484.9	797.44
485.118	797.44
485.336	791.44
485.554	816.44
485.772	827.44
485.99	857.44
486.209	825.44
486.427	829.44
486.645	836.44
486.863	831.44
487.081	838.44
487.299	856.44
487.517	824.44
487.735	802.44
487.953	839.44
488.171	807.44
488.389	797.44
488.607	809.44
488.825	817.44
489.043	819.44
489.261	799.44
489.479	814.44
489.696	821.44
489.914	810.44
490.132	811.44
490.35	808.44
490.568	837.44
490.786	804.44
491.003	798.44
491.221	816.44
491.439	820.44
491.657	846.44
491.874	826.44
492.092	819.44
492.31	802.44
492.527	814.44
492.745	815.44
492.963	816.44
493.18	835.44
493.398	850.44
493.615	868.44
493.833	853.44
494.05	831.44
494.268	838.44
494.485	859.44
494.703	865.44
494.92	855.44
495.138	861.44
495.355	817.44
495.573	875.44
495.79	846.44
496.008	861.44
496.225	860.44
496.442	873.44
496.66	874.44
496.877	881.44
497.094	894.44
497.312	924.44
497.529	950.44
497.746	962.44
497.963	989.44
498.181	1020.44
498.398	1052.44
498.615	1129.44
498.832	1186.44
499.049	1263.44
499.267	1371.44
499.484	1516.44
499.701	1688.44
499.918	1853.44
500.135	2189.44
500.352	2515.44
500.569	2682.44
500.786	2613.44
501.003	2386.44
