Data from Ni(NO3)2@0.5M.TitratingCurve.Agarose3%dH2O.NegLispCup.LampEnergy10.LIBS07252019_HRD10591_17-58-59-564.txt Node
Date: Thu Jul 25 17:58:59 EDT 2019
User: cochatt
Spectrometer: HR+D1059
Trigger mode: 1
Integration Time (sec): 1.000000E-1
Scans to average: 1
Electric dark correction enabled: true
Nonlinearity correction enabled: false
Boxcar width: 0
XAxis mode: Wavelengths
Number of Pixels in Spectrum: 2048
>>>>>Begin Spectral Data<<<<<
223.165	-14.19
223.4	-14.19
223.635	-14.19
223.869	-14.19
224.104	-11.19
224.338	-18.19
224.573	-8.19
224.808	-28.19
225.042	8.81
225.277	-3.19
225.511	1.81
225.746	-2.19
225.98	12.81
226.215	14.81
226.449	12.81
226.683	18.81
226.918	8.81
227.152	20.81
227.387	35.81
227.621	52.81
227.856	37.81
228.09	62.81
228.324	59.81
228.559	62.81
228.793	76.81
229.027	122.81
229.262	153.81
229.496	153.81
229.73	149.81
229.964	188.81
230.199	224.81
230.433	210.81
230.667	198.81
230.901	188.81
231.136	172.81
231.37	175.81
231.604	187.81
231.838	221.81
232.072	233.81
232.306	225.81
232.541	199.81
232.775	182.81
233.009	163.81
233.243	171.81
233.477	171.81
233.711	178.81
233.945	183.81
234.179	190.81
234.413	173.81
234.647	193.81
234.881	181.81
235.115	187.81
235.349	173.81
235.583	170.81
235.817	155.81
236.051	170.81
236.285	179.81
236.519	170.81
236.753	170.81
236.987	181.81
237.221	177.81
237.455	171.81
237.689	173.81
237.922	186.81
238.156	189.81
238.39	196.81
238.624	200.81
238.858	185.81
239.091	193.81
239.325	195.81
239.559	207.81
239.793	234.81
240.027	238.81
240.26	191.81
240.494	187.81
240.728	213.81
240.961	196.81
241.195	206.81
241.429	200.81
241.662	219.81
241.896	255.81
242.13	268.81
242.363	236.81
242.597	211.81
242.83	206.81
243.064	218.81
243.298	221.81
243.531	225.81
243.765	226.81
243.998	232.81
244.232	255.81
244.465	238.81
244.699	245.81
244.932	222.81
245.166	220.81
245.399	213.81
245.633	237.81
245.866	226.81
246.099	241.81
246.333	230.81
246.566	243.81
246.8	236.81
247.033	246.81
247.266	250.81
247.5	250.81
247.733	269.81
247.966	266.81
248.2	269.81
248.433	269.81
248.666	271.81
248.899	276.81
249.133	263.81
249.366	267.81
249.599	258.81
249.832	267.81
250.066	282.81
250.299	256.81
250.532	282.81
250.765	277.81
250.998	287.81
251.231	314.81
251.465	333.81
251.698	311.81
251.931	285.81
252.164	307.81
252.397	295.81
252.63	306.81
252.863	299.81
253.096	307.81
253.329	303.81
253.562	311.81
253.795	314.81
254.028	308.81
254.261	320.81
254.494	317.81
254.727	316.81
254.96	345.81
255.193	322.81
255.426	331.81
255.659	342.81
255.892	324.81
256.124	337.81
256.357	335.81
256.59	349.81
256.823	329.81
257.056	332.81
257.289	345.81
257.521	334.81
257.754	343.81
257.987	369.81
258.22	338.81
258.452	350.81
258.685	367.81
258.918	350.81
259.151	363.81
259.383	341.81
259.616	347.81
259.849	361.81
260.081	355.81
260.314	373.81
260.547	369.81
260.779	376.81
261.012	387.81
261.244	391.81
261.477	379.81
261.71	375.81
261.942	381.81
262.175	373.81
262.407	382.81
262.64	367.81
262.872	399.81
263.105	393.81
263.337	398.81
263.57	389.81
263.802	409.81
264.035	407.81
264.267	413.81
264.499	404.81
264.732	392.81
264.964	405.81
265.197	407.81
265.429	424.81
265.661	401.81
265.894	412.81
266.126	400.81
266.358	400.81
266.591	414.81
266.823	444.81
267.055	424.81
267.287	421.81
267.52	400.81
267.752	433.81
267.984	407.81
268.216	436.81
268.448	420.81
268.681	422.81
268.913	447.81
269.145	435.81
269.377	436.81
269.609	445.81
269.841	425.81
270.073	427.81
270.306	449.81
270.538	437.81
270.77	457.81
271.002	445.81
271.234	445.81
271.466	447.81
271.698	462.81
271.93	458.81
272.162	429.81
272.394	459.81
272.626	469.81
272.858	464.81
273.09	467.81
273.322	487.81
273.553	466.81
273.785	467.81
274.017	471.81
274.249	485.81
274.481	474.81
274.713	475.81
274.945	473.81
275.176	472.81
275.408	479.81
275.64	479.81
275.872	465.81
276.104	489.81
276.335	497.81
276.567	466.81
276.799	463.81
277.031	502.81
277.262	509.81
277.494	521.81
277.726	518.81
277.957	504.81
278.189	513.81
278.421	506.81
278.652	496.81
278.884	503.81
279.115	527.81
279.347	515.81
279.579	510.81
279.81	497.81
280.042	541.81
280.273	534.81
280.505	522.81
280.736	538.81
280.968	538.81
281.199	543.81
281.431	536.81
281.662	536.81
281.894	539.81
282.125	517.81
282.356	519.81
282.588	534.81
282.819	554.81
283.051	556.81
283.282	553.81
283.513	542.81
283.745	557.81
283.976	545.81
284.207	567.81
284.439	544.81
284.67	574.81
284.901	565.81
285.132	550.81
285.364	561.81
285.595	541.81
285.826	582.81
286.057	574.81
286.288	550.81
286.52	569.81
286.751	577.81
286.982	569.81
287.213	579.81
287.444	583.81
287.675	563.81
287.906	597.81
288.138	583.81
288.369	587.81
288.6	562.81
288.831	563.81
289.062	590.81
289.293	571.81
289.524	594.81
289.755	588.81
289.986	605.81
290.217	597.81
290.448	596.81
290.679	613.81
290.91	606.81
291.141	586.81
291.371	581.81
291.602	595.81
291.833	601.81
292.064	589.81
292.295	579.81
292.526	591.81
292.757	608.81
292.987	577.81
293.218	595.81
293.449	613.81
293.68	617.81
293.91	586.81
294.141	590.81
294.372	579.81
294.603	630.81
294.833	617.81
295.064	614.81
295.295	618.81
295.525	628.81
295.756	620.81
295.987	620.81
296.217	622.81
296.448	617.81
296.679	613.81
296.909	606.81
297.14	627.81
297.37	655.81
297.601	624.81
297.831	631.81
298.062	643.81
298.292	627.81
298.523	639.81
298.753	667.81
298.984	643.81
299.214	643.81
299.445	654.81
299.675	630.81
299.905	667.81
300.136	650.81
300.366	701.81
300.597	712.81
300.827	695.81
301.057	676.81
301.288	698.81
301.518	685.81
301.748	687.81
301.979	681.81
302.209	687.81
302.439	692.81
302.669	673.81
302.9	697.81
303.13	687.81
303.36	709.81
303.59	702.81
303.82	748.81
304.051	723.81
304.281	709.81
304.511	709.81
304.741	698.81
304.971	736.81
305.201	711.81
305.431	733.81
305.661	738.81
305.891	713.81
306.121	717.81
306.352	713.81
306.582	714.81
306.812	692.81
307.042	700.81
307.272	669.81
307.502	669.81
307.731	713.81
307.961	689.81
308.191	668.81
308.421	696.81
308.651	661.81
308.881	702.81
309.111	708.81
309.341	698.81
309.571	723.81
309.8	689.81
310.03	751.81
310.26	789.81
310.49	767.81
310.72	744.81
310.949	741.81
311.179	720.81
311.409	724.81
311.639	730.81
311.868	716.81
312.098	753.81
312.328	725.81
312.557	732.81
312.787	742.81
313.017	738.81
313.246	751.81
313.476	805.81
313.706	774.81
313.935	769.81
314.165	748.81
314.394	738.81
314.624	790.81
314.853	764.81
315.083	750.81
315.312	758.81
315.542	779.81
315.771	778.81
316.001	777.81
316.23	762.81
316.46	756.81
316.689	771.81
316.919	770.81
317.148	770.81
317.377	779.81
317.607	761.81
317.836	772.81
318.065	803.81
318.295	785.81
318.524	779.81
318.753	785.81
318.983	775.81
319.212	769.81
319.441	779.81
319.67	782.81
319.9	781.81
320.129	747.81
320.358	817.81
320.587	798.81
320.816	793.81
321.046	789.81
321.275	805.81
321.504	809.81
321.733	802.81
321.962	829.81
322.191	807.81
322.42	831.81
322.649	811.81
322.878	822.81
323.108	819.81
323.337	846.81
323.566	839.81
323.795	850.81
324.024	827.81
324.253	841.81
324.482	837.81
324.71	842.81
324.939	825.81
325.168	851.81
325.397	860.81
325.626	847.81
325.855	877.81
326.084	847.81
326.313	852.81
326.542	843.81
326.77	892.81
326.999	881.81
327.228	852.81
327.457	877.81
327.686	852.81
327.914	865.81
328.143	877.81
328.372	863.81
328.6	889.81
328.829	885.81
329.058	864.81
329.287	889.81
329.515	884.81
329.744	887.81
329.972	906.81
330.201	889.81
330.43	873.81
330.658	893.81
330.887	921.81
331.115	892.81
331.344	933.81
331.572	924.81
331.801	923.81
332.03	929.81
332.258	941.81
332.486	949.81
332.715	972.81
332.943	987.81
333.172	970.81
333.4	971.81
333.629	980.81
333.857	1008.81
334.085	1019.81
334.314	1020.81
334.542	1010.81
334.771	1017.81
334.999	999.81
335.227	1038.81
335.455	1019.81
335.684	999.81
335.912	1021.81
336.14	1056.81
336.369	1039.81
336.597	1037.81
336.825	1061.81
337.053	1044.81
337.281	1039.81
337.51	1049.81
337.738	1027.81
337.966	1034.81
338.194	1022.81
338.422	1030.81
338.65	980.81
338.878	1018.81
339.106	996.81
339.334	1017.81
339.562	1031.81
339.79	973.81
340.018	969.81
340.246	960.81
340.474	963.81
340.702	953.81
340.93	993.81
341.158	966.81
341.386	1005.81
341.614	1048.81
341.842	1025.81
342.07	989.81
342.298	982.81
342.526	970.81
342.754	967.81
342.981	961.81
343.209	986.81
343.437	1023.81
343.665	1021.81
343.893	1033.81
344.12	1030.81
344.348	1025.81
344.576	1058.81
344.804	1057.81
345.031	1036.81
345.259	989.81
345.487	987.81
345.714	1001.81
345.942	1045.81
346.17	1055.81
346.397	1022.81
346.625	962.81
346.853	928.81
347.08	938.81
347.308	937.81
347.535	921.81
347.763	909.81
347.99	920.81
348.218	897.81
348.445	903.81
348.673	905.81
348.9	929.81
349.128	954.81
349.355	975.81
349.583	927.81
349.81	938.81
350.037	911.81
350.265	919.81
350.492	920.81
350.72	901.81
350.947	955.81
351.174	959.81
351.402	975.81
351.629	988.81
351.856	973.81
352.083	940.81
352.311	942.81
352.538	1002.81
352.765	990.81
352.992	931.81
353.22	901.81
353.447	904.81
353.674	879.81
353.901	876.81
354.128	886.81
354.355	872.81
354.583	883.81
354.81	892.81
355.037	896.81
355.264	878.81
355.491	873.81
355.718	877.81
355.945	879.81
356.172	872.81
356.399	920.81
356.626	933.81
356.853	953.81
357.08	916.81
357.307	883.81
357.534	919.81
357.761	917.81
357.988	907.81
358.215	894.81
358.441	875.81
358.668	884.81
358.895	893.81
359.122	875.81
359.349	879.81
359.576	876.81
359.802	916.81
360.029	904.81
360.256	904.81
360.483	897.81
360.709	897.81
360.936	918.81
361.163	926.81
361.39	917.81
361.616	926.81
361.843	976.81
362.07	988.81
362.296	987.81
362.523	927.81
362.749	919.81
362.976	898.81
363.203	886.81
363.429	878.81
363.656	899.81
363.882	906.81
364.109	893.81
364.335	912.81
364.562	899.81
364.788	891.81
365.015	933.81
365.241	891.81
365.468	927.81
365.694	899.81
365.92	907.81
366.147	885.81
366.373	907.81
366.599	885.81
366.826	899.81
367.052	904.81
367.278	907.81
367.505	925.81
367.731	915.81
367.957	927.81
368.184	909.81
368.41	907.81
368.636	933.81
368.862	931.81
369.089	938.81
369.315	933.81
369.541	904.81
369.767	918.81
369.993	955.81
370.219	925.81
370.445	969.81
370.672	953.81
370.898	942.81
371.124	970.81
371.35	987.81
371.576	950.81
371.802	966.81
372.028	957.81
372.254	964.81
372.48	973.81
372.706	968.81
372.932	990.81
373.158	957.81
373.384	966.81
373.61	965.81
373.835	981.81
374.061	984.81
374.287	953.81
374.513	981.81
374.739	985.81
374.965	1002.81
375.191	1020.81
375.416	1015.81
375.642	967.81
375.868	985.81
376.094	1000.81
376.319	972.81
376.545	973.81
376.771	966.81
376.997	962.81
377.222	961.81
377.448	961.81
377.674	999.81
377.899	958.81
378.125	957.81
378.35	950.81
378.576	942.81
378.802	933.81
379.027	986.81
379.253	941.81
379.478	953.81
379.704	952.81
379.929	949.81
380.155	945.81
380.38	952.81
380.606	966.81
380.831	942.81
381.057	981.81
381.282	949.81
381.507	972.81
381.733	982.81
381.958	979.81
382.184	981.81
382.409	1009.81
382.634	988.81
382.86	960.81
383.085	988.81
383.31	998.81
383.535	1014.81
383.761	1000.81
383.986	998.81
384.211	1003.81
384.436	1021.81
384.662	1002.81
384.887	1039.81
385.112	1027.81
385.337	1046.81
385.562	1036.81
385.787	1071.81
386.013	1124.81
386.238	1065.81
386.463	1114.81
386.688	1108.81
386.913	1098.81
387.138	1100.81
387.363	1106.81
387.588	1111.81
387.813	1107.81
388.038	1089.81
388.263	1101.81
388.488	1084.81
388.713	1089.81
388.938	1094.81
389.163	1077.81
389.387	1083.81
389.612	1126.81
389.837	1063.81
390.062	1102.81
390.287	1095.81
390.512	1101.81
390.736	1069.81
390.961	1108.81
391.186	1087.81
391.411	1126.81
391.636	1139.81
391.86	1158.81
392.085	1154.81
392.31	1146.81
392.534	1133.81
392.759	1167.81
392.984	1179.81
393.208	1165.81
393.433	1152.81
393.658	1190.81
393.882	1170.81
394.107	1111.81
394.331	1166.81
394.556	1134.81
394.78	1129.81
395.005	1148.81
395.229	1130.81
395.454	1179.81
395.678	1153.81
395.903	1161.81
396.127	1182.81
396.352	1171.81
396.576	1170.81
396.801	1179.81
397.025	1194.81
397.249	1199.81
397.474	1220.81
397.698	1221.81
397.922	1219.81
398.147	1217.81
398.371	1262.81
398.595	1257.81
398.82	1286.81
399.044	1304.81
399.268	1337.81
399.492	1427.81
399.717	1472.81
399.941	1494.81
400.165	1457.81
400.389	1442.81
400.613	1403.81
400.837	1336.81
401.062	1351.81
401.286	1309.81
401.51	1311.81
401.734	1283.81
401.958	1295.81
402.182	1307.81
402.406	1260.81
402.63	1293.81
402.854	1301.81
403.078	1271.81
403.302	1331.81
403.526	1307.81
403.75	1300.81
403.974	1305.81
404.198	1296.81
404.422	1293.81
404.645	1294.81
404.869	1314.81
405.093	1317.81
405.317	1315.81
405.541	1325.81
405.765	1348.81
405.988	1363.81
406.212	1348.81
406.436	1373.81
406.66	1394.81
406.883	1408.81
407.107	1445.81
407.331	1468.81
407.555	1481.81
407.778	1460.81
408.002	1461.81
408.226	1496.81
408.449	1490.81
408.673	1450.81
408.896	1423.81
409.12	1405.81
409.344	1446.81
409.567	1377.81
409.791	1413.81
410.014	1370.81
410.238	1367.81
410.461	1356.81
410.685	1357.81
410.908	1358.81
411.132	1361.81
411.355	1360.81
411.578	1327.81
411.802	1350.81
412.025	1332.81
412.249	1353.81
412.472	1351.81
412.695	1323.81
412.919	1320.81
413.142	1300.81
413.365	1324.81
413.589	1302.81
413.812	1315.81
414.035	1294.81
414.258	1316.81
414.482	1295.81
414.705	1302.81
414.928	1287.81
415.151	1307.81
415.374	1263.81
415.597	1298.81
415.821	1257.81
416.044	1240.81
416.267	1247.81
416.49	1235.81
416.713	1233.81
416.936	1286.81
417.159	1254.81
417.382	1248.81
417.605	1240.81
417.828	1214.81
418.051	1242.81
418.274	1227.81
418.497	1211.81
418.72	1238.81
418.943	1244.81
419.166	1310.81
419.389	1388.81
419.611	1374.81
419.834	1333.81
420.057	1285.81
420.28	1275.81
420.503	1238.81
420.726	1239.81
420.948	1238.81
421.171	1229.81
421.394	1258.81
421.617	1236.81
421.839	1199.81
422.062	1240.81
422.285	1201.81
422.507	1231.81
422.73	1243.81
422.953	1232.81
423.175	1212.81
423.398	1226.81
423.621	1245.81
423.843	1231.81
424.066	1290.81
424.288	1265.81
424.511	1238.81
424.733	1208.81
424.956	1219.81
425.178	1239.81
425.401	1242.81
425.623	1247.81
425.846	1217.81
426.068	1217.81
426.291	1197.81
426.513	1205.81
426.735	1207.81
426.958	1232.81
427.18	1189.81
427.402	1195.81
427.625	1249.81
427.847	1195.81
428.069	1202.81
428.292	1231.81
428.514	1214.81
428.736	1185.81
428.958	1181.81
429.181	1181.81
429.403	1156.81
429.625	1194.81
429.847	1143.81
430.069	1182.81
430.292	1179.81
430.514	1170.81
430.736	1186.81
430.958	1191.81
431.18	1197.81
431.402	1183.81
431.624	1209.81
431.846	1165.81
432.068	1184.81
432.29	1210.81
432.512	1196.81
432.734	1198.81
432.956	1183.81
433.178	1237.81
433.4	1263.81
433.622	1247.81
433.844	1227.81
434.066	1274.81
434.287	1269.81
434.509	1239.81
434.731	1237.81
434.953	1263.81
435.175	1291.81
435.397	1304.81
435.618	1244.81
435.84	1237.81
436.062	1201.81
436.284	1217.81
436.505	1202.81
436.727	1177.81
436.949	1207.81
437.17	1206.81
437.392	1208.81
437.614	1184.81
437.835	1176.81
438.057	1181.81
438.278	1139.81
438.5	1159.81
438.721	1159.81
438.943	1181.81
439.165	1165.81
439.386	1168.81
439.608	1175.81
439.829	1140.81
440.05	1190.81
440.272	1191.81
440.493	1215.81
440.715	1198.81
440.936	1244.81
441.158	1189.81
441.379	1247.81
441.6	1258.81
441.822	1250.81
442.043	1244.81
442.264	1246.81
442.486	1253.81
442.707	1233.81
442.928	1249.81
443.149	1259.81
443.371	1288.81
443.592	1369.81
443.813	1322.81
444.034	1297.81
444.255	1288.81
444.476	1331.81
444.698	1357.81
444.919	1399.81
445.14	1481.81
445.361	1376.81
445.582	1278.81
445.803	1257.81
446.024	1252.81
446.245	1262.81
446.466	1209.81
446.687	1191.81
446.908	1199.81
447.129	1183.81
447.35	1149.81
447.571	1154.81
447.792	1145.81
448.013	1110.81
448.234	1125.81
448.455	1118.81
448.675	1144.81
448.896	1108.81
449.117	1067.81
449.338	1129.81
449.559	1103.81
449.779	1084.81
450	1069.81
450.221	1094.81
450.442	1075.81
450.662	1118.81
450.883	1133.81
451.104	1165.81
451.324	1095.81
451.545	1121.81
451.766	1141.81
451.986	1077.81
452.207	1101.81
452.428	1054.81
452.648	1066.81
452.869	1076.81
453.089	1065.81
453.31	1111.81
453.53	1079.81
453.751	1065.81
453.971	1058.81
454.192	1110.81
454.412	1102.81
454.633	1068.81
454.853	1086.81
455.073	1062.81
455.294	1050.81
455.514	1086.81
455.734	1109.81
455.955	1092.81
456.175	1112.81
456.395	1057.81
456.616	1034.81
456.836	1041.81
457.056	1081.81
457.276	1077.81
457.497	1115.81
457.717	1116.81
457.937	1108.81
458.157	1111.81
458.377	1078.81
458.598	1128.81
458.818	1099.81
459.038	1151.81
459.258	1159.81
459.478	1258.81
459.698	1362.81
459.918	1365.81
460.138	1330.81
460.358	1319.81
460.578	1334.81
460.798	1355.81
461.018	1358.81
461.238	1298.81
461.458	1295.81
461.678	1283.81
461.898	1301.81
462.118	1307.81
462.338	1351.81
462.558	1406.81
462.777	1424.81
462.997	1525.81
463.217	1487.81
463.437	1578.81
463.657	1563.81
463.876	1479.81
464.096	1437.81
464.316	1427.81
464.536	1403.81
464.755	1404.81
464.975	1370.81
465.195	1343.81
465.414	1287.81
465.634	1252.81
465.854	1221.81
466.073	1215.81
466.293	1178.81
466.512	1190.81
466.732	1191.81
466.951	1179.81
467.171	1182.81
467.391	1193.81
467.61	1147.81
467.829	1154.81
468.049	1143.81
468.268	1118.81
468.488	1149.81
468.707	1138.81
468.927	1152.81
469.146	1152.81
469.365	1178.81
469.585	1169.81
469.804	1182.81
470.023	1181.81
470.243	1166.81
470.462	1179.81
470.681	1179.81
470.901	1157.81
471.12	1159.81
471.339	1177.81
471.558	1170.81
471.777	1171.81
471.997	1144.81
472.216	1139.81
472.435	1117.81
472.654	1121.81
472.873	1161.81
473.092	1149.81
473.311	1115.81
473.53	1149.81
473.749	1154.81
473.968	1147.81
474.187	1148.81
474.406	1141.81
474.625	1140.81
474.844	1181.81
475.063	1172.81
475.282	1156.81
475.501	1165.81
475.72	1190.81
475.939	1179.81
476.158	1161.81
476.377	1207.81
476.596	1183.81
476.814	1210.81
477.033	1198.81
477.252	1240.81
477.471	1265.81
477.69	1253.81
477.908	1276.81
478.127	1283.81
478.346	1291.81
478.564	1307.81
478.783	1370.81
479.002	1384.81
479.22	1427.81
479.439	1419.81
479.658	1345.81
479.876	1338.81
480.095	1326.81
480.313	1358.81
480.532	1366.81
480.751	1400.81
480.969	1369.81
481.188	1363.81
481.406	1363.81
481.624	1347.81
481.843	1310.81
482.061	1345.81
482.28	1319.81
482.498	1334.81
482.717	1332.81
482.935	1362.81
483.153	1379.81
483.372	1446.81
483.59	1439.81
483.808	1353.81
484.027	1363.81
484.245	1350.81
484.463	1359.81
484.681	1388.81
484.9	1381.81
485.118	1377.81
485.336	1378.81
485.554	1369.81
485.772	1403.81
485.99	1395.81
486.209	1365.81
486.427	1369.81
486.645	1381.81
486.863	1376.81
487.081	1399.81
487.299	1351.81
487.517	1411.81
487.735	1424.81
487.953	1445.81
488.171	1465.81
488.389	1398.81
488.607	1416.81
488.825	1382.81
489.043	1346.81
489.261	1388.81
489.479	1365.81
489.696	1349.81
489.914	1357.81
490.132	1411.81
490.35	1397.81
490.568	1385.81
490.786	1406.81
491.003	1373.81
491.221	1423.81
491.439	1421.81
491.657	1409.81
491.874	1444.81
492.092	1459.81
492.31	1423.81
492.527	1421.81
492.745	1470.81
492.963	1445.81
493.18	1430.81
493.398	1439.81
493.615	1411.81
493.833	1425.81
494.05	1444.81
494.268	1448.81
