Data from Ni(NO3)2@0.25M.TitratingCurve.Agarose3%dH2O.NegLispCup.LampEnergy10.LIBS07252019_HRD10591_18-02-51-565.txt Node
Date: Thu Jul 25 18:02:51 EDT 2019
User: cochatt
Spectrometer: HR+D1059
Trigger mode: 1
Integration Time (sec): 1.000000E-1
Scans to average: 1
Electric dark correction enabled: true
Nonlinearity correction enabled: false
Boxcar width: 0
XAxis mode: Wavelengths
Number of Pixels in Spectrum: 2048
>>>>>Begin Spectral Data<<<<<
223.165	-11.88
223.4	-11.88
223.635	-11.88
223.869	-0.88
224.104	-36.88
224.338	-8.88
224.573	-18.88
224.808	-9.88
225.042	-12.88
225.277	-10.88
225.511	-11.88
225.746	-3.88
225.98	3.12
226.215	6.12
226.449	26.12
226.683	39.12
226.918	27.12
227.152	25.12
227.387	51.12
227.621	46.12
227.856	49.12
228.09	42.12
228.324	46.12
228.559	53.12
228.793	63.12
229.027	123.12
229.262	147.12
229.496	119.12
229.73	122.12
229.964	149.12
230.199	177.12
230.433	178.12
230.667	185.12
230.901	167.12
231.136	161.12
231.37	179.12
231.604	173.12
231.838	161.12
232.072	188.12
232.306	181.12
232.541	181.12
232.775	164.12
233.009	172.12
233.243	161.12
233.477	177.12
233.711	166.12
233.945	168.12
234.179	180.12
234.413	180.12
234.647	193.12
234.881	188.12
235.115	162.12
235.349	157.12
235.583	168.12
235.817	182.12
236.051	167.12
236.285	173.12
236.519	174.12
236.753	161.12
236.987	190.12
237.221	167.12
237.455	181.12
237.689	167.12
237.922	192.12
238.156	183.12
238.39	181.12
238.624	180.12
238.858	193.12
239.091	180.12
239.325	195.12
239.559	220.12
239.793	221.12
240.027	201.12
240.26	212.12
240.494	191.12
240.728	211.12
240.961	205.12
241.195	214.12
241.429	205.12
241.662	235.12
241.896	226.12
242.13	224.12
242.363	225.12
242.597	213.12
242.83	224.12
243.064	231.12
243.298	234.12
243.531	227.12
243.765	245.12
243.998	247.12
244.232	240.12
244.465	246.12
244.699	224.12
244.932	250.12
245.166	244.12
245.399	243.12
245.633	244.12
245.866	252.12
246.099	235.12
246.333	256.12
246.566	266.12
246.8	263.12
247.033	274.12
247.266	269.12
247.5	281.12
247.733	298.12
247.966	307.12
248.2	300.12
248.433	304.12
248.666	310.12
248.899	314.12
249.133	330.12
249.366	335.12
249.599	337.12
249.832	345.12
250.066	365.12
250.299	346.12
250.532	372.12
250.765	352.12
250.998	380.12
251.231	394.12
251.465	412.12
251.698	413.12
251.931	404.12
252.164	394.12
252.397	421.12
252.63	421.12
252.863	426.12
253.096	428.12
253.329	436.12
253.562	446.12
253.795	458.12
254.028	475.12
254.261	459.12
254.494	481.12
254.727	480.12
254.96	516.12
255.193	491.12
255.426	502.12
255.659	514.12
255.892	490.12
256.124	516.12
256.357	501.12
256.59	550.12
256.823	516.12
257.056	550.12
257.289	527.12
257.521	554.12
257.754	536.12
257.987	570.12
258.22	562.12
258.452	546.12
258.685	558.12
258.918	564.12
259.151	576.12
259.383	595.12
259.616	593.12
259.849	602.12
260.081	602.12
260.314	619.12
260.547	601.12
260.779	616.12
261.012	609.12
261.244	636.12
261.477	618.12
261.71	654.12
261.942	639.12
262.175	650.12
262.407	639.12
262.64	659.12
262.872	652.12
263.105	633.12
263.337	655.12
263.57	646.12
263.802	650.12
264.035	669.12
264.267	668.12
264.499	672.12
264.732	668.12
264.964	686.12
265.197	675.12
265.429	678.12
265.661	721.12
265.894	708.12
266.126	683.12
266.358	674.12
266.591	704.12
266.823	711.12
267.055	719.12
267.287	694.12
267.52	678.12
267.752	706.12
267.984	713.12
268.216	724.12
268.448	733.12
268.681	700.12
268.913	711.12
269.145	724.12
269.377	714.12
269.609	722.12
269.841	752.12
270.073	728.12
270.306	747.12
270.538	735.12
270.77	741.12
271.002	734.12
271.234	733.12
271.466	749.12
271.698	734.12
271.93	774.12
272.162	747.12
272.394	752.12
272.626	774.12
272.858	759.12
273.09	748.12
273.322	780.12
273.553	777.12
273.785	790.12
274.017	766.12
274.249	777.12
274.481	749.12
274.713	771.12
274.945	780.12
275.176	779.12
275.408	792.12
275.64	806.12
275.872	786.12
276.104	778.12
276.335	769.12
276.567	795.12
276.799	796.12
277.031	800.12
277.262	785.12
277.494	785.12
277.726	824.12
277.957	813.12
278.189	804.12
278.421	774.12
278.652	821.12
278.884	814.12
279.115	796.12
279.347	805.12
279.579	810.12
279.81	818.12
280.042	813.12
280.273	804.12
280.505	820.12
280.736	808.12
280.968	779.12
281.199	827.12
281.431	816.12
281.662	788.12
281.894	818.12
282.125	801.12
282.356	837.12
282.588	836.12
282.819	838.12
283.051	811.12
283.282	818.12
283.513	837.12
283.745	842.12
283.976	831.12
284.207	826.12
284.439	806.12
284.67	823.12
284.901	840.12
285.132	822.12
285.364	843.12
285.595	848.12
285.826	841.12
286.057	841.12
286.288	834.12
286.52	835.12
286.751	834.12
286.982	862.12
287.213	825.12
287.444	833.12
287.675	818.12
287.906	857.12
288.138	845.12
288.369	837.12
288.6	852.12
288.831	848.12
289.062	852.12
289.293	852.12
289.524	848.12
289.755	843.12
289.986	822.12
290.217	839.12
290.448	872.12
290.679	849.12
290.91	861.12
291.141	854.12
291.371	840.12
291.602	856.12
291.833	857.12
292.064	883.12
292.295	866.12
292.526	820.12
292.757	841.12
292.987	850.12
293.218	853.12
293.449	848.12
293.68	845.12
293.91	861.12
294.141	845.12
294.372	836.12
294.603	844.12
294.833	827.12
295.064	865.12
295.295	858.12
295.525	838.12
295.756	864.12
295.987	826.12
296.217	853.12
296.448	849.12
296.679	862.12
296.909	837.12
297.14	868.12
297.37	861.12
297.601	872.12
297.831	854.12
298.062	873.12
298.292	853.12
298.523	910.12
298.753	896.12
298.984	898.12
299.214	870.12
299.445	873.12
299.675	883.12
299.905	875.12
300.136	921.12
300.366	890.12
300.597	899.12
300.827	910.12
301.057	894.12
301.288	901.12
301.518	906.12
301.748	913.12
301.979	924.12
302.209	921.12
302.439	941.12
302.669	914.12
302.9	946.12
303.13	932.12
303.36	941.12
303.59	977.12
303.82	954.12
304.051	966.12
304.281	940.12
304.511	940.12
304.741	942.12
304.971	959.12
305.201	973.12
305.431	975.12
305.661	978.12
305.891	969.12
306.121	959.12
306.352	994.12
306.582	960.12
306.812	973.12
307.042	975.12
307.272	979.12
307.502	978.12
307.731	1002.12
307.961	1009.12
308.191	1013.12
308.421	995.12
308.651	1032.12
308.881	1014.12
309.111	1037.12
309.341	1008.12
309.571	1020.12
309.8	1029.12
310.03	1069.12
310.26	1064.12
310.49	1067.12
310.72	1069.12
310.949	1049.12
311.179	1056.12
311.409	1072.12
311.639	1090.12
311.868	1078.12
312.098	1117.12
312.328	1081.12
312.557	1106.12
312.787	1115.12
313.017	1105.12
313.246	1124.12
313.476	1141.12
313.706	1146.12
313.935	1168.12
314.165	1167.12
314.394	1150.12
314.624	1200.12
314.853	1177.12
315.083	1164.12
315.312	1190.12
315.542	1205.12
315.771	1208.12
316.001	1209.12
316.23	1222.12
316.46	1235.12
316.689	1264.12
316.919	1236.12
317.148	1216.12
317.377	1284.12
317.607	1245.12
317.836	1259.12
318.065	1273.12
318.295	1330.12
318.524	1351.12
318.753	1333.12
318.983	1347.12
319.212	1292.12
319.441	1338.12
319.67	1348.12
319.9	1341.12
320.129	1362.12
320.358	1373.12
320.587	1351.12
320.816	1392.12
321.046	1383.12
321.275	1381.12
321.504	1446.12
321.733	1424.12
321.962	1426.12
322.191	1413.12
322.42	1457.12
322.649	1466.12
322.878	1472.12
323.108	1494.12
323.337	1498.12
323.566	1481.12
323.795	1528.12
324.024	1514.12
324.253	1561.12
324.482	1504.12
324.71	1580.12
324.939	1538.12
325.168	1576.12
325.397	1580.12
325.626	1576.12
325.855	1597.12
326.084	1610.12
326.313	1651.12
326.542	1680.12
326.77	1646.12
326.999	1652.12
327.228	1648.12
327.457	1644.12
327.686	1718.12
327.914	1680.12
328.143	1693.12
328.372	1706.12
328.6	1695.12
328.829	1696.12
329.058	1708.12
329.287	1739.12
329.515	1750.12
329.744	1718.12
329.972	1744.12
330.201	1753.12
330.43	1730.12
330.658	1728.12
330.887	1742.12
331.115	1778.12
331.344	1749.12
331.572	1797.12
331.801	1826.12
332.03	1773.12
332.258	1833.12
332.486	1839.12
332.715	1834.12
332.943	1787.12
333.172	1828.12
333.4	1848.12
333.629	1828.12
333.857	1863.12
334.085	1876.12
334.314	1839.12
334.542	1883.12
334.771	1904.12
334.999	1867.12
335.227	1916.12
335.455	1922.12
335.684	1857.12
335.912	1897.12
336.14	1924.12
336.369	1893.12
336.597	1926.12
336.825	1938.12
337.053	1950.12
337.281	1963.12
337.51	1907.12
337.738	1899.12
337.966	1921.12
338.194	1949.12
338.422	1905.12
338.65	1944.12
338.878	1933.12
339.106	1918.12
339.334	1953.12
339.562	1976.12
339.79	1909.12
340.018	1968.12
340.246	1921.12
340.474	1908.12
340.702	1923.12
340.93	1915.12
341.158	1906.12
341.386	1944.12
341.614	1961.12
341.842	1934.12
342.07	1881.12
342.298	1907.12
342.526	1922.12
342.754	1934.12
342.981	1922.12
343.209	1919.12
343.437	1945.12
343.665	1929.12
343.893	1947.12
344.12	1972.12
344.348	1954.12
344.576	1972.12
344.804	1976.12
345.031	1949.12
345.259	1891.12
345.487	1918.12
345.714	1930.12
345.942	1955.12
346.17	1974.12
346.397	1947.12
346.625	1900.12
346.853	1890.12
347.08	1922.12
347.308	1906.12
347.535	1899.12
347.763	1910.12
347.99	1889.12
348.218	1953.12
348.445	1920.12
348.673	1845.12
348.9	1922.12
349.128	1908.12
349.355	1877.12
349.583	1929.12
349.81	1882.12
350.037	1885.12
350.265	1883.12
350.492	1926.12
350.72	1908.12
350.947	1898.12
351.174	1891.12
351.402	1896.12
351.629	1916.12
351.856	1899.12
352.083	1826.12
352.311	1841.12
352.538	1871.12
352.765	1920.12
352.992	1848.12
353.22	1838.12
353.447	1838.12
353.674	1850.12
353.901	1873.12
354.128	1877.12
354.355	1850.12
354.583	1850.12
354.81	1863.12
355.037	1854.12
355.264	1853.12
355.491	1858.12
355.718	1878.12
355.945	1860.12
356.172	1840.12
356.399	1890.12
356.626	1841.12
356.853	1907.12
357.08	1833.12
357.307	1863.12
357.534	1844.12
357.761	1863.12
357.988	1848.12
358.215	1826.12
358.441	1837.12
358.668	1815.12
358.895	1854.12
359.122	1832.12
359.349	1848.12
359.576	1807.12
359.802	1873.12
360.029	1835.12
360.256	1870.12
360.483	1847.12
360.709	1821.12
360.936	1828.12
361.163	1845.12
361.39	1856.12
361.616	1854.12
361.843	1884.12
362.07	1877.12
362.296	1854.12
362.523	1833.12
362.749	1882.12
362.976	1845.12
363.203	1864.12
363.429	1869.12
363.656	1858.12
363.882	1812.12
364.109	1828.12
364.335	1800.12
364.562	1820.12
364.788	1818.12
365.015	1858.12
365.241	1816.12
365.468	1832.12
365.694	1828.12
365.92	1848.12
366.147	1842.12
366.373	1820.12
366.599	1812.12
366.826	1795.12
367.052	1817.12
367.278	1792.12
367.505	1876.12
367.731	1849.12
367.957	1802.12
368.184	1822.12
368.41	1864.12
368.636	1805.12
368.862	1852.12
369.089	1825.12
369.315	1848.12
369.541	1811.12
369.767	1822.12
369.993	1806.12
370.219	1804.12
370.445	1786.12
370.672	1838.12
370.898	1869.12
371.124	1801.12
371.35	1838.12
371.576	1834.12
371.802	1807.12
372.028	1804.12
372.254	1835.12
372.48	1799.12
372.706	1792.12
372.932	1808.12
373.158	1781.12
373.384	1817.12
373.61	1805.12
373.835	1802.12
374.061	1791.12
374.287	1786.12
374.513	1741.12
374.739	1782.12
374.965	1760.12
375.191	1755.12
375.416	1763.12
375.642	1748.12
375.868	1796.12
376.094	1758.12
376.319	1741.12
376.545	1785.12
376.771	1726.12
376.997	1738.12
377.222	1708.12
377.448	1695.12
377.674	1750.12
377.899	1718.12
378.125	1698.12
378.35	1705.12
378.576	1724.12
378.802	1683.12
379.027	1673.12
379.253	1707.12
379.478	1689.12
379.704	1690.12
379.929	1708.12
380.155	1701.12
380.38	1716.12
380.606	1724.12
380.831	1700.12
381.057	1723.12
381.282	1713.12
381.507	1685.12
381.733	1718.12
381.958	1705.12
382.184	1726.12
382.409	1754.12
382.634	1680.12
382.86	1687.12
383.085	1684.12
383.31	1702.12
383.535	1733.12
383.761	1704.12
383.986	1674.12
384.211	1716.12
384.436	1748.12
384.662	1741.12
384.887	1742.12
385.112	1708.12
385.337	1741.12
385.562	1750.12
385.787	1753.12
386.013	1763.12
386.238	1739.12
386.463	1755.12
386.688	1758.12
386.913	1714.12
387.138	1739.12
387.363	1766.12
387.588	1717.12
387.813	1731.12
388.038	1717.12
388.263	1742.12
388.488	1752.12
388.713	1748.12
388.938	1717.12
389.163	1781.12
389.387	1739.12
389.612	1720.12
389.837	1771.12
390.062	1780.12
390.287	1753.12
390.512	1750.12
390.736	1740.12
390.961	1744.12
391.186	1718.12
391.411	1743.12
391.636	1729.12
391.86	1744.12
392.085	1758.12
392.31	1752.12
392.534	1742.12
392.759	1732.12
392.984	1690.12
393.208	1726.12
393.433	1743.12
393.658	1754.12
393.882	1741.12
394.107	1722.12
394.331	1721.12
394.556	1691.12
394.78	1738.12
395.005	1730.12
395.229	1730.12
395.454	1737.12
395.678	1738.12
395.903	1706.12
396.127	1773.12
396.352	1774.12
396.576	1764.12
396.801	1732.12
397.025	1764.12
397.249	1781.12
397.474	1795.12
397.698	1783.12
397.922	1794.12
398.147	1780.12
398.371	1800.12
398.595	1782.12
398.82	1821.12
399.044	1815.12
399.268	1836.12
399.492	1897.12
399.717	1861.12
399.941	1930.12
400.165	1908.12
400.389	1906.12
400.613	1887.12
400.837	1849.12
401.062	1847.12
401.286	1895.12
401.51	1858.12
401.734	1868.12
401.958	1848.12
402.182	1856.12
402.406	1885.12
402.63	1824.12
402.854	1807.12
403.078	1877.12
403.302	1860.12
403.526	1875.12
403.75	1848.12
403.974	1850.12
404.198	1834.12
404.422	1851.12
404.645	1844.12
404.869	1869.12
405.093	1846.12
405.317	1844.12
405.541	1871.12
405.765	1922.12
405.988	1914.12
406.212	1912.12
406.436	1882.12
406.66	1941.12
406.883	1913.12
407.107	1945.12
407.331	1946.12
407.555	1959.12
407.778	1970.12
408.002	1934.12
408.226	1921.12
408.449	1962.12
408.673	1992.12
408.896	1935.12
409.12	1949.12
409.344	1930.12
409.567	1890.12
409.791	1945.12
410.014	1904.12
410.238	1916.12
410.461	1897.12
410.685	1927.12
410.908	1917.12
411.132	1952.12
411.355	1916.12
411.578	1909.12
411.802	1885.12
412.025	1870.12
412.249	1889.12
412.472	1956.12
412.695	1901.12
412.919	1885.12
413.142	1909.12
413.365	1942.12
413.589	1904.12
413.812	1911.12
414.035	1862.12
414.258	1862.12
414.482	1877.12
414.705	1889.12
414.928	1883.12
415.151	1923.12
415.374	1913.12
415.597	1896.12
415.821	1897.12
416.044	1904.12
416.267	1854.12
416.49	1925.12
416.713	1899.12
416.936	1840.12
417.159	1855.12
417.382	1848.12
417.605	1837.12
417.828	1845.12
418.051	1868.12
418.274	1829.12
418.497	1796.12
418.72	1824.12
418.943	1820.12
419.166	1941.12
419.389	2073.12
419.611	2032.12
419.834	1902.12
420.057	1892.12
420.28	1877.12
420.503	1800.12
420.726	1846.12
420.948	1836.12
421.171	1817.12
421.394	1847.12
421.617	1857.12
421.839	1877.12
422.062	1875.12
422.285	1817.12
422.507	1880.12
422.73	1852.12
422.953	1858.12
423.175	1886.12
423.398	1875.12
423.621	1844.12
423.843	1847.12
424.066	1887.12
424.288	1901.12
424.511	1846.12
424.733	1906.12
424.956	1896.12
425.178	1916.12
425.401	1901.12
425.623	1922.12
425.846	1904.12
426.068	1918.12
426.291	1900.12
426.513	1894.12
426.735	1918.12
426.958	1920.12
427.18	1887.12
427.402	1936.12
427.625	1906.12
427.847	1906.12
428.069	1946.12
428.292	1950.12
428.514	1890.12
428.736	1908.12
428.958	1940.12
429.181	1909.12
429.403	1900.12
429.625	1947.12
429.847	1920.12
430.069	1921.12
430.292	1904.12
430.514	1909.12
430.736	1930.12
430.958	1910.12
431.18	1945.12
431.402	1903.12
431.624	1924.12
431.846	1917.12
432.068	1856.12
432.29	1928.12
432.512	1889.12
432.734	1973.12
432.956	1901.12
433.178	1930.12
433.4	1943.12
433.622	1948.12
433.844	1958.12
434.066	1973.12
434.287	1882.12
434.509	1899.12
434.731	1913.12
434.953	1906.12
435.175	1934.12
435.397	1986.12
435.618	1934.12
435.84	1906.12
436.062	1918.12
436.284	1956.12
436.505	1917.12
436.727	1878.12
436.949	1941.12
437.17	1946.12
437.392	1922.12
437.614	1905.12
437.835	1845.12
438.057	1863.12
438.278	1836.12
438.5	1869.12
438.721	1911.12
438.943	1911.12
439.165	1919.12
439.386	1922.12
439.608	1940.12
439.829	1918.12
440.05	1922.12
440.272	1900.12
440.493	1892.12
440.715	1926.12
440.936	1962.12
441.158	1935.12
441.379	1921.12
441.6	1940.12
441.822	1941.12
442.043	1913.12
442.264	1930.12
442.486	1901.12
442.707	1931.12
442.928	1912.12
443.149	1920.12
443.371	1915.12
443.592	2014.12
443.813	1989.12
444.034	1910.12
444.255	1840.12
444.476	1928.12
444.698	1930.12
444.919	1998.12
445.14	2084.12
445.361	1976.12
445.582	1934.12
445.803	1878.12
446.024	1909.12
446.245	1904.12
446.466	1937.12
446.687	1841.12
446.908	1870.12
447.129	1857.12
447.35	1869.12
447.571	1857.12
447.792	1806.12
448.013	1825.12
448.234	1818.12
448.455	1830.12
448.675	1813.12
448.896	1815.12
449.117	1809.12
449.338	1797.12
449.559	1819.12
449.779	1761.12
450	1780.12
450.221	1827.12
450.442	1797.12
450.662	1783.12
450.883	1768.12
451.104	1824.12
451.324	1809.12
451.545	1778.12
451.766	1829.12
451.986	1753.12
452.207	1800.12
452.428	1753.12
452.648	1731.12
452.869	1736.12
453.089	1760.12
453.31	1791.12
453.53	1725.12
453.751	1757.12
453.971	1725.12
454.192	1802.12
454.412	1774.12
454.633	1755.12
454.853	1734.12
455.073	1685.12
455.294	1742.12
455.514	1747.12
455.734	1744.12
455.955	1746.12
456.175	1712.12
456.395	1728.12
456.616	1752.12
456.836	1738.12
457.056	1755.12
457.276	1709.12
457.497	1748.12
457.717	1749.12
457.937	1781.12
458.157	1791.12
458.377	1729.12
458.598	1757.12
458.818	1723.12
459.038	1762.12
459.258	1792.12
459.478	1821.12
459.698	1879.12
459.918	1856.12
460.138	1848.12
460.358	1901.12
460.578	1853.12
460.798	1876.12
461.018	1910.12
461.238	1893.12
461.458	1851.12
461.678	1819.12
461.898	1878.12
462.118	1844.12
462.338	1880.12
462.558	1908.12
462.777	1919.12
462.997	1886.12
463.217	1914.12
463.437	1961.12
463.657	1954.12
463.876	1928.12
464.096	1949.12
464.316	1926.12
464.536	1923.12
464.755	1892.12
464.975	1898.12
465.195	1904.12
465.414	1864.12
465.634	1868.12
465.854	1870.12
466.073	1853.12
466.293	1861.12
466.512	1836.12
466.732	1837.12
466.951	1865.12
467.171	1840.12
467.391	1867.12
467.61	1836.12
467.829	1828.12
468.049	1872.12
468.268	1803.12
468.488	1857.12
468.707	1810.12
468.927	1854.12
469.146	1899.12
469.365	1844.12
469.585	1844.12
469.804	1879.12
470.023	1909.12
470.243	1902.12
470.462	1881.12
470.681	1880.12
470.901	1865.12
471.12	1883.12
471.339	1896.12
471.558	1911.12
471.777	1926.12
471.997	1864.12
472.216	1917.12
472.435	1946.12
472.654	1918.12
472.873	1880.12
473.092	1936.12
473.311	1930.12
473.53	1957.12
473.749	2001.12
473.968	1946.12
474.187	1958.12
474.406	1942.12
474.625	1978.12
474.844	2012.12
475.063	2026.12
475.282	2029.12
475.501	2019.12
475.72	2013.12
475.939	2037.12
476.158	2040.12
476.377	2065.12
476.596	2046.12
476.814	2077.12
477.033	2034.12
477.252	2132.12
477.471	2108.12
477.69	2162.12
477.908	2140.12
478.127	2178.12
478.346	2198.12
478.564	2156.12
478.783	2232.12
479.002	2226.12
479.22	2287.12
479.439	2248.12
479.658	2288.12
479.876	2237.12
480.095	2232.12
480.313	2269.12
480.532	2265.12
480.751	2317.12
480.969	2297.12
481.188	2271.12
481.406	2272.12
481.624	2275.12
481.843	2320.12
482.061	2292.12
482.28	2308.12
482.498	2361.12
482.717	2336.12
482.935	2369.12
483.153	2363.12
483.372	2413.12
483.59	2435.12
483.808	2357.12
484.027	2364.12
484.245	2358.12
484.463	2376.12
484.681	2388.12
484.9	2401.12
485.118	2389.12
485.336	2377.12
485.554	2403.12
485.772	2428.12
485.99	2441.12
486.209	2412.12
486.427	2418.12
486.645	2436.12
486.863	2426.12
487.081	2426.12
487.299	2412.12
487.517	2459.12
487.735	2486.12
487.953	2525.12
488.171	2503.12
488.389	2482.12
488.607	2516.12
488.825	2439.12
489.043	2457.12
489.261	2515.12
489.479	2471.12
489.696	2438.12
489.914	2486.12
490.132	2505.12
490.35	2474.12
