Data from Ni(NO3)2@0.5M.TitratingCurve.Agarose3%dH2O.NegLispCup.LampEnergy10.LIBS07252019_HRD10591_17-59-54-564.txt Node
Date: Thu Jul 25 17:59:54 EDT 2019
User: cochatt
Spectrometer: HR+D1059
Trigger mode: 1
Integration Time (sec): 1.000000E-1
Scans to average: 1
Electric dark correction enabled: true
Nonlinearity correction enabled: false
Boxcar width: 0
XAxis mode: Wavelengths
Number of Pixels in Spectrum: 2048
>>>>>Begin Spectral Data<<<<<
223.165	-20.88
223.4	-20.88
223.635	-20.88
223.869	-13.88
224.104	-12.88
224.338	-16.88
224.573	-17.88
224.808	-24.88
225.042	7.12
225.277	-6.88
225.511	-3.88
225.746	1.12
225.98	13.12
226.215	11.12
226.449	22.12
226.683	21.12
226.918	19.12
227.152	23.12
227.387	38.12
227.621	29.12
227.856	39.12
228.09	54.12
228.324	51.12
228.559	57.12
228.793	67.12
229.027	107.12
229.262	128.12
229.496	116.12
229.73	117.12
229.964	154.12
230.199	161.12
230.433	177.12
230.667	156.12
230.901	165.12
231.136	153.12
231.37	161.12
231.604	174.12
231.838	170.12
232.072	184.12
232.306	160.12
232.541	173.12
232.775	159.12
233.009	162.12
233.243	145.12
233.477	152.12
233.711	157.12
233.945	155.12
234.179	167.12
234.413	173.12
234.647	172.12
234.881	172.12
235.115	164.12
235.349	152.12
235.583	166.12
235.817	146.12
236.051	172.12
236.285	169.12
236.519	168.12
236.753	172.12
236.987	157.12
237.221	162.12
237.455	155.12
237.689	179.12
237.922	175.12
238.156	162.12
238.39	165.12
238.624	164.12
238.858	173.12
239.091	161.12
239.325	188.12
239.559	187.12
239.793	219.12
240.027	204.12
240.26	190.12
240.494	166.12
240.728	180.12
240.961	186.12
241.195	186.12
241.429	197.12
241.662	195.12
241.896	227.12
242.13	230.12
242.363	197.12
242.597	172.12
242.83	202.12
243.064	203.12
243.298	196.12
243.531	202.12
243.765	204.12
243.998	226.12
244.232	231.12
244.465	221.12
244.699	217.12
244.932	203.12
245.166	218.12
245.399	200.12
245.633	227.12
245.866	229.12
246.099	209.12
246.333	212.12
246.566	218.12
246.8	214.12
247.033	222.12
247.266	216.12
247.5	220.12
247.733	234.12
247.966	228.12
248.2	229.12
248.433	243.12
248.666	235.12
248.899	266.12
249.133	252.12
249.366	247.12
249.599	238.12
249.832	246.12
250.066	255.12
250.299	245.12
250.532	253.12
250.765	243.12
250.998	266.12
251.231	286.12
251.465	281.12
251.698	285.12
251.931	278.12
252.164	265.12
252.397	270.12
252.63	260.12
252.863	271.12
253.096	269.12
253.329	275.12
253.562	268.12
253.795	273.12
254.028	272.12
254.261	290.12
254.494	284.12
254.727	288.12
254.96	275.12
255.193	286.12
255.426	281.12
255.659	276.12
255.892	316.12
256.124	285.12
256.357	326.12
256.59	301.12
256.823	309.12
257.056	283.12
257.289	299.12
257.521	318.12
257.754	305.12
257.987	301.12
258.22	312.12
258.452	308.12
258.685	326.12
258.918	311.12
259.151	314.12
259.383	311.12
259.616	325.12
259.849	326.12
260.081	321.12
260.314	319.12
260.547	339.12
260.779	334.12
261.012	342.12
261.244	334.12
261.477	340.12
261.71	341.12
261.942	331.12
262.175	353.12
262.407	349.12
262.64	349.12
262.872	362.12
263.105	334.12
263.337	356.12
263.57	360.12
263.802	342.12
264.035	352.12
264.267	358.12
264.499	334.12
264.732	355.12
264.964	347.12
265.197	391.12
265.429	369.12
265.661	369.12
265.894	361.12
266.126	354.12
266.358	364.12
266.591	372.12
266.823	373.12
267.055	382.12
267.287	397.12
267.52	368.12
267.752	382.12
267.984	375.12
268.216	372.12
268.448	373.12
268.681	389.12
268.913	392.12
269.145	391.12
269.377	387.12
269.609	404.12
269.841	390.12
270.073	389.12
270.306	388.12
270.538	402.12
270.77	413.12
271.002	394.12
271.234	405.12
271.466	398.12
271.698	418.12
271.93	425.12
272.162	412.12
272.394	402.12
272.626	406.12
272.858	415.12
273.09	414.12
273.322	423.12
273.553	421.12
273.785	443.12
274.017	413.12
274.249	416.12
274.481	422.12
274.713	427.12
274.945	429.12
275.176	427.12
275.408	433.12
275.64	428.12
275.872	427.12
276.104	461.12
276.335	425.12
276.567	448.12
276.799	450.12
277.031	451.12
277.262	452.12
277.494	444.12
277.726	419.12
277.957	438.12
278.189	444.12
278.421	438.12
278.652	463.12
278.884	434.12
279.115	443.12
279.347	461.12
279.579	435.12
279.81	433.12
280.042	457.12
280.273	477.12
280.505	468.12
280.736	457.12
280.968	468.12
281.199	468.12
281.431	475.12
281.662	479.12
281.894	477.12
282.125	488.12
282.356	479.12
282.588	476.12
282.819	480.12
283.051	461.12
283.282	482.12
283.513	491.12
283.745	503.12
283.976	484.12
284.207	508.12
284.439	491.12
284.67	493.12
284.901	489.12
285.132	501.12
285.364	501.12
285.595	487.12
285.826	497.12
286.057	515.12
286.288	525.12
286.52	519.12
286.751	533.12
286.982	528.12
287.213	527.12
287.444	505.12
287.675	517.12
287.906	513.12
288.138	516.12
288.369	494.12
288.6	531.12
288.831	495.12
289.062	517.12
289.293	519.12
289.524	516.12
289.755	545.12
289.986	515.12
290.217	528.12
290.448	526.12
290.679	523.12
290.91	532.12
291.141	534.12
291.371	531.12
291.602	517.12
291.833	533.12
292.064	535.12
292.295	533.12
292.526	546.12
292.757	530.12
292.987	520.12
293.218	523.12
293.449	549.12
293.68	562.12
293.91	538.12
294.141	539.12
294.372	539.12
294.603	525.12
294.833	527.12
295.064	525.12
295.295	537.12
295.525	536.12
295.756	556.12
295.987	528.12
296.217	526.12
296.448	533.12
296.679	545.12
296.909	545.12
297.14	548.12
297.37	581.12
297.601	569.12
297.831	564.12
298.062	583.12
298.292	569.12
298.523	600.12
298.753	587.12
298.984	558.12
299.214	560.12
299.445	603.12
299.675	578.12
299.905	595.12
300.136	594.12
300.366	604.12
300.597	631.12
300.827	611.12
301.057	617.12
301.288	606.12
301.518	618.12
301.748	603.12
301.979	619.12
302.209	600.12
302.439	603.12
302.669	600.12
302.9	612.12
303.13	597.12
303.36	601.12
303.59	614.12
303.82	626.12
304.051	627.12
304.281	630.12
304.511	591.12
304.741	610.12
304.971	648.12
305.201	627.12
305.431	634.12
305.661	639.12
305.891	622.12
306.121	636.12
306.352	622.12
306.582	622.12
306.812	598.12
307.042	618.12
307.272	635.12
307.502	603.12
307.731	612.12
307.961	609.12
308.191	630.12
308.421	604.12
308.651	621.12
308.881	616.12
309.111	619.12
309.341	612.12
309.571	626.12
309.8	633.12
310.03	636.12
310.26	678.12
310.49	640.12
310.72	646.12
310.949	622.12
311.179	669.12
311.409	629.12
311.639	633.12
311.868	646.12
312.098	661.12
312.328	655.12
312.557	649.12
312.787	650.12
313.017	641.12
313.246	678.12
313.476	674.12
313.706	670.12
313.935	665.12
314.165	663.12
314.394	677.12
314.624	670.12
314.853	663.12
315.083	672.12
315.312	675.12
315.542	675.12
315.771	670.12
316.001	673.12
316.23	667.12
316.46	681.12
316.689	673.12
316.919	667.12
317.148	675.12
317.377	663.12
317.607	662.12
317.836	667.12
318.065	682.12
318.295	669.12
318.524	690.12
318.753	667.12
318.983	652.12
319.212	673.12
319.441	667.12
319.67	666.12
319.9	667.12
320.129	672.12
320.358	689.12
320.587	686.12
320.816	686.12
321.046	711.12
321.275	677.12
321.504	699.12
321.733	699.12
321.962	697.12
322.191	696.12
322.42	694.12
322.649	707.12
322.878	731.12
323.108	713.12
323.337	754.12
323.566	714.12
323.795	718.12
324.024	702.12
324.253	693.12
324.482	699.12
324.71	734.12
324.939	727.12
325.168	728.12
325.397	713.12
325.626	733.12
325.855	758.12
326.084	731.12
326.313	767.12
326.542	750.12
326.77	743.12
326.999	738.12
327.228	722.12
327.457	732.12
327.686	748.12
327.914	761.12
328.143	746.12
328.372	726.12
328.6	773.12
328.829	742.12
329.058	745.12
329.287	767.12
329.515	748.12
329.744	757.12
329.972	774.12
330.201	790.12
330.43	768.12
330.658	779.12
330.887	761.12
331.115	783.12
331.344	799.12
331.572	786.12
331.801	807.12
332.03	801.12
332.258	819.12
332.486	811.12
332.715	845.12
332.943	864.12
333.172	861.12
333.4	848.12
333.629	881.12
333.857	897.12
334.085	915.12
334.314	907.12
334.542	900.12
334.771	904.12
334.999	906.12
335.227	896.12
335.455	935.12
335.684	907.12
335.912	874.12
336.14	888.12
336.369	869.12
336.597	896.12
336.825	912.12
337.053	914.12
337.281	882.12
337.51	887.12
337.738	856.12
337.966	889.12
338.194	870.12
338.422	879.12
338.65	851.12
338.878	863.12
339.106	858.12
339.334	874.12
339.562	852.12
339.79	802.12
340.018	825.12
340.246	806.12
340.474	808.12
340.702	810.12
340.93	823.12
341.158	845.12
341.386	863.12
341.614	890.12
341.842	853.12
342.07	848.12
342.298	801.12
342.526	814.12
342.754	805.12
342.981	806.12
343.209	825.12
343.437	855.12
343.665	903.12
343.893	888.12
344.12	902.12
344.348	894.12
344.576	902.12
344.804	899.12
345.031	870.12
345.259	851.12
345.487	836.12
345.714	841.12
345.942	859.12
346.17	875.12
346.397	851.12
346.625	826.12
346.853	800.12
347.08	784.12
347.308	795.12
347.535	791.12
347.763	791.12
347.99	770.12
348.218	779.12
348.445	798.12
348.673	781.12
348.9	763.12
349.128	797.12
349.355	799.12
349.583	801.12
349.81	812.12
350.037	754.12
350.265	786.12
350.492	760.12
350.72	778.12
350.947	778.12
351.174	786.12
351.402	809.12
351.629	827.12
351.856	813.12
352.083	783.12
352.311	810.12
352.538	851.12
352.765	857.12
352.992	783.12
353.22	748.12
353.447	761.12
353.674	737.12
353.901	738.12
354.128	759.12
354.355	767.12
354.583	771.12
354.81	779.12
355.037	772.12
355.264	749.12
355.491	745.12
355.718	770.12
355.945	780.12
356.172	782.12
356.399	781.12
356.626	774.12
356.853	817.12
357.08	795.12
357.307	765.12
357.534	772.12
357.761	775.12
357.988	778.12
358.215	751.12
358.441	755.12
358.668	765.12
358.895	755.12
359.122	773.12
359.349	754.12
359.576	743.12
359.802	764.12
360.029	749.12
360.256	747.12
360.483	796.12
360.709	771.12
360.936	761.12
361.163	767.12
361.39	777.12
361.616	781.12
361.843	810.12
362.07	815.12
362.296	776.12
362.523	773.12
362.749	787.12
362.976	742.12
363.203	776.12
363.429	781.12
363.656	755.12
363.882	745.12
364.109	757.12
364.335	758.12
364.562	762.12
364.788	777.12
365.015	756.12
365.241	738.12
365.468	747.12
365.694	758.12
365.92	749.12
366.147	781.12
366.373	775.12
366.599	777.12
366.826	757.12
367.052	745.12
367.278	798.12
367.505	795.12
367.731	795.12
367.957	780.12
368.184	774.12
368.41	807.12
368.636	785.12
368.862	773.12
369.089	796.12
369.315	779.12
369.541	812.12
369.767	811.12
369.993	795.12
370.219	794.12
370.445	827.12
370.672	818.12
370.898	804.12
371.124	840.12
371.35	834.12
371.576	819.12
371.802	820.12
372.028	826.12
372.254	797.12
372.48	844.12
372.706	838.12
372.932	833.12
373.158	825.12
373.384	853.12
373.61	834.12
373.835	838.12
374.061	845.12
374.287	836.12
374.513	847.12
374.739	846.12
374.965	870.12
375.191	867.12
375.416	864.12
375.642	823.12
375.868	824.12
376.094	807.12
376.319	826.12
376.545	850.12
376.771	829.12
376.997	837.12
377.222	821.12
377.448	818.12
377.674	807.12
377.899	838.12
378.125	841.12
378.35	814.12
378.576	802.12
378.802	817.12
379.027	828.12
379.253	795.12
379.478	804.12
379.704	800.12
379.929	824.12
380.155	805.12
380.38	826.12
380.606	817.12
380.831	820.12
381.057	792.12
381.282	821.12
381.507	826.12
381.733	828.12
381.958	823.12
382.184	818.12
382.409	843.12
382.634	856.12
382.86	839.12
383.085	838.12
383.31	826.12
383.535	878.12
383.761	873.12
383.986	858.12
384.211	884.12
384.436	895.12
384.662	896.12
384.887	915.12
385.112	924.12
385.337	912.12
385.562	926.12
385.787	920.12
386.013	930.12
386.238	919.12
386.463	921.12
386.688	946.12
386.913	955.12
387.138	936.12
387.363	954.12
387.588	916.12
387.813	927.12
388.038	958.12
388.263	956.12
388.488	960.12
388.713	946.12
388.938	932.12
389.163	939.12
389.387	939.12
389.612	886.12
389.837	931.12
390.062	918.12
390.287	930.12
390.512	923.12
390.736	943.12
390.961	971.12
391.186	977.12
391.411	977.12
391.636	995.12
391.86	1018.12
392.085	1000.12
392.31	985.12
392.534	994.12
392.759	1016.12
392.984	974.12
393.208	973.12
393.433	1002.12
393.658	991.12
393.882	989.12
394.107	981.12
394.331	976.12
394.556	983.12
394.78	986.12
395.005	990.12
395.229	969.12
395.454	1016.12
395.678	1018.12
395.903	1002.12
396.127	1018.12
396.352	1036.12
396.576	1013.12
396.801	998.12
397.025	1025.12
397.249	1024.12
397.474	1009.12
397.698	1027.12
397.922	1055.12
398.147	1073.12
398.371	1095.12
398.595	1084.12
398.82	1094.12
399.044	1166.12
399.268	1230.12
399.492	1316.12
399.717	1371.12
399.941	1378.12
400.165	1345.12
400.389	1267.12
400.613	1193.12
400.837	1189.12
401.062	1157.12
401.286	1140.12
401.51	1144.12
401.734	1155.12
401.958	1126.12
402.182	1123.12
402.406	1099.12
402.63	1131.12
402.854	1154.12
403.078	1151.12
403.302	1141.12
403.526	1160.12
403.75	1145.12
403.974	1174.12
404.198	1146.12
404.422	1158.12
404.645	1162.12
404.869	1185.12
405.093	1183.12
405.317	1195.12
405.541	1193.12
405.765	1182.12
405.988	1176.12
406.212	1204.12
406.436	1217.12
406.66	1250.12
406.883	1253.12
407.107	1290.12
407.331	1299.12
407.555	1313.12
407.778	1306.12
408.002	1301.12
408.226	1317.12
408.449	1310.12
408.673	1294.12
408.896	1270.12
409.12	1230.12
409.344	1247.12
409.567	1227.12
409.791	1235.12
410.014	1234.12
410.238	1214.12
410.461	1191.12
410.685	1213.12
410.908	1177.12
411.132	1184.12
411.355	1160.12
411.578	1182.12
411.802	1166.12
412.025	1167.12
412.249	1175.12
412.472	1174.12
412.695	1179.12
412.919	1143.12
413.142	1155.12
413.365	1151.12
413.589	1149.12
413.812	1116.12
414.035	1101.12
414.258	1117.12
414.482	1124.12
414.705	1174.12
414.928	1160.12
415.151	1128.12
415.374	1139.12
415.597	1104.12
415.821	1121.12
416.044	1113.12
416.267	1076.12
416.49	1113.12
416.713	1115.12
416.936	1104.12
417.159	1106.12
417.382	1059.12
417.605	1076.12
417.828	1098.12
418.051	1085.12
418.274	1122.12
418.497	1089.12
418.72	1097.12
418.943	1111.12
419.166	1140.12
419.389	1229.12
419.611	1231.12
419.834	1164.12
420.057	1156.12
420.28	1113.12
420.503	1089.12
420.726	1102.12
420.948	1092.12
421.171	1107.12
421.394	1085.12
421.617	1081.12
421.839	1091.12
422.062	1106.12
422.285	1079.12
422.507	1094.12
422.73	1080.12
422.953	1115.12
423.175	1089.12
423.398	1078.12
423.621	1093.12
423.843	1110.12
424.066	1089.12
424.288	1123.12
424.511	1111.12
424.733	1114.12
424.956	1068.12
425.178	1081.12
425.401	1100.12
425.623	1103.12
425.846	1034.12
426.068	1076.12
426.291	1059.12
426.513	1084.12
426.735	1061.12
426.958	1041.12
427.18	1018.12
427.402	1023.12
427.625	1050.12
427.847	1011.12
428.069	1025.12
428.292	1033.12
428.514	1001.12
428.736	1032.12
428.958	1033.12
429.181	1025.12
429.403	1024.12
429.625	997.12
429.847	1003.12
430.069	1026.12
430.292	986.12
430.514	1025.12
430.736	1014.12
430.958	1011.12
431.18	1023.12
431.402	1027.12
431.624	1031.12
431.846	1017.12
432.068	1050.12
432.29	1049.12
432.512	1045.12
432.734	1038.12
432.956	1038.12
433.178	1097.12
433.4	1067.12
433.622	1083.12
433.844	1065.12
434.066	1041.12
434.287	1044.12
434.509	1060.12
434.731	1070.12
434.953	1107.12
435.175	1147.12
435.397	1118.12
435.618	1104.12
435.84	1061.12
436.062	1044.12
436.284	1027.12
436.505	1046.12
436.727	1068.12
436.949	1048.12
437.17	1034.12
437.392	1026.12
437.614	1003.12
437.835	987.12
438.057	977.12
438.278	961.12
438.5	965.12
438.721	999.12
438.943	987.12
439.165	1019.12
439.386	1015.12
439.608	1009.12
439.829	1006.12
440.05	1024.12
440.272	1032.12
440.493	1022.12
440.715	1056.12
440.936	1051.12
441.158	1074.12
441.379	1055.12
441.6	1090.12
441.822	1065.12
442.043	1099.12
442.264	1095.12
442.486	1093.12
442.707	1111.12
442.928	1058.12
443.149	1070.12
443.371	1078.12
443.592	1172.12
443.813	1127.12
444.034	1123.12
444.255	1151.12
444.476	1145.12
444.698	1158.12
444.919	1214.12
445.14	1299.12
445.361	1229.12
445.582	1109.12
445.803	1091.12
446.024	1077.12
446.245	1048.12
446.466	1057.12
446.687	1019.12
446.908	1021.12
447.129	990.12
447.35	978.12
447.571	981.12
447.792	975.12
448.013	956.12
448.234	947.12
448.455	925.12
448.675	949.12
448.896	961.12
449.117	936.12
449.338	922.12
449.559	935.12
449.779	939.12
450	938.12
450.221	940.12
450.442	926.12
450.662	918.12
450.883	940.12
451.104	986.12
451.324	938.12
451.545	926.12
451.766	926.12
451.986	919.12
452.207	909.12
452.428	911.12
452.648	923.12
452.869	901.12
453.089	909.12
453.31	923.12
453.53	893.12
453.751	889.12
453.971	903.12
454.192	908.12
454.412	909.12
454.633	930.12
454.853	883.12
455.073	885.12
455.294	883.12
455.514	922.12
455.734	917.12
455.955	938.12
456.175	895.12
456.395	920.12
456.616	904.12
456.836	887.12
457.056	865.12
457.276	883.12
457.497	905.12
457.717	926.12
457.937	943.12
458.157	913.12
458.377	938.12
458.598	939.12
458.818	963.12
459.038	967.12
459.258	973.12
459.478	1009.12
459.698	1093.12
459.918	1106.12
460.138	1079.12
460.358	1112.12
460.578	1126.12
460.798	1164.12
461.018	1167.12
461.238	1107.12
461.458	1137.12
461.678	1119.12
461.898	1122.12
462.118	1152.12
462.338	1186.12
462.558	1201.12
462.777	1261.12
462.997	1300.12
463.217	1319.12
463.437	1366.12
463.657	1335.12
463.876	1257.12
464.096	1237.12
464.316	1245.12
464.536	1236.12
464.755	1210.12
464.975	1167.12
465.195	1131.12
465.414	1125.12
465.634	1059.12
465.854	1039.12
466.073	1052.12
466.293	1002.12
466.512	993.12
466.732	1026.12
466.951	984.12
467.171	1012.12
467.391	1014.12
467.61	985.12
467.829	963.12
468.049	959.12
468.268	950.12
468.488	953.12
468.707	953.12
468.927	952.12
469.146	939.12
469.365	961.12
469.585	976.12
469.804	985.12
470.023	965.12
470.243	986.12
470.462	971.12
470.681	984.12
470.901	999.12
471.12	1009.12
471.339	1006.12
471.558	1006.12
471.777	1020.12
471.997	967.12
472.216	955.12
472.435	962.12
472.654	958.12
472.873	943.12
473.092	962.12
473.311	957.12
473.53	952.12
473.749	979.12
473.968	951.12
474.187	940.12
474.406	930.12
474.625	968.12
474.844	951.12
475.063	975.12
475.282	990.12
475.501	965.12
475.72	1004.12
475.939	981.12
476.158	1002.12
476.377	985.12
476.596	1004.12
476.814	1004.12
477.033	1017.12
477.252	1047.12
477.471	1048.12
477.69	1070.12
477.908	1084.12
478.127	1092.12
478.346	1087.12
478.564	1092.12
478.783	1122.12
479.002	1162.12
479.22	1158.12
479.439	1187.12
479.658	1175.12
479.876	1179.12
480.095	1148.12
480.313	1154.12
480.532	1190.12
480.751	1213.12
480.969	1155.12
481.188	1143.12
481.406	1157.12
481.624	1134.12
481.843	1118.12
482.061	1165.12
482.28	1126.12
482.498	1113.12
482.717	1126.12
482.935	1131.12
483.153	1152.12
483.372	1173.12
483.59	1201.12
483.808	1176.12
484.027	1163.12
484.245	1158.12
484.463	1188.12
484.681	1185.12
484.9	1195.12
485.118	1178.12
485.336	1181.12
485.554	1152.12
485.772	1201.12
485.99	1162.12
486.209	1210.12
486.427	1213.12
486.645	1215.12
486.863	1205.12
487.081	1163.12
487.299	1203.12
487.517	1208.12
487.735	1207.12
487.953	1219.12
488.171	1195.12
488.389	1176.12
488.607	1196.12
488.825	1145.12
489.043	1163.12
489.261	1130.12
489.479	1129.12
489.696	1119.12
489.914	1177.12
490.132	1196.12
490.35	1186.12
490.568	1174.12
490.786	1158.12
491.003	1168.12
491.221	1221.12
491.439	1157.12
491.657	1168.12
491.874	1185.12
492.092	1232.12
492.31	1158.12
492.527	1196.12
492.745	1201.12
492.963	1180.12
493.18	1175.12
493.398	1194.12
493.615	1192.12
493.833	1213.12
494.05	1217.12
494.268	1214.12
494.485	1213.12
494.703	1211.12
494.92	1242.12
495.138	1231.12
495.355	1234.12
495.573	1286.12
495.79	1231.12
496.008	1233.12
496.225	1215.12
496.442	1248.12
496.66	1283.12
