Data from Ni(NO3)2@0.125M.TitratingCurve.Agarose3%dH2O.NegLispCup.LampEnergy10.LIBS07252019_HRD10591_18-10-28-568.txt Node
Date: Thu Jul 25 18:10:28 EDT 2019
User: cochatt
Spectrometer: HR+D1059
Trigger mode: 1
Integration Time (sec): 1.000000E-1
Scans to average: 1
Electric dark correction enabled: true
Nonlinearity correction enabled: false
Boxcar width: 0
XAxis mode: Wavelengths
Number of Pixels in Spectrum: 2048
>>>>>Begin Spectral Data<<<<<
223.165	-26.19
223.4	-26.19
223.635	-26.19
223.869	-24.19
224.104	-18.19
224.338	-12.19
224.573	-8.19
224.808	-9.19
225.042	-9.19
225.277	-0.19
225.511	9.81
225.746	12.81
225.98	13.81
226.215	4.81
226.449	17.81
226.683	7.81
226.918	20.81
227.152	19.81
227.387	38.81
227.621	32.81
227.856	41.81
228.09	43.81
228.324	41.81
228.559	52.81
228.793	67.81
229.027	119.81
229.262	114.81
229.496	127.81
229.73	110.81
229.964	127.81
230.199	121.81
230.433	144.81
230.667	157.81
230.901	161.81
231.136	139.81
231.37	136.81
231.604	150.81
231.838	171.81
232.072	168.81
232.306	154.81
232.541	149.81
232.775	148.81
233.009	153.81
233.243	153.81
233.477	158.81
233.711	154.81
233.945	155.81
234.179	154.81
234.413	162.81
234.647	147.81
234.881	154.81
235.115	155.81
235.349	162.81
235.583	151.81
235.817	165.81
236.051	157.81
236.285	169.81
236.519	185.81
236.753	173.81
236.987	164.81
237.221	165.81
237.455	160.81
237.689	185.81
237.922	193.81
238.156	171.81
238.39	176.81
238.624	178.81
238.858	191.81
239.091	191.81
239.325	187.81
239.559	180.81
239.793	177.81
240.027	191.81
240.26	198.81
240.494	184.81
240.728	188.81
240.961	189.81
241.195	183.81
241.429	218.81
241.662	191.81
241.896	207.81
242.13	205.81
242.363	222.81
242.597	214.81
242.83	213.81
243.064	221.81
243.298	192.81
243.531	225.81
243.765	228.81
243.998	223.81
244.232	224.81
244.465	214.81
244.699	215.81
244.932	224.81
245.166	217.81
245.399	243.81
245.633	248.81
245.866	243.81
246.099	243.81
246.333	228.81
246.566	214.81
246.8	221.81
247.033	248.81
247.266	249.81
247.5	239.81
247.733	253.81
247.966	248.81
248.2	241.81
248.433	240.81
248.666	269.81
248.899	255.81
249.133	246.81
249.366	274.81
249.599	277.81
249.832	285.81
250.066	275.81
250.299	248.81
250.532	279.81
250.765	280.81
250.998	265.81
251.231	303.81
251.465	300.81
251.698	280.81
251.931	280.81
252.164	277.81
252.397	286.81
252.63	285.81
252.863	298.81
253.096	297.81
253.329	303.81
253.562	292.81
253.795	293.81
254.028	290.81
254.261	310.81
254.494	303.81
254.727	296.81
254.96	300.81
255.193	300.81
255.426	308.81
255.659	290.81
255.892	320.81
256.124	315.81
256.357	321.81
256.59	300.81
256.823	322.81
257.056	319.81
257.289	319.81
257.521	340.81
257.754	327.81
257.987	319.81
258.22	343.81
258.452	340.81
258.685	326.81
258.918	321.81
259.151	349.81
259.383	336.81
259.616	351.81
259.849	355.81
260.081	334.81
260.314	331.81
260.547	345.81
260.779	347.81
261.012	346.81
261.244	361.81
261.477	363.81
261.71	368.81
261.942	361.81
262.175	337.81
262.407	359.81
262.64	358.81
262.872	371.81
263.105	367.81
263.337	371.81
263.57	351.81
263.802	385.81
264.035	377.81
264.267	367.81
264.499	370.81
264.732	369.81
264.964	374.81
265.197	387.81
265.429	374.81
265.661	375.81
265.894	403.81
266.126	397.81
266.358	403.81
266.591	383.81
266.823	382.81
267.055	371.81
267.287	394.81
267.52	387.81
267.752	397.81
267.984	394.81
268.216	398.81
268.448	399.81
268.681	399.81
268.913	411.81
269.145	390.81
269.377	391.81
269.609	408.81
269.841	414.81
270.073	398.81
270.306	411.81
270.538	413.81
270.77	414.81
271.002	413.81
271.234	427.81
271.466	410.81
271.698	413.81
271.93	448.81
272.162	421.81
272.394	440.81
272.626	429.81
272.858	444.81
273.09	436.81
273.322	444.81
273.553	423.81
273.785	445.81
274.017	441.81
274.249	454.81
274.481	439.81
274.713	453.81
274.945	467.81
275.176	465.81
275.408	443.81
275.64	473.81
275.872	460.81
276.104	465.81
276.335	459.81
276.567	449.81
276.799	471.81
277.031	452.81
277.262	457.81
277.494	456.81
277.726	447.81
277.957	467.81
278.189	479.81
278.421	468.81
278.652	496.81
278.884	480.81
279.115	457.81
279.347	481.81
279.579	473.81
279.81	499.81
280.042	485.81
280.273	470.81
280.505	482.81
280.736	480.81
280.968	492.81
281.199	501.81
281.431	526.81
281.662	495.81
281.894	504.81
282.125	536.81
282.356	517.81
282.588	499.81
282.819	509.81
283.051	512.81
283.282	524.81
283.513	506.81
283.745	503.81
283.976	501.81
284.207	533.81
284.439	519.81
284.67	545.81
284.901	549.81
285.132	541.81
285.364	555.81
285.595	542.81
285.826	544.81
286.057	522.81
286.288	568.81
286.52	537.81
286.751	538.81
286.982	562.81
287.213	553.81
287.444	537.81
287.675	552.81
287.906	571.81
288.138	561.81
288.369	568.81
288.6	568.81
288.831	579.81
289.062	581.81
289.293	552.81
289.524	565.81
289.755	561.81
289.986	577.81
290.217	569.81
290.448	575.81
290.679	593.81
290.91	572.81
291.141	550.81
291.371	568.81
291.602	570.81
291.833	559.81
292.064	572.81
292.295	601.81
292.526	591.81
292.757	562.81
292.987	572.81
293.218	575.81
293.449	588.81
293.68	585.81
293.91	576.81
294.141	579.81
294.372	575.81
294.603	597.81
294.833	592.81
295.064	585.81
295.295	597.81
295.525	572.81
295.756	573.81
295.987	584.81
296.217	608.81
296.448	600.81
296.679	618.81
296.909	594.81
297.14	597.81
297.37	618.81
297.601	600.81
297.831	615.81
298.062	624.81
298.292	623.81
298.523	650.81
298.753	621.81
298.984	637.81
299.214	649.81
299.445	627.81
299.675	616.81
299.905	627.81
300.136	631.81
300.366	653.81
300.597	645.81
300.827	658.81
301.057	654.81
301.288	667.81
301.518	658.81
301.748	649.81
301.979	676.81
302.209	675.81
302.439	651.81
302.669	647.81
302.9	663.81
303.13	666.81
303.36	669.81
303.59	680.81
303.82	676.81
304.051	647.81
304.281	658.81
304.511	675.81
304.741	651.81
304.971	676.81
305.201	639.81
305.431	633.81
305.661	672.81
305.891	647.81
306.121	611.81
306.352	621.81
306.582	643.81
306.812	631.81
307.042	640.81
307.272	645.81
307.502	644.81
307.731	611.81
307.961	623.81
308.191	643.81
308.421	616.81
308.651	645.81
308.881	639.81
309.111	626.81
309.341	635.81
309.571	626.81
309.8	660.81
310.03	632.81
310.26	611.81
310.49	645.81
310.72	642.81
310.949	657.81
311.179	660.81
311.409	665.81
311.639	652.81
311.868	611.81
312.098	665.81
312.328	678.81
312.557	673.81
312.787	653.81
313.017	678.81
313.246	659.81
313.476	696.81
313.706	682.81
313.935	679.81
314.165	696.81
314.394	698.81
314.624	699.81
314.853	703.81
315.083	679.81
315.312	669.81
315.542	694.81
315.771	677.81
316.001	689.81
316.23	697.81
316.46	672.81
316.689	661.81
316.919	681.81
317.148	674.81
317.377	671.81
317.607	691.81
317.836	677.81
318.065	699.81
318.295	710.81
318.524	687.81
318.753	678.81
318.983	691.81
319.212	675.81
319.441	665.81
319.67	699.81
319.9	677.81
320.129	676.81
320.358	700.81
320.587	668.81
320.816	698.81
321.046	687.81
321.275	719.81
321.504	681.81
321.733	672.81
321.962	717.81
322.191	679.81
322.42	703.81
322.649	702.81
322.878	699.81
323.108	689.81
323.337	722.81
323.566	706.81
323.795	725.81
324.024	730.81
324.253	710.81
324.482	723.81
324.71	711.81
324.939	703.81
325.168	726.81
325.397	699.81
325.626	727.81
325.855	741.81
326.084	756.81
326.313	735.81
326.542	751.81
326.77	782.81
326.999	726.81
327.228	741.81
327.457	735.81
327.686	751.81
327.914	754.81
328.143	754.81
328.372	781.81
328.6	767.81
328.829	742.81
329.058	760.81
329.287	790.81
329.515	779.81
329.744	775.81
329.972	763.81
330.201	778.81
330.43	785.81
330.658	791.81
330.887	793.81
331.115	790.81
331.344	794.81
331.572	787.81
331.801	818.81
332.03	819.81
332.258	861.81
332.486	885.81
332.715	892.81
332.943	949.81
333.172	984.81
333.4	1028.81
333.629	1047.81
333.857	1060.81
334.085	1041.81
334.314	994.81
334.542	998.81
334.771	980.81
334.999	943.81
335.227	969.81
335.455	947.81
335.684	926.81
335.912	909.81
336.14	931.81
336.369	939.81
336.597	933.81
336.825	917.81
337.053	892.81
337.281	871.81
337.51	891.81
337.738	851.81
337.966	850.81
338.194	853.81
338.422	836.81
338.65	804.81
338.878	834.81
339.106	829.81
339.334	831.81
339.562	820.81
339.79	796.81
340.018	801.81
340.246	790.81
340.474	773.81
340.702	831.81
340.93	816.81
341.158	831.81
341.386	802.81
341.614	804.81
341.842	817.81
342.07	792.81
342.298	768.81
342.526	809.81
342.754	785.81
342.981	790.81
343.209	839.81
343.437	859.81
343.665	907.81
343.893	972.81
344.12	1004.81
344.348	964.81
344.576	899.81
344.804	883.81
345.031	826.81
345.259	831.81
345.487	817.81
345.714	817.81
345.942	794.81
346.17	796.81
346.397	770.81
346.625	786.81
346.853	780.81
347.08	776.81
347.308	804.81
347.535	783.81
347.763	804.81
347.99	791.81
348.218	785.81
348.445	792.81
348.673	764.81
348.9	779.81
349.128	767.81
349.355	764.81
349.583	768.81
349.81	742.81
350.037	752.81
350.265	757.81
350.492	727.81
350.72	717.81
350.947	731.81
351.174	743.81
351.402	769.81
351.629	733.81
351.856	759.81
352.083	732.81
352.311	751.81
352.538	717.81
352.765	732.81
352.992	720.81
353.22	736.81
353.447	751.81
353.674	731.81
353.901	728.81
354.128	720.81
354.355	740.81
354.583	760.81
354.81	738.81
355.037	739.81
355.264	743.81
355.491	715.81
355.718	736.81
355.945	755.81
356.172	753.81
356.399	757.81
356.626	762.81
356.853	747.81
357.08	755.81
357.307	756.81
357.534	747.81
357.761	757.81
357.988	770.81
358.215	749.81
358.441	743.81
358.668	729.81
358.895	741.81
359.122	748.81
359.349	748.81
359.576	729.81
359.802	737.81
360.029	768.81
360.256	738.81
360.483	769.81
360.709	754.81
360.936	761.81
361.163	736.81
361.39	737.81
361.616	723.81
361.843	740.81
362.07	766.81
362.296	751.81
362.523	749.81
362.749	757.81
362.976	719.81
363.203	725.81
363.429	748.81
363.656	749.81
363.882	748.81
364.109	759.81
364.335	736.81
364.562	725.81
364.788	733.81
365.015	748.81
365.241	723.81
365.468	730.81
365.694	742.81
365.92	748.81
366.147	724.81
366.373	734.81
366.599	722.81
366.826	745.81
367.052	744.81
367.278	742.81
367.505	762.81
367.731	769.81
367.957	767.81
368.184	744.81
368.41	749.81
368.636	746.81
368.862	764.81
369.089	753.81
369.315	768.81
369.541	782.81
369.767	824.81
369.993	787.81
370.219	748.81
370.445	763.81
370.672	795.81
370.898	788.81
371.124	821.81
371.35	802.81
371.576	825.81
371.802	797.81
372.028	811.81
372.254	802.81
372.48	824.81
372.706	823.81
372.932	867.81
373.158	861.81
373.384	829.81
373.61	806.81
373.835	835.81
374.061	804.81
374.287	831.81
374.513	833.81
374.739	852.81
374.965	886.81
375.191	912.81
375.416	888.81
375.642	848.81
375.868	864.81
376.094	833.81
376.319	826.81
376.545	824.81
376.771	807.81
376.997	809.81
377.222	796.81
377.448	825.81
377.674	790.81
377.899	801.81
378.125	814.81
378.35	799.81
378.576	813.81
378.802	811.81
379.027	791.81
379.253	797.81
379.478	791.81
379.704	791.81
379.929	799.81
380.155	791.81
380.38	815.81
380.606	810.81
380.831	785.81
381.057	791.81
381.282	787.81
381.507	808.81
381.733	817.81
381.958	789.81
382.184	816.81
382.409	856.81
382.634	842.81
382.86	860.81
383.085	851.81
383.31	876.81
383.535	864.81
383.761	922.81
383.986	914.81
384.211	946.81
384.436	961.81
384.662	972.81
384.887	972.81
385.112	971.81
385.337	972.81
385.562	1001.81
385.787	999.81
386.013	1015.81
386.238	994.81
386.463	978.81
386.688	965.81
386.913	975.81
387.138	970.81
387.363	960.81
387.588	948.81
387.813	956.81
388.038	940.81
388.263	941.81
388.488	956.81
388.713	965.81
388.938	938.81
389.163	951.81
389.387	965.81
389.612	929.81
389.837	932.81
390.062	909.81
390.287	960.81
390.512	963.81
390.736	950.81
390.961	984.81
391.186	974.81
391.411	1032.81
391.636	1028.81
391.86	1095.81
392.085	1099.81
392.31	1092.81
392.534	1079.81
392.759	1049.81
392.984	1004.81
393.208	1027.81
393.433	1032.81
393.658	1058.81
393.882	1035.81
394.107	1041.81
394.331	1043.81
394.556	1037.81
394.78	1037.81
395.005	1035.81
395.229	1088.81
395.454	1057.81
395.678	1097.81
395.903	1068.81
396.127	1041.81
396.352	1038.81
396.576	1012.81
396.801	999.81
397.025	1023.81
397.249	1050.81
397.474	1079.81
397.698	1093.81
397.922	1091.81
398.147	1068.81
398.371	1096.81
398.595	1146.81
398.82	1188.81
399.044	1239.81
399.268	1417.81
399.492	1659.81
399.717	1925.81
399.941	1924.81
400.165	1687.81
400.389	1451.81
400.613	1352.81
400.837	1257.81
401.062	1243.81
401.286	1225.81
401.51	1232.81
401.734	1201.81
401.958	1239.81
402.182	1244.81
402.406	1242.81
402.63	1283.81
402.854	1285.81
403.078	1293.81
403.302	1334.81
403.526	1385.81
403.75	1424.81
403.974	1441.81
404.198	1420.81
404.422	1409.81
404.645	1407.81
404.869	1374.81
405.093	1395.81
405.317	1355.81
405.541	1349.81
405.765	1315.81
405.988	1272.81
406.212	1318.81
406.436	1331.81
406.66	1392.81
406.883	1391.81
407.107	1491.81
407.331	1520.81
407.555	1567.81
407.778	1556.81
408.002	1538.81
408.226	1533.81
408.449	1440.81
408.673	1400.81
408.896	1349.81
409.12	1373.81
409.344	1392.81
409.567	1374.81
409.791	1355.81
410.014	1371.81
410.238	1370.81
410.461	1375.81
410.685	1342.81
410.908	1364.81
411.132	1292.81
411.355	1264.81
411.578	1298.81
411.802	1274.81
412.025	1288.81
412.249	1304.81
412.472	1297.81
412.695	1206.81
412.919	1228.81
413.142	1204.81
413.365	1218.81
413.589	1243.81
413.812	1161.81
414.035	1222.81
414.258	1210.81
414.482	1188.81
414.705	1261.81
414.928	1241.81
415.151	1235.81
415.374	1172.81
415.597	1221.81
415.821	1160.81
416.044	1168.81
416.267	1169.81
416.49	1185.81
416.713	1179.81
416.936	1193.81
417.159	1151.81
417.382	1180.81
417.605	1164.81
417.828	1196.81
418.051	1219.81
418.274	1192.81
418.497	1207.81
418.72	1232.81
418.943	1235.81
419.166	1329.81
419.389	1420.81
419.611	1387.81
419.834	1297.81
420.057	1250.81
420.28	1230.81
420.503	1169.81
420.726	1205.81
420.948	1179.81
421.171	1200.81
421.394	1205.81
421.617	1177.81
421.839	1194.81
422.062	1231.81
422.285	1183.81
422.507	1216.81
422.73	1222.81
422.953	1279.81
423.175	1280.81
423.398	1294.81
423.621	1287.81
423.843	1327.81
424.066	1311.81
424.288	1282.81
424.511	1289.81
424.733	1268.81
424.956	1246.81
425.178	1260.81
425.401	1234.81
425.623	1199.81
425.846	1175.81
426.068	1155.81
426.291	1173.81
426.513	1131.81
426.735	1137.81
426.958	1101.81
427.18	1086.81
427.402	1105.81
427.625	1112.81
427.847	1080.81
428.069	1059.81
428.292	1068.81
428.514	1042.81
428.736	1054.81
428.958	1084.81
429.181	1051.81
429.403	1041.81
429.625	1045.81
429.847	1014.81
430.069	1057.81
430.292	1044.81
430.514	1029.81
430.736	1047.81
430.958	1054.81
431.18	1062.81
431.402	1048.81
431.624	1035.81
431.846	1075.81
432.068	1047.81
432.29	1104.81
432.512	1047.81
432.734	1088.81
432.956	1077.81
433.178	1097.81
433.4	1052.81
433.622	1064.81
433.844	1075.81
434.066	1080.81
434.287	1094.81
434.509	1152.81
434.731	1184.81
434.953	1208.81
435.175	1251.81
435.397	1193.81
435.618	1111.81
435.84	1126.81
436.062	1098.81
436.284	1071.81
436.505	1065.81
436.727	1078.81
436.949	1086.81
437.17	1106.81
437.392	1084.81
437.614	1024.81
437.835	1023.81
438.057	1033.81
438.278	1048.81
438.5	1014.81
438.721	995.81
438.943	1031.81
439.165	1039.81
439.386	1063.81
439.608	1095.81
439.829	1059.81
440.05	1069.81
440.272	1111.81
440.493	1105.81
440.715	1104.81
440.936	1120.81
441.158	1128.81
441.379	1158.81
441.6	1217.81
441.822	1221.81
442.043	1229.81
442.264	1179.81
442.486	1168.81
442.707	1220.81
442.928	1185.81
443.149	1205.81
443.371	1204.81
443.592	1226.81
443.813	1205.81
444.034	1240.81
444.255	1259.81
444.476	1347.81
444.698	1415.81
444.919	1491.81
445.14	1506.81
445.361	1387.81
445.582	1259.81
445.803	1191.81
446.024	1153.81
446.245	1135.81
446.466	1114.81
446.687	1067.81
446.908	1080.81
447.129	1015.81
447.35	1044.81
447.571	1047.81
447.792	994.81
448.013	992.81
448.234	1023.81
448.455	999.81
448.675	987.81
448.896	977.81
449.117	969.81
449.338	1001.81
449.559	994.81
449.779	982.81
450	956.81
450.221	976.81
450.442	1008.81
450.662	1006.81
450.883	988.81
451.104	1019.81
451.324	1011.81
451.545	1025.81
451.766	989.81
451.986	968.81
452.207	986.81
452.428	995.81
452.648	992.81
452.869	959.81
453.089	954.81
453.31	969.81
453.53	978.81
453.751	939.81
453.971	925.81
454.192	941.81
454.412	909.81
454.633	912.81
454.853	912.81
455.073	923.81
455.294	955.81
455.514	912.81
455.734	937.81
455.955	871.81
456.175	897.81
456.395	892.81
456.616	901.81
456.836	926.81
457.056	943.81
457.276	914.81
457.497	903.81
457.717	922.81
457.937	910.81
458.157	946.81
458.377	919.81
458.598	969.81
458.818	1002.81
459.038	1013.81
459.258	1063.81
459.478	1091.81
459.698	1122.81
459.918	1160.81
460.138	1195.81
460.358	1297.81
460.578	1283.81
460.798	1316.81
461.018	1295.81
461.238	1315.81
461.458	1231.81
461.678	1233.81
461.898	1302.81
462.118	1314.81
462.338	1369.81
462.558	1428.81
462.777	1441.81
462.997	1586.81
463.217	1757.81
463.437	1787.81
463.657	1595.81
463.876	1485.81
464.096	1468.81
464.316	1503.81
464.536	1521.81
464.755	1460.81
464.975	1419.81
465.195	1338.81
465.414	1251.81
465.634	1169.81
465.854	1126.81
466.073	1074.81
466.293	1078.81
466.512	1058.81
466.732	1063.81
466.951	1043.81
467.171	1039.81
467.391	1071.81
467.61	1050.81
467.829	1014.81
468.049	1004.81
468.268	987.81
468.488	973.81
468.707	978.81
468.927	995.81
469.146	976.81
469.365	1007.81
469.585	993.81
469.804	1002.81
470.023	1021.81
470.243	1043.81
470.462	1063.81
470.681	1080.81
470.901	1079.81
471.12	1043.81
471.339	1031.81
471.558	1009.81
471.777	1000.81
471.997	988.81
472.216	968.81
472.435	958.81
472.654	928.81
472.873	933.81
473.092	959.81
473.311	969.81
473.53	959.81
473.749	961.81
473.968	940.81
474.187	935.81
474.406	959.81
474.625	949.81
474.844	971.81
475.063	948.81
475.282	976.81
475.501	959.81
475.72	982.81
475.939	997.81
476.158	996.81
476.377	1009.81
476.596	999.81
476.814	1031.81
477.033	1002.81
477.252	1017.81
477.471	1054.81
477.69	1074.81
477.908	1104.81
478.127	1121.81
478.346	1149.81
478.564	1157.81
478.783	1166.81
479.002	1202.81
479.22	1226.81
479.439	1205.81
479.658	1207.81
479.876	1199.81
480.095	1237.81
480.313	1265.81
480.532	1295.81
480.751	1279.81
480.969	1243.81
481.188	1169.81
481.406	1174.81
481.624	1158.81
481.843	1120.81
482.061	1111.81
482.28	1089.81
482.498	1104.81
482.717	1116.81
482.935	1096.81
483.153	1082.81
483.372	1103.81
483.59	1099.81
483.808	1075.81
484.027	1079.81
484.245	1097.81
484.463	1107.81
484.681	1133.81
484.9	1124.81
485.118	1150.81
485.336	1161.81
485.554	1159.81
485.772	1163.81
485.99	1173.81
486.209	1183.81
486.427	1161.81
486.645	1158.81
486.863	1152.81
487.081	1155.81
487.299	1145.81
487.517	1162.81
487.735	1167.81
487.953	1153.81
488.171	1158.81
488.389	1163.81
488.607	1127.81
488.825	1145.81
489.043	1144.81
489.261	1104.81
489.479	1115.81
489.696	1140.81
489.914	1145.81
490.132	1142.81
490.35	1125.81
490.568	1181.81
490.786	1163.81
491.003	1167.81
491.221	1188.81
491.439	1174.81
491.657	1145.81
491.874	1161.81
492.092	1163.81
492.31	1179.81
492.527	1235.81
492.745	1169.81
492.963	1148.81
493.18	1183.81
493.398	1235.81
493.615	1235.81
493.833	1223.81
494.05	1229.81
494.268	1223.81
494.485	1204.81
494.703	1206.81
494.92	1227.81
495.138	1220.81
495.355	1213.81
495.573	1232.81
495.79	1206.81
496.008	1229.81
