Data from Ni(NO3)2@0.25M.TitratingCurve.Agarose3%dH2O.NegLispCup.LampEnergy10.LIBS07252019_HRD10591_18-04-08-565.txt Node
Date: Thu Jul 25 18:04:08 EDT 2019
User: cochatt
Spectrometer: HR+D1059
Trigger mode: 1
Integration Time (sec): 1.000000E-1
Scans to average: 1
Electric dark correction enabled: true
Nonlinearity correction enabled: false
Boxcar width: 0
XAxis mode: Wavelengths
Number of Pixels in Spectrum: 2048
>>>>>Begin Spectral Data<<<<<
223.165	-20.69
223.4	-20.69
223.635	-20.69
223.869	-19.69
224.104	-0.69
224.338	-18.69
224.573	-15.69
224.808	-4.69
225.042	-14.69
225.277	-13.69
225.511	-8.69
225.746	6.31
225.98	3.31
226.215	20.31
226.449	13.31
226.683	28.31
226.918	15.31
227.152	30.31
227.387	44.31
227.621	31.31
227.856	52.31
228.09	42.31
228.324	63.31
228.559	52.31
228.793	71.31
229.027	78.31
229.262	72.31
229.496	99.31
229.73	100.31
229.964	97.31
230.199	103.31
230.433	101.31
230.667	110.31
230.901	107.31
231.136	94.31
231.37	106.31
231.604	113.31
231.838	118.31
232.072	122.31
232.306	123.31
232.541	115.31
232.775	99.31
233.009	107.31
233.243	103.31
233.477	119.31
233.711	96.31
233.945	110.31
234.179	123.31
234.413	113.31
234.647	116.31
234.881	122.31
235.115	103.31
235.349	114.31
235.583	119.31
235.817	118.31
236.051	89.31
236.285	108.31
236.519	109.31
236.753	120.31
236.987	110.31
237.221	119.31
237.455	109.31
237.689	113.31
237.922	118.31
238.156	130.31
238.39	115.31
238.624	105.31
238.858	121.31
239.091	114.31
239.325	110.31
239.559	126.31
239.793	123.31
240.027	117.31
240.26	120.31
240.494	123.31
240.728	130.31
240.961	120.31
241.195	137.31
241.429	132.31
241.662	129.31
241.896	135.31
242.13	119.31
242.363	131.31
242.597	128.31
242.83	133.31
243.064	122.31
243.298	149.31
243.531	138.31
243.765	127.31
243.998	140.31
244.232	127.31
244.465	126.31
244.699	133.31
244.932	126.31
245.166	135.31
245.399	148.31
245.633	147.31
245.866	150.31
246.099	151.31
246.333	142.31
246.566	139.31
246.8	147.31
247.033	147.31
247.266	136.31
247.5	141.31
247.733	145.31
247.966	148.31
248.2	141.31
248.433	156.31
248.666	163.31
248.899	158.31
249.133	162.31
249.366	157.31
249.599	164.31
249.832	169.31
250.066	180.31
250.299	170.31
250.532	153.31
250.765	176.31
250.998	174.31
251.231	177.31
251.465	165.31
251.698	177.31
251.931	173.31
252.164	167.31
252.397	182.31
252.63	165.31
252.863	180.31
253.096	186.31
253.329	191.31
253.562	194.31
253.795	190.31
254.028	200.31
254.261	186.31
254.494	208.31
254.727	187.31
254.96	194.31
255.193	191.31
255.426	200.31
255.659	185.31
255.892	189.31
256.124	195.31
256.357	186.31
256.59	204.31
256.823	208.31
257.056	198.31
257.289	228.31
257.521	222.31
257.754	217.31
257.987	215.31
258.22	226.31
258.452	225.31
258.685	230.31
258.918	215.31
259.151	235.31
259.383	225.31
259.616	222.31
259.849	229.31
260.081	236.31
260.314	234.31
260.547	238.31
260.779	222.31
261.012	230.31
261.244	234.31
261.477	242.31
261.71	249.31
261.942	242.31
262.175	238.31
262.407	249.31
262.64	248.31
262.872	236.31
263.105	229.31
263.337	262.31
263.57	255.31
263.802	253.31
264.035	253.31
264.267	259.31
264.499	259.31
264.732	253.31
264.964	274.31
265.197	225.31
265.429	257.31
265.661	249.31
265.894	252.31
266.126	268.31
266.358	241.31
266.591	245.31
266.823	282.31
267.055	253.31
267.287	270.31
267.52	261.31
267.752	268.31
267.984	266.31
268.216	259.31
268.448	266.31
268.681	271.31
268.913	261.31
269.145	250.31
269.377	264.31
269.609	279.31
269.841	272.31
270.073	263.31
270.306	261.31
270.538	281.31
270.77	257.31
271.002	282.31
271.234	255.31
271.466	254.31
271.698	262.31
271.93	303.31
272.162	269.31
272.394	255.31
272.626	272.31
272.858	282.31
273.09	279.31
273.322	288.31
273.553	277.31
273.785	268.31
274.017	290.31
274.249	291.31
274.481	281.31
274.713	282.31
274.945	300.31
275.176	269.31
275.408	278.31
275.64	286.31
275.872	291.31
276.104	276.31
276.335	295.31
276.567	281.31
276.799	295.31
277.031	298.31
277.262	301.31
277.494	308.31
277.726	297.31
277.957	282.31
278.189	294.31
278.421	307.31
278.652	307.31
278.884	295.31
279.115	294.31
279.347	299.31
279.579	309.31
279.81	311.31
280.042	293.31
280.273	279.31
280.505	293.31
280.736	306.31
280.968	282.31
281.199	317.31
281.431	318.31
281.662	313.31
281.894	307.31
282.125	300.31
282.356	310.31
282.588	314.31
282.819	316.31
283.051	292.31
283.282	309.31
283.513	287.31
283.745	312.31
283.976	321.31
284.207	323.31
284.439	305.31
284.67	301.31
284.901	316.31
285.132	316.31
285.364	328.31
285.595	313.31
285.826	296.31
286.057	319.31
286.288	323.31
286.52	321.31
286.751	341.31
286.982	328.31
287.213	321.31
287.444	312.31
287.675	309.31
287.906	322.31
288.138	304.31
288.369	324.31
288.6	313.31
288.831	315.31
289.062	329.31
289.293	328.31
289.524	318.31
289.755	331.31
289.986	313.31
290.217	327.31
290.448	325.31
290.679	334.31
290.91	323.31
291.141	331.31
291.371	321.31
291.602	310.31
291.833	329.31
292.064	325.31
292.295	321.31
292.526	308.31
292.757	341.31
292.987	312.31
293.218	332.31
293.449	330.31
293.68	318.31
293.91	314.31
294.141	334.31
294.372	331.31
294.603	360.31
294.833	331.31
295.064	326.31
295.295	332.31
295.525	332.31
295.756	339.31
295.987	313.31
296.217	331.31
296.448	333.31
296.679	328.31
296.909	316.31
297.14	328.31
297.37	354.31
297.601	353.31
297.831	361.31
298.062	339.31
298.292	346.31
298.523	332.31
298.753	362.31
298.984	331.31
299.214	347.31
299.445	360.31
299.675	348.31
299.905	356.31
300.136	348.31
300.366	352.31
300.597	354.31
300.827	365.31
301.057	375.31
301.288	362.31
301.518	366.31
301.748	376.31
301.979	375.31
302.209	369.31
302.439	371.31
302.669	368.31
302.9	379.31
303.13	379.31
303.36	355.31
303.59	345.31
303.82	366.31
304.051	381.31
304.281	381.31
304.511	377.31
304.741	373.31
304.971	378.31
305.201	369.31
305.431	397.31
305.661	395.31
305.891	370.31
306.121	375.31
306.352	372.31
306.582	366.31
306.812	357.31
307.042	367.31
307.272	372.31
307.502	356.31
307.731	381.31
307.961	361.31
308.191	365.31
308.421	366.31
308.651	374.31
308.881	361.31
309.111	356.31
309.341	375.31
309.571	377.31
309.8	378.31
310.03	387.31
310.26	380.31
310.49	373.31
310.72	385.31
310.949	366.31
311.179	379.31
311.409	379.31
311.639	381.31
311.868	387.31
312.098	399.31
312.328	390.31
312.557	403.31
312.787	421.31
313.017	427.31
313.246	398.31
313.476	408.31
313.706	412.31
313.935	434.31
314.165	406.31
314.394	417.31
314.624	409.31
314.853	405.31
315.083	436.31
315.312	423.31
315.542	416.31
315.771	412.31
316.001	442.31
316.23	445.31
316.46	408.31
316.689	413.31
316.919	421.31
317.148	436.31
317.377	425.31
317.607	424.31
317.836	436.31
318.065	439.31
318.295	450.31
318.524	431.31
318.753	439.31
318.983	441.31
319.212	423.31
319.441	458.31
319.67	435.31
319.9	442.31
320.129	446.31
320.358	475.31
320.587	447.31
320.816	454.31
321.046	457.31
321.275	451.31
321.504	438.31
321.733	476.31
321.962	456.31
322.191	450.31
322.42	463.31
322.649	470.31
322.878	474.31
323.108	476.31
323.337	489.31
323.566	487.31
323.795	501.31
324.024	513.31
324.253	484.31
324.482	497.31
324.71	479.31
324.939	493.31
325.168	490.31
325.397	482.31
325.626	531.31
325.855	504.31
326.084	537.31
326.313	540.31
326.542	535.31
326.77	541.31
326.999	526.31
327.228	533.31
327.457	541.31
327.686	532.31
327.914	548.31
328.143	546.31
328.372	562.31
328.6	516.31
328.829	556.31
329.058	543.31
329.287	556.31
329.515	541.31
329.744	552.31
329.972	533.31
330.201	558.31
330.43	555.31
330.658	556.31
330.887	577.31
331.115	570.31
331.344	567.31
331.572	585.31
331.801	583.31
332.03	592.31
332.258	613.31
332.486	625.31
332.715	625.31
332.943	619.31
333.172	641.31
333.4	684.31
333.629	696.31
333.857	687.31
334.085	695.31
334.314	689.31
334.542	691.31
334.771	697.31
334.999	719.31
335.227	697.31
335.455	693.31
335.684	702.31
335.912	705.31
336.14	684.31
336.369	680.31
336.597	703.31
336.825	693.31
337.053	702.31
337.281	694.31
337.51	671.31
337.738	661.31
337.966	666.31
338.194	653.31
338.422	661.31
338.65	647.31
338.878	647.31
339.106	652.31
339.334	654.31
339.562	649.31
339.79	651.31
340.018	611.31
340.246	608.31
340.474	618.31
340.702	605.31
340.93	635.31
341.158	612.31
341.386	649.31
341.614	629.31
341.842	625.31
342.07	597.31
342.298	608.31
342.526	610.31
342.754	608.31
342.981	636.31
343.209	656.31
343.437	655.31
343.665	658.31
343.893	682.31
344.12	700.31
344.348	700.31
344.576	671.31
344.804	680.31
345.031	637.31
345.259	643.31
345.487	627.31
345.714	643.31
345.942	651.31
346.17	627.31
346.397	647.31
346.625	621.31
346.853	601.31
347.08	621.31
347.308	629.31
347.535	612.31
347.763	626.31
347.99	627.31
348.218	602.31
348.445	600.31
348.673	609.31
348.9	616.31
349.128	610.31
349.355	601.31
349.583	601.31
349.81	583.31
350.037	604.31
350.265	597.31
350.492	614.31
350.72	604.31
350.947	593.31
351.174	593.31
351.402	617.31
351.629	601.31
351.856	613.31
352.083	589.31
352.311	594.31
352.538	579.31
352.765	574.31
352.992	592.31
353.22	588.31
353.447	571.31
353.674	586.31
353.901	587.31
354.128	587.31
354.355	556.31
354.583	583.31
354.81	572.31
355.037	582.31
355.264	594.31
355.491	585.31
355.718	585.31
355.945	570.31
356.172	588.31
356.399	595.31
356.626	595.31
356.853	601.31
357.08	591.31
357.307	591.31
357.534	573.31
357.761	581.31
357.988	580.31
358.215	589.31
358.441	580.31
358.668	562.31
358.895	583.31
359.122	575.31
359.349	575.31
359.576	562.31
359.802	570.31
360.029	589.31
360.256	587.31
360.483	583.31
360.709	574.31
360.936	570.31
361.163	578.31
361.39	579.31
361.616	571.31
361.843	546.31
362.07	597.31
362.296	585.31
362.523	588.31
362.749	585.31
362.976	576.31
363.203	571.31
363.429	558.31
363.656	577.31
363.882	565.31
364.109	573.31
364.335	553.31
364.562	573.31
364.788	559.31
365.015	592.31
365.241	555.31
365.468	565.31
365.694	573.31
365.92	567.31
366.147	554.31
366.373	569.31
366.599	562.31
366.826	594.31
367.052	575.31
367.278	595.31
367.505	574.31
367.731	572.31
367.957	572.31
368.184	582.31
368.41	585.31
368.636	557.31
368.862	592.31
369.089	587.31
369.315	586.31
369.541	598.31
369.767	583.31
369.993	573.31
370.219	597.31
370.445	572.31
370.672	586.31
370.898	597.31
371.124	613.31
371.35	610.31
371.576	597.31
371.802	594.31
372.028	601.31
372.254	618.31
372.48	619.31
372.706	602.31
372.932	598.31
373.158	610.31
373.384	598.31
373.61	632.31
373.835	602.31
374.061	604.31
374.287	626.31
374.513	622.31
374.739	610.31
374.965	642.31
375.191	633.31
375.416	637.31
375.642	620.31
375.868	600.31
376.094	592.31
376.319	612.31
376.545	603.31
376.771	622.31
376.997	594.31
377.222	590.31
377.448	572.31
377.674	586.31
377.899	585.31
378.125	580.31
378.35	593.31
378.576	595.31
378.802	600.31
379.027	564.31
379.253	569.31
379.478	582.31
379.704	561.31
379.929	562.31
380.155	584.31
380.38	571.31
380.606	559.31
380.831	584.31
381.057	598.31
381.282	571.31
381.507	591.31
381.733	568.31
381.958	558.31
382.184	568.31
382.409	597.31
382.634	596.31
382.86	595.31
383.085	597.31
383.31	598.31
383.535	592.31
383.761	617.31
383.986	637.31
384.211	618.31
384.436	615.31
384.662	649.31
384.887	638.31
385.112	643.31
385.337	660.31
385.562	659.31
385.787	686.31
386.013	691.31
386.238	670.31
386.463	652.31
386.688	646.31
386.913	654.31
387.138	667.31
387.363	656.31
387.588	653.31
387.813	672.31
388.038	664.31
388.263	661.31
388.488	684.31
388.713	647.31
388.938	660.31
389.163	650.31
389.387	650.31
389.612	658.31
389.837	667.31
390.062	668.31
390.287	653.31
390.512	663.31
390.736	659.31
390.961	673.31
391.186	681.31
391.411	690.31
391.636	689.31
391.86	722.31
392.085	720.31
392.31	708.31
392.534	684.31
392.759	711.31
392.984	721.31
393.208	685.31
393.433	671.31
393.658	676.31
393.882	691.31
394.107	676.31
394.331	681.31
394.556	696.31
394.78	699.31
395.005	686.31
395.229	701.31
395.454	729.31
395.678	717.31
395.903	713.31
396.127	734.31
396.352	710.31
396.576	729.31
396.801	713.31
397.025	707.31
397.249	738.31
397.474	738.31
397.698	722.31
397.922	744.31
398.147	753.31
398.371	771.31
398.595	783.31
398.82	823.31
399.044	828.31
399.268	877.31
399.492	953.31
399.717	1038.31
399.941	1051.31
400.165	986.31
400.389	919.31
400.613	903.31
400.837	859.31
401.062	829.31
401.286	838.31
401.51	832.31
401.734	785.31
401.958	809.31
402.182	850.31
402.406	835.31
402.63	830.31
402.854	843.31
403.078	832.31
403.302	860.31
403.526	842.31
403.75	853.31
403.974	890.31
404.198	853.31
404.422	868.31
404.645	884.31
404.869	851.31
405.093	873.31
405.317	876.31
405.541	882.31
405.765	897.31
405.988	890.31
406.212	898.31
406.436	895.31
406.66	907.31
406.883	915.31
407.107	922.31
407.331	937.31
407.555	1007.31
407.778	1013.31
408.002	974.31
408.226	965.31
408.449	982.31
408.673	933.31
408.896	948.31
409.12	915.31
409.344	941.31
409.567	935.31
409.791	905.31
410.014	933.31
410.238	923.31
410.461	908.31
410.685	919.31
410.908	901.31
411.132	858.31
411.355	847.31
411.578	882.31
411.802	874.31
412.025	875.31
412.249	890.31
412.472	862.31
412.695	868.31
412.919	846.31
413.142	856.31
413.365	855.31
413.589	873.31
413.812	844.31
414.035	807.31
414.258	833.31
414.482	848.31
414.705	856.31
414.928	857.31
415.151	845.31
415.374	870.31
415.597	838.31
415.821	854.31
416.044	857.31
416.267	855.31
416.49	829.31
416.713	833.31
416.936	842.31
417.159	850.31
417.382	829.31
417.605	823.31
417.828	830.31
418.051	823.31
418.274	863.31
418.497	840.31
418.72	869.31
418.943	883.31
419.166	918.31
419.389	953.31
419.611	949.31
419.834	903.31
420.057	910.31
420.28	885.31
420.503	837.31
420.726	845.31
420.948	866.31
421.171	867.31
421.394	870.31
421.617	856.31
421.839	833.31
422.062	865.31
422.285	864.31
422.507	862.31
422.73	854.31
422.953	850.31
423.175	849.31
423.398	854.31
423.621	859.31
423.843	872.31
424.066	911.31
424.288	877.31
424.511	886.31
424.733	887.31
424.956	873.31
425.178	858.31
425.401	850.31
425.623	861.31
425.846	840.31
426.068	855.31
426.291	841.31
426.513	861.31
426.735	827.31
426.958	844.31
427.18	817.31
427.402	834.31
427.625	817.31
427.847	801.31
428.069	814.31
428.292	835.31
428.514	831.31
428.736	824.31
428.958	825.31
429.181	817.31
429.403	809.31
429.625	829.31
429.847	819.31
430.069	831.31
430.292	812.31
430.514	828.31
430.736	828.31
430.958	842.31
431.18	830.31
431.402	812.31
431.624	806.31
431.846	831.31
432.068	810.31
432.29	863.31
432.512	829.31
432.734	819.31
432.956	844.31
433.178	832.31
433.4	831.31
433.622	855.31
433.844	846.31
434.066	865.31
434.287	843.31
434.509	854.31
434.731	850.31
434.953	886.31
435.175	893.31
435.397	888.31
435.618	889.31
435.84	842.31
436.062	831.31
436.284	835.31
436.505	851.31
436.727	842.31
436.949	830.31
437.17	822.31
437.392	838.31
437.614	830.31
437.835	806.31
438.057	799.31
438.278	793.31
438.5	806.31
438.721	811.31
438.943	811.31
439.165	829.31
439.386	824.31
439.608	846.31
439.829	834.31
440.05	852.31
440.272	853.31
440.493	842.31
440.715	841.31
440.936	865.31
441.158	892.31
441.379	866.31
441.6	899.31
441.822	941.31
442.043	931.31
442.264	898.31
442.486	904.31
442.707	895.31
442.928	877.31
443.149	913.31
443.371	878.31
443.592	909.31
443.813	921.31
444.034	910.31
444.255	949.31
444.476	977.31
444.698	975.31
444.919	966.31
445.14	1073.31
445.361	1015.31
445.582	943.31
445.803	881.31
446.024	894.31
446.245	891.31
446.466	894.31
446.687	884.31
446.908	894.31
447.129	836.31
447.35	829.31
447.571	851.31
447.792	803.31
448.013	801.31
448.234	811.31
448.455	824.31
448.675	837.31
448.896	823.31
449.117	798.31
449.338	804.31
449.559	803.31
449.779	787.31
450	780.31
450.221	761.31
450.442	793.31
450.662	799.31
450.883	762.31
451.104	799.31
451.324	819.31
451.545	785.31
451.766	801.31
451.986	770.31
452.207	778.31
452.428	792.31
452.648	794.31
452.869	770.31
453.089	772.31
453.31	779.31
453.53	772.31
453.751	751.31
453.971	753.31
454.192	757.31
454.412	754.31
454.633	769.31
454.853	750.31
455.073	763.31
455.294	742.31
455.514	745.31
455.734	755.31
455.955	754.31
456.175	758.31
456.395	737.31
456.616	742.31
456.836	778.31
457.056	722.31
457.276	716.31
457.497	734.31
457.717	744.31
457.937	729.31
458.157	743.31
458.377	777.31
458.598	782.31
458.818	789.31
459.038	777.31
459.258	803.31
459.478	852.31
459.698	851.31
459.918	878.31
460.138	877.31
460.358	919.31
460.578	923.31
460.798	929.31
461.018	954.31
461.238	919.31
461.458	938.31
461.678	920.31
461.898	985.31
462.118	950.31
462.338	1013.31
462.558	999.31
462.777	1040.31
462.997	1074.31
463.217	1130.31
463.437	1128.31
463.657	1088.31
463.876	1098.31
464.096	1094.31
464.316	1033.31
464.536	1056.31
464.755	1014.31
464.975	1004.31
465.195	932.31
465.414	927.31
465.634	911.31
465.854	882.31
466.073	875.31
466.293	825.31
466.512	870.31
466.732	827.31
466.951	871.31
467.171	826.31
467.391	837.31
467.61	822.31
467.829	826.31
468.049	801.31
468.268	807.31
468.488	804.31
468.707	805.31
468.927	831.31
469.146	809.31
469.365	840.31
469.585	819.31
469.804	821.31
470.023	839.31
470.243	796.31
470.462	853.31
470.681	838.31
470.901	862.31
471.12	836.31
471.339	818.31
471.558	814.31
471.777	820.31
471.997	816.31
472.216	804.31
472.435	797.31
472.654	767.31
472.873	761.31
473.092	784.31
473.311	793.31
473.53	806.31
473.749	799.31
473.968	787.31
474.187	767.31
474.406	786.31
474.625	813.31
474.844	810.31
475.063	818.31
475.282	823.31
475.501	814.31
475.72	814.31
475.939	805.31
476.158	828.31
476.377	815.31
476.596	824.31
476.814	831.31
477.033	830.31
477.252	842.31
477.471	877.31
477.69	869.31
477.908	875.31
478.127	907.31
478.346	897.31
478.564	942.31
478.783	914.31
479.002	955.31
479.22	933.31
479.439	966.31
479.658	958.31
479.876	973.31
480.095	938.31
480.313	986.31
480.532	973.31
480.751	965.31
480.969	968.31
481.188	924.31
481.406	928.31
481.624	922.31
481.843	911.31
482.061	865.31
482.28	899.31
482.498	919.31
482.717	886.31
482.935	918.31
483.153	907.31
483.372	909.31
483.59	921.31
483.808	911.31
484.027	902.31
484.245	909.31
484.463	959.31
484.681	944.31
484.9	961.31
485.118	962.31
485.336	968.31
485.554	935.31
485.772	929.31
485.99	926.31
486.209	959.31
486.427	935.31
486.645	953.31
486.863	949.31
487.081	959.31
487.299	970.31
487.517	957.31
487.735	971.31
487.953	965.31
488.171	979.31
488.389	971.31
488.607	965.31
488.825	935.31
489.043	936.31
489.261	965.31
489.479	963.31
489.696	938.31
489.914	965.31
490.132	980.31
490.35	962.31
490.568	961.31
490.786	951.31
491.003	939.31
491.221	993.31
491.439	973.31
491.657	1003.31
491.874	1007.31
492.092	1002.31
492.31	1028.31
492.527	1011.31
492.745	1023.31
492.963	1009.31
493.18	1030.31
493.398	1040.31
493.615	1025.31
493.833	1010.31
494.05	1029.31
494.268	1023.31
494.485	1026.31
494.703	1029.31
494.92	1014.31
495.138	1032.31
495.355	1050.31
495.573	1057.31
495.79	1069.31
496.008	1058.31
496.225	1075.31
496.442	1083.31
496.66	1079.31
496.877	1117.31
497.094	1112.31
497.312	1130.31
497.529	1174.31
497.746	1167.31
497.963	1218.31
498.181	1229.31
498.398	1270.31
498.615	1330.31
498.832	1382.31
499.049	1393.31
499.267	1461.31
499.484	1604.31
499.701	1684.31
499.918	1801.31
500.135	1958.31
500.352	2129.31
500.569	2125.31
500.786	2146.31
