Data from Ni(NO3)2Standard.Agarose3%.GreenCap.LampEnergy5.5.E.O_HRD10591_14-42-28-188.txt Node
Date: Mon Jul 22 14:42:28 EDT 2019
User: cochatt
Spectrometer: HR+D1059
Trigger mode: 1
Integration Time (sec): 1.000000E-1
Scans to average: 1
Electric dark correction enabled: true
Nonlinearity correction enabled: false
Boxcar width: 0
XAxis mode: Wavelengths
Number of Pixels in Spectrum: 2048
>>>>>Begin Spectral Data<<<<<
223.165	-19.44
223.4	-19.44
223.635	-19.44
223.869	-9.44
224.104	-13.44
224.338	-13.44
224.573	-20.44
224.808	-24.44
225.042	-10.44
225.277	-6.44
225.511	-1.44
225.746	6.56
225.98	10.56
226.215	18.56
226.449	8.56
226.683	13.56
226.918	22.56
227.152	38.56
227.387	26.56
227.621	41.56
227.856	39.56
228.09	54.56
228.324	44.56
228.559	66.56
228.793	51.56
229.027	46.56
229.262	65.56
229.496	64.56
229.73	71.56
229.964	85.56
230.199	78.56
230.433	73.56
230.667	80.56
230.901	83.56
231.136	97.56
231.37	73.56
231.604	78.56
231.838	92.56
232.072	72.56
232.306	79.56
232.541	65.56
232.775	81.56
233.009	81.56
233.243	82.56
233.477	84.56
233.711	84.56
233.945	78.56
234.179	85.56
234.413	85.56
234.647	91.56
234.881	89.56
235.115	80.56
235.349	75.56
235.583	70.56
235.817	75.56
236.051	73.56
236.285	77.56
236.519	85.56
236.753	75.56
236.987	72.56
237.221	66.56
237.455	81.56
237.689	69.56
237.922	82.56
238.156	76.56
238.39	86.56
238.624	80.56
238.858	76.56
239.091	71.56
239.325	87.56
239.559	84.56
239.793	87.56
240.027	86.56
240.26	77.56
240.494	70.56
240.728	70.56
240.961	60.56
241.195	70.56
241.429	78.56
241.662	75.56
241.896	79.56
242.13	77.56
242.363	72.56
242.597	75.56
242.83	86.56
243.064	76.56
243.298	72.56
243.531	77.56
243.765	92.56
243.998	81.56
244.232	70.56
244.465	72.56
244.699	92.56
244.932	82.56
245.166	86.56
245.399	69.56
245.633	78.56
245.866	79.56
246.099	92.56
246.333	78.56
246.566	76.56
246.8	86.56
247.033	79.56
247.266	75.56
247.5	89.56
247.733	82.56
247.966	91.56
248.2	74.56
248.433	97.56
248.666	73.56
248.899	73.56
249.133	69.56
249.366	74.56
249.599	79.56
249.832	74.56
250.066	72.56
250.299	79.56
250.532	88.56
250.765	86.56
250.998	73.56
251.231	87.56
251.465	76.56
251.698	75.56
251.931	80.56
252.164	76.56
252.397	74.56
252.63	79.56
252.863	85.56
253.096	83.56
253.329	65.56
253.562	61.56
253.795	79.56
254.028	82.56
254.261	72.56
254.494	79.56
254.727	88.56
254.96	93.56
255.193	83.56
255.426	82.56
255.659	65.56
255.892	74.56
256.124	88.56
256.357	90.56
256.59	81.56
256.823	73.56
257.056	97.56
257.289	82.56
257.521	89.56
257.754	84.56
257.987	85.56
258.22	69.56
258.452	82.56
258.685	73.56
258.918	81.56
259.151	81.56
259.383	70.56
259.616	60.56
259.849	74.56
260.081	74.56
260.314	80.56
260.547	68.56
260.779	72.56
261.012	99.56
261.244	73.56
261.477	84.56
261.71	80.56
261.942	75.56
262.175	64.56
262.407	76.56
262.64	82.56
262.872	85.56
263.105	80.56
263.337	86.56
263.57	81.56
263.802	87.56
264.035	77.56
264.267	68.56
264.499	92.56
264.732	76.56
264.964	93.56
265.197	91.56
265.429	89.56
265.661	97.56
265.894	81.56
266.126	83.56
266.358	87.56
266.591	84.56
266.823	80.56
267.055	86.56
267.287	85.56
267.52	88.56
267.752	80.56
267.984	81.56
268.216	86.56
268.448	79.56
268.681	90.56
268.913	95.56
269.145	73.56
269.377	86.56
269.609	83.56
269.841	71.56
270.073	74.56
270.306	86.56
270.538	73.56
270.77	83.56
271.002	93.56
271.234	85.56
271.466	100.56
271.698	82.56
271.93	90.56
272.162	82.56
272.394	85.56
272.626	73.56
272.858	84.56
273.09	86.56
273.322	84.56
273.553	92.56
273.785	85.56
274.017	78.56
274.249	84.56
274.481	88.56
274.713	105.56
274.945	81.56
275.176	93.56
275.408	83.56
275.64	91.56
275.872	67.56
276.104	81.56
276.335	84.56
276.567	80.56
276.799	70.56
277.031	84.56
277.262	71.56
277.494	79.56
277.726	80.56
277.957	85.56
278.189	93.56
278.421	85.56
278.652	59.56
278.884	93.56
279.115	84.56
279.347	75.56
279.579	73.56
279.81	81.56
280.042	95.56
280.273	70.56
280.505	89.56
280.736	77.56
280.968	90.56
281.199	85.56
281.431	89.56
281.662	84.56
281.894	90.56
282.125	89.56
282.356	75.56
282.588	80.56
282.819	79.56
283.051	80.56
283.282	84.56
283.513	88.56
283.745	76.56
283.976	86.56
284.207	81.56
284.439	72.56
284.67	85.56
284.901	81.56
285.132	79.56
285.364	83.56
285.595	87.56
285.826	86.56
286.057	99.56
286.288	77.56
286.52	67.56
286.751	88.56
286.982	92.56
287.213	84.56
287.444	108.56
287.675	96.56
287.906	100.56
288.138	94.56
288.369	78.56
288.6	89.56
288.831	90.56
289.062	82.56
289.293	92.56
289.524	85.56
289.755	92.56
289.986	79.56
290.217	89.56
290.448	73.56
290.679	73.56
290.91	87.56
291.141	91.56
291.371	91.56
291.602	82.56
291.833	75.56
292.064	88.56
292.295	90.56
292.526	76.56
292.757	86.56
292.987	90.56
293.218	78.56
293.449	89.56
293.68	96.56
293.91	98.56
294.141	77.56
294.372	84.56
294.603	89.56
294.833	75.56
295.064	87.56
295.295	93.56
295.525	77.56
295.756	82.56
295.987	89.56
296.217	81.56
296.448	81.56
296.679	84.56
296.909	81.56
297.14	81.56
297.37	89.56
297.601	90.56
297.831	91.56
298.062	92.56
298.292	92.56
298.523	81.56
298.753	91.56
298.984	83.56
299.214	91.56
299.445	94.56
299.675	75.56
299.905	88.56
300.136	95.56
300.366	68.56
300.597	78.56
300.827	75.56
301.057	88.56
301.288	84.56
301.518	83.56
301.748	90.56
301.979	81.56
302.209	92.56
302.439	91.56
302.669	82.56
302.9	80.56
303.13	89.56
303.36	91.56
303.59	82.56
303.82	80.56
304.051	76.56
304.281	80.56
304.511	86.56
304.741	80.56
304.971	88.56
305.201	86.56
305.431	96.56
305.661	95.56
305.891	89.56
306.121	86.56
306.352	78.56
306.582	84.56
306.812	97.56
307.042	77.56
307.272	90.56
307.502	83.56
307.731	77.56
307.961	88.56
308.191	78.56
308.421	88.56
308.651	92.56
308.881	93.56
309.111	86.56
309.341	88.56
309.571	69.56
309.8	72.56
310.03	90.56
310.26	90.56
310.49	98.56
310.72	87.56
310.949	78.56
311.179	86.56
311.409	93.56
311.639	81.56
311.868	89.56
312.098	83.56
312.328	78.56
312.557	93.56
312.787	92.56
313.017	83.56
313.246	97.56
313.476	69.56
313.706	93.56
313.935	67.56
314.165	97.56
314.394	96.56
314.624	81.56
314.853	83.56
315.083	88.56
315.312	85.56
315.542	82.56
315.771	76.56
316.001	78.56
316.23	91.56
316.46	85.56
316.689	73.56
316.919	84.56
317.148	77.56
317.377	79.56
317.607	74.56
317.836	82.56
318.065	76.56
318.295	88.56
318.524	82.56
318.753	78.56
318.983	99.56
319.212	84.56
319.441	78.56
319.67	82.56
319.9	84.56
320.129	99.56
320.358	85.56
320.587	84.56
320.816	80.56
321.046	88.56
321.275	91.56
321.504	88.56
321.733	86.56
321.962	78.56
322.191	83.56
322.42	92.56
322.649	106.56
322.878	89.56
323.108	84.56
323.337	92.56
323.566	88.56
323.795	78.56
324.024	73.56
324.253	83.56
324.482	97.56
324.71	79.56
324.939	91.56
325.168	95.56
325.397	82.56
325.626	86.56
325.855	85.56
326.084	83.56
326.313	86.56
326.542	86.56
326.77	101.56
326.999	68.56
327.228	86.56
327.457	69.56
327.686	67.56
327.914	86.56
328.143	95.56
328.372	90.56
328.6	90.56
328.829	94.56
329.058	83.56
329.287	84.56
329.515	76.56
329.744	87.56
329.972	78.56
330.201	84.56
330.43	76.56
330.658	84.56
330.887	84.56
331.115	70.56
331.344	83.56
331.572	92.56
331.801	91.56
332.03	84.56
332.258	96.56
332.486	74.56
332.715	74.56
332.943	102.56
333.172	91.56
333.4	84.56
333.629	84.56
333.857	75.56
334.085	89.56
334.314	85.56
334.542	96.56
334.771	78.56
334.999	87.56
335.227	94.56
335.455	91.56
335.684	82.56
335.912	68.56
336.14	79.56
336.369	92.56
336.597	83.56
336.825	101.56
337.053	78.56
337.281	92.56
337.51	90.56
337.738	77.56
337.966	85.56
338.194	87.56
338.422	85.56
338.65	87.56
338.878	80.56
339.106	88.56
339.334	90.56
339.562	74.56
339.79	96.56
340.018	98.56
340.246	94.56
340.474	81.56
340.702	77.56
340.93	72.56
341.158	81.56
341.386	95.56
341.614	83.56
341.842	85.56
342.07	93.56
342.298	78.56
342.526	81.56
342.754	89.56
342.981	96.56
343.209	89.56
343.437	93.56
343.665	101.56
343.893	92.56
344.12	87.56
344.348	76.56
344.576	88.56
344.804	77.56
345.031	90.56
345.259	96.56
345.487	75.56
345.714	73.56
345.942	88.56
346.17	89.56
346.397	93.56
346.625	90.56
346.853	91.56
347.08	86.56
347.308	88.56
347.535	91.56
347.763	82.56
347.99	76.56
348.218	82.56
348.445	96.56
348.673	68.56
348.9	89.56
349.128	84.56
349.355	97.56
349.583	80.56
349.81	66.56
350.037	71.56
350.265	78.56
350.492	93.56
350.72	78.56
350.947	87.56
351.174	90.56
351.402	88.56
351.629	69.56
351.856	82.56
352.083	76.56
352.311	97.56
352.538	91.56
352.765	80.56
352.992	88.56
353.22	92.56
353.447	89.56
353.674	93.56
353.901	73.56
354.128	97.56
354.355	81.56
354.583	71.56
354.81	76.56
355.037	77.56
355.264	93.56
355.491	83.56
355.718	86.56
355.945	92.56
356.172	84.56
356.399	89.56
356.626	87.56
356.853	97.56
357.08	78.56
357.307	91.56
357.534	84.56
357.761	70.56
357.988	85.56
358.215	85.56
358.441	81.56
358.668	92.56
358.895	92.56
359.122	88.56
359.349	84.56
359.576	88.56
359.802	90.56
360.029	88.56
360.256	75.56
360.483	90.56
360.709	77.56
360.936	90.56
361.163	88.56
361.39	95.56
361.616	81.56
361.843	77.56
362.07	97.56
362.296	91.56
362.523	84.56
362.749	77.56
362.976	82.56
363.203	84.56
363.429	85.56
363.656	89.56
363.882	81.56
364.109	84.56
364.335	79.56
364.562	83.56
364.788	83.56
365.015	79.56
365.241	91.56
365.468	90.56
365.694	85.56
365.92	73.56
366.147	90.56
366.373	87.56
366.599	81.56
366.826	82.56
367.052	78.56
367.278	78.56
367.505	98.56
367.731	91.56
367.957	82.56
368.184	89.56
368.41	85.56
368.636	84.56
368.862	87.56
369.089	79.56
369.315	93.56
369.541	90.56
369.767	82.56
369.993	88.56
370.219	87.56
370.445	77.56
370.672	81.56
370.898	86.56
371.124	84.56
371.35	98.56
371.576	83.56
371.802	90.56
372.028	90.56
372.254	76.56
372.48	88.56
372.706	84.56
372.932	80.56
373.158	94.56
373.384	91.56
373.61	81.56
373.835	80.56
374.061	83.56
374.287	78.56
374.513	88.56
374.739	79.56
374.965	92.56
375.191	91.56
375.416	84.56
375.642	84.56
375.868	83.56
376.094	90.56
376.319	85.56
376.545	76.56
376.771	80.56
376.997	69.56
377.222	104.56
377.448	73.56
377.674	84.56
377.899	80.56
378.125	85.56
378.35	87.56
378.576	102.56
378.802	97.56
379.027	92.56
379.253	92.56
379.478	84.56
379.704	70.56
379.929	67.56
380.155	76.56
380.38	78.56
380.606	96.56
380.831	84.56
381.057	79.56
381.282	90.56
381.507	75.56
381.733	75.56
381.958	87.56
382.184	75.56
382.409	85.56
382.634	90.56
382.86	94.56
383.085	84.56
383.31	90.56
383.535	85.56
383.761	78.56
383.986	88.56
384.211	69.56
384.436	74.56
384.662	98.56
384.887	85.56
385.112	84.56
385.337	87.56
385.562	73.56
385.787	86.56
386.013	93.56
386.238	88.56
386.463	89.56
386.688	91.56
386.913	92.56
387.138	105.56
387.363	83.56
387.588	105.56
387.813	73.56
388.038	80.56
388.263	81.56
388.488	72.56
388.713	79.56
388.938	80.56
389.163	73.56
389.387	90.56
389.612	76.56
389.837	84.56
390.062	73.56
390.287	88.56
390.512	101.56
390.736	90.56
390.961	89.56
391.186	90.56
391.411	84.56
391.636	86.56
391.86	76.56
392.085	103.56
392.31	99.56
392.534	72.56
392.759	84.56
392.984	84.56
393.208	88.56
393.433	89.56
393.658	90.56
393.882	79.56
394.107	79.56
394.331	82.56
394.556	86.56
394.78	97.56
395.005	98.56
395.229	76.56
395.454	84.56
395.678	75.56
395.903	81.56
396.127	86.56
396.352	94.56
396.576	92.56
396.801	86.56
397.025	64.56
397.249	82.56
397.474	83.56
397.698	82.56
397.922	89.56
398.147	89.56
398.371	81.56
398.595	83.56
398.82	76.56
399.044	91.56
399.268	94.56
399.492	84.56
399.717	75.56
399.941	92.56
400.165	92.56
400.389	99.56
400.613	78.56
400.837	88.56
401.062	86.56
401.286	81.56
401.51	88.56
401.734	86.56
401.958	86.56
402.182	78.56
402.406	83.56
402.63	70.56
402.854	81.56
403.078	94.56
403.302	101.56
403.526	101.56
403.75	79.56
403.974	88.56
404.198	77.56
404.422	75.56
404.645	83.56
404.869	88.56
405.093	86.56
405.317	93.56
405.541	73.56
405.765	76.56
405.988	78.56
406.212	89.56
406.436	102.56
406.66	80.56
406.883	84.56
407.107	94.56
407.331	96.56
407.555	87.56
407.778	89.56
408.002	90.56
408.226	89.56
408.449	89.56
408.673	88.56
408.896	86.56
409.12	86.56
409.344	84.56
409.567	97.56
409.791	83.56
410.014	99.56
410.238	87.56
410.461	79.56
410.685	83.56
410.908	75.56
411.132	80.56
411.355	87.56
411.578	80.56
411.802	72.56
412.025	78.56
412.249	82.56
412.472	92.56
412.695	80.56
412.919	92.56
413.142	83.56
413.365	74.56
413.589	103.56
413.812	91.56
414.035	90.56
414.258	74.56
414.482	89.56
414.705	85.56
414.928	83.56
415.151	93.56
415.374	89.56
415.597	75.56
415.821	80.56
416.044	75.56
416.267	94.56
416.49	89.56
416.713	83.56
416.936	99.56
417.159	82.56
417.382	90.56
417.605	87.56
417.828	79.56
418.051	82.56
418.274	91.56
418.497	91.56
418.72	76.56
418.943	79.56
419.166	101.56
419.389	93.56
419.611	84.56
419.834	96.56
420.057	78.56
420.28	77.56
420.503	93.56
420.726	78.56
420.948	93.56
421.171	98.56
421.394	94.56
421.617	76.56
421.839	94.56
422.062	74.56
422.285	90.56
422.507	93.56
422.73	84.56
422.953	77.56
423.175	79.56
423.398	86.56
423.621	78.56
423.843	90.56
424.066	86.56
424.288	83.56
424.511	75.56
424.733	88.56
424.956	90.56
425.178	94.56
425.401	87.56
425.623	72.56
425.846	86.56
426.068	84.56
426.291	94.56
426.513	60.56
426.735	90.56
426.958	74.56
427.18	85.56
427.402	97.56
427.625	75.56
427.847	100.56
428.069	88.56
428.292	93.56
428.514	80.56
428.736	84.56
428.958	92.56
429.181	76.56
429.403	83.56
429.625	84.56
429.847	82.56
430.069	83.56
430.292	80.56
430.514	81.56
430.736	81.56
430.958	71.56
431.18	85.56
431.402	72.56
431.624	78.56
431.846	93.56
432.068	102.56
432.29	89.56
432.512	112.56
432.734	80.56
432.956	82.56
433.178	78.56
433.4	77.56
433.622	90.56
433.844	78.56
434.066	90.56
434.287	101.56
434.509	86.56
434.731	97.56
434.953	82.56
435.175	75.56
435.397	83.56
435.618	81.56
435.84	89.56
436.062	78.56
436.284	87.56
436.505	78.56
436.727	101.56
436.949	78.56
437.17	84.56
437.392	82.56
437.614	81.56
437.835	88.56
438.057	73.56
438.278	91.56
438.5	84.56
438.721	83.56
438.943	91.56
439.165	97.56
439.386	82.56
439.608	96.56
439.829	89.56
440.05	92.56
440.272	80.56
440.493	84.56
440.715	102.56
440.936	77.56
441.158	73.56
441.379	92.56
441.6	84.56
441.822	83.56
442.043	100.56
442.264	75.56
442.486	82.56
442.707	78.56
442.928	83.56
443.149	74.56
443.371	90.56
443.592	77.56
443.813	96.56
444.034	85.56
444.255	87.56
444.476	87.56
444.698	87.56
444.919	86.56
445.14	199.56
445.361	125.56
445.582	89.56
445.803	72.56
446.024	87.56
446.245	85.56
446.466	93.56
446.687	83.56
446.908	80.56
447.129	87.56
447.35	85.56
447.571	89.56
447.792	94.56
448.013	77.56
448.234	87.56
448.455	84.56
448.675	84.56
448.896	86.56
449.117	99.56
449.338	85.56
449.559	82.56
449.779	96.56
450	89.56
450.221	98.56
450.442	85.56
450.662	72.56
450.883	79.56
451.104	87.56
451.324	69.56
451.545	77.56
451.766	96.56
451.986	104.56
452.207	90.56
452.428	84.56
452.648	78.56
452.869	71.56
453.089	88.56
453.31	86.56
453.53	86.56
453.751	80.56
453.971	88.56
454.192	88.56
454.412	84.56
454.633	79.56
454.853	68.56
455.073	76.56
455.294	96.56
455.514	78.56
455.734	73.56
455.955	77.56
456.175	83.56
456.395	86.56
456.616	87.56
456.836	77.56
457.056	96.56
457.276	87.56
457.497	100.56
457.717	93.56
457.937	86.56
458.157	92.56
458.377	83.56
458.598	87.56
458.818	94.56
459.038	76.56
459.258	85.56
459.478	79.56
459.698	96.56
459.918	84.56
460.138	79.56
460.358	90.56
460.578	84.56
460.798	91.56
461.018	84.56
461.238	89.56
461.458	97.56
461.678	90.56
461.898	85.56
462.118	89.56
462.338	82.56
462.558	91.56
462.777	85.56
462.997	84.56
463.217	97.56
463.437	92.56
463.657	88.56
463.876	75.56
464.096	90.56
464.316	88.56
464.536	89.56
464.755	69.56
464.975	88.56
465.195	97.56
465.414	84.56
465.634	74.56
465.854	89.56
466.073	92.56
466.293	85.56
466.512	87.56
466.732	85.56
466.951	90.56
467.171	93.56
467.391	86.56
467.61	82.56
467.829	78.56
468.049	86.56
468.268	83.56
468.488	94.56
468.707	83.56
468.927	76.56
469.146	83.56
469.365	93.56
469.585	87.56
469.804	93.56
470.023	90.56
470.243	96.56
470.462	84.56
470.681	97.56
470.901	86.56
471.12	84.56
471.339	81.56
471.558	92.56
471.777	78.56
471.997	93.56
472.216	89.56
472.435	91.56
472.654	76.56
472.873	71.56
473.092	100.56
473.311	90.56
473.53	91.56
473.749	72.56
473.968	89.56
474.187	77.56
474.406	84.56
474.625	89.56
474.844	96.56
475.063	91.56
475.282	84.56
475.501	84.56
475.72	93.56
475.939	82.56
476.158	85.56
476.377	92.56
476.596	88.56
476.814	86.56
477.033	94.56
477.252	91.56
477.471	86.56
477.69	86.56
477.908	94.56
478.127	92.56
478.346	95.56
478.564	102.56
478.783	85.56
479.002	78.56
479.22	90.56
479.439	107.56
479.658	104.56
479.876	79.56
480.095	89.56
480.313	88.56
480.532	90.56
480.751	109.56
480.969	82.56
481.188	88.56
481.406	80.56
481.624	72.56
481.843	87.56
482.061	91.56
482.28	89.56
482.498	89.56
482.717	85.56
482.935	94.56
483.153	109.56
483.372	89.56
483.59	88.56
483.808	97.56
484.027	90.56
484.245	89.56
484.463	89.56
484.681	89.56
484.9	108.56
485.118	107.56
485.336	88.56
485.554	88.56
485.772	86.56
485.99	89.56
486.209	97.56
486.427	89.56
486.645	92.56
486.863	86.56
487.081	104.56
487.299	83.56
487.517	101.56
487.735	86.56
487.953	82.56
488.171	84.56
488.389	83.56
488.607	91.56
488.825	98.56
489.043	93.56
489.261	100.56
489.479	97.56
489.696	90.56
489.914	95.56
490.132	93.56
490.35	99.56
490.568	100.56
490.786	97.56
491.003	108.56
491.221	89.56
491.439	89.56
491.657	85.56
491.874	84.56
492.092	92.56
492.31	101.56
492.527	86.56
492.745	93.56
492.963	100.56
493.18	89.56
493.398	81.56
493.615	96.56
493.833	86.56
494.05	92.56
494.268	92.56
494.485	107.56
494.703	102.56
494.92	85.56
495.138	116.56
495.355	104.56
495.573	95.56
495.79	104.56
496.008	101.56
496.225	85.56
496.442	81.56
496.66	90.56
496.877	87.56
497.094	96.56
497.312	81.56
497.529	94.56
497.746	86.56
497.963	90.56
498.181	89.56
498.398	98.56
498.615	98.56
498.832	98.56
499.049	103.56
499.267	91.56
499.484	109.56
499.701	90.56
499.918	97.56
500.135	128.56
500.352	107.56
500.569	121.56
500.786	106.56
501.003	116.56
501.22	100.56
501.437	97.56
501.654	102.56
501.871	109.56
502.088	91.56
502.305	101.56
502.522	97.56
502.739	86.56
502.956	99.56
503.172	87.56
503.389	82.56
503.606	92.56
503.823	98.56
504.04	94.56
504.256	100.56
504.473	82.56
504.69	102.56
504.907	91.56
505.123	87.56
505.34	85.56
505.557	87.56
505.773	98.56
505.99	85.56
506.207	93.56
506.423	87.56
506.64	79.56
506.856	89.56
507.073	95.56
507.289	86.56
507.506	87.56
507.722	80.56
507.939	79.56
508.155	77.56
508.372	91.56
508.588	95.56
508.805	100.56
509.021	94.56
509.238	75.56
509.454	94.56
509.67	99.56
509.887	101.56
510.103	94.56
510.319	82.56
510.536	85.56
510.752	83.56
510.968	101.56
511.184	101.56
511.401	84.56
511.617	89.56
511.833	92.56
512.049	94.56
512.265	82.56
512.481	95.56
512.698	81.56
512.914	78.56
513.13	93.56
513.346	90.56
513.562	81.56
513.778	95.56
513.994	83.56
514.21	86.56
514.426	84.56
514.642	82.56
514.858	74.56
515.074	93.56
515.29	101.56
515.506	86.56
515.721	92.56
515.937	101.56
516.153	98.56
516.369	89.56
516.585	91.56
516.801	88.56
517.016	95.56
517.232	75.56
517.448	93.56
517.664	83.56
517.879	78.56
518.095	105.56
518.311	97.56
518.527	95.56
