Data from Ni(NO3)2Standard.Agarose3%.GreenCap.LampEnergy5.5.E.O_HRD10591_14-42-56-188.txt Node
Date: Mon Jul 22 14:42:56 EDT 2019
User: cochatt
Spectrometer: HR+D1059
Trigger mode: 1
Integration Time (sec): 1.000000E-1
Scans to average: 1
Electric dark correction enabled: true
Nonlinearity correction enabled: false
Boxcar width: 0
XAxis mode: Wavelengths
Number of Pixels in Spectrum: 2048
>>>>>Begin Spectral Data<<<<<
223.165	-14.12
223.4	-14.12
223.635	-14.12
223.869	-10.12
224.104	-20.12
224.338	-12.12
224.573	-19.12
224.808	-2.12
225.042	-12.12
225.277	-13.12
225.511	-12.12
225.746	3.88
225.98	13.88
226.215	15.88
226.449	20.88
226.683	3.88
226.918	35.88
227.152	20.88
227.387	40.88
227.621	34.88
227.856	46.88
228.09	43.88
228.324	49.88
228.559	51.88
228.793	61.88
229.027	66.88
229.262	70.88
229.496	58.88
229.73	56.88
229.964	61.88
230.199	85.88
230.433	69.88
230.667	72.88
230.901	64.88
231.136	73.88
231.37	80.88
231.604	81.88
231.838	74.88
232.072	84.88
232.306	69.88
232.541	80.88
232.775	74.88
233.009	91.88
233.243	85.88
233.477	73.88
233.711	74.88
233.945	86.88
234.179	92.88
234.413	74.88
234.647	81.88
234.881	83.88
235.115	78.88
235.349	85.88
235.583	68.88
235.817	79.88
236.051	76.88
236.285	76.88
236.519	76.88
236.753	72.88
236.987	82.88
237.221	82.88
237.455	90.88
237.689	74.88
237.922	89.88
238.156	80.88
238.39	78.88
238.624	83.88
238.858	84.88
239.091	69.88
239.325	72.88
239.559	82.88
239.793	76.88
240.027	75.88
240.26	67.88
240.494	81.88
240.728	74.88
240.961	65.88
241.195	81.88
241.429	65.88
241.662	76.88
241.896	59.88
242.13	76.88
242.363	76.88
242.597	51.88
242.83	78.88
243.064	72.88
243.298	76.88
243.531	82.88
243.765	85.88
243.998	78.88
244.232	84.88
244.465	72.88
244.699	77.88
244.932	77.88
245.166	75.88
245.399	87.88
245.633	80.88
245.866	73.88
246.099	78.88
246.333	82.88
246.566	70.88
246.8	81.88
247.033	72.88
247.266	75.88
247.5	85.88
247.733	81.88
247.966	78.88
248.2	71.88
248.433	85.88
248.666	77.88
248.899	73.88
249.133	63.88
249.366	77.88
249.599	77.88
249.832	84.88
250.066	89.88
250.299	79.88
250.532	67.88
250.765	66.88
250.998	70.88
251.231	67.88
251.465	77.88
251.698	85.88
251.931	83.88
252.164	84.88
252.397	86.88
252.63	86.88
252.863	82.88
253.096	81.88
253.329	84.88
253.562	75.88
253.795	83.88
254.028	90.88
254.261	85.88
254.494	72.88
254.727	66.88
254.96	83.88
255.193	76.88
255.426	82.88
255.659	81.88
255.892	90.88
256.124	72.88
256.357	79.88
256.59	81.88
256.823	84.88
257.056	85.88
257.289	76.88
257.521	67.88
257.754	68.88
257.987	80.88
258.22	81.88
258.452	95.88
258.685	60.88
258.918	68.88
259.151	70.88
259.383	83.88
259.616	84.88
259.849	79.88
260.081	73.88
260.314	92.88
260.547	66.88
260.779	93.88
261.012	77.88
261.244	75.88
261.477	88.88
261.71	86.88
261.942	95.88
262.175	75.88
262.407	79.88
262.64	67.88
262.872	87.88
263.105	87.88
263.337	90.88
263.57	81.88
263.802	90.88
264.035	73.88
264.267	111.88
264.499	80.88
264.732	77.88
264.964	84.88
265.197	87.88
265.429	81.88
265.661	82.88
265.894	83.88
266.126	81.88
266.358	80.88
266.591	81.88
266.823	86.88
267.055	90.88
267.287	87.88
267.52	79.88
267.752	77.88
267.984	91.88
268.216	89.88
268.448	87.88
268.681	78.88
268.913	85.88
269.145	82.88
269.377	85.88
269.609	77.88
269.841	71.88
270.073	71.88
270.306	75.88
270.538	108.88
270.77	94.88
271.002	83.88
271.234	97.88
271.466	81.88
271.698	89.88
271.93	90.88
272.162	64.88
272.394	82.88
272.626	71.88
272.858	80.88
273.09	83.88
273.322	68.88
273.553	70.88
273.785	77.88
274.017	77.88
274.249	75.88
274.481	82.88
274.713	83.88
274.945	94.88
275.176	85.88
275.408	84.88
275.64	82.88
275.872	88.88
276.104	88.88
276.335	81.88
276.567	75.88
276.799	77.88
277.031	82.88
277.262	90.88
277.494	90.88
277.726	76.88
277.957	80.88
278.189	76.88
278.421	85.88
278.652	81.88
278.884	90.88
279.115	92.88
279.347	86.88
279.579	88.88
279.81	96.88
280.042	80.88
280.273	90.88
280.505	71.88
280.736	73.88
280.968	88.88
281.199	81.88
281.431	77.88
281.662	82.88
281.894	83.88
282.125	81.88
282.356	92.88
282.588	95.88
282.819	83.88
283.051	81.88
283.282	79.88
283.513	87.88
283.745	91.88
283.976	89.88
284.207	70.88
284.439	85.88
284.67	93.88
284.901	88.88
285.132	81.88
285.364	79.88
285.595	80.88
285.826	86.88
286.057	88.88
286.288	92.88
286.52	87.88
286.751	87.88
286.982	75.88
287.213	82.88
287.444	93.88
287.675	76.88
287.906	63.88
288.138	79.88
288.369	92.88
288.6	99.88
288.831	90.88
289.062	88.88
289.293	81.88
289.524	84.88
289.755	92.88
289.986	87.88
290.217	69.88
290.448	80.88
290.679	69.88
290.91	96.88
291.141	75.88
291.371	95.88
291.602	79.88
291.833	83.88
292.064	84.88
292.295	88.88
292.526	89.88
292.757	72.88
292.987	85.88
293.218	81.88
293.449	84.88
293.68	91.88
293.91	72.88
294.141	92.88
294.372	98.88
294.603	98.88
294.833	88.88
295.064	83.88
295.295	81.88
295.525	95.88
295.756	90.88
295.987	84.88
296.217	87.88
296.448	79.88
296.679	83.88
296.909	85.88
297.14	84.88
297.37	84.88
297.601	78.88
297.831	88.88
298.062	89.88
298.292	89.88
298.523	86.88
298.753	85.88
298.984	77.88
299.214	84.88
299.445	85.88
299.675	90.88
299.905	85.88
300.136	77.88
300.366	94.88
300.597	82.88
300.827	83.88
301.057	83.88
301.288	85.88
301.518	76.88
301.748	85.88
301.979	92.88
302.209	86.88
302.439	83.88
302.669	82.88
302.9	93.88
303.13	94.88
303.36	90.88
303.59	82.88
303.82	75.88
304.051	83.88
304.281	89.88
304.511	88.88
304.741	74.88
304.971	81.88
305.201	87.88
305.431	77.88
305.661	99.88
305.891	86.88
306.121	95.88
306.352	75.88
306.582	86.88
306.812	99.88
307.042	85.88
307.272	74.88
307.502	86.88
307.731	85.88
307.961	79.88
308.191	67.88
308.421	68.88
308.651	75.88
308.881	86.88
309.111	87.88
309.341	86.88
309.571	84.88
309.8	84.88
310.03	89.88
310.26	92.88
310.49	84.88
310.72	80.88
310.949	89.88
311.179	88.88
311.409	95.88
311.639	86.88
311.868	72.88
312.098	77.88
312.328	88.88
312.557	99.88
312.787	87.88
313.017	92.88
313.246	86.88
313.476	80.88
313.706	90.88
313.935	76.88
314.165	80.88
314.394	91.88
314.624	90.88
314.853	91.88
315.083	83.88
315.312	90.88
315.542	90.88
315.771	106.88
316.001	85.88
316.23	79.88
316.46	92.88
316.689	81.88
316.919	80.88
317.148	74.88
317.377	92.88
317.607	83.88
317.836	80.88
318.065	94.88
318.295	96.88
318.524	83.88
318.753	82.88
318.983	94.88
319.212	87.88
319.441	88.88
319.67	99.88
319.9	87.88
320.129	94.88
320.358	75.88
320.587	79.88
320.816	88.88
321.046	91.88
321.275	86.88
321.504	92.88
321.733	91.88
321.962	89.88
322.191	97.88
322.42	62.88
322.649	91.88
322.878	100.88
323.108	88.88
323.337	79.88
323.566	91.88
323.795	96.88
324.024	77.88
324.253	91.88
324.482	73.88
324.71	72.88
324.939	86.88
325.168	83.88
325.397	96.88
325.626	90.88
325.855	83.88
326.084	96.88
326.313	86.88
326.542	78.88
326.77	93.88
326.999	84.88
327.228	89.88
327.457	96.88
327.686	90.88
327.914	76.88
328.143	90.88
328.372	80.88
328.6	60.88
328.829	93.88
329.058	97.88
329.287	81.88
329.515	101.88
329.744	102.88
329.972	83.88
330.201	88.88
330.43	87.88
330.658	79.88
330.887	97.88
331.115	96.88
331.344	93.88
331.572	93.88
331.801	90.88
332.03	98.88
332.258	82.88
332.486	95.88
332.715	84.88
332.943	90.88
333.172	72.88
333.4	88.88
333.629	88.88
333.857	83.88
334.085	73.88
334.314	92.88
334.542	91.88
334.771	89.88
334.999	79.88
335.227	79.88
335.455	91.88
335.684	92.88
335.912	93.88
336.14	82.88
336.369	93.88
336.597	79.88
336.825	91.88
337.053	91.88
337.281	78.88
337.51	83.88
337.738	99.88
337.966	71.88
338.194	69.88
338.422	87.88
338.65	84.88
338.878	81.88
339.106	85.88
339.334	84.88
339.562	76.88
339.79	83.88
340.018	83.88
340.246	86.88
340.474	81.88
340.702	90.88
340.93	102.88
341.158	69.88
341.386	80.88
341.614	84.88
341.842	92.88
342.07	77.88
342.298	72.88
342.526	83.88
342.754	88.88
342.981	82.88
343.209	91.88
343.437	89.88
343.665	67.88
343.893	79.88
344.12	96.88
344.348	98.88
344.576	99.88
344.804	99.88
345.031	76.88
345.259	90.88
345.487	88.88
345.714	75.88
345.942	82.88
346.17	77.88
346.397	76.88
346.625	89.88
346.853	76.88
347.08	92.88
347.308	83.88
347.535	84.88
347.763	89.88
347.99	91.88
348.218	70.88
348.445	74.88
348.673	79.88
348.9	86.88
349.128	99.88
349.355	88.88
349.583	97.88
349.81	103.88
350.037	86.88
350.265	86.88
350.492	80.88
350.72	80.88
350.947	83.88
351.174	86.88
351.402	77.88
351.629	83.88
351.856	94.88
352.083	77.88
352.311	90.88
352.538	83.88
352.765	90.88
352.992	84.88
353.22	87.88
353.447	82.88
353.674	83.88
353.901	94.88
354.128	77.88
354.355	81.88
354.583	85.88
354.81	88.88
355.037	90.88
355.264	92.88
355.491	76.88
355.718	83.88
355.945	99.88
356.172	85.88
356.399	92.88
356.626	82.88
356.853	76.88
357.08	100.88
357.307	85.88
357.534	95.88
357.761	87.88
357.988	90.88
358.215	97.88
358.441	82.88
358.668	83.88
358.895	77.88
359.122	88.88
359.349	82.88
359.576	91.88
359.802	85.88
360.029	88.88
360.256	88.88
360.483	80.88
360.709	79.88
360.936	79.88
361.163	83.88
361.39	86.88
361.616	83.88
361.843	86.88
362.07	81.88
362.296	85.88
362.523	96.88
362.749	76.88
362.976	73.88
363.203	90.88
363.429	74.88
363.656	84.88
363.882	79.88
364.109	76.88
364.335	88.88
364.562	84.88
364.788	71.88
365.015	88.88
365.241	84.88
365.468	77.88
365.694	77.88
365.92	99.88
366.147	73.88
366.373	76.88
366.599	86.88
366.826	76.88
367.052	71.88
367.278	89.88
367.505	92.88
367.731	90.88
367.957	91.88
368.184	65.88
368.41	87.88
368.636	85.88
368.862	95.88
369.089	74.88
369.315	78.88
369.541	86.88
369.767	88.88
369.993	75.88
370.219	78.88
370.445	88.88
370.672	78.88
370.898	96.88
371.124	80.88
371.35	80.88
371.576	84.88
371.802	78.88
372.028	91.88
372.254	93.88
372.48	87.88
372.706	88.88
372.932	78.88
373.158	88.88
373.384	84.88
373.61	82.88
373.835	82.88
374.061	85.88
374.287	86.88
374.513	94.88
374.739	77.88
374.965	90.88
375.191	82.88
375.416	86.88
375.642	76.88
375.868	75.88
376.094	92.88
376.319	82.88
376.545	78.88
376.771	85.88
376.997	85.88
377.222	64.88
377.448	74.88
377.674	73.88
377.899	88.88
378.125	90.88
378.35	87.88
378.576	85.88
378.802	81.88
379.027	82.88
379.253	91.88
379.478	70.88
379.704	90.88
379.929	93.88
380.155	86.88
380.38	82.88
380.606	71.88
380.831	77.88
381.057	83.88
381.282	67.88
381.507	88.88
381.733	85.88
381.958	97.88
382.184	89.88
382.409	87.88
382.634	91.88
382.86	77.88
383.085	82.88
383.31	66.88
383.535	80.88
383.761	83.88
383.986	96.88
384.211	88.88
384.436	89.88
384.662	74.88
384.887	73.88
385.112	89.88
385.337	83.88
385.562	79.88
385.787	86.88
386.013	88.88
386.238	84.88
386.463	87.88
386.688	82.88
386.913	88.88
387.138	80.88
387.363	85.88
387.588	92.88
387.813	88.88
388.038	92.88
388.263	84.88
388.488	81.88
388.713	69.88
388.938	80.88
389.163	76.88
389.387	84.88
389.612	77.88
389.837	59.88
390.062	80.88
390.287	87.88
390.512	73.88
390.736	77.88
390.961	87.88
391.186	98.88
391.411	73.88
391.636	93.88
391.86	87.88
392.085	82.88
392.31	91.88
392.534	87.88
392.759	87.88
392.984	84.88
393.208	83.88
393.433	64.88
393.658	85.88
393.882	96.88
394.107	92.88
394.331	88.88
394.556	98.88
394.78	77.88
395.005	75.88
395.229	83.88
395.454	77.88
395.678	62.88
395.903	95.88
396.127	88.88
396.352	81.88
396.576	97.88
396.801	88.88
397.025	88.88
397.249	83.88
397.474	77.88
397.698	94.88
397.922	100.88
398.147	78.88
398.371	84.88
398.595	84.88
398.82	88.88
399.044	88.88
399.268	89.88
399.492	85.88
399.717	87.88
399.941	98.88
400.165	85.88
400.389	78.88
400.613	100.88
400.837	93.88
401.062	75.88
401.286	84.88
401.51	70.88
401.734	80.88
401.958	86.88
402.182	79.88
402.406	104.88
402.63	75.88
402.854	90.88
403.078	79.88
403.302	76.88
403.526	83.88
403.75	83.88
403.974	77.88
404.198	88.88
404.422	88.88
404.645	73.88
404.869	92.88
405.093	89.88
405.317	92.88
405.541	81.88
405.765	81.88
405.988	102.88
406.212	82.88
406.436	87.88
406.66	90.88
406.883	79.88
407.107	93.88
407.331	76.88
407.555	91.88
407.778	84.88
408.002	90.88
408.226	95.88
408.449	85.88
408.673	72.88
408.896	87.88
409.12	84.88
409.344	77.88
409.567	81.88
409.791	92.88
410.014	93.88
410.238	76.88
410.461	80.88
410.685	77.88
410.908	84.88
411.132	84.88
411.355	74.88
411.578	85.88
411.802	77.88
412.025	101.88
412.249	92.88
412.472	91.88
412.695	87.88
412.919	86.88
413.142	87.88
413.365	84.88
413.589	89.88
413.812	81.88
414.035	74.88
414.258	93.88
414.482	89.88
414.705	89.88
414.928	76.88
415.151	93.88
415.374	86.88
415.597	79.88
415.821	88.88
416.044	84.88
416.267	85.88
416.49	81.88
416.713	95.88
416.936	94.88
417.159	76.88
417.382	78.88
417.605	84.88
417.828	87.88
418.051	87.88
418.274	75.88
418.497	74.88
418.72	91.88
418.943	77.88
419.166	89.88
419.389	94.88
419.611	83.88
419.834	86.88
420.057	81.88
420.28	94.88
420.503	97.88
420.726	93.88
420.948	84.88
421.171	82.88
421.394	84.88
421.617	81.88
421.839	101.88
422.062	73.88
422.285	90.88
422.507	74.88
422.73	76.88
422.953	76.88
423.175	68.88
423.398	77.88
423.621	92.88
423.843	93.88
424.066	79.88
424.288	89.88
424.511	79.88
424.733	89.88
424.956	83.88
425.178	88.88
425.401	68.88
425.623	89.88
425.846	71.88
426.068	89.88
426.291	94.88
426.513	80.88
426.735	83.88
426.958	83.88
427.18	80.88
427.402	92.88
427.625	88.88
427.847	87.88
428.069	81.88
428.292	94.88
428.514	66.88
428.736	83.88
428.958	85.88
429.181	98.88
429.403	82.88
429.625	86.88
429.847	71.88
430.069	87.88
430.292	74.88
430.514	72.88
430.736	88.88
430.958	89.88
431.18	90.88
431.402	91.88
431.624	84.88
431.846	83.88
432.068	80.88
432.29	70.88
432.512	83.88
432.734	79.88
432.956	90.88
433.178	79.88
433.4	70.88
433.622	86.88
433.844	82.88
434.066	84.88
434.287	71.88
434.509	81.88
434.731	75.88
434.953	88.88
435.175	82.88
435.397	88.88
435.618	92.88
435.84	84.88
436.062	90.88
436.284	96.88
436.505	84.88
436.727	81.88
436.949	87.88
437.17	78.88
437.392	73.88
437.614	72.88
437.835	82.88
438.057	98.88
438.278	89.88
438.5	87.88
438.721	61.88
438.943	82.88
439.165	81.88
439.386	100.88
439.608	86.88
439.829	62.88
440.05	77.88
440.272	84.88
440.493	90.88
440.715	79.88
440.936	74.88
441.158	87.88
441.379	84.88
441.6	85.88
441.822	81.88
442.043	98.88
442.264	79.88
442.486	85.88
442.707	77.88
442.928	85.88
443.149	93.88
443.371	88.88
443.592	71.88
443.813	89.88
444.034	73.88
444.255	72.88
444.476	83.88
444.698	78.88
444.919	73.88
445.14	199.88
445.361	145.88
445.582	87.88
445.803	87.88
446.024	84.88
446.245	86.88
446.466	67.88
446.687	80.88
446.908	70.88
447.129	95.88
447.35	83.88
447.571	71.88
447.792	82.88
448.013	85.88
448.234	81.88
448.455	85.88
448.675	84.88
448.896	99.88
449.117	94.88
449.338	74.88
449.559	80.88
449.779	68.88
450	80.88
450.221	86.88
450.442	92.88
450.662	86.88
450.883	87.88
451.104	96.88
451.324	80.88
451.545	91.88
451.766	94.88
451.986	88.88
452.207	73.88
452.428	78.88
452.648	74.88
452.869	72.88
453.089	76.88
453.31	86.88
453.53	92.88
453.751	87.88
453.971	76.88
454.192	83.88
454.412	86.88
454.633	77.88
454.853	85.88
455.073	71.88
455.294	83.88
455.514	90.88
455.734	83.88
455.955	88.88
456.175	74.88
456.395	78.88
456.616	79.88
456.836	80.88
457.056	104.88
457.276	80.88
457.497	77.88
457.717	73.88
457.937	67.88
458.157	70.88
458.377	93.88
458.598	89.88
458.818	79.88
459.038	84.88
459.258	88.88
459.478	77.88
459.698	78.88
459.918	77.88
460.138	85.88
460.358	83.88
460.578	90.88
460.798	78.88
461.018	93.88
461.238	81.88
461.458	77.88
461.678	90.88
461.898	81.88
462.118	81.88
462.338	82.88
462.558	87.88
462.777	80.88
462.997	91.88
463.217	88.88
463.437	89.88
463.657	79.88
463.876	77.88
464.096	96.88
464.316	91.88
464.536	89.88
464.755	89.88
464.975	80.88
465.195	88.88
465.414	74.88
465.634	89.88
465.854	89.88
466.073	82.88
466.293	93.88
466.512	73.88
466.732	76.88
466.951	96.88
467.171	85.88
467.391	96.88
467.61	85.88
467.829	85.88
468.049	84.88
468.268	91.88
468.488	71.88
468.707	81.88
468.927	83.88
469.146	80.88
469.365	83.88
469.585	80.88
469.804	94.88
470.023	82.88
470.243	67.88
470.462	88.88
470.681	85.88
470.901	89.88
471.12	99.88
471.339	90.88
471.558	91.88
471.777	76.88
471.997	77.88
472.216	80.88
472.435	84.88
472.654	76.88
472.873	80.88
473.092	75.88
473.311	86.88
473.53	84.88
473.749	83.88
473.968	86.88
474.187	90.88
474.406	97.88
474.625	91.88
474.844	86.88
475.063	80.88
475.282	94.88
475.501	90.88
475.72	99.88
475.939	71.88
476.158	76.88
476.377	88.88
476.596	82.88
476.814	90.88
477.033	75.88
477.252	92.88
477.471	89.88
477.69	78.88
477.908	77.88
478.127	88.88
478.346	100.88
478.564	91.88
478.783	86.88
479.002	84.88
479.22	88.88
479.439	77.88
479.658	84.88
479.876	81.88
480.095	84.88
480.313	83.88
480.532	91.88
480.751	88.88
480.969	78.88
481.188	88.88
481.406	94.88
481.624	78.88
481.843	87.88
482.061	77.88
482.28	82.88
482.498	93.88
482.717	96.88
482.935	87.88
483.153	81.88
483.372	102.88
483.59	96.88
483.808	81.88
484.027	85.88
484.245	100.88
484.463	92.88
484.681	88.88
484.9	86.88
485.118	87.88
485.336	93.88
485.554	83.88
485.772	88.88
485.99	89.88
486.209	99.88
486.427	88.88
486.645	79.88
486.863	85.88
487.081	88.88
487.299	89.88
487.517	84.88
487.735	86.88
487.953	94.88
488.171	95.88
488.389	103.88
488.607	81.88
488.825	91.88
489.043	80.88
489.261	93.88
489.479	90.88
489.696	87.88
489.914	83.88
490.132	95.88
490.35	95.88
490.568	83.88
490.786	88.88
491.003	105.88
491.221	93.88
491.439	89.88
491.657	88.88
491.874	89.88
492.092	92.88
492.31	88.88
492.527	88.88
492.745	91.88
492.963	90.88
493.18	91.88
493.398	86.88
493.615	102.88
493.833	97.88
494.05	88.88
494.268	85.88
494.485	92.88
494.703	86.88
494.92	90.88
495.138	90.88
495.355	84.88
495.573	92.88
495.79	76.88
496.008	94.88
496.225	93.88
496.442	86.88
496.66	94.88
496.877	101.88
497.094	92.88
497.312	92.88
497.529	87.88
497.746	98.88
497.963	90.88
498.181	82.88
498.398	87.88
498.615	102.88
498.832	108.88
499.049	111.88
499.267	105.88
499.484	101.88
499.701	108.88
499.918	98.88
500.135	114.88
500.352	97.88
500.569	106.88
500.786	129.88
501.003	89.88
501.22	99.88
501.437	94.88
501.654	103.88
501.871	114.88
502.088	83.88
502.305	101.88
502.522	104.88
502.739	104.88
502.956	105.88
503.172	95.88
503.389	95.88
503.606	99.88
503.823	100.88
504.04	99.88
504.256	98.88
504.473	95.88
504.69	88.88
504.907	107.88
505.123	85.88
505.34	78.88
505.557	88.88
505.773	92.88
505.99	91.88
506.207	91.88
506.423	92.88
506.64	93.88
506.856	90.88
507.073	76.88
507.289	97.88
507.506	82.88
507.722	100.88
507.939	90.88
508.155	89.88
508.372	95.88
508.588	91.88
508.805	98.88
509.021	100.88
509.238	81.88
509.454	87.88
509.67	82.88
509.887	88.88
510.103	67.88
510.319	89.88
510.536	81.88
510.752	86.88
510.968	82.88
511.184	92.88
511.401	96.88
511.617	98.88
511.833	87.88
512.049	91.88
512.265	92.88
512.481	90.88
512.698	76.88
512.914	78.88
513.13	82.88
513.346	104.88
513.562	86.88
513.778	69.88
513.994	82.88
514.21	86.88
514.426	92.88
514.642	81.88
514.858	84.88
515.074	89.88
515.29	86.88
515.506	85.88
515.721	93.88
515.937	83.88
516.153	88.88
516.369	94.88
516.585	80.88
516.801	88.88
517.016	105.88
517.232	107.88
517.448	103.88
517.664	90.88
517.879	92.88
518.095	91.88
518.311	92.88
518.527	90.88
518.742	93.88
