Data from Ni(NO3)2Standard.Agarose3%.GreenCap.LampEnergy5.5.E.O_HRD10591_14-42-42-188.txt Node
Date: Mon Jul 22 14:42:42 EDT 2019
User: cochatt
Spectrometer: HR+D1059
Trigger mode: 1
Integration Time (sec): 1.000000E-1
Scans to average: 1
Electric dark correction enabled: true
Nonlinearity correction enabled: false
Boxcar width: 0
XAxis mode: Wavelengths
Number of Pixels in Spectrum: 2048
>>>>>Begin Spectral Data<<<<<
223.165	-21.19
223.4	-21.19
223.635	-21.19
223.869	-19.19
224.104	-19.19
224.338	-11.19
224.573	-8.19
224.808	-0.19
225.042	-8.19
225.277	-7.19
225.511	-7.19
225.746	-2.19
225.98	5.81
226.215	16.81
226.449	17.81
226.683	16.81
226.918	11.81
227.152	34.81
227.387	36.81
227.621	40.81
227.856	49.81
228.09	57.81
228.324	51.81
228.559	45.81
228.793	63.81
229.027	53.81
229.262	69.81
229.496	67.81
229.73	69.81
229.964	68.81
230.199	80.81
230.433	62.81
230.667	94.81
230.901	85.81
231.136	83.81
231.37	91.81
231.604	76.81
231.838	83.81
232.072	69.81
232.306	86.81
232.541	97.81
232.775	78.81
233.009	74.81
233.243	89.81
233.477	77.81
233.711	84.81
233.945	87.81
234.179	85.81
234.413	78.81
234.647	80.81
234.881	96.81
235.115	86.81
235.349	82.81
235.583	74.81
235.817	84.81
236.051	83.81
236.285	84.81
236.519	83.81
236.753	99.81
236.987	86.81
237.221	75.81
237.455	88.81
237.689	67.81
237.922	74.81
238.156	79.81
238.39	76.81
238.624	74.81
238.858	72.81
239.091	85.81
239.325	76.81
239.559	77.81
239.793	69.81
240.027	78.81
240.26	75.81
240.494	62.81
240.728	63.81
240.961	75.81
241.195	76.81
241.429	79.81
241.662	72.81
241.896	73.81
242.13	70.81
242.363	61.81
242.597	88.81
242.83	84.81
243.064	83.81
243.298	83.81
243.531	80.81
243.765	78.81
243.998	75.81
244.232	75.81
244.465	79.81
244.699	77.81
244.932	83.81
245.166	86.81
245.399	79.81
245.633	87.81
245.866	81.81
246.099	93.81
246.333	86.81
246.566	66.81
246.8	77.81
247.033	75.81
247.266	90.81
247.5	93.81
247.733	63.81
247.966	84.81
248.2	85.81
248.433	83.81
248.666	85.81
248.899	83.81
249.133	69.81
249.366	74.81
249.599	84.81
249.832	76.81
250.066	94.81
250.299	71.81
250.532	72.81
250.765	72.81
250.998	89.81
251.231	90.81
251.465	92.81
251.698	79.81
251.931	87.81
252.164	77.81
252.397	79.81
252.63	87.81
252.863	82.81
253.096	99.81
253.329	74.81
253.562	80.81
253.795	71.81
254.028	87.81
254.261	87.81
254.494	81.81
254.727	81.81
254.96	72.81
255.193	83.81
255.426	89.81
255.659	79.81
255.892	87.81
256.124	84.81
256.357	78.81
256.59	78.81
256.823	90.81
257.056	86.81
257.289	78.81
257.521	78.81
257.754	86.81
257.987	89.81
258.22	86.81
258.452	69.81
258.685	82.81
258.918	82.81
259.151	88.81
259.383	87.81
259.616	89.81
259.849	96.81
260.081	94.81
260.314	78.81
260.547	89.81
260.779	79.81
261.012	81.81
261.244	63.81
261.477	86.81
261.71	93.81
261.942	99.81
262.175	94.81
262.407	97.81
262.64	87.81
262.872	91.81
263.105	79.81
263.337	73.81
263.57	74.81
263.802	76.81
264.035	84.81
264.267	73.81
264.499	78.81
264.732	93.81
264.964	70.81
265.197	89.81
265.429	77.81
265.661	78.81
265.894	84.81
266.126	77.81
266.358	90.81
266.591	89.81
266.823	82.81
267.055	82.81
267.287	85.81
267.52	81.81
267.752	78.81
267.984	80.81
268.216	81.81
268.448	82.81
268.681	79.81
268.913	99.81
269.145	77.81
269.377	80.81
269.609	71.81
269.841	80.81
270.073	95.81
270.306	93.81
270.538	93.81
270.77	89.81
271.002	84.81
271.234	88.81
271.466	79.81
271.698	92.81
271.93	80.81
272.162	73.81
272.394	89.81
272.626	83.81
272.858	95.81
273.09	82.81
273.322	99.81
273.553	79.81
273.785	83.81
274.017	84.81
274.249	87.81
274.481	79.81
274.713	96.81
274.945	77.81
275.176	93.81
275.408	88.81
275.64	72.81
275.872	78.81
276.104	89.81
276.335	73.81
276.567	88.81
276.799	83.81
277.031	76.81
277.262	79.81
277.494	78.81
277.726	84.81
277.957	82.81
278.189	78.81
278.421	87.81
278.652	85.81
278.884	90.81
279.115	90.81
279.347	84.81
279.579	78.81
279.81	87.81
280.042	86.81
280.273	70.81
280.505	103.81
280.736	88.81
280.968	91.81
281.199	82.81
281.431	80.81
281.662	77.81
281.894	93.81
282.125	83.81
282.356	91.81
282.588	90.81
282.819	82.81
283.051	96.81
283.282	96.81
283.513	99.81
283.745	80.81
283.976	92.81
284.207	92.81
284.439	87.81
284.67	94.81
284.901	91.81
285.132	75.81
285.364	90.81
285.595	85.81
285.826	87.81
286.057	93.81
286.288	94.81
286.52	96.81
286.751	84.81
286.982	89.81
287.213	90.81
287.444	91.81
287.675	99.81
287.906	93.81
288.138	96.81
288.369	85.81
288.6	97.81
288.831	92.81
289.062	90.81
289.293	87.81
289.524	89.81
289.755	94.81
289.986	89.81
290.217	76.81
290.448	84.81
290.679	85.81
290.91	101.81
291.141	84.81
291.371	92.81
291.602	91.81
291.833	104.81
292.064	80.81
292.295	82.81
292.526	79.81
292.757	89.81
292.987	90.81
293.218	89.81
293.449	96.81
293.68	76.81
293.91	83.81
294.141	90.81
294.372	85.81
294.603	75.81
294.833	84.81
295.064	85.81
295.295	104.81
295.525	80.81
295.756	93.81
295.987	82.81
296.217	88.81
296.448	93.81
296.679	100.81
296.909	86.81
297.14	72.81
297.37	88.81
297.601	80.81
297.831	87.81
298.062	88.81
298.292	93.81
298.523	87.81
298.753	84.81
298.984	98.81
299.214	97.81
299.445	81.81
299.675	88.81
299.905	93.81
300.136	100.81
300.366	96.81
300.597	98.81
300.827	94.81
301.057	88.81
301.288	91.81
301.518	92.81
301.748	84.81
301.979	90.81
302.209	101.81
302.439	87.81
302.669	92.81
302.9	92.81
303.13	83.81
303.36	81.81
303.59	80.81
303.82	84.81
304.051	84.81
304.281	97.81
304.511	84.81
304.741	93.81
304.971	84.81
305.201	105.81
305.431	90.81
305.661	83.81
305.891	75.81
306.121	90.81
306.352	99.81
306.582	84.81
306.812	101.81
307.042	91.81
307.272	86.81
307.502	81.81
307.731	88.81
307.961	90.81
308.191	88.81
308.421	85.81
308.651	93.81
308.881	105.81
309.111	91.81
309.341	99.81
309.571	91.81
309.8	89.81
310.03	91.81
310.26	87.81
310.49	105.81
310.72	83.81
310.949	86.81
311.179	88.81
311.409	80.81
311.639	88.81
311.868	95.81
312.098	100.81
312.328	87.81
312.557	82.81
312.787	89.81
313.017	92.81
313.246	93.81
313.476	88.81
313.706	95.81
313.935	100.81
314.165	99.81
314.394	99.81
314.624	103.81
314.853	86.81
315.083	82.81
315.312	92.81
315.542	91.81
315.771	103.81
316.001	84.81
316.23	86.81
316.46	89.81
316.689	104.81
316.919	90.81
317.148	85.81
317.377	88.81
317.607	74.81
317.836	96.81
318.065	87.81
318.295	85.81
318.524	83.81
318.753	91.81
318.983	63.81
319.212	92.81
319.441	86.81
319.67	75.81
319.9	74.81
320.129	85.81
320.358	83.81
320.587	103.81
320.816	85.81
321.046	87.81
321.275	79.81
321.504	90.81
321.733	86.81
321.962	85.81
322.191	89.81
322.42	81.81
322.649	89.81
322.878	91.81
323.108	91.81
323.337	83.81
323.566	89.81
323.795	101.81
324.024	96.81
324.253	91.81
324.482	86.81
324.71	91.81
324.939	98.81
325.168	73.81
325.397	87.81
325.626	100.81
325.855	82.81
326.084	94.81
326.313	79.81
326.542	82.81
326.77	88.81
326.999	88.81
327.228	77.81
327.457	87.81
327.686	77.81
327.914	80.81
328.143	101.81
328.372	92.81
328.6	94.81
328.829	86.81
329.058	87.81
329.287	84.81
329.515	86.81
329.744	94.81
329.972	84.81
330.201	96.81
330.43	90.81
330.658	80.81
330.887	85.81
331.115	97.81
331.344	96.81
331.572	91.81
331.801	94.81
332.03	90.81
332.258	89.81
332.486	90.81
332.715	77.81
332.943	85.81
333.172	105.81
333.4	83.81
333.629	89.81
333.857	95.81
334.085	88.81
334.314	91.81
334.542	104.81
334.771	109.81
334.999	89.81
335.227	93.81
335.455	100.81
335.684	104.81
335.912	94.81
336.14	104.81
336.369	84.81
336.597	95.81
336.825	96.81
337.053	89.81
337.281	95.81
337.51	104.81
337.738	73.81
337.966	93.81
338.194	96.81
338.422	99.81
338.65	102.81
338.878	91.81
339.106	87.81
339.334	84.81
339.562	73.81
339.79	89.81
340.018	89.81
340.246	88.81
340.474	93.81
340.702	87.81
340.93	86.81
341.158	91.81
341.386	89.81
341.614	95.81
341.842	89.81
342.07	83.81
342.298	93.81
342.526	86.81
342.754	93.81
342.981	91.81
343.209	101.81
343.437	89.81
343.665	97.81
343.893	73.81
344.12	98.81
344.348	97.81
344.576	81.81
344.804	95.81
345.031	89.81
345.259	89.81
345.487	93.81
345.714	82.81
345.942	81.81
346.17	100.81
346.397	91.81
346.625	80.81
346.853	85.81
347.08	80.81
347.308	90.81
347.535	80.81
347.763	93.81
347.99	92.81
348.218	88.81
348.445	97.81
348.673	87.81
348.9	83.81
349.128	100.81
349.355	91.81
349.583	96.81
349.81	82.81
350.037	82.81
350.265	96.81
350.492	85.81
350.72	79.81
350.947	91.81
351.174	84.81
351.402	95.81
351.629	89.81
351.856	77.81
352.083	99.81
352.311	89.81
352.538	92.81
352.765	87.81
352.992	100.81
353.22	91.81
353.447	86.81
353.674	93.81
353.901	101.81
354.128	87.81
354.355	81.81
354.583	93.81
354.81	88.81
355.037	89.81
355.264	90.81
355.491	101.81
355.718	95.81
355.945	94.81
356.172	91.81
356.399	88.81
356.626	91.81
356.853	75.81
357.08	84.81
357.307	88.81
357.534	79.81
357.761	93.81
357.988	101.81
358.215	92.81
358.441	93.81
358.668	67.81
358.895	82.81
359.122	96.81
359.349	85.81
359.576	88.81
359.802	82.81
360.029	83.81
360.256	79.81
360.483	85.81
360.709	91.81
360.936	93.81
361.163	84.81
361.39	100.81
361.616	75.81
361.843	71.81
362.07	94.81
362.296	108.81
362.523	88.81
362.749	88.81
362.976	90.81
363.203	97.81
363.429	88.81
363.656	89.81
363.882	77.81
364.109	92.81
364.335	90.81
364.562	79.81
364.788	83.81
365.015	89.81
365.241	75.81
365.468	94.81
365.694	88.81
365.92	100.81
366.147	96.81
366.373	94.81
366.599	80.81
366.826	89.81
367.052	76.81
367.278	94.81
367.505	93.81
367.731	87.81
367.957	94.81
368.184	90.81
368.41	87.81
368.636	87.81
368.862	103.81
369.089	86.81
369.315	78.81
369.541	89.81
369.767	79.81
369.993	93.81
370.219	88.81
370.445	94.81
370.672	79.81
370.898	100.81
371.124	80.81
371.35	84.81
371.576	81.81
371.802	96.81
372.028	89.81
372.254	92.81
372.48	99.81
372.706	89.81
372.932	86.81
373.158	78.81
373.384	79.81
373.61	89.81
373.835	80.81
374.061	99.81
374.287	99.81
374.513	93.81
374.739	92.81
374.965	92.81
375.191	91.81
375.416	79.81
375.642	92.81
375.868	98.81
376.094	75.81
376.319	85.81
376.545	93.81
376.771	81.81
376.997	85.81
377.222	103.81
377.448	86.81
377.674	78.81
377.899	101.81
378.125	94.81
378.35	81.81
378.576	90.81
378.802	93.81
379.027	85.81
379.253	108.81
379.478	83.81
379.704	91.81
379.929	82.81
380.155	92.81
380.38	79.81
380.606	67.81
380.831	92.81
381.057	99.81
381.282	87.81
381.507	91.81
381.733	98.81
381.958	78.81
382.184	90.81
382.409	90.81
382.634	85.81
382.86	90.81
383.085	95.81
383.31	80.81
383.535	92.81
383.761	96.81
383.986	91.81
384.211	88.81
384.436	70.81
384.662	86.81
384.887	84.81
385.112	91.81
385.337	78.81
385.562	89.81
385.787	91.81
386.013	82.81
386.238	78.81
386.463	86.81
386.688	94.81
386.913	87.81
387.138	99.81
387.363	102.81
387.588	81.81
387.813	80.81
388.038	96.81
388.263	100.81
388.488	93.81
388.713	88.81
388.938	78.81
389.163	93.81
389.387	87.81
389.612	91.81
389.837	95.81
390.062	93.81
390.287	93.81
390.512	97.81
390.736	95.81
390.961	93.81
391.186	91.81
391.411	80.81
391.636	83.81
391.86	80.81
392.085	101.81
392.31	87.81
392.534	94.81
392.759	89.81
392.984	99.81
393.208	92.81
393.433	89.81
393.658	101.81
393.882	91.81
394.107	89.81
394.331	92.81
394.556	85.81
394.78	88.81
395.005	83.81
395.229	103.81
395.454	86.81
395.678	83.81
395.903	95.81
396.127	86.81
396.352	96.81
396.576	95.81
396.801	90.81
397.025	83.81
397.249	83.81
397.474	91.81
397.698	93.81
397.922	104.81
398.147	95.81
398.371	81.81
398.595	112.81
398.82	84.81
399.044	92.81
399.268	88.81
399.492	77.81
399.717	96.81
399.941	99.81
400.165	94.81
400.389	101.81
400.613	72.81
400.837	81.81
401.062	83.81
401.286	79.81
401.51	85.81
401.734	83.81
401.958	86.81
402.182	89.81
402.406	86.81
402.63	76.81
402.854	94.81
403.078	83.81
403.302	96.81
403.526	87.81
403.75	84.81
403.974	79.81
404.198	78.81
404.422	103.81
404.645	82.81
404.869	73.81
405.093	93.81
405.317	95.81
405.541	79.81
405.765	80.81
405.988	91.81
406.212	100.81
406.436	79.81
406.66	104.81
406.883	87.81
407.107	96.81
407.331	93.81
407.555	77.81
407.778	96.81
408.002	85.81
408.226	99.81
408.449	71.81
408.673	87.81
408.896	86.81
409.12	84.81
409.344	83.81
409.567	85.81
409.791	80.81
410.014	89.81
410.238	95.81
410.461	84.81
410.685	98.81
410.908	87.81
411.132	93.81
411.355	87.81
411.578	94.81
411.802	85.81
412.025	79.81
412.249	93.81
412.472	86.81
412.695	91.81
412.919	97.81
413.142	90.81
413.365	80.81
413.589	77.81
413.812	100.81
414.035	110.81
414.258	96.81
414.482	91.81
414.705	81.81
414.928	87.81
415.151	90.81
415.374	84.81
415.597	82.81
415.821	83.81
416.044	90.81
416.267	80.81
416.49	97.81
416.713	91.81
416.936	91.81
417.159	85.81
417.382	79.81
417.605	85.81
417.828	86.81
418.051	79.81
418.274	93.81
418.497	84.81
418.72	82.81
418.943	84.81
419.166	87.81
419.389	94.81
419.611	115.81
419.834	88.81
420.057	90.81
420.28	87.81
420.503	85.81
420.726	99.81
420.948	91.81
421.171	85.81
421.394	74.81
421.617	86.81
421.839	89.81
422.062	81.81
422.285	89.81
422.507	99.81
422.73	102.81
422.953	112.81
423.175	99.81
423.398	86.81
423.621	92.81
423.843	79.81
424.066	84.81
424.288	91.81
424.511	96.81
424.733	99.81
424.956	94.81
425.178	103.81
425.401	75.81
425.623	90.81
425.846	99.81
426.068	93.81
426.291	83.81
426.513	89.81
426.735	93.81
426.958	92.81
427.18	92.81
427.402	87.81
427.625	85.81
427.847	84.81
428.069	93.81
428.292	85.81
428.514	97.81
428.736	82.81
428.958	87.81
429.181	100.81
429.403	87.81
429.625	78.81
429.847	79.81
430.069	94.81
430.292	88.81
430.514	99.81
430.736	89.81
430.958	94.81
431.18	80.81
431.402	81.81
431.624	88.81
431.846	93.81
432.068	76.81
432.29	93.81
432.512	83.81
432.734	81.81
432.956	89.81
433.178	89.81
433.4	103.81
433.622	87.81
433.844	80.81
434.066	102.81
434.287	95.81
434.509	87.81
434.731	96.81
434.953	92.81
435.175	89.81
435.397	97.81
435.618	77.81
435.84	85.81
436.062	94.81
436.284	91.81
436.505	92.81
436.727	87.81
436.949	87.81
437.17	98.81
437.392	76.81
437.614	94.81
437.835	83.81
438.057	87.81
438.278	74.81
438.5	83.81
438.721	79.81
438.943	72.81
439.165	77.81
439.386	85.81
439.608	96.81
439.829	89.81
440.05	92.81
440.272	96.81
440.493	94.81
440.715	103.81
440.936	90.81
441.158	77.81
441.379	78.81
441.6	90.81
441.822	95.81
442.043	88.81
442.264	79.81
442.486	94.81
442.707	77.81
442.928	79.81
443.149	93.81
443.371	92.81
443.592	75.81
443.813	85.81
444.034	87.81
444.255	73.81
444.476	106.81
444.698	102.81
444.919	91.81
445.14	207.81
445.361	155.81
445.582	94.81
445.803	80.81
446.024	73.81
446.245	101.81
446.466	97.81
446.687	96.81
446.908	94.81
447.129	89.81
447.35	92.81
447.571	69.81
447.792	84.81
448.013	75.81
448.234	78.81
448.455	87.81
448.675	83.81
448.896	94.81
449.117	96.81
449.338	88.81
449.559	92.81
449.779	71.81
450	91.81
450.221	85.81
450.442	102.81
450.662	83.81
450.883	71.81
451.104	84.81
451.324	81.81
451.545	92.81
451.766	86.81
451.986	99.81
452.207	80.81
452.428	89.81
452.648	97.81
452.869	97.81
453.089	90.81
453.31	95.81
453.53	88.81
453.751	89.81
453.971	96.81
454.192	83.81
454.412	92.81
454.633	99.81
454.853	88.81
455.073	97.81
455.294	87.81
455.514	91.81
455.734	78.81
455.955	79.81
456.175	74.81
456.395	71.81
456.616	87.81
456.836	96.81
457.056	89.81
457.276	77.81
457.497	84.81
457.717	94.81
457.937	85.81
458.157	84.81
458.377	91.81
458.598	85.81
458.818	91.81
459.038	89.81
459.258	83.81
459.478	93.81
459.698	93.81
459.918	92.81
460.138	106.81
460.358	89.81
460.578	81.81
460.798	79.81
461.018	77.81
461.238	89.81
461.458	89.81
461.678	85.81
461.898	91.81
462.118	84.81
462.338	92.81
462.558	104.81
462.777	89.81
462.997	80.81
463.217	87.81
463.437	91.81
463.657	101.81
463.876	94.81
464.096	84.81
464.316	84.81
464.536	95.81
464.755	100.81
464.975	78.81
465.195	87.81
465.414	85.81
465.634	89.81
465.854	93.81
466.073	78.81
466.293	83.81
466.512	97.81
466.732	81.81
466.951	83.81
467.171	86.81
467.391	90.81
467.61	91.81
467.829	104.81
468.049	99.81
468.268	90.81
468.488	88.81
468.707	97.81
468.927	85.81
469.146	82.81
469.365	96.81
469.585	69.81
469.804	80.81
470.023	93.81
470.243	107.81
470.462	91.81
470.681	96.81
470.901	85.81
471.12	87.81
471.339	86.81
471.558	84.81
471.777	83.81
471.997	101.81
472.216	78.81
472.435	94.81
472.654	91.81
472.873	88.81
473.092	94.81
473.311	83.81
473.53	73.81
473.749	74.81
473.968	102.81
474.187	88.81
474.406	89.81
474.625	95.81
474.844	106.81
475.063	94.81
475.282	91.81
475.501	84.81
475.72	93.81
475.939	75.81
476.158	90.81
476.377	76.81
476.596	81.81
476.814	99.81
477.033	96.81
477.252	99.81
477.471	103.81
477.69	85.81
477.908	91.81
478.127	78.81
478.346	94.81
478.564	75.81
478.783	100.81
479.002	87.81
479.22	94.81
479.439	112.81
479.658	86.81
479.876	81.81
480.095	80.81
480.313	109.81
480.532	94.81
480.751	100.81
480.969	95.81
481.188	84.81
481.406	87.81
481.624	105.81
481.843	101.81
482.061	92.81
482.28	95.81
482.498	86.81
482.717	87.81
482.935	79.81
483.153	88.81
483.372	87.81
483.59	96.81
483.808	102.81
484.027	95.81
484.245	100.81
484.463	96.81
484.681	94.81
484.9	92.81
485.118	99.81
485.336	79.81
485.554	79.81
485.772	96.81
485.99	97.81
486.209	84.81
486.427	92.81
486.645	96.81
486.863	106.81
487.081	103.81
487.299	88.81
487.517	97.81
487.735	99.81
487.953	88.81
488.171	88.81
488.389	96.81
488.607	96.81
488.825	105.81
489.043	100.81
489.261	92.81
489.479	98.81
489.696	104.81
489.914	93.81
490.132	97.81
490.35	103.81
490.568	89.81
490.786	93.81
491.003	95.81
491.221	99.81
491.439	91.81
491.657	87.81
491.874	84.81
492.092	95.81
492.31	101.81
492.527	91.81
492.745	88.81
492.963	107.81
493.18	105.81
493.398	104.81
493.615	91.81
493.833	99.81
494.05	112.81
494.268	102.81
494.485	104.81
494.703	84.81
494.92	89.81
495.138	98.81
495.355	104.81
495.573	112.81
495.79	108.81
496.008	95.81
496.225	97.81
496.442	99.81
496.66	101.81
496.877	97.81
497.094	100.81
497.312	92.81
497.529	108.81
497.746	110.81
497.963	88.81
498.181	97.81
498.398	110.81
498.615	106.81
498.832	105.81
499.049	112.81
499.267	101.81
499.484	100.81
499.701	103.81
499.918	116.81
500.135	104.81
500.352	109.81
500.569	141.81
500.786	120.81
501.003	113.81
501.22	110.81
501.437	107.81
501.654	100.81
501.871	106.81
502.088	111.81
502.305	102.81
502.522	87.81
502.739	106.81
502.956	92.81
503.172	109.81
503.389	97.81
503.606	96.81
503.823	98.81
504.04	98.81
504.256	110.81
504.473	95.81
504.69	116.81
504.907	119.81
505.123	84.81
505.34	106.81
505.557	101.81
505.773	94.81
505.99	110.81
506.207	100.81
506.423	98.81
506.64	115.81
506.856	88.81
507.073	78.81
507.289	99.81
507.506	98.81
507.722	104.81
507.939	97.81
508.155	92.81
508.372	77.81
508.588	91.81
508.805	97.81
509.021	98.81
509.238	90.81
509.454	88.81
509.67	88.81
509.887	90.81
510.103	103.81
510.319	84.81
510.536	105.81
510.752	102.81
510.968	91.81
511.184	86.81
511.401	80.81
511.617	99.81
511.833	81.81
512.049	88.81
512.265	77.81
512.481	86.81
512.698	71.81
512.914	86.81
513.13	100.81
513.346	87.81
513.562	93.81
513.778	111.81
513.994	96.81
514.21	91.81
514.426	106.81
514.642	93.81
514.858	93.81
515.074	90.81
515.29	100.81
515.506	83.81
515.721	103.81
515.937	96.81
516.153	74.81
516.369	84.81
516.585	77.81
516.801	87.81
517.016	89.81
517.232	78.81
517.448	83.81
