Data from Ni(NO3)2@0.5M.TitratingCurve.Agarose3%dH2O.NegLispCup.LampEnergy10.LIBS07252019_HRD10591_17-59-15-565.txt Node
Date: Thu Jul 25 17:59:15 EDT 2019
User: cochatt
Spectrometer: HR+D1059
Trigger mode: 1
Integration Time (sec): 1.000000E-1
Scans to average: 1
Electric dark correction enabled: true
Nonlinearity correction enabled: false
Boxcar width: 0
XAxis mode: Wavelengths
Number of Pixels in Spectrum: 2048
>>>>>Begin Spectral Data<<<<<
223.165	-3.5
223.4	-3.5
223.635	-3.5
223.869	-25.5
224.104	-18.5
224.338	-25.5
224.573	-18.5
224.808	-10.5
225.042	-13.5
225.277	-10.5
225.511	-0.5
225.746	10.5
225.98	-6.5
226.215	22.5
226.449	24.5
226.683	13.5
226.918	30.5
227.152	31.5
227.387	35.5
227.621	32.5
227.856	36.5
228.09	34.5
228.324	40.5
228.559	62.5
228.793	77.5
229.027	112.5
229.262	132.5
229.496	121.5
229.73	114.5
229.964	140.5
230.199	171.5
230.433	154.5
230.667	144.5
230.901	150.5
231.136	140.5
231.37	154.5
231.604	143.5
231.838	170.5
232.072	167.5
232.306	163.5
232.541	158.5
232.775	149.5
233.009	144.5
233.243	145.5
233.477	150.5
233.711	152.5
233.945	162.5
234.179	157.5
234.413	155.5
234.647	142.5
234.881	163.5
235.115	153.5
235.349	148.5
235.583	135.5
235.817	128.5
236.051	152.5
236.285	122.5
236.519	138.5
236.753	149.5
236.987	143.5
237.221	135.5
237.455	139.5
237.689	140.5
237.922	156.5
238.156	142.5
238.39	146.5
238.624	152.5
238.858	151.5
239.091	144.5
239.325	154.5
239.559	162.5
239.793	180.5
240.027	190.5
240.26	173.5
240.494	162.5
240.728	148.5
240.961	166.5
241.195	164.5
241.429	166.5
241.662	176.5
241.896	175.5
242.13	192.5
242.363	180.5
242.597	169.5
242.83	164.5
243.064	159.5
243.298	176.5
243.531	181.5
243.765	194.5
243.998	188.5
244.232	179.5
244.465	188.5
244.699	175.5
244.932	202.5
245.166	187.5
245.399	184.5
245.633	180.5
245.866	195.5
246.099	186.5
246.333	200.5
246.566	200.5
246.8	184.5
247.033	198.5
247.266	207.5
247.5	207.5
247.733	207.5
247.966	190.5
248.2	199.5
248.433	195.5
248.666	212.5
248.899	203.5
249.133	207.5
249.366	191.5
249.599	213.5
249.832	215.5
250.066	220.5
250.299	213.5
250.532	221.5
250.765	217.5
250.998	235.5
251.231	248.5
251.465	265.5
251.698	250.5
251.931	234.5
252.164	219.5
252.397	227.5
252.63	236.5
252.863	235.5
253.096	222.5
253.329	238.5
253.562	235.5
253.795	242.5
254.028	229.5
254.261	246.5
254.494	245.5
254.727	237.5
254.96	276.5
255.193	258.5
255.426	259.5
255.659	236.5
255.892	235.5
256.124	265.5
256.357	221.5
256.59	260.5
256.823	264.5
257.056	250.5
257.289	244.5
257.521	256.5
257.754	270.5
257.987	261.5
258.22	270.5
258.452	272.5
258.685	261.5
258.918	266.5
259.151	268.5
259.383	283.5
259.616	292.5
259.849	260.5
260.081	269.5
260.314	262.5
260.547	278.5
260.779	284.5
261.012	285.5
261.244	287.5
261.477	303.5
261.71	277.5
261.942	278.5
262.175	296.5
262.407	290.5
262.64	283.5
262.872	276.5
263.105	285.5
263.337	287.5
263.57	289.5
263.802	286.5
264.035	301.5
264.267	300.5
264.499	291.5
264.732	290.5
264.964	290.5
265.197	310.5
265.429	306.5
265.661	308.5
265.894	294.5
266.126	318.5
266.358	315.5
266.591	301.5
266.823	313.5
267.055	315.5
267.287	292.5
267.52	303.5
267.752	292.5
267.984	306.5
268.216	310.5
268.448	310.5
268.681	333.5
268.913	332.5
269.145	310.5
269.377	316.5
269.609	317.5
269.841	324.5
270.073	322.5
270.306	315.5
270.538	323.5
270.77	319.5
271.002	327.5
271.234	325.5
271.466	317.5
271.698	322.5
271.93	319.5
272.162	355.5
272.394	354.5
272.626	340.5
272.858	332.5
273.09	353.5
273.322	343.5
273.553	357.5
273.785	362.5
274.017	354.5
274.249	348.5
274.481	344.5
274.713	346.5
274.945	348.5
275.176	364.5
275.408	348.5
275.64	372.5
275.872	354.5
276.104	357.5
276.335	362.5
276.567	358.5
276.799	364.5
277.031	374.5
277.262	362.5
277.494	374.5
277.726	368.5
277.957	382.5
278.189	363.5
278.421	380.5
278.652	395.5
278.884	369.5
279.115	349.5
279.347	378.5
279.579	380.5
279.81	379.5
280.042	388.5
280.273	392.5
280.505	384.5
280.736	394.5
280.968	378.5
281.199	383.5
281.431	381.5
281.662	393.5
281.894	386.5
282.125	404.5
282.356	396.5
282.588	399.5
282.819	406.5
283.051	388.5
283.282	408.5
283.513	423.5
283.745	401.5
283.976	404.5
284.207	414.5
284.439	391.5
284.67	400.5
284.901	401.5
285.132	412.5
285.364	408.5
285.595	426.5
285.826	419.5
286.057	412.5
286.288	406.5
286.52	410.5
286.751	421.5
286.982	406.5
287.213	422.5
287.444	391.5
287.675	413.5
287.906	412.5
288.138	422.5
288.369	428.5
288.6	437.5
288.831	422.5
289.062	416.5
289.293	419.5
289.524	409.5
289.755	434.5
289.986	442.5
290.217	438.5
290.448	448.5
290.679	438.5
290.91	428.5
291.141	421.5
291.371	432.5
291.602	451.5
291.833	423.5
292.064	434.5
292.295	434.5
292.526	427.5
292.757	426.5
292.987	436.5
293.218	434.5
293.449	450.5
293.68	440.5
293.91	428.5
294.141	449.5
294.372	446.5
294.603	441.5
294.833	440.5
295.064	434.5
295.295	430.5
295.525	452.5
295.756	456.5
295.987	469.5
296.217	444.5
296.448	467.5
296.679	439.5
296.909	443.5
297.14	443.5
297.37	462.5
297.601	451.5
297.831	461.5
298.062	474.5
298.292	480.5
298.523	475.5
298.753	474.5
298.984	474.5
299.214	490.5
299.445	500.5
299.675	477.5
299.905	488.5
300.136	487.5
300.366	527.5
300.597	519.5
300.827	476.5
301.057	494.5
301.288	487.5
301.518	495.5
301.748	494.5
301.979	493.5
302.209	491.5
302.439	495.5
302.669	478.5
302.9	461.5
303.13	501.5
303.36	487.5
303.59	509.5
303.82	487.5
304.051	519.5
304.281	510.5
304.511	490.5
304.741	486.5
304.971	505.5
305.201	524.5
305.431	533.5
305.661	518.5
305.891	505.5
306.121	535.5
306.352	489.5
306.582	492.5
306.812	499.5
307.042	507.5
307.272	489.5
307.502	492.5
307.731	523.5
307.961	509.5
308.191	498.5
308.421	510.5
308.651	519.5
308.881	520.5
309.111	503.5
309.341	508.5
309.571	513.5
309.8	515.5
310.03	539.5
310.26	553.5
310.49	552.5
310.72	539.5
310.949	511.5
311.179	505.5
311.409	515.5
311.639	539.5
311.868	531.5
312.098	524.5
312.328	539.5
312.557	535.5
312.787	529.5
313.017	536.5
313.246	536.5
313.476	560.5
313.706	557.5
313.935	550.5
314.165	529.5
314.394	548.5
314.624	546.5
314.853	559.5
315.083	552.5
315.312	545.5
315.542	552.5
315.771	556.5
316.001	567.5
316.23	576.5
316.46	558.5
316.689	568.5
316.919	550.5
317.148	559.5
317.377	575.5
317.607	528.5
317.836	544.5
318.065	541.5
318.295	543.5
318.524	559.5
318.753	554.5
318.983	558.5
319.212	569.5
319.441	566.5
319.67	582.5
319.9	556.5
320.129	573.5
320.358	560.5
320.587	571.5
320.816	558.5
321.046	588.5
321.275	585.5
321.504	577.5
321.733	599.5
321.962	593.5
322.191	562.5
322.42	580.5
322.649	596.5
322.878	577.5
323.108	589.5
323.337	600.5
323.566	615.5
323.795	576.5
324.024	599.5
324.253	592.5
324.482	602.5
324.71	584.5
324.939	623.5
325.168	604.5
325.397	595.5
325.626	603.5
325.855	605.5
326.084	588.5
326.313	609.5
326.542	592.5
326.77	635.5
326.999	618.5
327.228	612.5
327.457	603.5
327.686	611.5
327.914	629.5
328.143	630.5
328.372	604.5
328.6	619.5
328.829	633.5
329.058	640.5
329.287	624.5
329.515	620.5
329.744	626.5
329.972	640.5
330.201	649.5
330.43	638.5
330.658	650.5
330.887	654.5
331.115	645.5
331.344	659.5
331.572	655.5
331.801	656.5
332.03	659.5
332.258	670.5
332.486	679.5
332.715	664.5
332.943	676.5
333.172	722.5
333.4	707.5
333.629	725.5
333.857	717.5
334.085	718.5
334.314	723.5
334.542	731.5
334.771	735.5
334.999	734.5
335.227	742.5
335.455	725.5
335.684	721.5
335.912	717.5
336.14	722.5
336.369	737.5
336.597	736.5
336.825	740.5
337.053	726.5
337.281	764.5
337.51	738.5
337.738	730.5
337.966	718.5
338.194	730.5
338.422	731.5
338.65	708.5
338.878	699.5
339.106	699.5
339.334	726.5
339.562	742.5
339.79	662.5
340.018	681.5
340.246	663.5
340.474	708.5
340.702	687.5
340.93	664.5
341.158	707.5
341.386	717.5
341.614	734.5
341.842	744.5
342.07	686.5
342.298	706.5
342.526	677.5
342.754	700.5
342.981	695.5
343.209	704.5
343.437	691.5
343.665	736.5
343.893	738.5
344.12	735.5
344.348	747.5
344.576	722.5
344.804	756.5
345.031	735.5
345.259	690.5
345.487	712.5
345.714	735.5
345.942	715.5
346.17	755.5
346.397	716.5
346.625	686.5
346.853	670.5
347.08	659.5
347.308	669.5
347.535	683.5
347.763	666.5
347.99	645.5
348.218	654.5
348.445	637.5
348.673	670.5
348.9	675.5
349.128	687.5
349.355	703.5
349.583	667.5
349.81	665.5
350.037	652.5
350.265	660.5
350.492	640.5
350.72	660.5
350.947	680.5
351.174	698.5
351.402	682.5
351.629	677.5
351.856	682.5
352.083	646.5
352.311	666.5
352.538	709.5
352.765	726.5
352.992	667.5
353.22	655.5
353.447	631.5
353.674	634.5
353.901	611.5
354.128	630.5
354.355	611.5
354.583	621.5
354.81	642.5
355.037	656.5
355.264	652.5
355.491	645.5
355.718	648.5
355.945	639.5
356.172	631.5
356.399	635.5
356.626	666.5
356.853	676.5
357.08	660.5
357.307	663.5
357.534	653.5
357.761	668.5
357.988	629.5
358.215	646.5
358.441	630.5
358.668	622.5
358.895	633.5
359.122	652.5
359.349	667.5
359.576	641.5
359.802	644.5
360.029	632.5
360.256	644.5
360.483	619.5
360.709	639.5
360.936	647.5
361.163	650.5
361.39	652.5
361.616	663.5
361.843	676.5
362.07	706.5
362.296	685.5
362.523	655.5
362.749	672.5
362.976	654.5
363.203	660.5
363.429	637.5
363.656	640.5
363.882	647.5
364.109	637.5
364.335	662.5
364.562	642.5
364.788	646.5
365.015	651.5
365.241	644.5
365.468	640.5
365.694	652.5
365.92	642.5
366.147	635.5
366.373	646.5
366.599	656.5
366.826	658.5
367.052	669.5
367.278	664.5
367.505	640.5
367.731	651.5
367.957	647.5
368.184	664.5
368.41	653.5
368.636	660.5
368.862	649.5
369.089	662.5
369.315	650.5
369.541	661.5
369.767	667.5
369.993	667.5
370.219	676.5
370.445	699.5
370.672	667.5
370.898	667.5
371.124	683.5
371.35	674.5
371.576	692.5
371.802	712.5
372.028	697.5
372.254	707.5
372.48	687.5
372.706	722.5
372.932	711.5
373.158	698.5
373.384	683.5
373.61	697.5
373.835	691.5
374.061	714.5
374.287	705.5
374.513	678.5
374.739	725.5
374.965	704.5
375.191	724.5
375.416	719.5
375.642	707.5
375.868	705.5
376.094	719.5
376.319	712.5
376.545	694.5
376.771	672.5
376.997	696.5
377.222	718.5
377.448	677.5
377.674	700.5
377.899	700.5
378.125	674.5
378.35	709.5
378.576	674.5
378.802	687.5
379.027	680.5
379.253	684.5
379.478	667.5
379.704	690.5
379.929	672.5
380.155	676.5
380.38	702.5
380.606	657.5
380.831	696.5
381.057	694.5
381.282	678.5
381.507	669.5
381.733	684.5
381.958	713.5
382.184	717.5
382.409	701.5
382.634	729.5
382.86	713.5
383.085	714.5
383.31	718.5
383.535	712.5
383.761	734.5
383.986	710.5
384.211	736.5
384.436	753.5
384.662	728.5
384.887	732.5
385.112	762.5
385.337	766.5
385.562	767.5
385.787	785.5
386.013	804.5
386.238	765.5
386.463	798.5
386.688	779.5
386.913	746.5
387.138	760.5
387.363	796.5
387.588	797.5
387.813	792.5
388.038	771.5
388.263	797.5
388.488	775.5
388.713	786.5
388.938	797.5
389.163	759.5
389.387	779.5
389.612	761.5
389.837	762.5
390.062	797.5
390.287	794.5
390.512	798.5
390.736	780.5
390.961	779.5
391.186	796.5
391.411	795.5
391.636	812.5
391.86	796.5
392.085	838.5
392.31	807.5
392.534	831.5
392.759	814.5
392.984	827.5
393.208	820.5
393.433	848.5
393.658	831.5
393.882	827.5
394.107	821.5
394.331	823.5
394.556	797.5
394.78	839.5
395.005	837.5
395.229	811.5
395.454	826.5
395.678	842.5
395.903	811.5
396.127	844.5
396.352	813.5
396.576	855.5
396.801	854.5
397.025	858.5
397.249	880.5
397.474	877.5
397.698	847.5
397.922	873.5
398.147	879.5
398.371	905.5
398.595	910.5
398.82	947.5
399.044	946.5
399.268	989.5
399.492	1044.5
399.717	1070.5
399.941	1068.5
400.165	1050.5
400.389	1037.5
400.613	1029.5
400.837	912.5
401.062	955.5
401.286	937.5
401.51	941.5
401.734	934.5
401.958	932.5
402.182	898.5
402.406	900.5
402.63	942.5
402.854	957.5
403.078	956.5
403.302	971.5
403.526	941.5
403.75	938.5
403.974	962.5
404.198	924.5
404.422	926.5
404.645	931.5
404.869	918.5
405.093	973.5
405.317	952.5
405.541	954.5
405.765	956.5
405.988	962.5
406.212	1019.5
406.436	954.5
406.66	1034.5
406.883	980.5
407.107	1020.5
407.331	1037.5
407.555	1061.5
407.778	1045.5
408.002	1066.5
408.226	1058.5
408.449	1032.5
408.673	1024.5
408.896	1038.5
409.12	1028.5
409.344	1030.5
409.567	1026.5
409.791	1041.5
410.014	996.5
410.238	1005.5
410.461	971.5
410.685	959.5
410.908	1010.5
411.132	965.5
411.355	969.5
411.578	940.5
411.802	956.5
412.025	956.5
412.249	977.5
412.472	959.5
412.695	943.5
412.919	957.5
413.142	920.5
413.365	936.5
413.589	936.5
413.812	940.5
414.035	920.5
414.258	934.5
414.482	912.5
414.705	896.5
414.928	946.5
415.151	920.5
415.374	962.5
415.597	928.5
415.821	924.5
416.044	896.5
416.267	909.5
416.49	919.5
416.713	898.5
416.936	914.5
417.159	886.5
417.382	903.5
417.605	889.5
417.828	905.5
418.051	901.5
418.274	899.5
418.497	890.5
418.72	902.5
418.943	899.5
419.166	950.5
419.389	986.5
419.611	977.5
419.834	957.5
420.057	922.5
420.28	933.5
420.503	860.5
420.726	887.5
420.948	903.5
421.171	897.5
421.394	900.5
421.617	899.5
421.839	917.5
422.062	904.5
422.285	880.5
422.507	916.5
422.73	903.5
422.953	901.5
423.175	899.5
423.398	917.5
423.621	882.5
423.843	880.5
424.066	894.5
424.288	893.5
424.511	886.5
424.733	877.5
424.956	867.5
425.178	885.5
425.401	888.5
425.623	925.5
425.846	863.5
426.068	876.5
426.291	895.5
426.513	907.5
426.735	877.5
426.958	896.5
427.18	853.5
427.402	858.5
427.625	869.5
427.847	839.5
428.069	843.5
428.292	877.5
428.514	860.5
428.736	852.5
428.958	861.5
429.181	847.5
429.403	813.5
429.625	864.5
429.847	846.5
430.069	834.5
430.292	847.5
430.514	846.5
430.736	864.5
430.958	821.5
431.18	856.5
431.402	860.5
431.624	816.5
431.846	866.5
432.068	860.5
432.29	868.5
432.512	886.5
432.734	882.5
432.956	887.5
433.178	867.5
433.4	913.5
433.622	924.5
433.844	894.5
434.066	919.5
434.287	894.5
434.509	871.5
434.731	899.5
434.953	894.5
435.175	945.5
435.397	929.5
435.618	899.5
435.84	900.5
436.062	910.5
436.284	860.5
436.505	851.5
436.727	872.5
436.949	867.5
437.17	893.5
437.392	886.5
437.614	869.5
437.835	835.5
438.057	826.5
438.278	848.5
438.5	823.5
438.721	808.5
438.943	857.5
439.165	818.5
439.386	856.5
439.608	868.5
439.829	846.5
440.05	872.5
440.272	875.5
440.493	866.5
440.715	878.5
440.936	862.5
441.158	887.5
441.379	884.5
441.6	910.5
441.822	895.5
442.043	906.5
442.264	924.5
442.486	887.5
442.707	892.5
442.928	918.5
443.149	923.5
443.371	935.5
443.592	937.5
443.813	962.5
444.034	900.5
444.255	941.5
444.476	975.5
444.698	940.5
444.919	981.5
445.14	1076.5
445.361	1023.5
445.582	933.5
445.803	920.5
446.024	868.5
446.245	900.5
446.466	876.5
446.687	836.5
446.908	854.5
447.129	833.5
447.35	836.5
447.571	839.5
447.792	823.5
448.013	807.5
448.234	831.5
448.455	811.5
448.675	798.5
448.896	814.5
449.117	786.5
449.338	790.5
449.559	821.5
449.779	760.5
450	780.5
450.221	800.5
450.442	778.5
450.662	777.5
450.883	802.5
451.104	836.5
451.324	796.5
451.545	783.5
451.766	784.5
451.986	797.5
452.207	776.5
452.428	791.5
452.648	798.5
452.869	759.5
453.089	765.5
453.31	791.5
453.53	768.5
453.751	746.5
453.971	808.5
454.192	784.5
454.412	802.5
454.633	775.5
454.853	774.5
455.073	763.5
455.294	781.5
455.514	754.5
455.734	800.5
455.955	787.5
456.175	775.5
456.395	774.5
456.616	740.5
456.836	759.5
457.056	762.5
457.276	766.5
457.497	774.5
457.717	798.5
457.937	791.5
458.157	789.5
458.377	774.5
458.598	813.5
458.818	829.5
459.038	821.5
459.258	841.5
459.478	868.5
459.698	942.5
459.918	929.5
460.138	926.5
460.358	939.5
460.578	954.5
460.798	977.5
461.018	1001.5
461.238	942.5
461.458	943.5
461.678	930.5
461.898	920.5
462.118	926.5
462.338	985.5
462.558	990.5
462.777	1039.5
462.997	1078.5
463.217	1090.5
463.437	1122.5
463.657	1086.5
463.876	1040.5
464.096	1008.5
464.316	990.5
464.536	1002.5
464.755	997.5
464.975	976.5
465.195	951.5
465.414	917.5
465.634	899.5
465.854	867.5
466.073	879.5
466.293	867.5
466.512	835.5
466.732	846.5
466.951	851.5
467.171	820.5
467.391	843.5
467.61	839.5
467.829	830.5
468.049	848.5
468.268	816.5
468.488	831.5
468.707	807.5
468.927	822.5
469.146	843.5
469.365	873.5
469.585	836.5
469.804	845.5
470.023	822.5
470.243	805.5
470.462	845.5
470.681	842.5
470.901	849.5
471.12	801.5
471.339	823.5
471.558	859.5
471.777	839.5
471.997	826.5
472.216	831.5
472.435	821.5
472.654	838.5
472.873	805.5
473.092	813.5
473.311	819.5
473.53	827.5
473.749	834.5
473.968	824.5
474.187	830.5
474.406	824.5
474.625	850.5
474.844	833.5
475.063	840.5
475.282	843.5
475.501	832.5
475.72	839.5
475.939	849.5
476.158	842.5
476.377	859.5
476.596	852.5
476.814	851.5
477.033	858.5
477.252	883.5
477.471	896.5
477.69	920.5
477.908	909.5
478.127	930.5
478.346	915.5
478.564	925.5
478.783	961.5
479.002	974.5
479.22	1006.5
479.439	1002.5
479.658	973.5
479.876	959.5
480.095	980.5
480.313	997.5
480.532	993.5
480.751	1020.5
480.969	982.5
481.188	999.5
481.406	974.5
481.624	946.5
481.843	958.5
482.061	958.5
482.28	950.5
482.498	973.5
482.717	962.5
482.935	956.5
483.153	975.5
483.372	981.5
483.59	1044.5
483.808	981.5
484.027	974.5
484.245	986.5
484.463	956.5
484.681	1003.5
484.9	996.5
485.118	975.5
485.336	984.5
485.554	997.5
485.772	966.5
485.99	1014.5
486.209	985.5
486.427	970.5
486.645	985.5
486.863	1025.5
487.081	1000.5
487.299	974.5
487.517	1002.5
487.735	1023.5
487.953	1022.5
488.171	1024.5
488.389	1002.5
488.607	1007.5
488.825	994.5
489.043	980.5
489.261	991.5
489.479	994.5
489.696	969.5
489.914	975.5
490.132	1007.5
490.35	994.5
490.568	1012.5
490.786	995.5
491.003	995.5
491.221	1022.5
491.439	1001.5
491.657	1012.5
491.874	1040.5
492.092	1037.5
492.31	1071.5
492.527	1013.5
492.745	1035.5
492.963	1017.5
493.18	1027.5
493.398	1004.5
493.615	1051.5
493.833	1038.5
494.05	1031.5
494.268	1052.5
494.485	1030.5
494.703	1022.5
494.92	1067.5
495.138	1068.5
495.355	1060.5
495.573	1046.5
495.79	1061.5
496.008	1080.5
496.225	1074.5
496.442	1063.5
496.66	1097.5
496.877	1107.5
497.094	1076.5
497.312	1120.5
497.529	1147.5
497.746	1172.5
497.963	1188.5
498.181	1217.5
498.398	1239.5
498.615	1271.5
498.832	1332.5
499.049	1359.5
499.267	1431.5
499.484	1475.5
499.701	1562.5
499.918	1615.5
500.135	1699.5
500.352	1728.5
500.569	1743.5
500.786	1739.5
501.003	1758.5
501.22	1680.5
501.437	1618.5
501.654	1543.5
501.871	1438.5
502.088	1402.5
502.305	1374.5
502.522	1343.5
502.739	1261.5
502.956	1258.5
503.172	1223.5
503.389	1176.5
503.606	1148.5
503.823	1152.5
504.04	1124.5
504.256	1100.5
504.473	1119.5
504.69	1108.5
504.907	1101.5
505.123	1044.5
505.34	1058.5
505.557	1031.5
505.773	1013.5
505.99	1001.5
506.207	943.5
506.423	941.5
506.64	959.5
506.856	956.5
507.073	928.5
507.289	938.5
507.506	891.5
507.722	913.5
507.939	915.5
508.155	898.5
508.372	872.5
508.588	878.5
508.805	883.5
509.021	872.5
509.238	899.5
509.454	855.5
509.67	861.5
509.887	858.5
510.103	871.5
510.319	862.5
510.536	850.5
510.752	825.5
510.968	844.5
511.184	830.5
511.401	867.5
511.617	849.5
511.833	856.5
512.049	835.5
512.265	846.5
512.481	842.5
512.698	829.5
512.914	827.5
513.13	847.5
513.346	822.5
513.562	821.5
513.778	803.5
513.994	842.5
514.21	820.5
514.426	837.5
514.642	823.5
514.858	854.5
515.074	876.5
515.29	842.5
515.506	858.5
515.721	842.5
515.937	851.5
516.153	869.5
516.369	882.5
516.585	857.5
516.801	912.5
517.016	916.5
517.232	925.5
517.448	910.5
517.664	946.5
