Data from Ni(NO3)2@0.5M.TitratingCurve.Agarose3%dH2O.NegLispCup.LampEnergy10.LIBS07252019_HRD10591_18-00-25-564.txt Node
Date: Thu Jul 25 18:00:25 EDT 2019
User: cochatt
Spectrometer: HR+D1059
Trigger mode: 1
Integration Time (sec): 1.000000E-1
Scans to average: 1
Electric dark correction enabled: true
Nonlinearity correction enabled: false
Boxcar width: 0
XAxis mode: Wavelengths
Number of Pixels in Spectrum: 2048
>>>>>Begin Spectral Data<<<<<
223.165	-31.5
223.4	-31.5
223.635	-31.5
223.869	-25.5
224.104	-29.5
224.338	2.5
224.573	-7.5
224.808	-8.5
225.042	-16.5
225.277	-4.5
225.511	4.5
225.746	-3.5
225.98	14.5
226.215	12.5
226.449	13.5
226.683	21.5
226.918	16.5
227.152	41.5
227.387	46.5
227.621	35.5
227.856	42.5
228.09	51.5
228.324	46.5
228.559	68.5
228.793	74.5
229.027	116.5
229.262	142.5
229.496	141.5
229.73	151.5
229.964	151.5
230.199	192.5
230.433	181.5
230.667	178.5
230.901	198.5
231.136	175.5
231.37	170.5
231.604	188.5
231.838	193.5
232.072	198.5
232.306	199.5
232.541	189.5
232.775	186.5
233.009	178.5
233.243	175.5
233.477	186.5
233.711	177.5
233.945	203.5
234.179	204.5
234.413	166.5
234.647	187.5
234.881	202.5
235.115	202.5
235.349	191.5
235.583	194.5
235.817	192.5
236.051	180.5
236.285	192.5
236.519	184.5
236.753	178.5
236.987	198.5
237.221	204.5
237.455	214.5
237.689	211.5
237.922	224.5
238.156	212.5
238.39	201.5
238.624	190.5
238.858	191.5
239.091	221.5
239.325	197.5
239.559	233.5
239.793	222.5
240.027	248.5
240.26	229.5
240.494	223.5
240.728	226.5
240.961	239.5
241.195	236.5
241.429	225.5
241.662	255.5
241.896	256.5
242.13	261.5
242.363	237.5
242.597	246.5
242.83	243.5
243.064	236.5
243.298	254.5
243.531	254.5
243.765	279.5
243.998	274.5
244.232	271.5
244.465	293.5
244.699	258.5
244.932	280.5
245.166	293.5
245.399	290.5
245.633	258.5
245.866	277.5
246.099	279.5
246.333	296.5
246.566	275.5
246.8	284.5
247.033	284.5
247.266	290.5
247.5	309.5
247.733	285.5
247.966	314.5
248.2	317.5
248.433	302.5
248.666	300.5
248.899	309.5
249.133	308.5
249.366	314.5
249.599	312.5
249.832	315.5
250.066	326.5
250.299	339.5
250.532	327.5
250.765	333.5
250.998	349.5
251.231	333.5
251.465	359.5
251.698	353.5
251.931	345.5
252.164	342.5
252.397	350.5
252.63	342.5
252.863	364.5
253.096	367.5
253.329	349.5
253.562	344.5
253.795	356.5
254.028	361.5
254.261	360.5
254.494	396.5
254.727	378.5
254.96	366.5
255.193	374.5
255.426	377.5
255.659	389.5
255.892	378.5
256.124	391.5
256.357	390.5
256.59	392.5
256.823	404.5
257.056	369.5
257.289	388.5
257.521	401.5
257.754	399.5
257.987	395.5
258.22	401.5
258.452	422.5
258.685	412.5
258.918	404.5
259.151	407.5
259.383	412.5
259.616	440.5
259.849	423.5
260.081	413.5
260.314	429.5
260.547	427.5
260.779	421.5
261.012	441.5
261.244	444.5
261.477	438.5
261.71	440.5
261.942	444.5
262.175	436.5
262.407	457.5
262.64	438.5
262.872	460.5
263.105	465.5
263.337	440.5
263.57	445.5
263.802	430.5
264.035	463.5
264.267	478.5
264.499	475.5
264.732	462.5
264.964	474.5
265.197	464.5
265.429	476.5
265.661	489.5
265.894	467.5
266.126	484.5
266.358	499.5
266.591	497.5
266.823	478.5
267.055	508.5
267.287	516.5
267.52	501.5
267.752	506.5
267.984	516.5
268.216	521.5
268.448	502.5
268.681	507.5
268.913	506.5
269.145	519.5
269.377	520.5
269.609	517.5
269.841	524.5
270.073	493.5
270.306	516.5
270.538	540.5
270.77	496.5
271.002	526.5
271.234	534.5
271.466	524.5
271.698	521.5
271.93	540.5
272.162	529.5
272.394	547.5
272.626	551.5
272.858	527.5
273.09	550.5
273.322	545.5
273.553	558.5
273.785	566.5
274.017	576.5
274.249	557.5
274.481	558.5
274.713	573.5
274.945	578.5
275.176	560.5
275.408	574.5
275.64	586.5
275.872	598.5
276.104	595.5
276.335	589.5
276.567	585.5
276.799	604.5
277.031	571.5
277.262	611.5
277.494	582.5
277.726	618.5
277.957	586.5
278.189	596.5
278.421	574.5
278.652	596.5
278.884	625.5
279.115	597.5
279.347	601.5
279.579	619.5
279.81	596.5
280.042	615.5
280.273	607.5
280.505	634.5
280.736	618.5
280.968	607.5
281.199	613.5
281.431	623.5
281.662	643.5
281.894	621.5
282.125	608.5
282.356	655.5
282.588	642.5
282.819	630.5
283.051	660.5
283.282	633.5
283.513	635.5
283.745	662.5
283.976	656.5
284.207	657.5
284.439	665.5
284.67	686.5
284.901	678.5
285.132	664.5
285.364	663.5
285.595	679.5
285.826	673.5
286.057	686.5
286.288	675.5
286.52	684.5
286.751	686.5
286.982	687.5
287.213	696.5
287.444	683.5
287.675	691.5
287.906	694.5
288.138	680.5
288.369	716.5
288.6	719.5
288.831	698.5
289.062	693.5
289.293	714.5
289.524	694.5
289.755	726.5
289.986	710.5
290.217	718.5
290.448	680.5
290.679	716.5
290.91	710.5
291.141	708.5
291.371	714.5
291.602	702.5
291.833	678.5
292.064	707.5
292.295	709.5
292.526	716.5
292.757	708.5
292.987	701.5
293.218	714.5
293.449	748.5
293.68	714.5
293.91	719.5
294.141	738.5
294.372	724.5
294.603	718.5
294.833	706.5
295.064	699.5
295.295	714.5
295.525	728.5
295.756	741.5
295.987	719.5
296.217	718.5
296.448	737.5
296.679	736.5
296.909	733.5
297.14	742.5
297.37	762.5
297.601	730.5
297.831	774.5
298.062	767.5
298.292	735.5
298.523	776.5
298.753	766.5
298.984	755.5
299.214	772.5
299.445	785.5
299.675	778.5
299.905	789.5
300.136	782.5
300.366	809.5
300.597	762.5
300.827	790.5
301.057	778.5
301.288	788.5
301.518	803.5
301.748	800.5
301.979	835.5
302.209	825.5
302.439	804.5
302.669	818.5
302.9	822.5
303.13	809.5
303.36	815.5
303.59	829.5
303.82	806.5
304.051	845.5
304.281	835.5
304.511	840.5
304.741	860.5
304.971	829.5
305.201	837.5
305.431	852.5
305.661	842.5
305.891	846.5
306.121	843.5
306.352	801.5
306.582	819.5
306.812	819.5
307.042	852.5
307.272	831.5
307.502	835.5
307.731	828.5
307.961	831.5
308.191	826.5
308.421	824.5
308.651	800.5
308.881	807.5
309.111	824.5
309.341	806.5
309.571	829.5
309.8	837.5
310.03	843.5
310.26	886.5
310.49	854.5
310.72	830.5
310.949	832.5
311.179	834.5
311.409	854.5
311.639	832.5
311.868	842.5
312.098	876.5
312.328	879.5
312.557	865.5
312.787	856.5
313.017	877.5
313.246	872.5
313.476	882.5
313.706	892.5
313.935	883.5
314.165	860.5
314.394	901.5
314.624	890.5
314.853	876.5
315.083	873.5
315.312	913.5
315.542	886.5
315.771	859.5
316.001	891.5
316.23	892.5
316.46	871.5
316.689	892.5
316.919	877.5
317.148	889.5
317.377	908.5
317.607	918.5
317.836	867.5
318.065	876.5
318.295	897.5
318.524	904.5
318.753	883.5
318.983	896.5
319.212	872.5
319.441	900.5
319.67	884.5
319.9	895.5
320.129	901.5
320.358	916.5
320.587	928.5
320.816	919.5
321.046	896.5
321.275	903.5
321.504	901.5
321.733	913.5
321.962	928.5
322.191	910.5
322.42	919.5
322.649	930.5
322.878	954.5
323.108	933.5
323.337	936.5
323.566	942.5
323.795	966.5
324.024	960.5
324.253	935.5
324.482	938.5
324.71	960.5
324.939	959.5
325.168	974.5
325.397	984.5
325.626	981.5
325.855	966.5
326.084	996.5
326.313	997.5
326.542	1009.5
326.77	991.5
326.999	996.5
327.228	970.5
327.457	970.5
327.686	991.5
327.914	987.5
328.143	1015.5
328.372	1012.5
328.6	1023.5
328.829	992.5
329.058	1012.5
329.287	988.5
329.515	1021.5
329.744	1014.5
329.972	1010.5
330.201	1022.5
330.43	1058.5
330.658	1010.5
330.887	1019.5
331.115	1028.5
331.344	1062.5
331.572	1025.5
331.801	1084.5
332.03	1108.5
332.258	1092.5
332.486	1080.5
332.715	1114.5
332.943	1148.5
333.172	1171.5
333.4	1176.5
333.629	1209.5
333.857	1218.5
334.085	1222.5
334.314	1220.5
334.542	1232.5
334.771	1231.5
334.999	1221.5
335.227	1211.5
335.455	1184.5
335.684	1195.5
335.912	1210.5
336.14	1210.5
336.369	1219.5
336.597	1198.5
336.825	1199.5
337.053	1195.5
337.281	1179.5
337.51	1188.5
337.738	1133.5
337.966	1185.5
338.194	1128.5
338.422	1136.5
338.65	1122.5
338.878	1115.5
339.106	1118.5
339.334	1114.5
339.562	1112.5
339.79	1084.5
340.018	1077.5
340.246	1077.5
340.474	1072.5
340.702	1082.5
340.93	1088.5
341.158	1064.5
341.386	1085.5
341.614	1127.5
341.842	1117.5
342.07	1094.5
342.298	1094.5
342.526	1081.5
342.754	1064.5
342.981	1066.5
343.209	1098.5
343.437	1147.5
343.665	1190.5
343.893	1183.5
344.12	1232.5
344.348	1210.5
344.576	1189.5
344.804	1171.5
345.031	1140.5
345.259	1124.5
345.487	1103.5
345.714	1112.5
345.942	1129.5
346.17	1140.5
346.397	1084.5
346.625	1065.5
346.853	1060.5
347.08	1051.5
347.308	1029.5
347.535	1041.5
347.763	1029.5
347.99	1040.5
348.218	1043.5
348.445	1018.5
348.673	1026.5
348.9	1007.5
349.128	1042.5
349.355	1038.5
349.583	1058.5
349.81	1031.5
350.037	1000.5
350.265	1010.5
350.492	995.5
350.72	999.5
350.947	1010.5
351.174	1025.5
351.402	1016.5
351.629	1015.5
351.856	1026.5
352.083	1007.5
352.311	1040.5
352.538	1062.5
352.765	1050.5
352.992	1013.5
353.22	971.5
353.447	988.5
353.674	1003.5
353.901	984.5
354.128	974.5
354.355	989.5
354.583	964.5
354.81	989.5
355.037	983.5
355.264	969.5
355.491	989.5
355.718	1013.5
355.945	973.5
356.172	1019.5
356.399	1005.5
356.626	1026.5
356.853	1018.5
357.08	998.5
357.307	1005.5
357.534	1001.5
357.761	1026.5
357.988	999.5
358.215	982.5
358.441	980.5
358.668	988.5
358.895	1033.5
359.122	974.5
359.349	1000.5
359.576	983.5
359.802	988.5
360.029	1024.5
360.256	963.5
360.483	976.5
360.709	991.5
360.936	1039.5
361.163	975.5
361.39	1014.5
361.616	984.5
361.843	1014.5
362.07	1046.5
362.296	1041.5
362.523	1023.5
362.749	1003.5
362.976	1013.5
363.203	1002.5
363.429	990.5
363.656	993.5
363.882	1003.5
364.109	1010.5
364.335	1002.5
364.562	1012.5
364.788	1001.5
365.015	1006.5
365.241	997.5
365.468	1021.5
365.694	1016.5
365.92	1011.5
366.147	1005.5
366.373	1024.5
366.599	1014.5
366.826	1002.5
367.052	1000.5
367.278	1007.5
367.505	1029.5
367.731	1015.5
367.957	989.5
368.184	1010.5
368.41	1041.5
368.636	1062.5
368.862	1039.5
369.089	1049.5
369.315	1037.5
369.541	1046.5
369.767	1058.5
369.993	1050.5
370.219	1023.5
370.445	1044.5
370.672	1095.5
370.898	1075.5
371.124	1072.5
371.35	1084.5
371.576	1120.5
371.802	1080.5
372.028	1099.5
372.254	1096.5
372.48	1099.5
372.706	1095.5
372.932	1111.5
373.158	1118.5
373.384	1103.5
373.61	1107.5
373.835	1108.5
374.061	1075.5
374.287	1093.5
374.513	1116.5
374.739	1164.5
374.965	1179.5
375.191	1159.5
375.416	1172.5
375.642	1107.5
375.868	1108.5
376.094	1095.5
376.319	1115.5
376.545	1112.5
376.771	1103.5
376.997	1110.5
377.222	1099.5
377.448	1100.5
377.674	1061.5
377.899	1041.5
378.125	1092.5
378.35	1074.5
378.576	1086.5
378.802	1084.5
379.027	1082.5
379.253	1079.5
379.478	1054.5
379.704	1049.5
379.929	1077.5
380.155	1085.5
380.38	1064.5
380.606	1076.5
380.831	1096.5
381.057	1114.5
381.282	1082.5
381.507	1086.5
381.733	1123.5
381.958	1064.5
382.184	1090.5
382.409	1102.5
382.634	1103.5
382.86	1111.5
383.085	1121.5
383.31	1122.5
383.535	1144.5
383.761	1160.5
383.986	1155.5
384.211	1171.5
384.436	1198.5
384.662	1192.5
384.887	1200.5
385.112	1212.5
385.337	1199.5
385.562	1227.5
385.787	1246.5
386.013	1230.5
386.238	1268.5
386.463	1236.5
386.688	1286.5
386.913	1228.5
387.138	1226.5
387.363	1238.5
387.588	1271.5
387.813	1275.5
388.038	1242.5
388.263	1291.5
388.488	1284.5
388.713	1229.5
388.938	1228.5
389.163	1285.5
389.387	1280.5
389.612	1275.5
389.837	1252.5
390.062	1232.5
390.287	1262.5
390.512	1255.5
390.736	1278.5
390.961	1317.5
391.186	1307.5
391.411	1316.5
391.636	1344.5
391.86	1368.5
392.085	1396.5
392.31	1383.5
392.534	1360.5
392.759	1383.5
392.984	1327.5
393.208	1331.5
393.433	1323.5
393.658	1295.5
393.882	1344.5
394.107	1333.5
394.331	1346.5
394.556	1316.5
394.78	1327.5
395.005	1352.5
395.229	1382.5
395.454	1417.5
395.678	1404.5
395.903	1346.5
396.127	1420.5
396.352	1390.5
396.576	1355.5
396.801	1370.5
397.025	1392.5
397.249	1415.5
397.474	1443.5
397.698	1414.5
397.922	1458.5
398.147	1443.5
398.371	1459.5
398.595	1489.5
398.82	1544.5
399.044	1606.5
399.268	1727.5
399.492	1857.5
399.717	1864.5
399.941	1903.5
400.165	1850.5
400.389	1794.5
400.613	1700.5
400.837	1665.5
401.062	1622.5
401.286	1584.5
401.51	1578.5
401.734	1526.5
401.958	1558.5
402.182	1532.5
402.406	1557.5
402.63	1560.5
402.854	1592.5
403.078	1554.5
403.302	1578.5
403.526	1602.5
403.75	1563.5
403.974	1609.5
404.198	1574.5
404.422	1618.5
404.645	1655.5
404.869	1595.5
405.093	1604.5
405.317	1609.5
405.541	1648.5
405.765	1684.5
405.988	1659.5
406.212	1633.5
406.436	1667.5
406.66	1701.5
406.883	1675.5
407.107	1741.5
407.331	1828.5
407.555	1891.5
407.778	1866.5
408.002	1839.5
408.226	1806.5
408.449	1835.5
408.673	1784.5
408.896	1735.5
409.12	1725.5
409.344	1744.5
409.567	1677.5
409.791	1712.5
410.014	1695.5
410.238	1650.5
410.461	1673.5
410.685	1644.5
410.908	1656.5
411.132	1643.5
411.355	1581.5
411.578	1622.5
411.802	1637.5
412.025	1601.5
412.249	1612.5
412.472	1634.5
412.695	1582.5
412.919	1568.5
413.142	1576.5
413.365	1537.5
413.589	1594.5
413.812	1552.5
414.035	1558.5
414.258	1564.5
414.482	1582.5
414.705	1576.5
414.928	1571.5
415.151	1572.5
415.374	1537.5
415.597	1546.5
415.821	1512.5
416.044	1506.5
416.267	1529.5
416.49	1466.5
416.713	1478.5
416.936	1514.5
417.159	1488.5
417.382	1519.5
417.605	1516.5
417.828	1511.5
418.051	1512.5
418.274	1480.5
418.497	1486.5
418.72	1526.5
418.943	1532.5
419.166	1599.5
419.389	1648.5
419.611	1662.5
419.834	1588.5
420.057	1545.5
420.28	1529.5
420.503	1505.5
420.726	1474.5
420.948	1441.5
421.171	1466.5
421.394	1484.5
421.617	1465.5
421.839	1488.5
422.062	1492.5
422.285	1458.5
422.507	1480.5
422.73	1487.5
422.953	1454.5
423.175	1499.5
423.398	1484.5
423.621	1455.5
423.843	1495.5
424.066	1509.5
424.288	1498.5
424.511	1488.5
424.733	1513.5
424.956	1492.5
425.178	1508.5
425.401	1473.5
425.623	1488.5
425.846	1451.5
426.068	1440.5
426.291	1482.5
426.513	1410.5
426.735	1399.5
426.958	1441.5
427.18	1425.5
427.402	1447.5
427.625	1435.5
427.847	1415.5
428.069	1417.5
428.292	1408.5
428.514	1407.5
428.736	1379.5
428.958	1435.5
429.181	1362.5
429.403	1391.5
429.625	1359.5
429.847	1384.5
430.069	1360.5
430.292	1380.5
430.514	1368.5
430.736	1382.5
430.958	1371.5
431.18	1389.5
431.402	1364.5
431.624	1364.5
431.846	1386.5
432.068	1417.5
432.29	1406.5
432.512	1369.5
432.734	1397.5
432.956	1414.5
433.178	1403.5
433.4	1469.5
433.622	1446.5
433.844	1441.5
434.066	1406.5
434.287	1440.5
434.509	1425.5
434.731	1489.5
434.953	1501.5
435.175	1497.5
435.397	1518.5
435.618	1480.5
435.84	1405.5
436.062	1389.5
436.284	1394.5
436.505	1418.5
436.727	1387.5
436.949	1400.5
437.17	1402.5
437.392	1403.5
437.614	1407.5
437.835	1359.5
438.057	1368.5
438.278	1336.5
438.5	1331.5
438.721	1306.5
438.943	1366.5
439.165	1346.5
439.386	1332.5
439.608	1351.5
439.829	1366.5
440.05	1343.5
440.272	1335.5
440.493	1383.5
440.715	1423.5
440.936	1396.5
441.158	1405.5
441.379	1451.5
441.6	1472.5
441.822	1462.5
442.043	1499.5
442.264	1475.5
442.486	1462.5
442.707	1456.5
442.928	1446.5
443.149	1471.5
443.371	1478.5
443.592	1530.5
443.813	1514.5
444.034	1487.5
444.255	1498.5
444.476	1552.5
444.698	1555.5
444.919	1633.5
445.14	1718.5
445.361	1604.5
445.582	1540.5
445.803	1451.5
446.024	1397.5
446.245	1449.5
446.466	1459.5
446.687	1397.5
446.908	1400.5
447.129	1363.5
447.35	1338.5
447.571	1362.5
447.792	1332.5
448.013	1346.5
448.234	1298.5
448.455	1272.5
448.675	1297.5
448.896	1263.5
449.117	1288.5
449.338	1287.5
449.559	1261.5
449.779	1279.5
450	1237.5
450.221	1245.5
450.442	1262.5
450.662	1257.5
450.883	1254.5
451.104	1277.5
451.324	1275.5
451.545	1270.5
451.766	1268.5
451.986	1261.5
452.207	1227.5
452.428	1260.5
452.648	1258.5
452.869	1219.5
453.089	1244.5
453.31	1241.5
453.53	1232.5
453.751	1206.5
453.971	1232.5
454.192	1229.5
454.412	1228.5
454.633	1187.5
454.853	1209.5
455.073	1197.5
455.294	1181.5
455.514	1178.5
455.734	1222.5
455.955	1208.5
456.175	1202.5
456.395	1154.5
456.616	1167.5
456.836	1188.5
457.056	1199.5
457.276	1178.5
457.497	1208.5
457.717	1263.5
457.937	1231.5
458.157	1210.5
458.377	1218.5
458.598	1278.5
458.818	1257.5
459.038	1278.5
459.258	1322.5
459.478	1388.5
459.698	1446.5
459.918	1472.5
460.138	1485.5
460.358	1525.5
460.578	1541.5
460.798	1583.5
461.018	1595.5
461.238	1536.5
461.458	1541.5
461.678	1547.5
461.898	1574.5
462.118	1593.5
462.338	1625.5
462.558	1657.5
462.777	1683.5
462.997	1756.5
463.217	1842.5
463.437	1869.5
463.657	1803.5
463.876	1766.5
464.096	1730.5
464.316	1722.5
464.536	1679.5
464.755	1655.5
464.975	1627.5
465.195	1602.5
465.414	1542.5
465.634	1460.5
465.854	1438.5
466.073	1408.5
466.293	1402.5
466.512	1356.5
466.732	1350.5
466.951	1356.5
467.171	1343.5
467.391	1361.5
467.61	1314.5
467.829	1308.5
468.049	1321.5
468.268	1276.5
468.488	1279.5
468.707	1315.5
468.927	1307.5
469.146	1286.5
469.365	1292.5
469.585	1296.5
469.804	1307.5
470.023	1306.5
470.243	1306.5
470.462	1291.5
470.681	1361.5
470.901	1346.5
471.12	1347.5
471.339	1355.5
471.558	1320.5
471.777	1310.5
471.997	1325.5
472.216	1282.5
472.435	1278.5
472.654	1289.5
472.873	1261.5
473.092	1273.5
473.311	1261.5
473.53	1262.5
473.749	1261.5
473.968	1270.5
474.187	1279.5
474.406	1266.5
474.625	1247.5
474.844	1296.5
475.063	1296.5
475.282	1289.5
475.501	1307.5
475.72	1280.5
475.939	1323.5
476.158	1332.5
476.377	1348.5
476.596	1333.5
476.814	1359.5
477.033	1324.5
477.252	1411.5
477.471	1381.5
477.69	1418.5
477.908	1442.5
478.127	1473.5
478.346	1477.5
478.564	1501.5
478.783	1547.5
479.002	1558.5
479.22	1587.5
479.439	1582.5
479.658	1546.5
479.876	1503.5
480.095	1564.5
480.313	1594.5
480.532	1624.5
480.751	1598.5
480.969	1564.5
481.188	1547.5
481.406	1510.5
481.624	1492.5
481.843	1488.5
482.061	1493.5
482.28	1475.5
482.498	1489.5
482.717	1477.5
482.935	1476.5
483.153	1499.5
483.372	1498.5
483.59	1526.5
483.808	1518.5
484.027	1502.5
484.245	1520.5
484.463	1488.5
484.681	1521.5
484.9	1553.5
485.118	1536.5
485.336	1507.5
485.554	1552.5
485.772	1531.5
485.99	1514.5
486.209	1539.5
486.427	1550.5
486.645	1532.5
486.863	1523.5
487.081	1558.5
487.299	1542.5
487.517	1563.5
487.735	1552.5
487.953	1573.5
488.171	1527.5
488.389	1503.5
488.607	1544.5
488.825	1531.5
489.043	1503.5
489.261	1513.5
489.479	1523.5
489.696	1514.5
489.914	1521.5
490.132	1578.5
490.35	1562.5
490.568	1578.5
490.786	1540.5
491.003	1556.5
491.221	1553.5
491.439	1546.5
491.657	1579.5
491.874	1589.5
492.092	1578.5
492.31	1558.5
492.527	1579.5
492.745	1575.5
492.963	1551.5
493.18	1590.5
493.398	1602.5
493.615	1610.5
493.833	1601.5
494.05	1602.5
494.268	1623.5
494.485	1586.5
494.703	1580.5
494.92	1652.5
495.138	1680.5
495.355	1622.5
495.573	1639.5
495.79	1664.5
496.008	1674.5
496.225	1693.5
496.442	1687.5
496.66	1691.5
496.877	1753.5
497.094	1777.5
497.312	1789.5
497.529	1801.5
497.746	1833.5
497.963	1898.5
498.181	2005.5
498.398	2042.5
498.615	2105.5
498.832	2238.5
499.049	2300.5
499.267	2434.5
499.484	2601.5
499.701	2751.5
499.918	2894.5
500.135	3125.5
500.352	3293.5
500.569	3339.5
500.786	3343.5
501.003	3240.5
501.22	3067.5
501.437	2850.5
501.654	2664.5
501.871	2534.5
502.088	2390.5
502.305	2322.5
502.522	2227.5
502.739	2137.5
502.956	2081.5
503.172	2025.5
503.389	1941.5
503.606	1927.5
503.823	1835.5
504.04	1818.5
504.256	1816.5
504.473	1813.5
504.69	1778.5
504.907	1735.5
505.123	1704.5
505.34	1673.5
505.557	1610.5
505.773	1570.5
505.99	1572.5
506.207	1539.5
506.423	1506.5
506.64	1468.5
506.856	1452.5
507.073	1487.5
507.289	1445.5
507.506	1385.5
507.722	1410.5
507.939	1399.5
508.155	1385.5
