Data from Ni(NO3)2Standard.Agarose3%.GreenCap.LampEnergy5.5.E.O_HRD10591_14-41-17-189.txt Node
Date: Mon Jul 22 14:41:17 EDT 2019
User: cochatt
Spectrometer: HR+D1059
Trigger mode: 1
Integration Time (sec): 1.000000E-1
Scans to average: 1
Electric dark correction enabled: true
Nonlinearity correction enabled: false
Boxcar width: 0
XAxis mode: Wavelengths
Number of Pixels in Spectrum: 2048
>>>>>Begin Spectral Data<<<<<
223.165	-5.81
223.4	-5.81
223.635	-5.81
223.869	-5.81
224.104	-24.81
224.338	-16.81
224.573	-3.81
224.808	-17.81
225.042	2.19
225.277	-5.81
225.511	-3.81
225.746	-1.81
225.98	2.19
226.215	5.19
226.449	16.19
226.683	15.19
226.918	19.19
227.152	26.19
227.387	37.19
227.621	32.19
227.856	51.19
228.09	54.19
228.324	54.19
228.559	60.19
228.793	59.19
229.027	60.19
229.262	94.19
229.496	63.19
229.73	82.19
229.964	73.19
230.199	70.19
230.433	66.19
230.667	86.19
230.901	82.19
231.136	87.19
231.37	73.19
231.604	70.19
231.838	83.19
232.072	86.19
232.306	82.19
232.541	79.19
232.775	69.19
233.009	86.19
233.243	74.19
233.477	88.19
233.711	72.19
233.945	78.19
234.179	89.19
234.413	80.19
234.647	78.19
234.881	81.19
235.115	91.19
235.349	68.19
235.583	82.19
235.817	77.19
236.051	77.19
236.285	84.19
236.519	82.19
236.753	64.19
236.987	80.19
237.221	77.19
237.455	77.19
237.689	89.19
237.922	86.19
238.156	90.19
238.39	75.19
238.624	75.19
238.858	70.19
239.091	80.19
239.325	77.19
239.559	84.19
239.793	71.19
240.027	80.19
240.26	80.19
240.494	77.19
240.728	78.19
240.961	75.19
241.195	79.19
241.429	84.19
241.662	74.19
241.896	77.19
242.13	90.19
242.363	81.19
242.597	81.19
242.83	69.19
243.064	64.19
243.298	74.19
243.531	72.19
243.765	78.19
243.998	69.19
244.232	88.19
244.465	77.19
244.699	70.19
244.932	62.19
245.166	83.19
245.399	85.19
245.633	79.19
245.866	74.19
246.099	64.19
246.333	87.19
246.566	88.19
246.8	71.19
247.033	78.19
247.266	56.19
247.5	71.19
247.733	80.19
247.966	69.19
248.2	88.19
248.433	87.19
248.666	75.19
248.899	78.19
249.133	73.19
249.366	64.19
249.599	85.19
249.832	71.19
250.066	88.19
250.299	73.19
250.532	76.19
250.765	85.19
250.998	90.19
251.231	81.19
251.465	80.19
251.698	87.19
251.931	77.19
252.164	85.19
252.397	82.19
252.63	75.19
252.863	80.19
253.096	76.19
253.329	78.19
253.562	88.19
253.795	103.19
254.028	87.19
254.261	77.19
254.494	87.19
254.727	91.19
254.96	88.19
255.193	85.19
255.426	86.19
255.659	80.19
255.892	86.19
256.124	87.19
256.357	98.19
256.59	88.19
256.823	70.19
257.056	76.19
257.289	85.19
257.521	87.19
257.754	72.19
257.987	84.19
258.22	82.19
258.452	74.19
258.685	70.19
258.918	80.19
259.151	90.19
259.383	83.19
259.616	69.19
259.849	79.19
260.081	99.19
260.314	86.19
260.547	95.19
260.779	63.19
261.012	90.19
261.244	80.19
261.477	88.19
261.71	75.19
261.942	71.19
262.175	80.19
262.407	72.19
262.64	92.19
262.872	83.19
263.105	89.19
263.337	89.19
263.57	79.19
263.802	97.19
264.035	75.19
264.267	72.19
264.499	82.19
264.732	97.19
264.964	83.19
265.197	77.19
265.429	80.19
265.661	73.19
265.894	79.19
266.126	90.19
266.358	95.19
266.591	83.19
266.823	78.19
267.055	82.19
267.287	86.19
267.52	88.19
267.752	97.19
267.984	79.19
268.216	84.19
268.448	90.19
268.681	94.19
268.913	92.19
269.145	92.19
269.377	84.19
269.609	77.19
269.841	76.19
270.073	81.19
270.306	88.19
270.538	87.19
270.77	92.19
271.002	92.19
271.234	82.19
271.466	90.19
271.698	77.19
271.93	76.19
272.162	86.19
272.394	93.19
272.626	77.19
272.858	81.19
273.09	85.19
273.322	83.19
273.553	81.19
273.785	83.19
274.017	67.19
274.249	89.19
274.481	88.19
274.713	82.19
274.945	94.19
275.176	86.19
275.408	76.19
275.64	90.19
275.872	98.19
276.104	95.19
276.335	97.19
276.567	94.19
276.799	76.19
277.031	90.19
277.262	86.19
277.494	83.19
277.726	84.19
277.957	84.19
278.189	70.19
278.421	77.19
278.652	86.19
278.884	89.19
279.115	71.19
279.347	86.19
279.579	87.19
279.81	86.19
280.042	92.19
280.273	84.19
280.505	77.19
280.736	82.19
280.968	89.19
281.199	88.19
281.431	83.19
281.662	91.19
281.894	96.19
282.125	95.19
282.356	70.19
282.588	72.19
282.819	91.19
283.051	86.19
283.282	86.19
283.513	83.19
283.745	79.19
283.976	83.19
284.207	72.19
284.439	91.19
284.67	104.19
284.901	90.19
285.132	92.19
285.364	95.19
285.595	76.19
285.826	93.19
286.057	79.19
286.288	76.19
286.52	83.19
286.751	78.19
286.982	65.19
287.213	85.19
287.444	94.19
287.675	70.19
287.906	67.19
288.138	73.19
288.369	76.19
288.6	88.19
288.831	78.19
289.062	76.19
289.293	83.19
289.524	80.19
289.755	87.19
289.986	74.19
290.217	78.19
290.448	87.19
290.679	85.19
290.91	98.19
291.141	100.19
291.371	83.19
291.602	76.19
291.833	103.19
292.064	87.19
292.295	63.19
292.526	77.19
292.757	90.19
292.987	92.19
293.218	82.19
293.449	76.19
293.68	73.19
293.91	80.19
294.141	73.19
294.372	82.19
294.603	79.19
294.833	87.19
295.064	100.19
295.295	74.19
295.525	76.19
295.756	87.19
295.987	88.19
296.217	91.19
296.448	89.19
296.679	77.19
296.909	90.19
297.14	82.19
297.37	95.19
297.601	86.19
297.831	85.19
298.062	93.19
298.292	91.19
298.523	101.19
298.753	91.19
298.984	84.19
299.214	74.19
299.445	98.19
299.675	86.19
299.905	95.19
300.136	87.19
300.366	74.19
300.597	80.19
300.827	87.19
301.057	78.19
301.288	78.19
301.518	79.19
301.748	68.19
301.979	98.19
302.209	87.19
302.439	79.19
302.669	95.19
302.9	75.19
303.13	88.19
303.36	83.19
303.59	77.19
303.82	97.19
304.051	95.19
304.281	86.19
304.511	93.19
304.741	74.19
304.971	83.19
305.201	92.19
305.431	86.19
305.661	83.19
305.891	71.19
306.121	83.19
306.352	89.19
306.582	91.19
306.812	71.19
307.042	97.19
307.272	83.19
307.502	80.19
307.731	93.19
307.961	92.19
308.191	89.19
308.421	81.19
308.651	82.19
308.881	87.19
309.111	91.19
309.341	108.19
309.571	78.19
309.8	84.19
310.03	86.19
310.26	83.19
310.49	91.19
310.72	93.19
310.949	77.19
311.179	103.19
311.409	91.19
311.639	83.19
311.868	95.19
312.098	92.19
312.328	92.19
312.557	93.19
312.787	80.19
313.017	87.19
313.246	87.19
313.476	85.19
313.706	74.19
313.935	88.19
314.165	86.19
314.394	82.19
314.624	86.19
314.853	104.19
315.083	80.19
315.312	100.19
315.542	96.19
315.771	79.19
316.001	88.19
316.23	84.19
316.46	77.19
316.689	84.19
316.919	79.19
317.148	90.19
317.377	87.19
317.607	78.19
317.836	73.19
318.065	81.19
318.295	91.19
318.524	82.19
318.753	86.19
318.983	90.19
319.212	90.19
319.441	83.19
319.67	100.19
319.9	100.19
320.129	73.19
320.358	91.19
320.587	98.19
320.816	88.19
321.046	85.19
321.275	80.19
321.504	83.19
321.733	94.19
321.962	80.19
322.191	101.19
322.42	98.19
322.649	77.19
322.878	85.19
323.108	88.19
323.337	95.19
323.566	93.19
323.795	88.19
324.024	88.19
324.253	82.19
324.482	84.19
324.71	82.19
324.939	91.19
325.168	93.19
325.397	81.19
325.626	75.19
325.855	86.19
326.084	80.19
326.313	80.19
326.542	94.19
326.77	81.19
326.999	85.19
327.228	78.19
327.457	96.19
327.686	80.19
327.914	79.19
328.143	92.19
328.372	79.19
328.6	86.19
328.829	84.19
329.058	84.19
329.287	96.19
329.515	78.19
329.744	81.19
329.972	89.19
330.201	87.19
330.43	94.19
330.658	88.19
330.887	85.19
331.115	99.19
331.344	86.19
331.572	105.19
331.801	89.19
332.03	90.19
332.258	94.19
332.486	85.19
332.715	86.19
332.943	91.19
333.172	82.19
333.4	95.19
333.629	79.19
333.857	76.19
334.085	94.19
334.314	87.19
334.542	87.19
334.771	90.19
334.999	87.19
335.227	79.19
335.455	91.19
335.684	93.19
335.912	79.19
336.14	77.19
336.369	77.19
336.597	85.19
336.825	77.19
337.053	85.19
337.281	92.19
337.51	103.19
337.738	98.19
337.966	85.19
338.194	81.19
338.422	91.19
338.65	87.19
338.878	89.19
339.106	77.19
339.334	90.19
339.562	101.19
339.79	86.19
340.018	91.19
340.246	85.19
340.474	104.19
340.702	82.19
340.93	94.19
341.158	103.19
341.386	84.19
341.614	93.19
341.842	84.19
342.07	88.19
342.298	90.19
342.526	81.19
342.754	81.19
342.981	83.19
343.209	95.19
343.437	91.19
343.665	92.19
343.893	82.19
344.12	86.19
344.348	83.19
344.576	79.19
344.804	80.19
345.031	74.19
345.259	87.19
345.487	74.19
345.714	102.19
345.942	86.19
346.17	85.19
346.397	84.19
346.625	88.19
346.853	93.19
347.08	90.19
347.308	91.19
347.535	83.19
347.763	78.19
347.99	100.19
348.218	95.19
348.445	107.19
348.673	79.19
348.9	88.19
349.128	83.19
349.355	81.19
349.583	83.19
349.81	98.19
350.037	86.19
350.265	84.19
350.492	96.19
350.72	98.19
350.947	89.19
351.174	80.19
351.402	88.19
351.629	78.19
351.856	87.19
352.083	76.19
352.311	84.19
352.538	79.19
352.765	92.19
352.992	82.19
353.22	93.19
353.447	79.19
353.674	80.19
353.901	79.19
354.128	86.19
354.355	84.19
354.583	80.19
354.81	81.19
355.037	83.19
355.264	87.19
355.491	79.19
355.718	92.19
355.945	70.19
356.172	94.19
356.399	94.19
356.626	83.19
356.853	90.19
357.08	88.19
357.307	87.19
357.534	90.19
357.761	86.19
357.988	91.19
358.215	83.19
358.441	81.19
358.668	72.19
358.895	92.19
359.122	96.19
359.349	84.19
359.576	80.19
359.802	80.19
360.029	86.19
360.256	90.19
360.483	87.19
360.709	91.19
360.936	96.19
361.163	89.19
361.39	82.19
361.616	101.19
361.843	86.19
362.07	83.19
362.296	84.19
362.523	90.19
362.749	83.19
362.976	81.19
363.203	111.19
363.429	91.19
363.656	89.19
363.882	93.19
364.109	91.19
364.335	85.19
364.562	98.19
364.788	95.19
365.015	82.19
365.241	80.19
365.468	90.19
365.694	102.19
365.92	83.19
366.147	90.19
366.373	91.19
366.599	79.19
366.826	93.19
367.052	91.19
367.278	96.19
367.505	83.19
367.731	94.19
367.957	87.19
368.184	91.19
368.41	90.19
368.636	86.19
368.862	79.19
369.089	86.19
369.315	84.19
369.541	103.19
369.767	107.19
369.993	88.19
370.219	80.19
370.445	82.19
370.672	85.19
370.898	96.19
371.124	103.19
371.35	83.19
371.576	89.19
371.802	82.19
372.028	87.19
372.254	88.19
372.48	72.19
372.706	80.19
372.932	93.19
373.158	83.19
373.384	90.19
373.61	90.19
373.835	82.19
374.061	74.19
374.287	83.19
374.513	79.19
374.739	71.19
374.965	82.19
375.191	86.19
375.416	81.19
375.642	83.19
375.868	90.19
376.094	90.19
376.319	76.19
376.545	91.19
376.771	93.19
376.997	83.19
377.222	96.19
377.448	89.19
377.674	82.19
377.899	86.19
378.125	84.19
378.35	93.19
378.576	78.19
378.802	91.19
379.027	84.19
379.253	91.19
379.478	88.19
379.704	79.19
379.929	68.19
380.155	85.19
380.38	79.19
380.606	89.19
380.831	84.19
381.057	93.19
381.282	82.19
381.507	79.19
381.733	86.19
381.958	72.19
382.184	95.19
382.409	98.19
382.634	79.19
382.86	90.19
383.085	84.19
383.31	79.19
383.535	88.19
383.761	77.19
383.986	92.19
384.211	102.19
384.436	92.19
384.662	77.19
384.887	103.19
385.112	86.19
385.337	75.19
385.562	91.19
385.787	92.19
386.013	95.19
386.238	79.19
386.463	72.19
386.688	93.19
386.913	90.19
387.138	74.19
387.363	75.19
387.588	89.19
387.813	77.19
388.038	83.19
388.263	84.19
388.488	98.19
388.713	88.19
388.938	89.19
389.163	93.19
389.387	91.19
389.612	91.19
389.837	77.19
390.062	70.19
390.287	78.19
390.512	89.19
390.736	83.19
390.961	69.19
391.186	87.19
391.411	87.19
391.636	77.19
391.86	87.19
392.085	76.19
392.31	91.19
392.534	88.19
392.759	87.19
392.984	88.19
393.208	82.19
393.433	95.19
393.658	87.19
393.882	72.19
394.107	78.19
394.331	90.19
394.556	71.19
394.78	87.19
395.005	85.19
395.229	83.19
395.454	89.19
395.678	90.19
395.903	81.19
396.127	80.19
396.352	83.19
396.576	81.19
396.801	79.19
397.025	88.19
397.249	94.19
397.474	90.19
397.698	84.19
397.922	94.19
398.147	80.19
398.371	91.19
398.595	96.19
398.82	90.19
399.044	82.19
399.268	79.19
399.492	86.19
399.717	83.19
399.941	80.19
400.165	96.19
400.389	93.19
400.613	94.19
400.837	87.19
401.062	88.19
401.286	75.19
401.51	82.19
401.734	91.19
401.958	89.19
402.182	78.19
402.406	73.19
402.63	102.19
402.854	88.19
403.078	74.19
403.302	65.19
403.526	78.19
403.75	86.19
403.974	91.19
404.198	93.19
404.422	88.19
404.645	80.19
404.869	89.19
405.093	87.19
405.317	91.19
405.541	75.19
405.765	87.19
405.988	94.19
406.212	100.19
406.436	83.19
406.66	82.19
406.883	80.19
407.107	84.19
407.331	87.19
407.555	79.19
407.778	79.19
408.002	87.19
408.226	90.19
408.449	79.19
408.673	91.19
408.896	100.19
409.12	87.19
409.344	79.19
409.567	92.19
409.791	95.19
410.014	83.19
410.238	79.19
410.461	84.19
410.685	65.19
410.908	84.19
411.132	88.19
411.355	84.19
411.578	89.19
411.802	83.19
412.025	92.19
412.249	84.19
412.472	66.19
412.695	81.19
412.919	85.19
413.142	90.19
413.365	79.19
413.589	85.19
413.812	98.19
414.035	64.19
414.258	80.19
414.482	85.19
414.705	93.19
414.928	93.19
415.151	94.19
415.374	79.19
415.597	87.19
415.821	94.19
416.044	95.19
416.267	87.19
416.49	87.19
416.713	87.19
416.936	74.19
417.159	89.19
417.382	100.19
417.605	85.19
417.828	82.19
418.051	97.19
418.274	78.19
418.497	86.19
418.72	94.19
418.943	73.19
419.166	95.19
419.389	80.19
419.611	83.19
419.834	90.19
420.057	77.19
420.28	87.19
420.503	85.19
420.726	93.19
420.948	85.19
421.171	92.19
421.394	79.19
421.617	99.19
421.839	84.19
422.062	80.19
422.285	92.19
422.507	91.19
422.73	90.19
422.953	75.19
423.175	80.19
423.398	85.19
423.621	77.19
423.843	87.19
424.066	80.19
424.288	98.19
424.511	80.19
424.733	91.19
424.956	87.19
425.178	94.19
425.401	88.19
425.623	93.19
425.846	89.19
426.068	97.19
426.291	87.19
426.513	93.19
426.735	90.19
426.958	96.19
427.18	98.19
427.402	86.19
427.625	58.19
427.847	76.19
428.069	78.19
428.292	98.19
428.514	88.19
428.736	81.19
428.958	86.19
429.181	90.19
429.403	89.19
429.625	81.19
429.847	90.19
430.069	80.19
430.292	91.19
430.514	85.19
430.736	86.19
430.958	87.19
431.18	93.19
431.402	78.19
431.624	66.19
431.846	84.19
432.068	91.19
432.29	76.19
432.512	83.19
432.734	74.19
432.956	94.19
433.178	80.19
433.4	91.19
433.622	95.19
433.844	86.19
434.066	92.19
434.287	91.19
434.509	81.19
434.731	88.19
434.953	89.19
435.175	80.19
435.397	101.19
435.618	89.19
435.84	95.19
436.062	83.19
436.284	99.19
436.505	87.19
436.727	87.19
436.949	81.19
437.17	73.19
437.392	88.19
437.614	84.19
437.835	95.19
438.057	94.19
438.278	86.19
438.5	90.19
438.721	82.19
438.943	89.19
439.165	89.19
439.386	86.19
439.608	89.19
439.829	95.19
440.05	88.19
440.272	109.19
440.493	94.19
440.715	101.19
440.936	108.19
441.158	95.19
441.379	80.19
441.6	79.19
441.822	94.19
442.043	88.19
442.264	94.19
442.486	85.19
442.707	85.19
442.928	85.19
443.149	88.19
443.371	105.19
443.592	91.19
443.813	72.19
444.034	84.19
444.255	84.19
444.476	90.19
444.698	97.19
444.919	80.19
445.14	207.19
445.361	136.19
445.582	96.19
445.803	86.19
446.024	101.19
446.245	84.19
446.466	88.19
446.687	88.19
446.908	94.19
447.129	76.19
447.35	102.19
447.571	80.19
447.792	71.19
448.013	91.19
448.234	98.19
448.455	106.19
448.675	97.19
448.896	73.19
449.117	98.19
449.338	83.19
449.559	92.19
449.779	82.19
450	86.19
450.221	83.19
450.442	84.19
450.662	78.19
450.883	92.19
451.104	93.19
451.324	81.19
451.545	85.19
451.766	79.19
451.986	83.19
452.207	92.19
452.428	85.19
452.648	90.19
452.869	91.19
453.089	86.19
453.31	86.19
453.53	77.19
453.751	79.19
453.971	90.19
454.192	97.19
454.412	86.19
454.633	88.19
454.853	108.19
455.073	84.19
455.294	87.19
455.514	86.19
455.734	70.19
455.955	102.19
456.175	78.19
456.395	86.19
456.616	70.19
456.836	75.19
457.056	88.19
457.276	82.19
457.497	59.19
457.717	86.19
457.937	92.19
458.157	92.19
458.377	79.19
458.598	87.19
458.818	82.19
459.038	87.19
459.258	94.19
459.478	87.19
459.698	76.19
459.918	79.19
460.138	89.19
460.358	96.19
460.578	89.19
460.798	87.19
461.018	87.19
461.238	79.19
461.458	79.19
461.678	89.19
461.898	85.19
462.118	101.19
462.338	98.19
462.558	93.19
462.777	93.19
462.997	86.19
463.217	87.19
463.437	92.19
463.657	82.19
463.876	80.19
464.096	95.19
464.316	81.19
464.536	85.19
464.755	91.19
464.975	81.19
465.195	96.19
465.414	86.19
465.634	80.19
465.854	93.19
466.073	80.19
466.293	99.19
466.512	86.19
466.732	85.19
466.951	84.19
467.171	95.19
467.391	97.19
467.61	80.19
467.829	82.19
468.049	94.19
468.268	78.19
468.488	72.19
468.707	90.19
468.927	86.19
469.146	84.19
469.365	83.19
469.585	92.19
469.804	94.19
470.023	76.19
470.243	86.19
470.462	89.19
470.681	87.19
470.901	86.19
471.12	84.19
471.339	99.19
471.558	78.19
471.777	71.19
471.997	91.19
472.216	98.19
472.435	94.19
472.654	79.19
472.873	90.19
473.092	91.19
473.311	93.19
473.53	91.19
473.749	101.19
473.968	98.19
474.187	88.19
474.406	83.19
474.625	83.19
474.844	79.19
475.063	93.19
475.282	85.19
475.501	102.19
475.72	97.19
475.939	95.19
476.158	86.19
476.377	90.19
476.596	89.19
476.814	94.19
477.033	85.19
477.252	90.19
477.471	86.19
477.69	98.19
477.908	79.19
478.127	87.19
478.346	83.19
478.564	97.19
478.783	99.19
479.002	90.19
479.22	97.19
479.439	91.19
479.658	88.19
479.876	96.19
480.095	91.19
480.313	90.19
480.532	86.19
480.751	104.19
480.969	89.19
481.188	94.19
481.406	94.19
481.624	83.19
481.843	86.19
482.061	84.19
482.28	78.19
482.498	82.19
482.717	87.19
482.935	96.19
483.153	96.19
483.372	90.19
483.59	83.19
483.808	81.19
484.027	97.19
484.245	86.19
484.463	90.19
484.681	104.19
484.9	104.19
485.118	88.19
485.336	95.19
485.554	95.19
485.772	87.19
485.99	97.19
486.209	103.19
486.427	87.19
486.645	84.19
486.863	87.19
487.081	90.19
487.299	84.19
487.517	106.19
487.735	90.19
487.953	90.19
488.171	92.19
488.389	101.19
488.607	95.19
488.825	98.19
489.043	90.19
489.261	86.19
489.479	105.19
489.696	101.19
489.914	101.19
490.132	90.19
490.35	99.19
490.568	80.19
490.786	79.19
491.003	98.19
491.221	95.19
491.439	91.19
491.657	100.19
491.874	90.19
492.092	105.19
492.31	101.19
492.527	99.19
492.745	98.19
492.963	99.19
493.18	99.19
493.398	96.19
493.615	87.19
493.833	98.19
494.05	78.19
494.268	90.19
494.485	92.19
494.703	99.19
494.92	96.19
495.138	89.19
495.355	96.19
495.573	101.19
495.79	90.19
496.008	86.19
496.225	108.19
496.442	92.19
496.66	108.19
496.877	91.19
497.094	94.19
497.312	102.19
497.529	107.19
497.746	100.19
497.963	90.19
498.181	93.19
498.398	100.19
498.615	96.19
498.832	111.19
499.049	119.19
499.267	113.19
499.484	114.19
499.701	98.19
499.918	103.19
500.135	107.19
500.352	98.19
500.569	106.19
500.786	123.19
501.003	114.19
501.22	108.19
501.437	103.19
501.654	102.19
501.871	85.19
502.088	101.19
502.305	107.19
502.522	116.19
502.739	95.19
502.956	97.19
503.172	104.19
503.389	106.19
503.606	101.19
503.823	98.19
504.04	97.19
504.256	85.19
504.473	89.19
504.69	93.19
504.907	103.19
505.123	95.19
505.34	88.19
505.557	109.19
505.773	102.19
505.99	96.19
506.207	107.19
506.423	84.19
506.64	91.19
506.856	101.19
507.073	105.19
507.289	88.19
507.506	107.19
507.722	94.19
507.939	112.19
508.155	100.19
508.372	96.19
508.588	102.19
508.805	93.19
509.021	101.19
509.238	79.19
509.454	101.19
509.67	80.19
509.887	97.19
510.103	82.19
510.319	86.19
510.536	83.19
510.752	95.19
510.968	101.19
511.184	101.19
511.401	96.19
511.617	91.19
511.833	83.19
512.049	96.19
512.265	90.19
512.481	87.19
512.698	76.19
512.914	99.19
513.13	99.19
513.346	95.19
513.562	92.19
513.778	95.19
513.994	104.19
514.21	111.19
514.426	85.19
514.642	90.19
514.858	99.19
515.074	85.19
515.29	100.19
515.506	83.19
515.721	96.19
515.937	91.19
516.153	94.19
516.369	78.19
516.585	98.19
516.801	89.19
517.016	90.19
517.232	92.19
517.448	101.19
517.664	99.19
517.879	86.19
518.095	79.19
