Data from Ni(NO3)2@0.25M.TitratingCurve.Agarose3%dH2O.NegLispCup.LampEnergy10.LIBS07252019_HRD10591_18-04-07-566.txt Node
Date: Thu Jul 25 18:04:07 EDT 2019
User: cochatt
Spectrometer: HR+D1059
Trigger mode: 1
Integration Time (sec): 1.000000E-1
Scans to average: 1
Electric dark correction enabled: true
Nonlinearity correction enabled: false
Boxcar width: 0
XAxis mode: Wavelengths
Number of Pixels in Spectrum: 2048
>>>>>Begin Spectral Data<<<<<
223.165	-16.44
223.4	-16.44
223.635	-16.44
223.869	-10.44
224.104	-6.44
224.338	-3.44
224.573	-13.44
224.808	-6.44
225.042	-17.44
225.277	-9.44
225.511	-12.44
225.746	2.56
225.98	8.56
226.215	11.56
226.449	1.56
226.683	28.56
226.918	16.56
227.152	26.56
227.387	36.56
227.621	30.56
227.856	42.56
228.09	37.56
228.324	40.56
228.559	55.56
228.793	83.56
229.027	77.56
229.262	78.56
229.496	92.56
229.73	94.56
229.964	87.56
230.199	103.56
230.433	116.56
230.667	106.56
230.901	117.56
231.136	111.56
231.37	114.56
231.604	121.56
231.838	119.56
232.072	124.56
232.306	128.56
232.541	123.56
232.775	110.56
233.009	121.56
233.243	106.56
233.477	125.56
233.711	120.56
233.945	114.56
234.179	116.56
234.413	130.56
234.647	122.56
234.881	128.56
235.115	115.56
235.349	133.56
235.583	115.56
235.817	121.56
236.051	133.56
236.285	123.56
236.519	135.56
236.753	123.56
236.987	123.56
237.221	129.56
237.455	126.56
237.689	146.56
237.922	144.56
238.156	127.56
238.39	114.56
238.624	113.56
238.858	152.56
239.091	130.56
239.325	142.56
239.559	145.56
239.793	154.56
240.027	153.56
240.26	138.56
240.494	148.56
240.728	138.56
240.961	137.56
241.195	147.56
241.429	151.56
241.662	143.56
241.896	155.56
242.13	160.56
242.363	150.56
242.597	160.56
242.83	161.56
243.064	146.56
243.298	147.56
243.531	158.56
243.765	141.56
243.998	160.56
244.232	156.56
244.465	155.56
244.699	152.56
244.932	162.56
245.166	163.56
245.399	173.56
245.633	164.56
245.866	177.56
246.099	163.56
246.333	181.56
246.566	168.56
246.8	156.56
247.033	171.56
247.266	191.56
247.5	197.56
247.733	178.56
247.966	175.56
248.2	183.56
248.433	187.56
248.666	197.56
248.899	180.56
249.133	192.56
249.366	173.56
249.599	203.56
249.832	195.56
250.066	189.56
250.299	187.56
250.532	191.56
250.765	205.56
250.998	205.56
251.231	219.56
251.465	224.56
251.698	223.56
251.931	208.56
252.164	212.56
252.397	208.56
252.63	233.56
252.863	238.56
253.096	232.56
253.329	217.56
253.562	224.56
253.795	220.56
254.028	240.56
254.261	224.56
254.494	210.56
254.727	241.56
254.96	227.56
255.193	226.56
255.426	244.56
255.659	255.56
255.892	257.56
256.124	255.56
256.357	247.56
256.59	243.56
256.823	240.56
257.056	253.56
257.289	259.56
257.521	273.56
257.754	261.56
257.987	257.56
258.22	251.56
258.452	258.56
258.685	256.56
258.918	266.56
259.151	270.56
259.383	294.56
259.616	270.56
259.849	279.56
260.081	279.56
260.314	270.56
260.547	267.56
260.779	280.56
261.012	281.56
261.244	299.56
261.477	298.56
261.71	264.56
261.942	286.56
262.175	293.56
262.407	295.56
262.64	295.56
262.872	293.56
263.105	297.56
263.337	321.56
263.57	302.56
263.802	282.56
264.035	292.56
264.267	312.56
264.499	319.56
264.732	317.56
264.964	314.56
265.197	299.56
265.429	316.56
265.661	305.56
265.894	308.56
266.126	304.56
266.358	315.56
266.591	303.56
266.823	296.56
267.055	309.56
267.287	316.56
267.52	299.56
267.752	316.56
267.984	329.56
268.216	331.56
268.448	315.56
268.681	316.56
268.913	331.56
269.145	314.56
269.377	302.56
269.609	312.56
269.841	325.56
270.073	319.56
270.306	317.56
270.538	327.56
270.77	322.56
271.002	343.56
271.234	329.56
271.466	334.56
271.698	333.56
271.93	338.56
272.162	333.56
272.394	329.56
272.626	342.56
272.858	339.56
273.09	351.56
273.322	331.56
273.553	348.56
273.785	352.56
274.017	344.56
274.249	375.56
274.481	327.56
274.713	356.56
274.945	360.56
275.176	370.56
275.408	361.56
275.64	369.56
275.872	375.56
276.104	365.56
276.335	352.56
276.567	368.56
276.799	355.56
277.031	377.56
277.262	368.56
277.494	395.56
277.726	368.56
277.957	367.56
278.189	363.56
278.421	361.56
278.652	377.56
278.884	355.56
279.115	359.56
279.347	373.56
279.579	390.56
279.81	373.56
280.042	370.56
280.273	362.56
280.505	381.56
280.736	402.56
280.968	385.56
281.199	385.56
281.431	376.56
281.662	398.56
281.894	390.56
282.125	372.56
282.356	395.56
282.588	383.56
282.819	393.56
283.051	373.56
283.282	369.56
283.513	390.56
283.745	399.56
283.976	392.56
284.207	409.56
284.439	375.56
284.67	399.56
284.901	390.56
285.132	409.56
285.364	399.56
285.595	409.56
285.826	405.56
286.057	418.56
286.288	411.56
286.52	410.56
286.751	397.56
286.982	395.56
287.213	407.56
287.444	403.56
287.675	446.56
287.906	409.56
288.138	393.56
288.369	422.56
288.6	403.56
288.831	417.56
289.062	422.56
289.293	403.56
289.524	391.56
289.755	409.56
289.986	410.56
290.217	414.56
290.448	412.56
290.679	429.56
290.91	419.56
291.141	423.56
291.371	420.56
291.602	420.56
291.833	418.56
292.064	427.56
292.295	414.56
292.526	419.56
292.757	426.56
292.987	411.56
293.218	406.56
293.449	408.56
293.68	419.56
293.91	423.56
294.141	416.56
294.372	421.56
294.603	409.56
294.833	420.56
295.064	409.56
295.295	426.56
295.525	419.56
295.756	439.56
295.987	449.56
296.217	444.56
296.448	441.56
296.679	439.56
296.909	427.56
297.14	425.56
297.37	430.56
297.601	445.56
297.831	438.56
298.062	444.56
298.292	435.56
298.523	463.56
298.753	449.56
298.984	422.56
299.214	451.56
299.445	431.56
299.675	433.56
299.905	445.56
300.136	457.56
300.366	452.56
300.597	452.56
300.827	452.56
301.057	464.56
301.288	453.56
301.518	465.56
301.748	473.56
301.979	473.56
302.209	492.56
302.439	462.56
302.669	482.56
302.9	482.56
303.13	448.56
303.36	480.56
303.59	457.56
303.82	453.56
304.051	474.56
304.281	463.56
304.511	480.56
304.741	488.56
304.971	489.56
305.201	491.56
305.431	510.56
305.661	487.56
305.891	490.56
306.121	485.56
306.352	468.56
306.582	474.56
306.812	466.56
307.042	475.56
307.272	466.56
307.502	466.56
307.731	448.56
307.961	481.56
308.191	449.56
308.421	477.56
308.651	487.56
308.881	472.56
309.111	464.56
309.341	489.56
309.571	486.56
309.8	488.56
310.03	493.56
310.26	491.56
310.49	495.56
310.72	477.56
310.949	507.56
311.179	488.56
311.409	503.56
311.639	508.56
311.868	493.56
312.098	495.56
312.328	505.56
312.557	509.56
312.787	487.56
313.017	533.56
313.246	520.56
313.476	523.56
313.706	535.56
313.935	562.56
314.165	512.56
314.394	517.56
314.624	533.56
314.853	533.56
315.083	541.56
315.312	544.56
315.542	519.56
315.771	537.56
316.001	533.56
316.23	555.56
316.46	519.56
316.689	537.56
316.919	539.56
317.148	540.56
317.377	539.56
317.607	538.56
317.836	553.56
318.065	540.56
318.295	536.56
318.524	542.56
318.753	531.56
318.983	559.56
319.212	549.56
319.441	561.56
319.67	557.56
319.9	547.56
320.129	561.56
320.358	543.56
320.587	552.56
320.816	566.56
321.046	557.56
321.275	580.56
321.504	567.56
321.733	593.56
321.962	571.56
322.191	597.56
322.42	580.56
322.649	573.56
322.878	577.56
323.108	568.56
323.337	596.56
323.566	585.56
323.795	598.56
324.024	617.56
324.253	611.56
324.482	581.56
324.71	620.56
324.939	602.56
325.168	606.56
325.397	626.56
325.626	600.56
325.855	621.56
326.084	655.56
326.313	646.56
326.542	649.56
326.77	669.56
326.999	635.56
327.228	649.56
327.457	624.56
327.686	646.56
327.914	655.56
328.143	647.56
328.372	659.56
328.6	641.56
328.829	646.56
329.058	647.56
329.287	671.56
329.515	679.56
329.744	667.56
329.972	669.56
330.201	686.56
330.43	678.56
330.658	692.56
330.887	669.56
331.115	693.56
331.344	737.56
331.572	691.56
331.801	731.56
332.03	721.56
332.258	762.56
332.486	725.56
332.715	740.56
332.943	763.56
333.172	783.56
333.4	810.56
333.629	829.56
333.857	809.56
334.085	838.56
334.314	836.56
334.542	832.56
334.771	842.56
334.999	830.56
335.227	828.56
335.455	841.56
335.684	842.56
335.912	842.56
336.14	832.56
336.369	839.56
336.597	845.56
336.825	825.56
337.053	845.56
337.281	827.56
337.51	823.56
337.738	802.56
337.966	788.56
338.194	773.56
338.422	776.56
338.65	776.56
338.878	797.56
339.106	779.56
339.334	777.56
339.562	751.56
339.79	715.56
340.018	735.56
340.246	750.56
340.474	756.56
340.702	755.56
340.93	742.56
341.158	745.56
341.386	750.56
341.614	799.56
341.842	753.56
342.07	751.56
342.298	741.56
342.526	744.56
342.754	717.56
342.981	766.56
343.209	738.56
343.437	789.56
343.665	807.56
343.893	823.56
344.12	862.56
344.348	836.56
344.576	823.56
344.804	834.56
345.031	776.56
345.259	778.56
345.487	766.56
345.714	765.56
345.942	741.56
346.17	779.56
346.397	753.56
346.625	723.56
346.853	713.56
347.08	724.56
347.308	717.56
347.535	724.56
347.763	718.56
347.99	745.56
348.218	746.56
348.445	719.56
348.673	729.56
348.9	705.56
349.128	719.56
349.355	704.56
349.583	732.56
349.81	726.56
350.037	696.56
350.265	722.56
350.492	689.56
350.72	669.56
350.947	717.56
351.174	711.56
351.402	710.56
351.629	738.56
351.856	710.56
352.083	697.56
352.311	740.56
352.538	726.56
352.765	711.56
352.992	703.56
353.22	675.56
353.447	693.56
353.674	672.56
353.901	690.56
354.128	672.56
354.355	698.56
354.583	670.56
354.81	709.56
355.037	686.56
355.264	695.56
355.491	704.56
355.718	683.56
355.945	696.56
356.172	689.56
356.399	701.56
356.626	686.56
356.853	728.56
357.08	694.56
357.307	693.56
357.534	699.56
357.761	691.56
357.988	691.56
358.215	695.56
358.441	698.56
358.668	665.56
358.895	685.56
359.122	681.56
359.349	700.56
359.576	690.56
359.802	677.56
360.029	689.56
360.256	691.56
360.483	682.56
360.709	691.56
360.936	703.56
361.163	686.56
361.39	700.56
361.616	715.56
361.843	707.56
362.07	721.56
362.296	713.56
362.523	682.56
362.749	682.56
362.976	689.56
363.203	670.56
363.429	689.56
363.656	704.56
363.882	698.56
364.109	697.56
364.335	673.56
364.562	676.56
364.788	676.56
365.015	662.56
365.241	697.56
365.468	677.56
365.694	669.56
365.92	695.56
366.147	687.56
366.373	672.56
366.599	703.56
366.826	674.56
367.052	672.56
367.278	707.56
367.505	673.56
367.731	671.56
367.957	672.56
368.184	672.56
368.41	696.56
368.636	679.56
368.862	695.56
369.089	706.56
369.315	704.56
369.541	707.56
369.767	710.56
369.993	692.56
370.219	679.56
370.445	708.56
370.672	699.56
370.898	709.56
371.124	708.56
371.35	715.56
371.576	707.56
371.802	730.56
372.028	737.56
372.254	727.56
372.48	709.56
372.706	726.56
372.932	737.56
373.158	719.56
373.384	721.56
373.61	713.56
373.835	730.56
374.061	746.56
374.287	730.56
374.513	734.56
374.739	719.56
374.965	735.56
375.191	777.56
375.416	756.56
375.642	760.56
375.868	749.56
376.094	734.56
376.319	709.56
376.545	725.56
376.771	712.56
376.997	725.56
377.222	720.56
377.448	718.56
377.674	690.56
377.899	683.56
378.125	683.56
378.35	685.56
378.576	721.56
378.802	691.56
379.027	687.56
379.253	721.56
379.478	687.56
379.704	685.56
379.929	697.56
380.155	680.56
380.38	687.56
380.606	663.56
380.831	723.56
381.057	709.56
381.282	688.56
381.507	678.56
381.733	724.56
381.958	717.56
382.184	718.56
382.409	705.56
382.634	711.56
382.86	722.56
383.085	716.56
383.31	744.56
383.535	734.56
383.761	769.56
383.986	737.56
384.211	769.56
384.436	773.56
384.662	768.56
384.887	772.56
385.112	785.56
385.337	792.56
385.562	790.56
385.787	765.56
386.013	815.56
386.238	825.56
386.463	800.56
386.688	803.56
386.913	806.56
387.138	815.56
387.363	794.56
387.588	806.56
387.813	820.56
388.038	840.56
388.263	795.56
388.488	839.56
388.713	797.56
388.938	821.56
389.163	782.56
389.387	810.56
389.612	803.56
389.837	798.56
390.062	818.56
390.287	784.56
390.512	834.56
390.736	833.56
390.961	811.56
391.186	830.56
391.411	829.56
391.636	851.56
391.86	865.56
392.085	883.56
392.31	870.56
392.534	863.56
392.759	897.56
392.984	851.56
393.208	856.56
393.433	840.56
393.658	845.56
393.882	867.56
394.107	847.56
394.331	872.56
394.556	852.56
394.78	862.56
395.005	878.56
395.229	891.56
395.454	898.56
395.678	889.56
395.903	898.56
396.127	893.56
396.352	860.56
396.576	893.56
396.801	891.56
397.025	902.56
397.249	928.56
397.474	941.56
397.698	959.56
397.922	952.56
398.147	945.56
398.371	958.56
398.595	984.56
398.82	1009.56
399.044	1064.56
399.268	1116.56
399.492	1197.56
399.717	1248.56
399.941	1255.56
400.165	1223.56
400.389	1168.56
400.613	1137.56
400.837	1097.56
401.062	1053.56
401.286	1051.56
401.51	1032.56
401.734	1031.56
401.958	1020.56
402.182	1025.56
402.406	997.56
402.63	1022.56
402.854	1032.56
403.078	1001.56
403.302	1006.56
403.526	1041.56
403.75	1054.56
403.974	1071.56
404.198	1055.56
404.422	1073.56
404.645	1058.56
404.869	1054.56
405.093	1056.56
405.317	1047.56
405.541	1078.56
405.765	1075.56
405.988	1072.56
406.212	1109.56
406.436	1120.56
406.66	1109.56
406.883	1128.56
407.107	1129.56
407.331	1163.56
407.555	1225.56
407.778	1229.56
408.002	1225.56
408.226	1206.56
408.449	1197.56
408.673	1176.56
408.896	1150.56
409.12	1131.56
409.344	1118.56
409.567	1139.56
409.791	1121.56
410.014	1122.56
410.238	1074.56
410.461	1120.56
410.685	1093.56
410.908	1092.56
411.132	1091.56
411.355	1049.56
411.578	1048.56
411.802	1102.56
412.025	1088.56
412.249	1111.56
412.472	1041.56
412.695	1045.56
412.919	1013.56
413.142	1042.56
413.365	1013.56
413.589	1077.56
413.812	1052.56
414.035	1047.56
414.258	1023.56
414.482	1034.56
414.705	1065.56
414.928	1043.56
415.151	1041.56
415.374	1057.56
415.597	1073.56
415.821	1002.56
416.044	1015.56
416.267	1027.56
416.49	1022.56
416.713	1025.56
416.936	1029.56
417.159	1022.56
417.382	985.56
417.605	991.56
417.828	1004.56
418.051	1034.56
418.274	1000.56
418.497	985.56
418.72	1018.56
418.943	1029.56
419.166	1082.56
419.389	1156.56
419.611	1125.56
419.834	1077.56
420.057	1079.56
420.28	1026.56
420.503	1002.56
420.726	1022.56
420.948	1035.56
421.171	985.56
421.394	1007.56
421.617	1011.56
421.839	1028.56
422.062	1029.56
422.285	1019.56
422.507	1026.56
422.73	1038.56
422.953	1047.56
423.175	1033.56
423.398	1049.56
423.621	1052.56
423.843	1035.56
424.066	1039.56
424.288	1039.56
424.511	1038.56
424.733	1013.56
424.956	1023.56
425.178	1014.56
425.401	1045.56
425.623	1027.56
425.846	1028.56
426.068	1049.56
426.291	1023.56
426.513	1023.56
426.735	993.56
426.958	970.56
427.18	986.56
427.402	994.56
427.625	985.56
427.847	939.56
428.069	967.56
428.292	1013.56
428.514	975.56
428.736	983.56
428.958	1000.56
429.181	953.56
429.403	965.56
429.625	982.56
429.847	970.56
430.069	974.56
430.292	973.56
430.514	914.56
430.736	972.56
430.958	951.56
431.18	952.56
431.402	945.56
431.624	965.56
431.846	978.56
432.068	954.56
432.29	971.56
432.512	975.56
432.734	1001.56
432.956	984.56
433.178	977.56
433.4	1005.56
433.622	997.56
433.844	993.56
434.066	1027.56
434.287	1011.56
434.509	1044.56
434.731	1016.56
434.953	1046.56
435.175	1058.56
435.397	1040.56
435.618	1010.56
435.84	986.56
436.062	981.56
436.284	995.56
436.505	970.56
436.727	945.56
436.949	960.56
437.17	975.56
437.392	940.56
437.614	969.56
437.835	934.56
438.057	946.56
438.278	941.56
438.5	947.56
438.721	946.56
438.943	954.56
439.165	935.56
439.386	947.56
439.608	967.56
439.829	987.56
440.05	1009.56
440.272	1013.56
440.493	998.56
440.715	979.56
440.936	999.56
441.158	1025.56
441.379	1045.56
441.6	1063.56
441.822	1091.56
442.043	1061.56
442.264	1045.56
442.486	1039.56
442.707	1059.56
442.928	1032.56
443.149	1078.56
443.371	1064.56
443.592	1080.56
443.813	1103.56
444.034	1067.56
444.255	1104.56
444.476	1109.56
444.698	1133.56
444.919	1155.56
445.14	1238.56
445.361	1161.56
445.582	1092.56
445.803	1064.56
446.024	1057.56
446.245	1061.56
446.466	1042.56
446.687	1036.56
446.908	1027.56
447.129	992.56
447.35	970.56
447.571	954.56
447.792	929.56
448.013	952.56
448.234	911.56
448.455	953.56
448.675	948.56
448.896	951.56
449.117	913.56
449.338	922.56
449.559	935.56
449.779	890.56
450	922.56
450.221	916.56
450.442	906.56
450.662	896.56
450.883	920.56
451.104	907.56
451.324	907.56
451.545	919.56
451.766	922.56
451.986	898.56
452.207	909.56
452.428	874.56
452.648	886.56
452.869	869.56
453.089	849.56
453.31	890.56
453.53	881.56
453.751	867.56
453.971	861.56
454.192	874.56
454.412	867.56
454.633	871.56
454.853	843.56
455.073	848.56
455.294	870.56
455.514	855.56
455.734	857.56
455.955	853.56
456.175	870.56
456.395	844.56
456.616	852.56
456.836	875.56
457.056	893.56
457.276	841.56
457.497	875.56
457.717	850.56
457.937	856.56
458.157	886.56
458.377	903.56
458.598	895.56
458.818	937.56
459.038	957.56
459.258	963.56
459.478	982.56
459.698	1025.56
459.918	1023.56
460.138	1015.56
460.358	1063.56
460.578	1105.56
460.798	1097.56
461.018	1106.56
461.238	1107.56
461.458	1114.56
461.678	1094.56
461.898	1117.56
462.118	1150.56
462.338	1165.56
462.558	1203.56
462.777	1268.56
462.997	1283.56
463.217	1302.56
463.437	1297.56
463.657	1305.56
463.876	1261.56
464.096	1267.56
464.316	1244.56
464.536	1224.56
464.755	1195.56
464.975	1171.56
465.195	1152.56
465.414	1095.56
465.634	1038.56
465.854	1055.56
466.073	1002.56
466.293	1007.56
466.512	981.56
466.732	978.56
466.951	989.56
467.171	970.56
467.391	945.56
467.61	971.56
467.829	958.56
468.049	901.56
468.268	934.56
468.488	915.56
468.707	929.56
468.927	948.56
469.146	909.56
469.365	968.56
469.585	927.56
469.804	946.56
470.023	948.56
470.243	933.56
470.462	938.56
470.681	943.56
470.901	961.56
471.12	968.56
471.339	959.56
471.558	925.56
471.777	922.56
471.997	922.56
472.216	939.56
472.435	930.56
472.654	937.56
472.873	934.56
473.092	902.56
473.311	925.56
473.53	923.56
473.749	909.56
473.968	912.56
474.187	907.56
474.406	916.56
474.625	949.56
474.844	945.56
475.063	936.56
475.282	951.56
475.501	948.56
475.72	940.56
475.939	941.56
476.158	948.56
476.377	958.56
476.596	968.56
476.814	946.56
477.033	944.56
477.252	953.56
477.471	979.56
477.69	1028.56
477.908	1022.56
478.127	1047.56
478.346	1068.56
478.564	1079.56
478.783	1086.56
479.002	1123.56
479.22	1113.56
479.439	1117.56
479.658	1096.56
479.876	1117.56
480.095	1116.56
480.313	1131.56
480.532	1134.56
480.751	1121.56
480.969	1130.56
481.188	1113.56
481.406	1102.56
481.624	1031.56
481.843	1059.56
482.061	1069.56
482.28	1057.56
482.498	1058.56
482.717	1040.56
482.935	1058.56
483.153	1058.56
483.372	1036.56
483.59	1087.56
483.808	1059.56
484.027	1050.56
484.245	1046.56
484.463	1058.56
484.681	1094.56
484.9	1090.56
485.118	1074.56
485.336	1097.56
485.554	1092.56
485.772	1106.56
485.99	1087.56
486.209	1078.56
486.427	1071.56
486.645	1083.56
486.863	1114.56
487.081	1090.56
487.299	1071.56
487.517	1130.56
487.735	1080.56
487.953	1122.56
488.171	1120.56
488.389	1103.56
488.607	1099.56
488.825	1072.56
489.043	1092.56
489.261	1069.56
489.479	1085.56
489.696	1077.56
489.914	1091.56
490.132	1062.56
490.35	1112.56
490.568	1110.56
490.786	1108.56
491.003	1071.56
491.221	1126.56
491.439	1129.56
491.657	1115.56
491.874	1168.56
492.092	1151.56
492.31	1162.56
492.527	1178.56
492.745	1144.56
492.963	1154.56
493.18	1153.56
493.398	1190.56
493.615	1162.56
493.833	1178.56
494.05	1153.56
494.268	1177.56
494.485	1210.56
494.703	1186.56
494.92	1172.56
495.138	1174.56
495.355	1234.56
495.573	1201.56
495.79	1224.56
496.008	1257.56
496.225	1258.56
496.442	1230.56
496.66	1289.56
496.877	1251.56
497.094	1304.56
497.312	1299.56
497.529	1348.56
497.746	1399.56
