Data from Ni(NO3)2Standard.Agarose3%.GreenCap.LampEnergy5.5.E.O_HRD10591_14-40-39-204.txt Node
Date: Mon Jul 22 14:40:39 EDT 2019
User: cochatt
Spectrometer: HR+D1059
Trigger mode: 1
Integration Time (sec): 1.000000E-1
Scans to average: 1
Electric dark correction enabled: true
Nonlinearity correction enabled: false
Boxcar width: 0
XAxis mode: Wavelengths
Number of Pixels in Spectrum: 2048
>>>>>Begin Spectral Data<<<<<
223.165	-15.31
223.4	-15.31
223.635	-15.31
223.869	-18.31
224.104	-19.31
224.338	-5.31
224.573	-18.31
224.808	-17.31
225.042	-18.31
225.277	-11.31
225.511	-1.31
225.746	-14.31
225.98	11.69
226.215	10.69
226.449	16.69
226.683	23.69
226.918	28.69
227.152	47.69
227.387	36.69
227.621	27.69
227.856	50.69
228.09	39.69
228.324	37.69
228.559	56.69
228.793	45.69
229.027	55.69
229.262	41.69
229.496	61.69
229.73	64.69
229.964	70.69
230.199	72.69
230.433	69.69
230.667	85.69
230.901	74.69
231.136	74.69
231.37	71.69
231.604	61.69
231.838	66.69
232.072	76.69
232.306	92.69
232.541	84.69
232.775	76.69
233.009	79.69
233.243	68.69
233.477	81.69
233.711	87.69
233.945	74.69
234.179	71.69
234.413	68.69
234.647	75.69
234.881	84.69
235.115	71.69
235.349	64.69
235.583	66.69
235.817	59.69
236.051	72.69
236.285	76.69
236.519	61.69
236.753	74.69
236.987	77.69
237.221	79.69
237.455	82.69
237.689	78.69
237.922	66.69
238.156	75.69
238.39	66.69
238.624	70.69
238.858	80.69
239.091	68.69
239.325	57.69
239.559	74.69
239.793	71.69
240.027	70.69
240.26	71.69
240.494	69.69
240.728	75.69
240.961	86.69
241.195	83.69
241.429	74.69
241.662	60.69
241.896	69.69
242.13	65.69
242.363	78.69
242.597	75.69
242.83	81.69
243.064	70.69
243.298	69.69
243.531	58.69
243.765	69.69
243.998	75.69
244.232	71.69
244.465	71.69
244.699	86.69
244.932	69.69
245.166	77.69
245.399	62.69
245.633	82.69
245.866	70.69
246.099	85.69
246.333	56.69
246.566	77.69
246.8	79.69
247.033	77.69
247.266	86.69
247.5	91.69
247.733	90.69
247.966	64.69
248.2	81.69
248.433	71.69
248.666	66.69
248.899	81.69
249.133	73.69
249.366	84.69
249.599	62.69
249.832	67.69
250.066	73.69
250.299	70.69
250.532	81.69
250.765	71.69
250.998	79.69
251.231	78.69
251.465	68.69
251.698	84.69
251.931	78.69
252.164	71.69
252.397	70.69
252.63	62.69
252.863	79.69
253.096	76.69
253.329	71.69
253.562	80.69
253.795	93.69
254.028	78.69
254.261	70.69
254.494	80.69
254.727	74.69
254.96	65.69
255.193	61.69
255.426	73.69
255.659	83.69
255.892	69.69
256.124	80.69
256.357	74.69
256.59	72.69
256.823	71.69
257.056	81.69
257.289	70.69
257.521	79.69
257.754	65.69
257.987	88.69
258.22	83.69
258.452	80.69
258.685	95.69
258.918	78.69
259.151	81.69
259.383	71.69
259.616	75.69
259.849	73.69
260.081	60.69
260.314	89.69
260.547	80.69
260.779	79.69
261.012	71.69
261.244	88.69
261.477	84.69
261.71	89.69
261.942	69.69
262.175	79.69
262.407	73.69
262.64	92.69
262.872	62.69
263.105	80.69
263.337	81.69
263.57	84.69
263.802	71.69
264.035	68.69
264.267	84.69
264.499	75.69
264.732	68.69
264.964	75.69
265.197	75.69
265.429	73.69
265.661	100.69
265.894	73.69
266.126	80.69
266.358	75.69
266.591	72.69
266.823	85.69
267.055	94.69
267.287	87.69
267.52	96.69
267.752	86.69
267.984	76.69
268.216	80.69
268.448	78.69
268.681	84.69
268.913	80.69
269.145	87.69
269.377	75.69
269.609	80.69
269.841	84.69
270.073	81.69
270.306	80.69
270.538	89.69
270.77	83.69
271.002	82.69
271.234	88.69
271.466	76.69
271.698	94.69
271.93	73.69
272.162	80.69
272.394	63.69
272.626	80.69
272.858	77.69
273.09	78.69
273.322	80.69
273.553	79.69
273.785	68.69
274.017	75.69
274.249	71.69
274.481	71.69
274.713	89.69
274.945	86.69
275.176	80.69
275.408	73.69
275.64	81.69
275.872	82.69
276.104	80.69
276.335	85.69
276.567	85.69
276.799	77.69
277.031	88.69
277.262	85.69
277.494	82.69
277.726	78.69
277.957	86.69
278.189	74.69
278.421	80.69
278.652	85.69
278.884	74.69
279.115	90.69
279.347	72.69
279.579	66.69
279.81	93.69
280.042	83.69
280.273	86.69
280.505	81.69
280.736	80.69
280.968	79.69
281.199	90.69
281.431	87.69
281.662	64.69
281.894	80.69
282.125	83.69
282.356	77.69
282.588	87.69
282.819	87.69
283.051	80.69
283.282	83.69
283.513	71.69
283.745	66.69
283.976	77.69
284.207	82.69
284.439	82.69
284.67	79.69
284.901	75.69
285.132	67.69
285.364	66.69
285.595	96.69
285.826	77.69
286.057	84.69
286.288	76.69
286.52	85.69
286.751	87.69
286.982	82.69
287.213	78.69
287.444	80.69
287.675	78.69
287.906	81.69
288.138	76.69
288.369	95.69
288.6	86.69
288.831	84.69
289.062	84.69
289.293	71.69
289.524	77.69
289.755	70.69
289.986	78.69
290.217	79.69
290.448	92.69
290.679	82.69
290.91	86.69
291.141	90.69
291.371	77.69
291.602	85.69
291.833	85.69
292.064	83.69
292.295	82.69
292.526	84.69
292.757	64.69
292.987	73.69
293.218	77.69
293.449	92.69
293.68	81.69
293.91	83.69
294.141	79.69
294.372	81.69
294.603	72.69
294.833	83.69
295.064	77.69
295.295	66.69
295.525	85.69
295.756	87.69
295.987	93.69
296.217	73.69
296.448	77.69
296.679	82.69
296.909	92.69
297.14	81.69
297.37	69.69
297.601	69.69
297.831	93.69
298.062	68.69
298.292	78.69
298.523	85.69
298.753	84.69
298.984	68.69
299.214	82.69
299.445	78.69
299.675	69.69
299.905	84.69
300.136	72.69
300.366	85.69
300.597	70.69
300.827	79.69
301.057	85.69
301.288	92.69
301.518	81.69
301.748	73.69
301.979	75.69
302.209	88.69
302.439	76.69
302.669	101.69
302.9	85.69
303.13	87.69
303.36	84.69
303.59	86.69
303.82	72.69
304.051	87.69
304.281	80.69
304.511	74.69
304.741	85.69
304.971	80.69
305.201	84.69
305.431	82.69
305.661	85.69
305.891	73.69
306.121	70.69
306.352	86.69
306.582	87.69
306.812	81.69
307.042	86.69
307.272	80.69
307.502	72.69
307.731	95.69
307.961	77.69
308.191	74.69
308.421	89.69
308.651	83.69
308.881	86.69
309.111	88.69
309.341	81.69
309.571	74.69
309.8	78.69
310.03	91.69
310.26	97.69
310.49	81.69
310.72	70.69
310.949	79.69
311.179	80.69
311.409	73.69
311.639	74.69
311.868	91.69
312.098	80.69
312.328	80.69
312.557	84.69
312.787	87.69
313.017	81.69
313.246	97.69
313.476	86.69
313.706	63.69
313.935	70.69
314.165	80.69
314.394	74.69
314.624	93.69
314.853	93.69
315.083	80.69
315.312	85.69
315.542	84.69
315.771	88.69
316.001	87.69
316.23	75.69
316.46	70.69
316.689	82.69
316.919	81.69
317.148	81.69
317.377	69.69
317.607	83.69
317.836	78.69
318.065	74.69
318.295	97.69
318.524	77.69
318.753	81.69
318.983	84.69
319.212	93.69
319.441	76.69
319.67	81.69
319.9	82.69
320.129	74.69
320.358	71.69
320.587	72.69
320.816	88.69
321.046	80.69
321.275	78.69
321.504	73.69
321.733	78.69
321.962	85.69
322.191	79.69
322.42	70.69
322.649	77.69
322.878	78.69
323.108	86.69
323.337	90.69
323.566	79.69
323.795	71.69
324.024	68.69
324.253	90.69
324.482	93.69
324.71	77.69
324.939	78.69
325.168	95.69
325.397	74.69
325.626	89.69
325.855	73.69
326.084	81.69
326.313	101.69
326.542	76.69
326.77	80.69
326.999	71.69
327.228	81.69
327.457	81.69
327.686	89.69
327.914	83.69
328.143	76.69
328.372	69.69
328.6	75.69
328.829	87.69
329.058	86.69
329.287	88.69
329.515	87.69
329.744	82.69
329.972	64.69
330.201	69.69
330.43	89.69
330.658	87.69
330.887	86.69
331.115	73.69
331.344	83.69
331.572	74.69
331.801	88.69
332.03	77.69
332.258	68.69
332.486	79.69
332.715	89.69
332.943	81.69
333.172	89.69
333.4	87.69
333.629	71.69
333.857	85.69
334.085	84.69
334.314	78.69
334.542	75.69
334.771	90.69
334.999	78.69
335.227	72.69
335.455	95.69
335.684	95.69
335.912	81.69
336.14	78.69
336.369	89.69
336.597	70.69
336.825	87.69
337.053	87.69
337.281	101.69
337.51	97.69
337.738	69.69
337.966	70.69
338.194	83.69
338.422	63.69
338.65	78.69
338.878	92.69
339.106	94.69
339.334	77.69
339.562	70.69
339.79	89.69
340.018	89.69
340.246	81.69
340.474	77.69
340.702	92.69
340.93	84.69
341.158	83.69
341.386	78.69
341.614	83.69
341.842	88.69
342.07	74.69
342.298	79.69
342.526	96.69
342.754	91.69
342.981	79.69
343.209	85.69
343.437	83.69
343.665	85.69
343.893	93.69
344.12	88.69
344.348	74.69
344.576	87.69
344.804	81.69
345.031	77.69
345.259	77.69
345.487	81.69
345.714	78.69
345.942	71.69
346.17	84.69
346.397	90.69
346.625	88.69
346.853	82.69
347.08	88.69
347.308	77.69
347.535	75.69
347.763	97.69
347.99	77.69
348.218	84.69
348.445	74.69
348.673	73.69
348.9	81.69
349.128	84.69
349.355	90.69
349.583	70.69
349.81	69.69
350.037	77.69
350.265	78.69
350.492	84.69
350.72	71.69
350.947	80.69
351.174	79.69
351.402	77.69
351.629	89.69
351.856	77.69
352.083	80.69
352.311	61.69
352.538	81.69
352.765	91.69
352.992	81.69
353.22	86.69
353.447	92.69
353.674	80.69
353.901	80.69
354.128	101.69
354.355	71.69
354.583	78.69
354.81	82.69
355.037	84.69
355.264	80.69
355.491	81.69
355.718	88.69
355.945	78.69
356.172	67.69
356.399	70.69
356.626	84.69
356.853	84.69
357.08	77.69
357.307	87.69
357.534	88.69
357.761	85.69
357.988	79.69
358.215	87.69
358.441	90.69
358.668	79.69
358.895	80.69
359.122	71.69
359.349	92.69
359.576	68.69
359.802	82.69
360.029	78.69
360.256	93.69
360.483	77.69
360.709	75.69
360.936	88.69
361.163	84.69
361.39	87.69
361.616	84.69
361.843	73.69
362.07	81.69
362.296	81.69
362.523	80.69
362.749	73.69
362.976	82.69
363.203	88.69
363.429	96.69
363.656	69.69
363.882	79.69
364.109	83.69
364.335	86.69
364.562	82.69
364.788	81.69
365.015	70.69
365.241	70.69
365.468	85.69
365.694	82.69
365.92	80.69
366.147	85.69
366.373	84.69
366.599	79.69
366.826	92.69
367.052	76.69
367.278	77.69
367.505	82.69
367.731	81.69
367.957	78.69
368.184	62.69
368.41	88.69
368.636	72.69
368.862	87.69
369.089	87.69
369.315	88.69
369.541	74.69
369.767	74.69
369.993	82.69
370.219	88.69
370.445	81.69
370.672	78.69
370.898	72.69
371.124	81.69
371.35	74.69
371.576	73.69
371.802	86.69
372.028	76.69
372.254	79.69
372.48	64.69
372.706	92.69
372.932	80.69
373.158	75.69
373.384	91.69
373.61	81.69
373.835	84.69
374.061	83.69
374.287	71.69
374.513	96.69
374.739	78.69
374.965	96.69
375.191	85.69
375.416	94.69
375.642	86.69
375.868	78.69
376.094	69.69
376.319	74.69
376.545	81.69
376.771	79.69
376.997	81.69
377.222	74.69
377.448	93.69
377.674	75.69
377.899	79.69
378.125	77.69
378.35	92.69
378.576	88.69
378.802	71.69
379.027	83.69
379.253	80.69
379.478	76.69
379.704	81.69
379.929	91.69
380.155	79.69
380.38	82.69
380.606	79.69
380.831	74.69
381.057	75.69
381.282	76.69
381.507	84.69
381.733	96.69
381.958	79.69
382.184	81.69
382.409	79.69
382.634	75.69
382.86	93.69
383.085	81.69
383.31	81.69
383.535	76.69
383.761	86.69
383.986	75.69
384.211	72.69
384.436	85.69
384.662	84.69
384.887	94.69
385.112	81.69
385.337	69.69
385.562	73.69
385.787	74.69
386.013	82.69
386.238	86.69
386.463	86.69
386.688	84.69
386.913	72.69
387.138	79.69
387.363	82.69
387.588	91.69
387.813	80.69
388.038	79.69
388.263	86.69
388.488	85.69
388.713	88.69
388.938	73.69
389.163	72.69
389.387	82.69
389.612	84.69
389.837	77.69
390.062	92.69
390.287	80.69
390.512	88.69
390.736	87.69
390.961	72.69
391.186	87.69
391.411	85.69
391.636	77.69
391.86	72.69
392.085	86.69
392.31	87.69
392.534	83.69
392.759	84.69
392.984	86.69
393.208	80.69
393.433	65.69
393.658	85.69
393.882	76.69
394.107	70.69
394.331	81.69
394.556	86.69
394.78	80.69
395.005	89.69
395.229	76.69
395.454	80.69
395.678	86.69
395.903	73.69
396.127	74.69
396.352	76.69
396.576	79.69
396.801	77.69
397.025	75.69
397.249	91.69
397.474	66.69
397.698	78.69
397.922	78.69
398.147	70.69
398.371	83.69
398.595	76.69
398.82	102.69
399.044	78.69
399.268	80.69
399.492	91.69
399.717	68.69
399.941	88.69
400.165	89.69
400.389	79.69
400.613	81.69
400.837	80.69
401.062	65.69
401.286	82.69
401.51	81.69
401.734	83.69
401.958	82.69
402.182	88.69
402.406	77.69
402.63	85.69
402.854	79.69
403.078	79.69
403.302	82.69
403.526	91.69
403.75	87.69
403.974	72.69
404.198	74.69
404.422	91.69
404.645	64.69
404.869	84.69
405.093	78.69
405.317	75.69
405.541	88.69
405.765	83.69
405.988	88.69
406.212	75.69
406.436	87.69
406.66	89.69
406.883	88.69
407.107	74.69
407.331	76.69
407.555	82.69
407.778	95.69
408.002	96.69
408.226	80.69
408.449	85.69
408.673	85.69
408.896	84.69
409.12	81.69
409.344	76.69
409.567	76.69
409.791	72.69
410.014	90.69
410.238	83.69
410.461	84.69
410.685	100.69
410.908	84.69
411.132	86.69
411.355	80.69
411.578	76.69
411.802	83.69
412.025	82.69
412.249	79.69
412.472	78.69
412.695	86.69
412.919	75.69
413.142	68.69
413.365	89.69
413.589	94.69
413.812	72.69
414.035	72.69
414.258	78.69
414.482	68.69
414.705	84.69
414.928	66.69
415.151	85.69
415.374	100.69
415.597	69.69
415.821	80.69
416.044	83.69
416.267	86.69
416.49	89.69
416.713	74.69
416.936	87.69
417.159	74.69
417.382	83.69
417.605	77.69
417.828	82.69
418.051	79.69
418.274	72.69
418.497	85.69
418.72	74.69
418.943	71.69
419.166	77.69
419.389	99.69
419.611	76.69
419.834	101.69
420.057	82.69
420.28	78.69
420.503	81.69
420.726	73.69
420.948	77.69
421.171	79.69
421.394	75.69
421.617	81.69
421.839	85.69
422.062	69.69
422.285	70.69
422.507	93.69
422.73	82.69
422.953	77.69
423.175	82.69
423.398	77.69
423.621	78.69
423.843	79.69
424.066	81.69
424.288	83.69
424.511	78.69
424.733	81.69
424.956	82.69
425.178	72.69
425.401	74.69
425.623	81.69
425.846	86.69
426.068	79.69
426.291	71.69
426.513	93.69
426.735	82.69
426.958	89.69
427.18	77.69
427.402	87.69
427.625	85.69
427.847	70.69
428.069	85.69
428.292	89.69
428.514	77.69
428.736	85.69
428.958	72.69
429.181	85.69
429.403	89.69
429.625	80.69
429.847	74.69
430.069	88.69
430.292	82.69
430.514	79.69
430.736	89.69
430.958	86.69
431.18	78.69
431.402	71.69
431.624	86.69
431.846	89.69
432.068	93.69
432.29	90.69
432.512	72.69
432.734	81.69
432.956	91.69
433.178	85.69
433.4	79.69
433.622	76.69
433.844	82.69
434.066	70.69
434.287	68.69
434.509	66.69
434.731	82.69
434.953	77.69
435.175	82.69
435.397	82.69
435.618	94.69
435.84	86.69
436.062	101.69
436.284	83.69
436.505	72.69
436.727	83.69
436.949	86.69
437.17	76.69
437.392	72.69
437.614	98.69
437.835	79.69
438.057	82.69
438.278	80.69
438.5	98.69
438.721	77.69
438.943	86.69
439.165	75.69
439.386	84.69
439.608	87.69
439.829	75.69
440.05	94.69
440.272	76.69
440.493	70.69
440.715	80.69
440.936	88.69
441.158	61.69
441.379	69.69
441.6	80.69
441.822	87.69
442.043	89.69
442.264	89.69
442.486	90.69
442.707	88.69
442.928	79.69
443.149	96.69
443.371	82.69
443.592	75.69
443.813	67.69
444.034	86.69
444.255	85.69
444.476	80.69
444.698	89.69
444.919	89.69
445.14	200.69
445.361	134.69
445.582	74.69
445.803	88.69
446.024	70.69
446.245	81.69
446.466	79.69
446.687	84.69
446.908	81.69
447.129	83.69
447.35	79.69
447.571	87.69
447.792	69.69
448.013	86.69
448.234	69.69
448.455	86.69
448.675	74.69
448.896	86.69
449.117	80.69
449.338	72.69
449.559	83.69
449.779	76.69
450	85.69
450.221	71.69
450.442	88.69
450.662	89.69
450.883	65.69
451.104	94.69
451.324	80.69
451.545	83.69
451.766	95.69
451.986	60.69
452.207	84.69
452.428	77.69
452.648	79.69
452.869	79.69
453.089	78.69
453.31	94.69
453.53	87.69
453.751	80.69
453.971	79.69
454.192	87.69
454.412	93.69
454.633	97.69
454.853	77.69
455.073	97.69
455.294	91.69
455.514	96.69
455.734	101.69
455.955	84.69
456.175	86.69
456.395	95.69
456.616	92.69
456.836	89.69
457.056	71.69
457.276	85.69
457.497	90.69
457.717	77.69
457.937	79.69
458.157	81.69
458.377	76.69
458.598	89.69
458.818	86.69
459.038	79.69
459.258	73.69
459.478	77.69
459.698	74.69
459.918	83.69
460.138	78.69
460.358	80.69
460.578	102.69
460.798	88.69
461.018	81.69
461.238	80.69
461.458	80.69
461.678	80.69
461.898	79.69
462.118	91.69
462.338	92.69
462.558	93.69
462.777	94.69
462.997	71.69
463.217	87.69
463.437	76.69
463.657	84.69
463.876	77.69
464.096	85.69
464.316	87.69
464.536	89.69
464.755	82.69
464.975	92.69
465.195	83.69
465.414	76.69
465.634	95.69
465.854	75.69
466.073	84.69
466.293	85.69
466.512	81.69
466.732	83.69
466.951	90.69
467.171	88.69
467.391	84.69
467.61	75.69
467.829	75.69
468.049	80.69
468.268	69.69
468.488	80.69
468.707	79.69
468.927	74.69
469.146	79.69
469.365	82.69
469.585	88.69
469.804	94.69
470.023	77.69
470.243	88.69
470.462	90.69
470.681	89.69
470.901	89.69
471.12	93.69
471.339	80.69
471.558	82.69
471.777	98.69
471.997	76.69
472.216	81.69
472.435	80.69
472.654	65.69
472.873	66.69
473.092	73.69
473.311	76.69
473.53	77.69
473.749	81.69
473.968	94.69
474.187	72.69
474.406	88.69
474.625	82.69
474.844	80.69
475.063	93.69
475.282	76.69
475.501	99.69
475.72	98.69
475.939	79.69
476.158	92.69
476.377	85.69
476.596	82.69
476.814	78.69
477.033	86.69
477.252	75.69
477.471	85.69
477.69	81.69
477.908	90.69
478.127	98.69
478.346	89.69
478.564	87.69
478.783	78.69
479.002	96.69
479.22	80.69
479.439	87.69
479.658	98.69
479.876	85.69
480.095	71.69
480.313	96.69
480.532	88.69
480.751	93.69
480.969	77.69
481.188	96.69
481.406	79.69
481.624	80.69
481.843	82.69
482.061	102.69
482.28	99.69
482.498	99.69
482.717	89.69
482.935	96.69
483.153	94.69
483.372	89.69
483.59	85.69
483.808	79.69
484.027	92.69
484.245	93.69
484.463	98.69
484.681	92.69
484.9	94.69
485.118	89.69
485.336	77.69
485.554	85.69
485.772	70.69
485.99	80.69
486.209	77.69
486.427	80.69
486.645	99.69
486.863	71.69
487.081	102.69
487.299	93.69
487.517	95.69
487.735	87.69
487.953	100.69
488.171	92.69
488.389	98.69
488.607	91.69
488.825	84.69
489.043	90.69
489.261	73.69
489.479	86.69
489.696	82.69
489.914	89.69
490.132	82.69
490.35	78.69
490.568	100.69
490.786	93.69
491.003	87.69
491.221	90.69
491.439	80.69
491.657	100.69
491.874	85.69
492.092	89.69
492.31	87.69
492.527	85.69
492.745	102.69
492.963	99.69
493.18	101.69
493.398	95.69
493.615	94.69
493.833	93.69
494.05	87.69
494.268	101.69
494.485	93.69
494.703	88.69
494.92	95.69
495.138	100.69
495.355	92.69
495.573	104.69
495.79	91.69
496.008	92.69
496.225	98.69
496.442	100.69
496.66	89.69
496.877	82.69
497.094	90.69
497.312	85.69
497.529	88.69
497.746	91.69
497.963	96.69
498.181	88.69
498.398	104.69
498.615	96.69
498.832	93.69
499.049	105.69
499.267	103.69
499.484	96.69
499.701	85.69
499.918	109.69
500.135	89.69
500.352	89.69
500.569	84.69
500.786	104.69
501.003	104.69
501.22	111.69
501.437	105.69
501.654	112.69
501.871	92.69
502.088	91.69
502.305	103.69
502.522	96.69
502.739	87.69
502.956	96.69
503.172	89.69
503.389	86.69
503.606	98.69
503.823	84.69
504.04	98.69
504.256	97.69
504.473	101.69
504.69	87.69
504.907	85.69
505.123	97.69
505.34	92.69
505.557	94.69
505.773	90.69
505.99	89.69
506.207	89.69
506.423	84.69
506.64	98.69
506.856	90.69
507.073	91.69
507.289	90.69
507.506	85.69
507.722	79.69
507.939	93.69
508.155	100.69
508.372	95.69
508.588	81.69
508.805	96.69
509.021	89.69
509.238	89.69
509.454	89.69
509.67	89.69
509.887	98.69
510.103	91.69
510.319	87.69
510.536	84.69
510.752	98.69
510.968	75.69
511.184	81.69
511.401	85.69
511.617	92.69
511.833	99.69
512.049	87.69
512.265	79.69
512.481	82.69
512.698	78.69
512.914	90.69
513.13	77.69
513.346	84.69
513.562	93.69
513.778	101.69
513.994	96.69
514.21	82.69
514.426	78.69
514.642	88.69
514.858	84.69
515.074	85.69
515.29	98.69
515.506	95.69
515.721	91.69
515.937	90.69
516.153	82.69
516.369	90.69
516.585	93.69
516.801	88.69
517.016	93.69
517.232	101.69
517.448	93.69
517.664	85.69
517.879	88.69
518.095	100.69
518.311	94.69
518.527	86.69
518.742	97.69
518.958	71.69
