Data from Ni(NO3)2@0.125M.TitratingCurve.Agarose3%dH2O.NegLispCup.LampEnergy10.LIBS07252019_HRD10591_18-08-58-568.txt Node
Date: Thu Jul 25 18:08:58 EDT 2019
User: cochatt
Spectrometer: HR+D1059
Trigger mode: 1
Integration Time (sec): 1.000000E-1
Scans to average: 1
Electric dark correction enabled: true
Nonlinearity correction enabled: false
Boxcar width: 0
XAxis mode: Wavelengths
Number of Pixels in Spectrum: 2048
>>>>>Begin Spectral Data<<<<<
223.165	-21
223.4	-21
223.635	-21
223.869	-3
224.104	-25
224.338	-7
224.573	-26
224.808	-15
225.042	1
225.277	4
225.511	-1
225.746	-2
225.98	7
226.215	5
226.449	6
226.683	9
226.918	38
227.152	30
227.387	47
227.621	40
227.856	42
228.09	46
228.324	55
228.559	61
228.793	53
229.027	85
229.262	88
229.496	104
229.73	106
229.964	103
230.199	109
230.433	117
230.667	119
230.901	124
231.136	111
231.37	122
231.604	115
231.838	148
232.072	124
232.306	133
232.541	137
232.775	126
233.009	133
233.243	110
233.477	120
233.711	128
233.945	133
234.179	134
234.413	122
234.647	133
234.881	129
235.115	125
235.349	129
235.583	125
235.817	118
236.051	117
236.285	122
236.519	127
236.753	127
236.987	127
237.221	129
237.455	126
237.689	121
237.922	133
238.156	129
238.39	126
238.624	141
238.858	138
239.091	131
239.325	147
239.559	140
239.793	135
240.027	131
240.26	151
240.494	151
240.728	137
240.961	137
241.195	133
241.429	151
241.662	139
241.896	153
242.13	141
242.363	146
242.597	152
242.83	150
243.064	150
243.298	166
243.531	149
243.765	157
243.998	159
244.232	147
244.465	156
244.699	171
244.932	185
245.166	165
245.399	171
245.633	171
245.866	171
246.099	170
246.333	166
246.566	163
246.8	160
247.033	167
247.266	181
247.5	171
247.733	183
247.966	180
248.2	179
248.433	199
248.666	187
248.899	189
249.133	180
249.366	197
249.599	204
249.832	211
250.066	201
250.299	179
250.532	190
250.765	185
250.998	203
251.231	204
251.465	197
251.698	214
251.931	198
252.164	197
252.397	199
252.63	207
252.863	202
253.096	203
253.329	200
253.562	219
253.795	219
254.028	216
254.261	226
254.494	220
254.727	227
254.96	202
255.193	216
255.426	214
255.659	217
255.892	229
256.124	224
256.357	231
256.59	229
256.823	230
257.056	220
257.289	211
257.521	234
257.754	219
257.987	225
258.22	227
258.452	212
258.685	232
258.918	232
259.151	236
259.383	237
259.616	232
259.849	228
260.081	253
260.314	247
260.547	249
260.779	230
261.012	243
261.244	250
261.477	262
261.71	237
261.942	237
262.175	235
262.407	251
262.64	239
262.872	245
263.105	257
263.337	258
263.57	260
263.802	261
264.035	273
264.267	263
264.499	265
264.732	251
264.964	259
265.197	279
265.429	262
265.661	278
265.894	275
266.126	250
266.358	285
266.591	266
266.823	266
267.055	281
267.287	261
267.52	277
267.752	269
267.984	265
268.216	284
268.448	284
268.681	278
268.913	257
269.145	267
269.377	286
269.609	273
269.841	313
270.073	294
270.306	292
270.538	272
270.77	297
271.002	289
271.234	289
271.466	297
271.698	317
271.93	278
272.162	294
272.394	309
272.626	310
272.858	294
273.09	292
273.322	294
273.553	295
273.785	313
274.017	291
274.249	299
274.481	307
274.713	293
274.945	305
275.176	280
275.408	305
275.64	300
275.872	303
276.104	307
276.335	302
276.567	330
276.799	306
277.031	320
277.262	311
277.494	335
277.726	322
277.957	317
278.189	329
278.421	313
278.652	322
278.884	333
279.115	315
279.347	325
279.579	344
279.81	321
280.042	349
280.273	332
280.505	348
280.736	322
280.968	335
281.199	335
281.431	334
281.662	355
281.894	345
282.125	348
282.356	348
282.588	356
282.819	336
283.051	367
283.282	358
283.513	348
283.745	334
283.976	328
284.207	362
284.439	350
284.67	376
284.901	352
285.132	349
285.364	363
285.595	357
285.826	381
286.057	361
286.288	344
286.52	360
286.751	381
286.982	364
287.213	361
287.444	362
287.675	383
287.906	362
288.138	376
288.369	363
288.6	379
288.831	368
289.062	377
289.293	365
289.524	375
289.755	378
289.986	383
290.217	386
290.448	369
290.679	370
290.91	384
291.141	382
291.371	389
291.602	395
291.833	353
292.064	379
292.295	368
292.526	402
292.757	362
292.987	379
293.218	388
293.449	374
293.68	365
293.91	379
294.141	380
294.372	366
294.603	386
294.833	400
295.064	403
295.295	397
295.525	392
295.756	397
295.987	388
296.217	391
296.448	406
296.679	383
296.909	389
297.14	388
297.37	410
297.601	417
297.831	427
298.062	421
298.292	430
298.523	418
298.753	460
298.984	417
299.214	419
299.445	440
299.675	423
299.905	427
300.136	428
300.366	415
300.597	435
300.827	438
301.057	441
301.288	447
301.518	433
301.748	440
301.979	458
302.209	457
302.439	439
302.669	447
302.9	423
303.13	443
303.36	421
303.59	423
303.82	442
304.051	433
304.281	427
304.511	403
304.741	412
304.971	436
305.201	432
305.431	433
305.661	418
305.891	430
306.121	443
306.352	445
306.582	449
306.812	419
307.042	433
307.272	423
307.502	435
307.731	442
307.961	398
308.191	436
308.421	421
308.651	407
308.881	417
309.111	420
309.341	429
309.571	442
309.8	424
310.03	422
310.26	449
310.49	440
310.72	418
310.949	435
311.179	417
311.409	414
311.639	431
311.868	410
312.098	458
312.328	430
312.557	453
312.787	440
313.017	426
313.246	443
313.476	462
313.706	452
313.935	454
314.165	447
314.394	469
314.624	451
314.853	459
315.083	484
315.312	458
315.542	494
315.771	440
316.001	450
316.23	455
316.46	456
316.689	457
316.919	442
317.148	469
317.377	458
317.607	453
317.836	440
318.065	433
318.295	457
318.524	463
318.753	470
318.983	463
319.212	433
319.441	456
319.67	457
319.9	427
320.129	464
320.358	457
320.587	466
320.816	453
321.046	453
321.275	448
321.504	459
321.733	449
321.962	457
322.191	453
322.42	463
322.649	462
322.878	460
323.108	484
323.337	478
323.566	467
323.795	468
324.024	489
324.253	487
324.482	474
324.71	453
324.939	482
325.168	502
325.397	476
325.626	499
325.855	513
326.084	491
326.313	499
326.542	497
326.77	524
326.999	517
327.228	532
327.457	521
327.686	521
327.914	510
328.143	514
328.372	499
328.6	518
328.829	508
329.058	521
329.287	513
329.515	537
329.744	495
329.972	538
330.201	510
330.43	539
330.658	509
330.887	545
331.115	542
331.344	546
331.572	578
331.801	559
332.03	578
332.258	568
332.486	603
332.715	603
332.943	637
333.172	673
333.4	682
333.629	697
333.857	705
334.085	678
334.314	655
334.542	660
334.771	638
334.999	655
335.227	645
335.455	622
335.684	637
335.912	643
336.14	612
336.369	627
336.597	637
336.825	638
337.053	613
337.281	595
337.51	603
337.738	596
337.966	566
338.194	581
338.422	556
338.65	571
338.878	583
339.106	589
339.334	556
339.562	581
339.79	558
340.018	565
340.246	534
340.474	570
340.702	554
340.93	567
341.158	581
341.386	563
341.614	583
341.842	564
342.07	539
342.298	554
342.526	573
342.754	547
342.981	547
343.209	575
343.437	604
343.665	615
343.893	676
344.12	677
344.348	638
344.576	615
344.804	579
345.031	565
345.259	555
345.487	548
345.714	553
345.942	570
346.17	557
346.397	525
346.625	520
346.853	545
347.08	565
347.308	548
347.535	555
347.763	562
347.99	558
348.218	543
348.445	557
348.673	534
348.9	522
349.128	522
349.355	551
349.583	542
349.81	520
350.037	506
350.265	500
350.492	520
350.72	510
350.947	510
351.174	498
351.402	512
351.629	505
351.856	521
352.083	501
352.311	505
352.538	511
352.765	550
352.992	515
353.22	501
353.447	506
353.674	503
353.901	514
354.128	512
354.355	508
354.583	493
354.81	493
355.037	500
355.264	524
355.491	509
355.718	523
355.945	510
356.172	517
356.399	501
356.626	537
356.853	521
357.08	533
357.307	533
357.534	509
357.761	506
357.988	516
358.215	526
358.441	537
358.668	497
358.895	532
359.122	523
359.349	505
359.576	515
359.802	526
360.029	521
360.256	504
360.483	509
360.709	514
360.936	498
361.163	514
361.39	516
361.616	527
361.843	508
362.07	513
362.296	532
362.523	491
362.749	499
362.976	507
363.203	509
363.429	499
363.656	537
363.882	506
364.109	513
364.335	506
364.562	498
364.788	511
365.015	516
365.241	509
365.468	489
365.694	510
365.92	509
366.147	514
366.373	504
366.599	504
366.826	507
367.052	513
367.278	509
367.505	515
367.731	521
367.957	514
368.184	516
368.41	520
368.636	532
368.862	513
369.089	510
369.315	504
369.541	492
369.767	528
369.993	531
370.219	502
370.445	520
370.672	526
370.898	537
371.124	533
371.35	535
371.576	531
371.802	561
372.028	503
372.254	546
372.48	569
372.706	572
372.932	581
373.158	555
373.384	558
373.61	569
373.835	561
374.061	545
374.287	538
374.513	574
374.739	591
374.965	594
375.191	622
375.416	627
375.642	577
375.868	601
376.094	560
376.319	545
376.545	555
376.771	544
376.997	557
377.222	549
377.448	551
377.674	539
377.899	546
378.125	534
378.35	523
378.576	541
378.802	562
379.027	542
379.253	548
379.478	534
379.704	549
379.929	549
380.155	545
380.38	536
380.606	544
380.831	536
381.057	542
381.282	552
381.507	545
381.733	543
381.958	565
382.184	558
382.409	561
382.634	544
382.86	573
383.085	590
383.31	591
383.535	595
383.761	595
383.986	614
384.211	625
384.436	649
384.662	628
384.887	656
385.112	652
385.337	638
385.562	642
385.787	664
386.013	654
386.238	662
386.463	644
386.688	655
386.913	646
387.138	629
387.363	649
387.588	659
387.813	621
388.038	639
388.263	645
388.488	641
388.713	626
388.938	614
389.163	641
389.387	621
389.612	620
389.837	621
390.062	636
390.287	621
390.512	638
390.736	642
390.961	628
391.186	633
391.411	654
391.636	700
391.86	716
392.085	719
392.31	703
392.534	693
392.759	686
392.984	698
393.208	686
393.433	674
393.658	683
393.882	669
394.107	705
394.331	682
394.556	686
394.78	693
395.005	679
395.229	695
395.454	713
395.678	731
395.903	718
396.127	706
396.352	668
396.576	666
396.801	685
397.025	689
397.249	724
397.474	724
397.698	710
397.922	717
398.147	690
398.371	744
398.595	746
398.82	795
399.044	851
399.268	947
399.492	1092
399.717	1189
399.941	1166
400.165	1032
400.389	963
400.613	888
400.837	830
401.062	794
401.286	788
401.51	783
401.734	811
401.958	808
402.182	817
402.406	827
402.63	817
402.854	855
403.078	866
403.302	864
403.526	910
403.75	927
403.974	935
404.198	949
404.422	941
404.645	910
404.869	911
405.093	879
405.317	885
405.541	873
405.765	885
405.988	865
406.212	867
406.436	870
406.66	875
406.883	917
407.107	956
407.331	992
407.555	1038
407.778	1011
408.002	1016
408.226	986
408.449	970
408.673	942
408.896	919
409.12	910
409.344	939
409.567	925
409.791	926
410.014	910
410.238	919
410.461	898
410.685	859
410.908	877
411.132	874
411.355	816
411.578	838
411.802	859
412.025	834
412.249	857
412.472	861
412.695	821
412.919	826
413.142	830
413.365	806
413.589	820
413.812	796
414.035	817
414.258	793
414.482	805
414.705	838
414.928	834
415.151	807
415.374	811
415.597	829
415.821	801
416.044	802
416.267	783
416.49	805
416.713	782
416.936	789
417.159	809
417.382	788
417.605	769
417.828	777
418.051	836
418.274	817
418.497	805
418.72	815
418.943	845
419.166	868
419.389	934
419.611	869
419.834	859
420.057	878
420.28	797
420.503	794
420.726	785
420.948	805
421.171	825
421.394	817
421.617	794
421.839	793
422.062	840
422.285	792
422.507	838
422.73	856
422.953	824
423.175	808
423.398	863
423.621	861
423.843	867
424.066	875
424.288	852
424.511	862
424.733	846
424.956	843
425.178	807
425.401	830
425.623	838
425.846	811
426.068	792
426.291	798
426.513	753
426.735	750
426.958	749
427.18	749
427.402	755
427.625	745
427.847	722
428.069	750
428.292	758
428.514	732
428.736	733
428.958	731
429.181	743
429.403	730
429.625	715
429.847	706
430.069	705
430.292	710
430.514	720
430.736	719
430.958	734
431.18	725
431.402	737
431.624	712
431.846	730
432.068	728
432.29	740
432.512	719
432.734	745
432.956	714
433.178	743
433.4	725
433.622	774
433.844	718
434.066	746
434.287	730
434.509	788
434.731	818
434.953	834
435.175	824
435.397	849
435.618	795
435.84	765
436.062	753
436.284	742
436.505	747
436.727	749
436.949	746
437.17	766
437.392	741
437.614	721
437.835	698
438.057	702
438.278	683
438.5	684
438.721	703
438.943	719
439.165	722
439.386	706
439.608	721
439.829	742
440.05	753
440.272	767
440.493	768
440.715	772
440.936	759
441.158	769
441.379	821
441.6	828
441.822	833
442.043	831
442.264	833
442.486	813
442.707	835
442.928	803
443.149	810
443.371	819
443.592	833
443.813	862
444.034	854
444.255	888
444.476	893
444.698	960
444.919	975
445.14	1123
445.361	969
445.582	858
445.803	797
446.024	801
446.245	777
446.466	788
446.687	759
446.908	778
447.129	758
447.35	717
447.571	717
447.792	715
448.013	727
448.234	699
448.455	683
448.675	717
448.896	697
449.117	673
449.338	663
449.559	693
449.779	682
450	671
450.221	693
450.442	722
450.662	698
450.883	679
451.104	710
451.324	726
451.545	712
451.766	728
451.986	702
452.207	694
452.428	685
452.648	698
452.869	689
453.089	677
453.31	702
453.53	676
453.751	673
453.971	684
454.192	671
454.412	663
454.633	675
454.853	668
455.073	645
455.294	631
455.514	629
455.734	653
455.955	651
456.175	642
456.395	634
456.616	648
456.836	634
457.056	664
457.276	630
457.497	633
457.717	623
457.937	646
458.157	645
458.377	662
458.598	675
458.818	672
459.038	681
459.258	721
459.478	739
459.698	777
459.918	783
460.138	825
460.358	878
460.578	873
460.798	891
461.018	887
461.238	861
461.458	866
461.678	860
461.898	865
462.118	879
462.338	918
462.558	936
462.777	992
462.997	1093
463.217	1188
463.437	1173
463.657	1090
463.876	1012
464.096	996
464.316	995
464.536	1011
464.755	977
464.975	977
465.195	898
465.414	826
465.634	785
465.854	758
466.073	771
466.293	747
466.512	745
466.732	735
466.951	722
467.171	702
467.391	727
467.61	714
467.829	731
468.049	725
468.268	682
468.488	705
468.707	689
468.927	689
469.146	691
469.365	674
469.585	729
469.804	730
470.023	718
470.243	731
470.462	757
470.681	744
470.901	769
471.12	728
471.339	710
471.558	715
471.777	715
471.997	682
472.216	679
472.435	673
472.654	671
472.873	661
473.092	687
473.311	681
473.53	665
473.749	666
473.968	661
474.187	659
474.406	661
474.625	661
474.844	671
475.063	693
475.282	687
475.501	686
475.72	692
475.939	692
476.158	719
476.377	698
476.596	696
476.814	691
477.033	716
477.252	700
477.471	738
477.69	738
477.908	779
478.127	782
478.346	801
478.564	810
478.783	801
479.002	857
479.22	860
479.439	855
479.658	831
479.876	817
480.095	833
480.313	873
480.532	906
480.751	901
480.969	887
481.188	811
481.406	798
481.624	777
481.843	758
482.061	745
482.28	773
482.498	761
482.717	748
482.935	761
483.153	760
483.372	794
483.59	784
483.808	781
484.027	740
484.245	801
484.463	795
484.681	786
484.9	800
485.118	791
485.336	779
485.554	786
485.772	817
485.99	787
486.209	826
486.427	799
486.645	821
486.863	838
487.081	806
487.299	812
487.517	817
487.735	807
487.953	828
488.171	831
488.389	763
488.607	779
488.825	763
489.043	776
489.261	786
489.479	801
489.696	813
489.914	807
490.132	795
490.35	817
490.568	802
490.786	819
491.003	821
491.221	834
491.439	830
491.657	814
491.874	835
492.092	807
492.31	823
492.527	821
492.745	827
492.963	835
493.18	822
493.398	843
493.615	839
493.833	871
494.05	840
494.268	832
494.485	851
494.703	852
494.92	856
495.138	859
495.355	842
495.573	867
495.79	851
496.008	852
496.225	857
496.442	889
496.66	876
496.877	887
497.094	901
497.312	914
497.529	917
497.746	954
497.963	978
498.181	1020
498.398	1060
498.615	1094
498.832	1217
499.049	1250
499.267	1378
499.484	1522
499.701	1661
499.918	1838
500.135	2132
500.352	2393
500.569	2532
500.786	2540
501.003	2303
501.22	2069
501.437	1793
501.654	1579
501.871	1437
502.088	1316
502.305	1258
502.522	1178
502.739	1146
502.956	1108
503.172	1036
503.389	1018
503.606	967
503.823	962
504.04	971
504.256	964
504.473	1020
504.69	1019
504.907	983
505.123	949
505.34	869
505.557	855
505.773	827
505.99	832
506.207	781
506.423	781
506.64	791
506.856	772
507.073	758
507.289	762
507.506	763
507.722	750
507.939	743
508.155	734
508.372	729
508.588	734
508.805	739
509.021	724
509.238	732
509.454	705
509.67	701
509.887	697
510.103	683
510.319	687
510.536	683
510.752	692
510.968	697
511.184	674
511.401	682
511.617	690
511.833	700
512.049	681
512.265	694
512.481	686
512.698	688
512.914	697
513.13	675
513.346	689
513.562	682
513.778	663
513.994	676
514.21	682
514.426	675
514.642	704
514.858	696
515.074	697
515.29	725
515.506	721
515.721	731
515.937	734
516.153	754
516.369	757
516.585	797
516.801	799
517.016	871
517.232	897
517.448	903
517.664	941
517.879	938
518.095	925
518.311	911
518.527	876
518.742	871
518.958	833
519.173	789
519.389	760
519.605	748
519.82	716
520.036	718
520.251	705
520.467	710
520.682	695
520.898	705
521.113	684
521.329	689
521.544	669
521.76	655
521.975	636
522.19	667
522.406	621
522.621	642
522.836	667
523.052	659
523.267	647
523.482	645
523.698	635
523.913	629
524.128	636
524.343	634
524.559	640
524.774	628
524.989	656
525.204	631
525.419	636
525.634	638
525.849	637
526.064	619
526.28	622
526.495	615
526.71	628
526.925	617
527.14	613
527.355	619
527.57	639
527.785	625
527.999	643
528.214	628
528.429	642
528.644	632
528.859	633
529.074	642
529.289	634
529.503	639
529.718	625
529.933	620
530.148	631
530.363	632
530.577	605
530.792	600
531.007	629
531.221	631
531.436	633
531.651	621
531.865	643
532.08	612
532.295	634
532.509	625
532.724	638
532.938	635
533.153	602
533.367	637
533.582	601
533.796	637
534.011	598
534.225	620
534.44	610
534.654	597
534.868	610
535.083	603
535.297	601
535.511	592
535.726	609
535.94	604
536.154	603
536.369	579
536.583	593
536.797	596
537.011	604
537.225	584
537.44	571
537.654	571
537.868	588
538.082	555
538.296	568
538.51	561
538.724	580
538.938	570
539.153	594
539.367	580
539.581	569
539.795	549
540.009	565
540.222	556
540.436	580
540.65	571
540.864	550
541.078	561
541.292	556
541.506	555
541.72	550
541.934	574
542.147	581
542.361	579
542.575	557
542.789	558
543.002	552
543.216	568
543.43	569
543.644	551
543.857	559
544.071	555
544.285	576
544.498	568
544.712	575
544.925	577
545.139	569
545.352	548
545.566	561
545.779	589
545.993	596
546.206	594
546.42	582
546.633	597
546.847	601
547.06	558
547.274	591
547.487	578
547.7	577
547.914	585
548.127	583
548.34	590
548.554	618
548.767	582
548.98	572
549.193	564
549.407	606
549.62	590
549.833	596
550.046	570
550.259	595
550.473	573
550.686	587
550.899	554
551.112	540
551.325	572
551.538	582
551.751	553
551.964	587
552.177	567
552.39	570
552.603	611
552.816	625
553.029	597
553.242	612
553.455	628
553.667	639
553.88	639
554.093	605
554.306	595
554.519	569
554.732	565
554.944	583
555.157	545
555.37	546
555.583	537
555.795	539
556.008	528
556.221	519
556.433	510
556.646	520
556.859	517
557.071	527
557.284	497
557.496	493
557.709	516
557.921	505
558.134	502
558.346	486
558.559	488
558.771	483
558.984	480
559.196	502
559.409	490
559.621	472
559.833	476
560.046	472
560.258	490
560.47	471
560.683	475
560.895	490
561.107	485
561.32	485
561.532	487
561.744	477
561.956	473
562.168	478
562.381	484
562.593	488
