Data from Ni(NO3)2@0.5M.TitratingCurve.Agarose3%dH2O.NegLispCup.LampEnergy10.LIBS07252019_HRD10591_17-59-23-565.txt Node
Date: Thu Jul 25 17:59:23 EDT 2019
User: cochatt
Spectrometer: HR+D1059
Trigger mode: 1
Integration Time (sec): 1.000000E-1
Scans to average: 1
Electric dark correction enabled: true
Nonlinearity correction enabled: false
Boxcar width: 0
XAxis mode: Wavelengths
Number of Pixels in Spectrum: 2048
>>>>>Begin Spectral Data<<<<<
223.165	-4.5
223.4	-4.5
223.635	-4.5
223.869	-14.5
224.104	-23.5
224.338	-1.5
224.573	-11.5
224.808	-6.5
225.042	-23.5
225.277	-3.5
225.511	-4.5
225.746	-2.5
225.98	-1.5
226.215	6.5
226.449	3.5
226.683	32.5
226.918	32.5
227.152	22.5
227.387	32.5
227.621	46.5
227.856	47.5
228.09	42.5
228.324	46.5
228.559	54.5
228.793	84.5
229.027	105.5
229.262	118.5
229.496	120.5
229.73	125.5
229.964	148.5
230.199	145.5
230.433	150.5
230.667	135.5
230.901	141.5
231.136	130.5
231.37	118.5
231.604	134.5
231.838	151.5
232.072	146.5
232.306	151.5
232.541	140.5
232.775	120.5
233.009	130.5
233.243	133.5
233.477	123.5
233.711	138.5
233.945	122.5
234.179	138.5
234.413	134.5
234.647	124.5
234.881	136.5
235.115	136.5
235.349	129.5
235.583	130.5
235.817	141.5
236.051	124.5
236.285	114.5
236.519	139.5
236.753	136.5
236.987	134.5
237.221	132.5
237.455	139.5
237.689	140.5
237.922	146.5
238.156	130.5
238.39	120.5
238.624	146.5
238.858	139.5
239.091	136.5
239.325	144.5
239.559	146.5
239.793	166.5
240.027	167.5
240.26	147.5
240.494	139.5
240.728	144.5
240.961	151.5
241.195	152.5
241.429	154.5
241.662	160.5
241.896	166.5
242.13	162.5
242.363	151.5
242.597	154.5
242.83	154.5
243.064	148.5
243.298	150.5
243.531	167.5
243.765	155.5
243.998	161.5
244.232	169.5
244.465	162.5
244.699	164.5
244.932	158.5
245.166	167.5
245.399	141.5
245.633	168.5
245.866	175.5
246.099	178.5
246.333	162.5
246.566	172.5
246.8	165.5
247.033	173.5
247.266	177.5
247.5	175.5
247.733	171.5
247.966	189.5
248.2	174.5
248.433	169.5
248.666	176.5
248.899	190.5
249.133	194.5
249.366	185.5
249.599	182.5
249.832	172.5
250.066	181.5
250.299	187.5
250.532	203.5
250.765	195.5
250.998	209.5
251.231	204.5
251.465	212.5
251.698	216.5
251.931	212.5
252.164	208.5
252.397	174.5
252.63	196.5
252.863	200.5
253.096	211.5
253.329	210.5
253.562	196.5
253.795	194.5
254.028	207.5
254.261	211.5
254.494	216.5
254.727	212.5
254.96	202.5
255.193	226.5
255.426	210.5
255.659	219.5
255.892	216.5
256.124	232.5
256.357	232.5
256.59	222.5
256.823	224.5
257.056	228.5
257.289	240.5
257.521	227.5
257.754	222.5
257.987	226.5
258.22	219.5
258.452	230.5
258.685	215.5
258.918	214.5
259.151	232.5
259.383	234.5
259.616	241.5
259.849	239.5
260.081	248.5
260.314	231.5
260.547	240.5
260.779	250.5
261.012	228.5
261.244	243.5
261.477	252.5
261.71	239.5
261.942	262.5
262.175	234.5
262.407	260.5
262.64	265.5
262.872	258.5
263.105	269.5
263.337	269.5
263.57	242.5
263.802	252.5
264.035	274.5
264.267	269.5
264.499	246.5
264.732	277.5
264.964	262.5
265.197	280.5
265.429	267.5
265.661	286.5
265.894	276.5
266.126	262.5
266.358	259.5
266.591	258.5
266.823	271.5
267.055	264.5
267.287	264.5
267.52	256.5
267.752	279.5
267.984	274.5
268.216	272.5
268.448	285.5
268.681	271.5
268.913	291.5
269.145	295.5
269.377	281.5
269.609	261.5
269.841	304.5
270.073	274.5
270.306	286.5
270.538	279.5
270.77	283.5
271.002	295.5
271.234	281.5
271.466	286.5
271.698	280.5
271.93	293.5
272.162	295.5
272.394	293.5
272.626	269.5
272.858	289.5
273.09	294.5
273.322	309.5
273.553	311.5
273.785	295.5
274.017	299.5
274.249	330.5
274.481	301.5
274.713	311.5
274.945	308.5
275.176	304.5
275.408	311.5
275.64	306.5
275.872	318.5
276.104	295.5
276.335	300.5
276.567	301.5
276.799	322.5
277.031	328.5
277.262	325.5
277.494	321.5
277.726	316.5
277.957	326.5
278.189	326.5
278.421	303.5
278.652	322.5
278.884	325.5
279.115	342.5
279.347	320.5
279.579	321.5
279.81	332.5
280.042	316.5
280.273	330.5
280.505	339.5
280.736	338.5
280.968	339.5
281.199	332.5
281.431	333.5
281.662	351.5
281.894	330.5
282.125	331.5
282.356	354.5
282.588	352.5
282.819	321.5
283.051	339.5
283.282	337.5
283.513	362.5
283.745	339.5
283.976	352.5
284.207	362.5
284.439	359.5
284.67	357.5
284.901	347.5
285.132	361.5
285.364	354.5
285.595	365.5
285.826	372.5
286.057	368.5
286.288	346.5
286.52	380.5
286.751	374.5
286.982	359.5
287.213	390.5
287.444	360.5
287.675	372.5
287.906	374.5
288.138	357.5
288.369	384.5
288.6	374.5
288.831	361.5
289.062	373.5
289.293	379.5
289.524	361.5
289.755	385.5
289.986	376.5
290.217	368.5
290.448	371.5
290.679	406.5
290.91	383.5
291.141	375.5
291.371	387.5
291.602	393.5
291.833	367.5
292.064	381.5
292.295	355.5
292.526	370.5
292.757	374.5
292.987	374.5
293.218	380.5
293.449	384.5
293.68	354.5
293.91	389.5
294.141	378.5
294.372	387.5
294.603	393.5
294.833	403.5
295.064	374.5
295.295	400.5
295.525	372.5
295.756	387.5
295.987	394.5
296.217	389.5
296.448	384.5
296.679	395.5
296.909	409.5
297.14	388.5
297.37	400.5
297.601	399.5
297.831	399.5
298.062	409.5
298.292	394.5
298.523	409.5
298.753	416.5
298.984	412.5
299.214	414.5
299.445	411.5
299.675	421.5
299.905	418.5
300.136	417.5
300.366	437.5
300.597	450.5
300.827	444.5
301.057	421.5
301.288	437.5
301.518	439.5
301.748	430.5
301.979	404.5
302.209	430.5
302.439	420.5
302.669	440.5
302.9	425.5
303.13	402.5
303.36	436.5
303.59	432.5
303.82	448.5
304.051	421.5
304.281	430.5
304.511	439.5
304.741	451.5
304.971	442.5
305.201	448.5
305.431	433.5
305.661	460.5
305.891	438.5
306.121	422.5
306.352	427.5
306.582	445.5
306.812	439.5
307.042	447.5
307.272	427.5
307.502	439.5
307.731	418.5
307.961	419.5
308.191	435.5
308.421	438.5
308.651	438.5
308.881	425.5
309.111	438.5
309.341	445.5
309.571	440.5
309.8	447.5
310.03	449.5
310.26	479.5
310.49	466.5
310.72	444.5
310.949	425.5
311.179	445.5
311.409	443.5
311.639	456.5
311.868	447.5
312.098	467.5
312.328	474.5
312.557	464.5
312.787	438.5
313.017	458.5
313.246	459.5
313.476	485.5
313.706	474.5
313.935	476.5
314.165	463.5
314.394	473.5
314.624	490.5
314.853	467.5
315.083	478.5
315.312	487.5
315.542	455.5
315.771	458.5
316.001	467.5
316.23	476.5
316.46	460.5
316.689	500.5
316.919	488.5
317.148	494.5
317.377	487.5
317.607	474.5
317.836	465.5
318.065	474.5
318.295	463.5
318.524	488.5
318.753	475.5
318.983	501.5
319.212	470.5
319.441	488.5
319.67	469.5
319.9	474.5
320.129	509.5
320.358	490.5
320.587	505.5
320.816	474.5
321.046	482.5
321.275	504.5
321.504	489.5
321.733	500.5
321.962	492.5
322.191	490.5
322.42	478.5
322.649	503.5
322.878	482.5
323.108	506.5
323.337	508.5
323.566	506.5
323.795	522.5
324.024	516.5
324.253	519.5
324.482	530.5
324.71	499.5
324.939	496.5
325.168	518.5
325.397	519.5
325.626	506.5
325.855	515.5
326.084	522.5
326.313	519.5
326.542	506.5
326.77	507.5
326.999	508.5
327.228	522.5
327.457	530.5
327.686	538.5
327.914	556.5
328.143	530.5
328.372	535.5
328.6	542.5
328.829	533.5
329.058	530.5
329.287	538.5
329.515	532.5
329.744	538.5
329.972	537.5
330.201	536.5
330.43	536.5
330.658	552.5
330.887	546.5
331.115	562.5
331.344	567.5
331.572	573.5
331.801	565.5
332.03	580.5
332.258	555.5
332.486	573.5
332.715	562.5
332.943	599.5
333.172	593.5
333.4	594.5
333.629	606.5
333.857	621.5
334.085	632.5
334.314	634.5
334.542	618.5
334.771	616.5
334.999	624.5
335.227	634.5
335.455	626.5
335.684	636.5
335.912	633.5
336.14	598.5
336.369	632.5
336.597	635.5
336.825	643.5
337.053	604.5
337.281	626.5
337.51	612.5
337.738	614.5
337.966	606.5
338.194	603.5
338.422	607.5
338.65	593.5
338.878	600.5
339.106	623.5
339.334	606.5
339.562	606.5
339.79	581.5
340.018	558.5
340.246	572.5
340.474	583.5
340.702	602.5
340.93	585.5
341.158	594.5
341.386	583.5
341.614	622.5
341.842	602.5
342.07	588.5
342.298	578.5
342.526	578.5
342.754	574.5
342.981	579.5
343.209	597.5
343.437	610.5
343.665	634.5
343.893	650.5
344.12	657.5
344.348	623.5
344.576	609.5
344.804	626.5
345.031	600.5
345.259	597.5
345.487	588.5
345.714	598.5
345.942	613.5
346.17	603.5
346.397	609.5
346.625	568.5
346.853	576.5
347.08	579.5
347.308	567.5
347.535	560.5
347.763	574.5
347.99	567.5
348.218	542.5
348.445	555.5
348.673	558.5
348.9	558.5
349.128	555.5
349.355	582.5
349.583	580.5
349.81	555.5
350.037	548.5
350.265	548.5
350.492	530.5
350.72	542.5
350.947	565.5
351.174	573.5
351.402	567.5
351.629	579.5
351.856	573.5
352.083	554.5
352.311	569.5
352.538	608.5
352.765	570.5
352.992	528.5
353.22	547.5
353.447	516.5
353.674	509.5
353.901	524.5
354.128	542.5
354.355	536.5
354.583	533.5
354.81	540.5
355.037	547.5
355.264	560.5
355.491	543.5
355.718	548.5
355.945	540.5
356.172	555.5
356.399	538.5
356.626	558.5
356.853	573.5
357.08	564.5
357.307	556.5
357.534	551.5
357.761	543.5
357.988	536.5
358.215	555.5
358.441	543.5
358.668	535.5
358.895	538.5
359.122	546.5
359.349	561.5
359.576	549.5
359.802	542.5
360.029	546.5
360.256	539.5
360.483	525.5
360.709	560.5
360.936	569.5
361.163	532.5
361.39	544.5
361.616	568.5
361.843	577.5
362.07	572.5
362.296	558.5
362.523	546.5
362.749	552.5
362.976	536.5
363.203	545.5
363.429	538.5
363.656	569.5
363.882	539.5
364.109	545.5
364.335	522.5
364.562	561.5
364.788	545.5
365.015	562.5
365.241	529.5
365.468	563.5
365.694	544.5
365.92	561.5
366.147	552.5
366.373	568.5
366.599	550.5
366.826	559.5
367.052	550.5
367.278	558.5
367.505	569.5
367.731	547.5
367.957	545.5
368.184	567.5
368.41	574.5
368.636	579.5
368.862	551.5
369.089	562.5
369.315	580.5
369.541	584.5
369.767	572.5
369.993	584.5
370.219	587.5
370.445	572.5
370.672	579.5
370.898	568.5
371.124	594.5
371.35	589.5
371.576	593.5
371.802	575.5
372.028	569.5
372.254	575.5
372.48	593.5
372.706	583.5
372.932	603.5
373.158	588.5
373.384	594.5
373.61	599.5
373.835	611.5
374.061	588.5
374.287	580.5
374.513	612.5
374.739	617.5
374.965	608.5
375.191	618.5
375.416	607.5
375.642	588.5
375.868	619.5
376.094	611.5
376.319	584.5
376.545	632.5
376.771	574.5
376.997	570.5
377.222	577.5
377.448	584.5
377.674	595.5
377.899	577.5
378.125	568.5
378.35	572.5
378.576	552.5
378.802	588.5
379.027	582.5
379.253	586.5
379.478	601.5
379.704	587.5
379.929	594.5
380.155	574.5
380.38	569.5
380.606	586.5
380.831	595.5
381.057	606.5
381.282	582.5
381.507	591.5
381.733	582.5
381.958	564.5
382.184	587.5
382.409	586.5
382.634	604.5
382.86	583.5
383.085	596.5
383.31	608.5
383.535	607.5
383.761	600.5
383.986	610.5
384.211	622.5
384.436	638.5
384.662	634.5
384.887	633.5
385.112	636.5
385.337	648.5
385.562	656.5
385.787	663.5
386.013	668.5
386.238	660.5
386.463	664.5
386.688	667.5
386.913	645.5
387.138	662.5
387.363	668.5
387.588	652.5
387.813	643.5
388.038	651.5
388.263	647.5
388.488	675.5
388.713	671.5
388.938	662.5
389.163	670.5
389.387	671.5
389.612	667.5
389.837	648.5
390.062	668.5
390.287	637.5
390.512	669.5
390.736	681.5
390.961	679.5
391.186	693.5
391.411	705.5
391.636	711.5
391.86	698.5
392.085	731.5
392.31	701.5
392.534	680.5
392.759	694.5
392.984	698.5
393.208	706.5
393.433	704.5
393.658	717.5
393.882	684.5
394.107	709.5
394.331	686.5
394.556	692.5
394.78	697.5
395.005	699.5
395.229	706.5
395.454	718.5
395.678	720.5
395.903	727.5
396.127	711.5
396.352	743.5
396.576	699.5
396.801	713.5
397.025	721.5
397.249	730.5
397.474	746.5
397.698	730.5
397.922	713.5
398.147	722.5
398.371	775.5
398.595	751.5
398.82	797.5
399.044	800.5
399.268	868.5
399.492	902.5
399.717	942.5
399.941	942.5
400.165	899.5
400.389	861.5
400.613	830.5
400.837	839.5
401.062	818.5
401.286	794.5
401.51	801.5
401.734	772.5
401.958	774.5
402.182	764.5
402.406	782.5
402.63	787.5
402.854	811.5
403.078	803.5
403.302	790.5
403.526	816.5
403.75	830.5
403.974	810.5
404.198	802.5
404.422	843.5
404.645	817.5
404.869	828.5
405.093	808.5
405.317	826.5
405.541	817.5
405.765	851.5
405.988	823.5
406.212	832.5
406.436	821.5
406.66	859.5
406.883	902.5
407.107	930.5
407.331	920.5
407.555	926.5
407.778	908.5
408.002	929.5
408.226	887.5
408.449	895.5
408.673	900.5
408.896	898.5
409.12	881.5
409.344	873.5
409.567	867.5
409.791	872.5
410.014	849.5
410.238	874.5
410.461	844.5
410.685	826.5
410.908	845.5
411.132	834.5
411.355	831.5
411.578	835.5
411.802	834.5
412.025	825.5
412.249	835.5
412.472	847.5
412.695	804.5
412.919	814.5
413.142	802.5
413.365	810.5
413.589	819.5
413.812	797.5
414.035	794.5
414.258	790.5
414.482	822.5
414.705	832.5
414.928	830.5
415.151	803.5
415.374	796.5
415.597	793.5
415.821	771.5
416.044	784.5
416.267	766.5
416.49	772.5
416.713	776.5
416.936	786.5
417.159	766.5
417.382	769.5
417.605	762.5
417.828	782.5
418.051	796.5
418.274	766.5
418.497	793.5
418.72	760.5
418.943	808.5
419.166	808.5
419.389	845.5
419.611	845.5
419.834	807.5
420.057	801.5
420.28	783.5
420.503	773.5
420.726	776.5
420.948	762.5
421.171	766.5
421.394	740.5
421.617	786.5
421.839	779.5
422.062	764.5
422.285	737.5
422.507	781.5
422.73	743.5
422.953	779.5
423.175	778.5
423.398	753.5
423.621	778.5
423.843	788.5
424.066	781.5
424.288	774.5
424.511	786.5
424.733	763.5
424.956	772.5
425.178	767.5
425.401	739.5
425.623	766.5
425.846	731.5
426.068	751.5
426.291	751.5
426.513	745.5
426.735	745.5
426.958	736.5
427.18	766.5
427.402	738.5
427.625	715.5
427.847	730.5
428.069	706.5
428.292	715.5
428.514	732.5
428.736	737.5
428.958	729.5
429.181	719.5
429.403	709.5
429.625	731.5
429.847	722.5
430.069	709.5
430.292	740.5
430.514	722.5
430.736	732.5
430.958	737.5
431.18	737.5
431.402	735.5
431.624	722.5
431.846	711.5
432.068	727.5
432.29	735.5
432.512	720.5
432.734	728.5
432.956	747.5
433.178	768.5
433.4	780.5
433.622	751.5
433.844	764.5
434.066	783.5
434.287	754.5
434.509	790.5
434.731	777.5
434.953	796.5
435.175	811.5
435.397	810.5
435.618	780.5
435.84	747.5
436.062	773.5
436.284	768.5
436.505	728.5
436.727	738.5
436.949	754.5
437.17	766.5
437.392	724.5
437.614	707.5
437.835	698.5
438.057	687.5
438.278	702.5
438.5	717.5
438.721	727.5
438.943	719.5
439.165	696.5
439.386	711.5
439.608	716.5
439.829	710.5
440.05	710.5
440.272	743.5
440.493	753.5
440.715	746.5
440.936	726.5
441.158	731.5
441.379	768.5
441.6	805.5
441.822	780.5
442.043	784.5
442.264	790.5
442.486	779.5
442.707	782.5
442.928	774.5
443.149	777.5
443.371	794.5
443.592	842.5
443.813	819.5
444.034	795.5
444.255	801.5
444.476	817.5
444.698	852.5
444.919	874.5
445.14	942.5
445.361	882.5
445.582	819.5
445.803	775.5
446.024	770.5
446.245	772.5
446.466	776.5
446.687	736.5
446.908	731.5
447.129	714.5
447.35	718.5
447.571	714.5
447.792	683.5
448.013	724.5
448.234	707.5
448.455	707.5
448.675	693.5
448.896	688.5
449.117	672.5
449.338	677.5
449.559	663.5
449.779	679.5
450	662.5
450.221	679.5
450.442	675.5
450.662	670.5
450.883	672.5
451.104	723.5
451.324	694.5
451.545	669.5
451.766	665.5
451.986	667.5
452.207	643.5
452.428	656.5
452.648	672.5
452.869	669.5
453.089	668.5
453.31	672.5
453.53	665.5
453.751	624.5
453.971	665.5
454.192	693.5
454.412	677.5
454.633	636.5
454.853	651.5
455.073	652.5
455.294	667.5
455.514	667.5
455.734	661.5
455.955	658.5
456.175	675.5
456.395	652.5
456.616	625.5
456.836	649.5
457.056	637.5
457.276	638.5
457.497	634.5
457.717	662.5
457.937	649.5
458.157	671.5
458.377	665.5
458.598	674.5
458.818	675.5
459.038	687.5
459.258	709.5
459.478	772.5
459.698	838.5
459.918	808.5
460.138	802.5
460.358	800.5
460.578	805.5
460.798	851.5
461.018	839.5
461.238	803.5
461.458	788.5
461.678	775.5
461.898	812.5
462.118	805.5
462.338	836.5
462.558	854.5
462.777	895.5
462.997	904.5
463.217	956.5
463.437	983.5
463.657	958.5
463.876	894.5
464.096	874.5
464.316	862.5
464.536	864.5
464.755	855.5
464.975	824.5
465.195	830.5
465.414	783.5
465.634	776.5
465.854	723.5
466.073	737.5
466.293	733.5
466.512	724.5
466.732	710.5
466.951	706.5
467.171	711.5
467.391	720.5
467.61	699.5
467.829	730.5
468.049	719.5
468.268	714.5
468.488	719.5
468.707	697.5
468.927	713.5
469.146	712.5
469.365	746.5
469.585	705.5
469.804	744.5
470.023	712.5
470.243	708.5
470.462	710.5
470.681	698.5
470.901	703.5
471.12	706.5
471.339	727.5
471.558	715.5
471.777	741.5
471.997	693.5
472.216	694.5
472.435	702.5
472.654	699.5
472.873	687.5
473.092	670.5
473.311	711.5
473.53	697.5
473.749	685.5
473.968	676.5
474.187	677.5
474.406	681.5
474.625	700.5
474.844	673.5
475.063	708.5
475.282	737.5
475.501	703.5
475.72	718.5
475.939	730.5
476.158	701.5
476.377	715.5
476.596	710.5
476.814	727.5
477.033	727.5
477.252	740.5
477.471	740.5
477.69	750.5
477.908	780.5
478.127	788.5
478.346	777.5
478.564	790.5
478.783	798.5
479.002	855.5
479.22	854.5
479.439	849.5
479.658	829.5
479.876	814.5
480.095	835.5
480.313	851.5
480.532	881.5
480.751	854.5
480.969	848.5
481.188	831.5
481.406	815.5
481.624	845.5
481.843	812.5
482.061	795.5
482.28	808.5
482.498	808.5
482.717	826.5
482.935	836.5
483.153	820.5
483.372	849.5
483.59	866.5
483.808	828.5
484.027	833.5
484.245	810.5
484.463	828.5
484.681	838.5
484.9	854.5
485.118	826.5
485.336	822.5
485.554	859.5
485.772	857.5
485.99	815.5
486.209	837.5
486.427	852.5
486.645	839.5
486.863	822.5
487.081	839.5
487.299	846.5
487.517	848.5
487.735	864.5
487.953	874.5
488.171	863.5
488.389	840.5
488.607	836.5
488.825	835.5
489.043	842.5
489.261	848.5
489.479	831.5
489.696	865.5
489.914	866.5
490.132	820.5
490.35	863.5
490.568	847.5
490.786	857.5
491.003	867.5
491.221	854.5
491.439	855.5
491.657	854.5
491.874	857.5
492.092	884.5
492.31	863.5
492.527	884.5
492.745	846.5
492.963	874.5
493.18	857.5
493.398	840.5
493.615	830.5
493.833	855.5
494.05	867.5
494.268	878.5
494.485	864.5
494.703	894.5
494.92	896.5
495.138	868.5
495.355	891.5
495.573	891.5
495.79	912.5
496.008	887.5
496.225	896.5
496.442	906.5
496.66	919.5
496.877	918.5
497.094	914.5
497.312	926.5
497.529	955.5
497.746	986.5
497.963	999.5
498.181	1012.5
498.398	1037.5
498.615	1065.5
498.832	1111.5
499.049	1158.5
499.267	1200.5
499.484	1283.5
499.701	1350.5
499.918	1382.5
500.135	1526.5
500.352	1575.5
500.569	1618.5
500.786	1594.5
501.003	1540.5
501.22	1468.5
501.437	1415.5
501.654	1301.5
501.871	1286.5
502.088	1210.5
502.305	1212.5
502.522	1157.5
502.739	1079.5
502.956	1023.5
503.172	997.5
503.389	1012.5
503.606	999.5
503.823	950.5
504.04	948.5
504.256	938.5
504.473	925.5
504.69	931.5
504.907	931.5
505.123	900.5
505.34	865.5
505.557	859.5
505.773	819.5
505.99	835.5
506.207	790.5
506.423	784.5
506.64	792.5
506.856	789.5
507.073	795.5
507.289	798.5
507.506	773.5
507.722	751.5
507.939	746.5
508.155	746.5
508.372	756.5
508.588	754.5
508.805	734.5
509.021	718.5
509.238	734.5
509.454	726.5
509.67	710.5
509.887	705.5
510.103	709.5
510.319	703.5
510.536	708.5
510.752	696.5
510.968	700.5
511.184	700.5
511.401	693.5
511.617	698.5
511.833	719.5
512.049	690.5
512.265	664.5
512.481	698.5
512.698	695.5
512.914	696.5
513.13	695.5
513.346	690.5
513.562	686.5
513.778	690.5
513.994	713.5
514.21	694.5
514.426	726.5
514.642	709.5
514.858	712.5
515.074	712.5
515.29	721.5
515.506	718.5
515.721	728.5
515.937	720.5
516.153	729.5
516.369	747.5
516.585	745.5
516.801	769.5
517.016	784.5
517.232	760.5
517.448	788.5
517.664	794.5
517.879	804.5
518.095	813.5
518.311	788.5
518.527	767.5
518.742	744.5
518.958	726.5
519.173	768.5
