Data from Ni(NO3)2Standard.Agarose3%.GreenCap.LampEnergy5.5.E.O_HRD10591_14-41-49-188.txt Node
Date: Mon Jul 22 14:41:49 EDT 2019
User: cochatt
Spectrometer: HR+D1059
Trigger mode: 1
Integration Time (sec): 1.000000E-1
Scans to average: 1
Electric dark correction enabled: true
Nonlinearity correction enabled: false
Boxcar width: 0
XAxis mode: Wavelengths
Number of Pixels in Spectrum: 2048
>>>>>Begin Spectral Data<<<<<
223.165	-19.81
223.4	-19.81
223.635	-19.81
223.869	-21.81
224.104	-26.81
224.338	-18.81
224.573	-13.81
224.808	0.19
225.042	-9.81
225.277	-12.81
225.511	4.19
225.746	0.19
225.98	-0.81
226.215	12.19
226.449	25.19
226.683	33.19
226.918	22.19
227.152	27.19
227.387	28.19
227.621	39.19
227.856	49.19
228.09	59.19
228.324	70.19
228.559	66.19
228.793	56.19
229.027	56.19
229.262	69.19
229.496	69.19
229.73	70.19
229.964	66.19
230.199	84.19
230.433	74.19
230.667	65.19
230.901	67.19
231.136	79.19
231.37	79.19
231.604	79.19
231.838	90.19
232.072	78.19
232.306	70.19
232.541	81.19
232.775	90.19
233.009	90.19
233.243	92.19
233.477	88.19
233.711	95.19
233.945	86.19
234.179	75.19
234.413	80.19
234.647	85.19
234.881	88.19
235.115	72.19
235.349	69.19
235.583	86.19
235.817	79.19
236.051	92.19
236.285	84.19
236.519	78.19
236.753	87.19
236.987	74.19
237.221	79.19
237.455	82.19
237.689	74.19
237.922	60.19
238.156	70.19
238.39	78.19
238.624	79.19
238.858	71.19
239.091	100.19
239.325	74.19
239.559	72.19
239.793	85.19
240.027	74.19
240.26	78.19
240.494	85.19
240.728	82.19
240.961	63.19
241.195	75.19
241.429	80.19
241.662	84.19
241.896	84.19
242.13	58.19
242.363	84.19
242.597	84.19
242.83	84.19
243.064	83.19
243.298	81.19
243.531	61.19
243.765	79.19
243.998	77.19
244.232	68.19
244.465	83.19
244.699	80.19
244.932	84.19
245.166	84.19
245.399	79.19
245.633	74.19
245.866	69.19
246.099	76.19
246.333	70.19
246.566	78.19
246.8	70.19
247.033	84.19
247.266	82.19
247.5	79.19
247.733	76.19
247.966	79.19
248.2	83.19
248.433	68.19
248.666	82.19
248.899	86.19
249.133	101.19
249.366	83.19
249.599	79.19
249.832	75.19
250.066	88.19
250.299	74.19
250.532	85.19
250.765	57.19
250.998	85.19
251.231	82.19
251.465	77.19
251.698	79.19
251.931	74.19
252.164	82.19
252.397	66.19
252.63	74.19
252.863	78.19
253.096	83.19
253.329	83.19
253.562	86.19
253.795	71.19
254.028	92.19
254.261	79.19
254.494	93.19
254.727	85.19
254.96	80.19
255.193	85.19
255.426	85.19
255.659	77.19
255.892	78.19
256.124	85.19
256.357	79.19
256.59	79.19
256.823	83.19
257.056	82.19
257.289	83.19
257.521	75.19
257.754	98.19
257.987	76.19
258.22	75.19
258.452	84.19
258.685	75.19
258.918	69.19
259.151	77.19
259.383	75.19
259.616	88.19
259.849	88.19
260.081	78.19
260.314	83.19
260.547	79.19
260.779	83.19
261.012	90.19
261.244	76.19
261.477	85.19
261.71	79.19
261.942	73.19
262.175	89.19
262.407	77.19
262.64	91.19
262.872	96.19
263.105	85.19
263.337	71.19
263.57	76.19
263.802	89.19
264.035	75.19
264.267	85.19
264.499	86.19
264.732	88.19
264.964	86.19
265.197	75.19
265.429	84.19
265.661	79.19
265.894	79.19
266.126	76.19
266.358	82.19
266.591	83.19
266.823	78.19
267.055	91.19
267.287	77.19
267.52	83.19
267.752	94.19
267.984	74.19
268.216	92.19
268.448	88.19
268.681	84.19
268.913	82.19
269.145	100.19
269.377	84.19
269.609	75.19
269.841	85.19
270.073	88.19
270.306	88.19
270.538	73.19
270.77	73.19
271.002	77.19
271.234	77.19
271.466	86.19
271.698	76.19
271.93	96.19
272.162	88.19
272.394	92.19
272.626	87.19
272.858	87.19
273.09	87.19
273.322	85.19
273.553	83.19
273.785	84.19
274.017	83.19
274.249	78.19
274.481	87.19
274.713	88.19
274.945	85.19
275.176	85.19
275.408	98.19
275.64	78.19
275.872	84.19
276.104	90.19
276.335	88.19
276.567	89.19
276.799	79.19
277.031	100.19
277.262	76.19
277.494	95.19
277.726	79.19
277.957	95.19
278.189	86.19
278.421	80.19
278.652	91.19
278.884	80.19
279.115	90.19
279.347	74.19
279.579	84.19
279.81	73.19
280.042	85.19
280.273	84.19
280.505	78.19
280.736	80.19
280.968	90.19
281.199	90.19
281.431	79.19
281.662	78.19
281.894	94.19
282.125	77.19
282.356	84.19
282.588	90.19
282.819	83.19
283.051	83.19
283.282	91.19
283.513	83.19
283.745	89.19
283.976	95.19
284.207	86.19
284.439	72.19
284.67	89.19
284.901	75.19
285.132	72.19
285.364	70.19
285.595	87.19
285.826	83.19
286.057	77.19
286.288	78.19
286.52	88.19
286.751	100.19
286.982	67.19
287.213	76.19
287.444	87.19
287.675	84.19
287.906	89.19
288.138	71.19
288.369	91.19
288.6	80.19
288.831	88.19
289.062	91.19
289.293	94.19
289.524	79.19
289.755	91.19
289.986	80.19
290.217	79.19
290.448	89.19
290.679	79.19
290.91	91.19
291.141	103.19
291.371	81.19
291.602	79.19
291.833	75.19
292.064	90.19
292.295	71.19
292.526	77.19
292.757	84.19
292.987	84.19
293.218	90.19
293.449	93.19
293.68	99.19
293.91	78.19
294.141	87.19
294.372	80.19
294.603	85.19
294.833	86.19
295.064	92.19
295.295	71.19
295.525	89.19
295.756	93.19
295.987	75.19
296.217	99.19
296.448	107.19
296.679	93.19
296.909	79.19
297.14	80.19
297.37	83.19
297.601	79.19
297.831	87.19
298.062	91.19
298.292	98.19
298.523	81.19
298.753	81.19
298.984	86.19
299.214	73.19
299.445	77.19
299.675	93.19
299.905	87.19
300.136	95.19
300.366	92.19
300.597	88.19
300.827	84.19
301.057	83.19
301.288	93.19
301.518	80.19
301.748	94.19
301.979	79.19
302.209	90.19
302.439	90.19
302.669	76.19
302.9	98.19
303.13	94.19
303.36	95.19
303.59	83.19
303.82	84.19
304.051	90.19
304.281	86.19
304.511	91.19
304.741	83.19
304.971	87.19
305.201	77.19
305.431	75.19
305.661	93.19
305.891	82.19
306.121	85.19
306.352	75.19
306.582	104.19
306.812	85.19
307.042	87.19
307.272	91.19
307.502	84.19
307.731	85.19
307.961	88.19
308.191	80.19
308.421	87.19
308.651	89.19
308.881	95.19
309.111	89.19
309.341	89.19
309.571	97.19
309.8	83.19
310.03	74.19
310.26	76.19
310.49	85.19
310.72	80.19
310.949	88.19
311.179	87.19
311.409	91.19
311.639	97.19
311.868	90.19
312.098	68.19
312.328	87.19
312.557	88.19
312.787	77.19
313.017	91.19
313.246	89.19
313.476	84.19
313.706	102.19
313.935	83.19
314.165	78.19
314.394	72.19
314.624	90.19
314.853	75.19
315.083	101.19
315.312	82.19
315.542	78.19
315.771	79.19
316.001	104.19
316.23	83.19
316.46	93.19
316.689	86.19
316.919	83.19
317.148	80.19
317.377	82.19
317.607	86.19
317.836	84.19
318.065	99.19
318.295	91.19
318.524	83.19
318.753	87.19
318.983	87.19
319.212	90.19
319.441	91.19
319.67	86.19
319.9	87.19
320.129	90.19
320.358	96.19
320.587	96.19
320.816	84.19
321.046	83.19
321.275	97.19
321.504	88.19
321.733	79.19
321.962	102.19
322.191	98.19
322.42	85.19
322.649	81.19
322.878	85.19
323.108	94.19
323.337	89.19
323.566	90.19
323.795	92.19
324.024	90.19
324.253	101.19
324.482	98.19
324.71	82.19
324.939	87.19
325.168	76.19
325.397	94.19
325.626	91.19
325.855	80.19
326.084	84.19
326.313	77.19
326.542	78.19
326.77	97.19
326.999	84.19
327.228	89.19
327.457	83.19
327.686	95.19
327.914	98.19
328.143	89.19
328.372	85.19
328.6	79.19
328.829	91.19
329.058	75.19
329.287	86.19
329.515	81.19
329.744	89.19
329.972	82.19
330.201	82.19
330.43	80.19
330.658	74.19
330.887	86.19
331.115	93.19
331.344	80.19
331.572	82.19
331.801	84.19
332.03	86.19
332.258	75.19
332.486	88.19
332.715	83.19
332.943	88.19
333.172	78.19
333.4	86.19
333.629	100.19
333.857	94.19
334.085	82.19
334.314	83.19
334.542	83.19
334.771	86.19
334.999	86.19
335.227	84.19
335.455	88.19
335.684	90.19
335.912	84.19
336.14	88.19
336.369	85.19
336.597	95.19
336.825	105.19
337.053	93.19
337.281	86.19
337.51	92.19
337.738	78.19
337.966	94.19
338.194	94.19
338.422	79.19
338.65	77.19
338.878	89.19
339.106	99.19
339.334	89.19
339.562	73.19
339.79	83.19
340.018	90.19
340.246	94.19
340.474	86.19
340.702	83.19
340.93	75.19
341.158	86.19
341.386	84.19
341.614	94.19
341.842	75.19
342.07	88.19
342.298	81.19
342.526	74.19
342.754	87.19
342.981	82.19
343.209	87.19
343.437	98.19
343.665	69.19
343.893	82.19
344.12	84.19
344.348	80.19
344.576	80.19
344.804	82.19
345.031	100.19
345.259	102.19
345.487	101.19
345.714	92.19
345.942	79.19
346.17	104.19
346.397	90.19
346.625	88.19
346.853	91.19
347.08	83.19
347.308	85.19
347.535	88.19
347.763	85.19
347.99	77.19
348.218	103.19
348.445	81.19
348.673	90.19
348.9	78.19
349.128	96.19
349.355	88.19
349.583	107.19
349.81	84.19
350.037	82.19
350.265	90.19
350.492	82.19
350.72	86.19
350.947	109.19
351.174	89.19
351.402	73.19
351.629	80.19
351.856	88.19
352.083	82.19
352.311	88.19
352.538	79.19
352.765	89.19
352.992	97.19
353.22	91.19
353.447	90.19
353.674	78.19
353.901	92.19
354.128	89.19
354.355	77.19
354.583	83.19
354.81	80.19
355.037	84.19
355.264	90.19
355.491	82.19
355.718	96.19
355.945	97.19
356.172	86.19
356.399	86.19
356.626	85.19
356.853	74.19
357.08	91.19
357.307	91.19
357.534	81.19
357.761	85.19
357.988	92.19
358.215	79.19
358.441	93.19
358.668	80.19
358.895	77.19
359.122	98.19
359.349	95.19
359.576	97.19
359.802	77.19
360.029	89.19
360.256	83.19
360.483	88.19
360.709	87.19
360.936	98.19
361.163	65.19
361.39	85.19
361.616	80.19
361.843	76.19
362.07	93.19
362.296	88.19
362.523	85.19
362.749	83.19
362.976	78.19
363.203	90.19
363.429	90.19
363.656	94.19
363.882	86.19
364.109	87.19
364.335	103.19
364.562	95.19
364.788	90.19
365.015	81.19
365.241	77.19
365.468	80.19
365.694	82.19
365.92	89.19
366.147	91.19
366.373	85.19
366.599	95.19
366.826	87.19
367.052	89.19
367.278	82.19
367.505	76.19
367.731	82.19
367.957	81.19
368.184	91.19
368.41	83.19
368.636	79.19
368.862	75.19
369.089	92.19
369.315	82.19
369.541	90.19
369.767	78.19
369.993	78.19
370.219	98.19
370.445	85.19
370.672	92.19
370.898	91.19
371.124	84.19
371.35	80.19
371.576	83.19
371.802	91.19
372.028	78.19
372.254	75.19
372.48	87.19
372.706	88.19
372.932	86.19
373.158	88.19
373.384	90.19
373.61	88.19
373.835	75.19
374.061	74.19
374.287	93.19
374.513	99.19
374.739	84.19
374.965	90.19
375.191	91.19
375.416	83.19
375.642	76.19
375.868	85.19
376.094	97.19
376.319	83.19
376.545	70.19
376.771	75.19
376.997	105.19
377.222	79.19
377.448	81.19
377.674	76.19
377.899	86.19
378.125	84.19
378.35	89.19
378.576	78.19
378.802	81.19
379.027	84.19
379.253	84.19
379.478	73.19
379.704	76.19
379.929	97.19
380.155	80.19
380.38	86.19
380.606	80.19
380.831	96.19
381.057	79.19
381.282	84.19
381.507	84.19
381.733	81.19
381.958	76.19
382.184	78.19
382.409	92.19
382.634	78.19
382.86	90.19
383.085	81.19
383.31	86.19
383.535	93.19
383.761	109.19
383.986	91.19
384.211	93.19
384.436	84.19
384.662	84.19
384.887	88.19
385.112	77.19
385.337	80.19
385.562	85.19
385.787	92.19
386.013	99.19
386.238	90.19
386.463	86.19
386.688	89.19
386.913	91.19
387.138	83.19
387.363	93.19
387.588	76.19
387.813	97.19
388.038	102.19
388.263	92.19
388.488	93.19
388.713	91.19
388.938	72.19
389.163	90.19
389.387	81.19
389.612	76.19
389.837	86.19
390.062	89.19
390.287	82.19
390.512	74.19
390.736	82.19
390.961	95.19
391.186	89.19
391.411	64.19
391.636	87.19
391.86	86.19
392.085	84.19
392.31	80.19
392.534	85.19
392.759	86.19
392.984	85.19
393.208	85.19
393.433	90.19
393.658	87.19
393.882	85.19
394.107	78.19
394.331	78.19
394.556	77.19
394.78	77.19
395.005	79.19
395.229	88.19
395.454	80.19
395.678	77.19
395.903	82.19
396.127	79.19
396.352	91.19
396.576	78.19
396.801	101.19
397.025	80.19
397.249	75.19
397.474	94.19
397.698	94.19
397.922	102.19
398.147	79.19
398.371	71.19
398.595	91.19
398.82	86.19
399.044	92.19
399.268	83.19
399.492	90.19
399.717	91.19
399.941	95.19
400.165	88.19
400.389	88.19
400.613	87.19
400.837	89.19
401.062	87.19
401.286	89.19
401.51	93.19
401.734	90.19
401.958	84.19
402.182	88.19
402.406	90.19
402.63	74.19
402.854	78.19
403.078	81.19
403.302	81.19
403.526	103.19
403.75	77.19
403.974	86.19
404.198	93.19
404.422	87.19
404.645	76.19
404.869	91.19
405.093	81.19
405.317	87.19
405.541	86.19
405.765	86.19
405.988	83.19
406.212	91.19
406.436	93.19
406.66	89.19
406.883	102.19
407.107	80.19
407.331	88.19
407.555	105.19
407.778	90.19
408.002	93.19
408.226	90.19
408.449	93.19
408.673	95.19
408.896	92.19
409.12	85.19
409.344	82.19
409.567	87.19
409.791	85.19
410.014	83.19
410.238	91.19
410.461	90.19
410.685	70.19
410.908	97.19
411.132	89.19
411.355	93.19
411.578	89.19
411.802	94.19
412.025	96.19
412.249	82.19
412.472	91.19
412.695	74.19
412.919	76.19
413.142	71.19
413.365	85.19
413.589	92.19
413.812	88.19
414.035	80.19
414.258	87.19
414.482	67.19
414.705	73.19
414.928	83.19
415.151	84.19
415.374	86.19
415.597	97.19
415.821	88.19
416.044	68.19
416.267	89.19
416.49	85.19
416.713	70.19
416.936	70.19
417.159	61.19
417.382	77.19
417.605	82.19
417.828	82.19
418.051	91.19
418.274	88.19
418.497	79.19
418.72	72.19
418.943	96.19
419.166	82.19
419.389	89.19
419.611	85.19
419.834	84.19
420.057	89.19
420.28	86.19
420.503	83.19
420.726	70.19
420.948	75.19
421.171	87.19
421.394	88.19
421.617	85.19
421.839	80.19
422.062	98.19
422.285	79.19
422.507	83.19
422.73	67.19
422.953	86.19
423.175	81.19
423.398	83.19
423.621	81.19
423.843	80.19
424.066	89.19
424.288	85.19
424.511	87.19
424.733	85.19
424.956	79.19
425.178	95.19
425.401	90.19
425.623	83.19
425.846	80.19
426.068	93.19
426.291	76.19
426.513	89.19
426.735	79.19
426.958	75.19
427.18	70.19
427.402	92.19
427.625	81.19
427.847	94.19
428.069	87.19
428.292	108.19
428.514	84.19
428.736	81.19
428.958	81.19
429.181	88.19
429.403	93.19
429.625	76.19
429.847	90.19
430.069	101.19
430.292	94.19
430.514	82.19
430.736	81.19
430.958	99.19
431.18	86.19
431.402	89.19
431.624	90.19
431.846	85.19
432.068	85.19
432.29	84.19
432.512	88.19
432.734	77.19
432.956	83.19
433.178	84.19
433.4	103.19
433.622	100.19
433.844	94.19
434.066	82.19
434.287	84.19
434.509	81.19
434.731	90.19
434.953	98.19
435.175	92.19
435.397	86.19
435.618	100.19
435.84	86.19
436.062	76.19
436.284	77.19
436.505	89.19
436.727	91.19
436.949	82.19
437.17	82.19
437.392	87.19
437.614	93.19
437.835	88.19
438.057	80.19
438.278	82.19
438.5	89.19
438.721	89.19
438.943	84.19
439.165	86.19
439.386	85.19
439.608	100.19
439.829	95.19
440.05	86.19
440.272	82.19
440.493	91.19
440.715	85.19
440.936	95.19
441.158	89.19
441.379	92.19
441.6	85.19
441.822	98.19
442.043	97.19
442.264	90.19
442.486	98.19
442.707	85.19
442.928	89.19
443.149	75.19
443.371	85.19
443.592	85.19
443.813	94.19
444.034	89.19
444.255	96.19
444.476	82.19
444.698	89.19
444.919	94.19
445.14	180.19
445.361	129.19
445.582	90.19
445.803	87.19
446.024	98.19
446.245	92.19
446.466	80.19
446.687	94.19
446.908	71.19
447.129	94.19
447.35	87.19
447.571	85.19
447.792	94.19
448.013	89.19
448.234	85.19
448.455	90.19
448.675	85.19
448.896	83.19
449.117	77.19
449.338	82.19
449.559	81.19
449.779	108.19
450	83.19
450.221	86.19
450.442	85.19
450.662	99.19
450.883	83.19
451.104	100.19
451.324	82.19
451.545	91.19
451.766	79.19
451.986	83.19
452.207	69.19
452.428	88.19
452.648	79.19
452.869	99.19
453.089	79.19
453.31	69.19
453.53	100.19
453.751	91.19
453.971	82.19
454.192	84.19
454.412	87.19
454.633	92.19
454.853	89.19
455.073	83.19
455.294	93.19
455.514	79.19
455.734	95.19
455.955	86.19
456.175	67.19
456.395	98.19
456.616	92.19
456.836	94.19
457.056	90.19
457.276	89.19
457.497	78.19
457.717	93.19
457.937	77.19
458.157	77.19
458.377	76.19
458.598	81.19
458.818	91.19
459.038	87.19
459.258	82.19
459.478	77.19
459.698	84.19
459.918	83.19
460.138	82.19
460.358	86.19
460.578	87.19
460.798	89.19
461.018	94.19
461.238	94.19
461.458	83.19
461.678	88.19
461.898	70.19
462.118	89.19
462.338	86.19
462.558	85.19
462.777	77.19
462.997	84.19
463.217	88.19
463.437	78.19
463.657	81.19
463.876	83.19
464.096	87.19
464.316	74.19
464.536	90.19
464.755	85.19
464.975	89.19
465.195	89.19
465.414	94.19
465.634	87.19
465.854	94.19
466.073	90.19
466.293	91.19
466.512	91.19
466.732	85.19
466.951	92.19
467.171	88.19
467.391	78.19
467.61	81.19
467.829	94.19
468.049	86.19
468.268	89.19
468.488	93.19
468.707	94.19
468.927	93.19
469.146	98.19
469.365	85.19
469.585	67.19
469.804	86.19
470.023	82.19
470.243	99.19
470.462	65.19
470.681	99.19
470.901	78.19
471.12	95.19
471.339	82.19
471.558	97.19
471.777	86.19
471.997	95.19
472.216	105.19
472.435	97.19
472.654	81.19
472.873	87.19
473.092	81.19
473.311	80.19
473.53	91.19
473.749	83.19
473.968	94.19
474.187	90.19
474.406	90.19
474.625	91.19
474.844	82.19
475.063	94.19
475.282	83.19
475.501	65.19
475.72	97.19
475.939	86.19
476.158	95.19
476.377	83.19
476.596	91.19
476.814	98.19
477.033	90.19
477.252	110.19
477.471	91.19
477.69	81.19
477.908	83.19
478.127	92.19
478.346	85.19
478.564	97.19
478.783	94.19
479.002	89.19
479.22	97.19
479.439	95.19
479.658	90.19
479.876	93.19
480.095	89.19
480.313	86.19
480.532	105.19
480.751	82.19
480.969	92.19
481.188	77.19
481.406	93.19
481.624	82.19
481.843	75.19
482.061	85.19
482.28	88.19
482.498	79.19
482.717	84.19
482.935	92.19
483.153	89.19
483.372	93.19
483.59	103.19
483.808	95.19
484.027	87.19
484.245	110.19
484.463	88.19
484.681	105.19
484.9	90.19
485.118	95.19
485.336	77.19
485.554	77.19
485.772	84.19
485.99	86.19
486.209	93.19
486.427	99.19
486.645	88.19
486.863	94.19
487.081	92.19
487.299	90.19
487.517	87.19
487.735	83.19
487.953	100.19
488.171	85.19
488.389	97.19
488.607	85.19
488.825	95.19
489.043	86.19
489.261	98.19
489.479	81.19
489.696	91.19
489.914	89.19
490.132	102.19
490.35	97.19
490.568	85.19
490.786	92.19
491.003	92.19
491.221	106.19
491.439	109.19
491.657	95.19
491.874	100.19
492.092	84.19
492.31	101.19
492.527	99.19
492.745	112.19
492.963	100.19
493.18	78.19
493.398	92.19
493.615	107.19
493.833	96.19
494.05	82.19
494.268	102.19
494.485	97.19
494.703	91.19
494.92	93.19
495.138	95.19
495.355	107.19
495.573	87.19
495.79	91.19
496.008	88.19
496.225	108.19
496.442	98.19
496.66	75.19
496.877	107.19
497.094	98.19
497.312	102.19
497.529	91.19
497.746	82.19
497.963	101.19
498.181	94.19
498.398	99.19
498.615	92.19
498.832	108.19
499.049	95.19
499.267	97.19
499.484	105.19
499.701	107.19
499.918	105.19
500.135	116.19
500.352	109.19
500.569	109.19
500.786	113.19
501.003	102.19
501.22	87.19
501.437	109.19
501.654	113.19
501.871	110.19
502.088	111.19
502.305	110.19
502.522	82.19
502.739	99.19
502.956	114.19
503.172	93.19
503.389	98.19
503.606	91.19
503.823	91.19
504.04	92.19
504.256	96.19
504.473	76.19
504.69	101.19
504.907	84.19
505.123	74.19
505.34	99.19
505.557	94.19
505.773	91.19
505.99	87.19
506.207	82.19
506.423	70.19
506.64	91.19
506.856	92.19
507.073	96.19
507.289	101.19
507.506	99.19
507.722	95.19
507.939	101.19
508.155	93.19
508.372	99.19
508.588	105.19
508.805	88.19
509.021	81.19
509.238	97.19
509.454	102.19
509.67	81.19
509.887	88.19
510.103	113.19
510.319	93.19
510.536	95.19
510.752	93.19
510.968	93.19
511.184	85.19
511.401	90.19
511.617	91.19
511.833	100.19
512.049	102.19
512.265	102.19
512.481	102.19
512.698	106.19
512.914	102.19
513.13	104.19
513.346	77.19
513.562	93.19
513.778	81.19
513.994	100.19
514.21	83.19
514.426	91.19
514.642	80.19
514.858	92.19
515.074	87.19
515.29	100.19
515.506	89.19
515.721	113.19
515.937	101.19
516.153	77.19
516.369	87.19
516.585	88.19
516.801	99.19
517.016	85.19
517.232	86.19
517.448	94.19
517.664	85.19
517.879	103.19
518.095	78.19
