Data from Ni(NO3)2@0.0625M.TitratingCurve.Agarose3%dH2O.NegLispCup.LampEnergy10.LIBS07252019_HRD10591_18-15-39-569.txt Node
Date: Thu Jul 25 18:15:39 EDT 2019
User: cochatt
Spectrometer: HR+D1059
Trigger mode: 1
Integration Time (sec): 1.000000E-1
Scans to average: 1
Electric dark correction enabled: true
Nonlinearity correction enabled: false
Boxcar width: 0
XAxis mode: Wavelengths
Number of Pixels in Spectrum: 2048
>>>>>Begin Spectral Data<<<<<
223.165	-19.75
223.4	-19.75
223.635	-19.75
223.869	-13.75
224.104	-25.75
224.338	-10.75
224.573	-19.75
224.808	-11.75
225.042	-10.75
225.277	-9.75
225.511	-2.75
225.746	10.25
225.98	14.25
226.215	-0.75
226.449	19.25
226.683	19.25
226.918	29.25
227.152	33.25
227.387	30.25
227.621	40.25
227.856	29.25
228.09	45.25
228.324	53.25
228.559	56.25
228.793	75.25
229.027	104.25
229.262	101.25
229.496	110.25
229.73	107.25
229.964	96.25
230.199	114.25
230.433	121.25
230.667	118.25
230.901	119.25
231.136	113.25
231.37	118.25
231.604	137.25
231.838	115.25
232.072	123.25
232.306	124.25
232.541	138.25
232.775	129.25
233.009	123.25
233.243	125.25
233.477	130.25
233.711	135.25
233.945	124.25
234.179	111.25
234.413	123.25
234.647	116.25
234.881	125.25
235.115	122.25
235.349	117.25
235.583	122.25
235.817	141.25
236.051	131.25
236.285	121.25
236.519	139.25
236.753	130.25
236.987	131.25
237.221	126.25
237.455	135.25
237.689	130.25
237.922	122.25
238.156	140.25
238.39	136.25
238.624	137.25
238.858	147.25
239.091	136.25
239.325	145.25
239.559	144.25
239.793	146.25
240.027	144.25
240.26	152.25
240.494	157.25
240.728	135.25
240.961	141.25
241.195	142.25
241.429	153.25
241.662	165.25
241.896	169.25
242.13	158.25
242.363	157.25
242.597	166.25
242.83	157.25
243.064	161.25
243.298	150.25
243.531	173.25
243.765	172.25
243.998	158.25
244.232	163.25
244.465	167.25
244.699	183.25
244.932	169.25
245.166	171.25
245.399	181.25
245.633	174.25
245.866	172.25
246.099	164.25
246.333	190.25
246.566	181.25
246.8	184.25
247.033	166.25
247.266	173.25
247.5	192.25
247.733	181.25
247.966	189.25
248.2	189.25
248.433	190.25
248.666	195.25
248.899	174.25
249.133	193.25
249.366	180.25
249.599	198.25
249.832	201.25
250.066	204.25
250.299	192.25
250.532	190.25
250.765	184.25
250.998	220.25
251.231	215.25
251.465	201.25
251.698	207.25
251.931	202.25
252.164	214.25
252.397	217.25
252.63	214.25
252.863	222.25
253.096	213.25
253.329	196.25
253.562	222.25
253.795	225.25
254.028	198.25
254.261	213.25
254.494	222.25
254.727	219.25
254.96	218.25
255.193	228.25
255.426	220.25
255.659	217.25
255.892	217.25
256.124	227.25
256.357	227.25
256.59	225.25
256.823	226.25
257.056	223.25
257.289	217.25
257.521	218.25
257.754	211.25
257.987	235.25
258.22	229.25
258.452	227.25
258.685	227.25
258.918	236.25
259.151	232.25
259.383	227.25
259.616	222.25
259.849	246.25
260.081	241.25
260.314	246.25
260.547	259.25
260.779	233.25
261.012	231.25
261.244	229.25
261.477	259.25
261.71	267.25
261.942	246.25
262.175	246.25
262.407	265.25
262.64	232.25
262.872	254.25
263.105	237.25
263.337	261.25
263.57	283.25
263.802	256.25
264.035	251.25
264.267	253.25
264.499	280.25
264.732	266.25
264.964	273.25
265.197	278.25
265.429	261.25
265.661	279.25
265.894	273.25
266.126	273.25
266.358	251.25
266.591	265.25
266.823	279.25
267.055	257.25
267.287	267.25
267.52	287.25
267.752	283.25
267.984	278.25
268.216	275.25
268.448	278.25
268.681	290.25
268.913	282.25
269.145	291.25
269.377	299.25
269.609	298.25
269.841	259.25
270.073	297.25
270.306	300.25
270.538	302.25
270.77	282.25
271.002	268.25
271.234	289.25
271.466	258.25
271.698	285.25
271.93	298.25
272.162	299.25
272.394	309.25
272.626	302.25
272.858	296.25
273.09	308.25
273.322	301.25
273.553	292.25
273.785	290.25
274.017	301.25
274.249	313.25
274.481	312.25
274.713	301.25
274.945	320.25
275.176	312.25
275.408	318.25
275.64	316.25
275.872	310.25
276.104	332.25
276.335	309.25
276.567	302.25
276.799	325.25
277.031	342.25
277.262	325.25
277.494	330.25
277.726	310.25
277.957	321.25
278.189	329.25
278.421	317.25
278.652	338.25
278.884	334.25
279.115	345.25
279.347	333.25
279.579	330.25
279.81	345.25
280.042	325.25
280.273	342.25
280.505	333.25
280.736	332.25
280.968	353.25
281.199	341.25
281.431	347.25
281.662	354.25
281.894	347.25
282.125	331.25
282.356	365.25
282.588	373.25
282.819	346.25
283.051	335.25
283.282	358.25
283.513	361.25
283.745	341.25
283.976	369.25
284.207	338.25
284.439	349.25
284.67	363.25
284.901	351.25
285.132	390.25
285.364	369.25
285.595	374.25
285.826	365.25
286.057	362.25
286.288	353.25
286.52	381.25
286.751	375.25
286.982	364.25
287.213	376.25
287.444	371.25
287.675	377.25
287.906	387.25
288.138	387.25
288.369	381.25
288.6	383.25
288.831	384.25
289.062	383.25
289.293	391.25
289.524	398.25
289.755	391.25
289.986	406.25
290.217	397.25
290.448	395.25
290.679	406.25
290.91	397.25
291.141	373.25
291.371	382.25
291.602	385.25
291.833	397.25
292.064	409.25
292.295	398.25
292.526	385.25
292.757	391.25
292.987	413.25
293.218	410.25
293.449	409.25
293.68	387.25
293.91	397.25
294.141	395.25
294.372	384.25
294.603	389.25
294.833	411.25
295.064	400.25
295.295	399.25
295.525	395.25
295.756	392.25
295.987	408.25
296.217	414.25
296.448	409.25
296.679	428.25
296.909	434.25
297.14	409.25
297.37	427.25
297.601	431.25
297.831	438.25
298.062	429.25
298.292	429.25
298.523	444.25
298.753	427.25
298.984	433.25
299.214	434.25
299.445	421.25
299.675	432.25
299.905	423.25
300.136	433.25
300.366	437.25
300.597	433.25
300.827	465.25
301.057	445.25
301.288	464.25
301.518	466.25
301.748	464.25
301.979	463.25
302.209	451.25
302.439	465.25
302.669	441.25
302.9	452.25
303.13	439.25
303.36	429.25
303.59	435.25
303.82	438.25
304.051	445.25
304.281	430.25
304.511	463.25
304.741	439.25
304.971	451.25
305.201	462.25
305.431	450.25
305.661	446.25
305.891	420.25
306.121	441.25
306.352	435.25
306.582	439.25
306.812	442.25
307.042	437.25
307.272	429.25
307.502	429.25
307.731	436.25
307.961	434.25
308.191	431.25
308.421	447.25
308.651	440.25
308.881	442.25
309.111	434.25
309.341	427.25
309.571	459.25
309.8	447.25
310.03	436.25
310.26	440.25
310.49	430.25
310.72	449.25
310.949	428.25
311.179	433.25
311.409	427.25
311.639	432.25
311.868	450.25
312.098	449.25
312.328	464.25
312.557	451.25
312.787	459.25
313.017	454.25
313.246	461.25
313.476	483.25
313.706	474.25
313.935	459.25
314.165	482.25
314.394	490.25
314.624	469.25
314.853	468.25
315.083	484.25
315.312	476.25
315.542	472.25
315.771	466.25
316.001	463.25
316.23	456.25
316.46	463.25
316.689	457.25
316.919	457.25
317.148	450.25
317.377	451.25
317.607	453.25
317.836	439.25
318.065	460.25
318.295	457.25
318.524	453.25
318.753	462.25
318.983	461.25
319.212	453.25
319.441	458.25
319.67	435.25
319.9	455.25
320.129	450.25
320.358	471.25
320.587	459.25
320.816	438.25
321.046	451.25
321.275	464.25
321.504	444.25
321.733	458.25
321.962	459.25
322.191	469.25
322.42	479.25
322.649	453.25
322.878	470.25
323.108	452.25
323.337	474.25
323.566	463.25
323.795	466.25
324.024	461.25
324.253	465.25
324.482	450.25
324.71	484.25
324.939	463.25
325.168	461.25
325.397	467.25
325.626	493.25
325.855	502.25
326.084	492.25
326.313	488.25
326.542	519.25
326.77	537.25
326.999	515.25
327.228	504.25
327.457	499.25
327.686	500.25
327.914	513.25
328.143	519.25
328.372	507.25
328.6	508.25
328.829	498.25
329.058	504.25
329.287	504.25
329.515	514.25
329.744	533.25
329.972	511.25
330.201	513.25
330.43	501.25
330.658	501.25
330.887	511.25
331.115	535.25
331.344	523.25
331.572	558.25
331.801	551.25
332.03	570.25
332.258	571.25
332.486	592.25
332.715	594.25
332.943	637.25
333.172	635.25
333.4	671.25
333.629	676.25
333.857	695.25
334.085	681.25
334.314	683.25
334.542	641.25
334.771	629.25
334.999	626.25
335.227	633.25
335.455	607.25
335.684	613.25
335.912	618.25
336.14	616.25
336.369	594.25
336.597	607.25
336.825	610.25
337.053	590.25
337.281	617.25
337.51	586.25
337.738	567.25
337.966	568.25
338.194	566.25
338.422	566.25
338.65	595.25
338.878	545.25
339.106	547.25
339.334	568.25
339.562	540.25
339.79	539.25
340.018	517.25
340.246	537.25
340.474	535.25
340.702	533.25
340.93	548.25
341.158	536.25
341.386	540.25
341.614	541.25
341.842	534.25
342.07	507.25
342.298	526.25
342.526	517.25
342.754	517.25
342.981	518.25
343.209	521.25
343.437	569.25
343.665	609.25
343.893	641.25
344.12	676.25
344.348	647.25
344.576	602.25
344.804	591.25
345.031	545.25
345.259	553.25
345.487	542.25
345.714	571.25
345.942	554.25
346.17	537.25
346.397	532.25
346.625	521.25
346.853	518.25
347.08	521.25
347.308	508.25
347.535	533.25
347.763	542.25
347.99	550.25
348.218	566.25
348.445	543.25
348.673	511.25
348.9	530.25
349.128	511.25
349.355	519.25
349.583	524.25
349.81	511.25
350.037	510.25
350.265	510.25
350.492	526.25
350.72	509.25
350.947	486.25
351.174	490.25
351.402	510.25
351.629	493.25
351.856	503.25
352.083	496.25
352.311	505.25
352.538	494.25
352.765	519.25
352.992	497.25
353.22	479.25
353.447	494.25
353.674	523.25
353.901	498.25
354.128	498.25
354.355	488.25
354.583	501.25
354.81	488.25
355.037	497.25
355.264	492.25
355.491	507.25
355.718	498.25
355.945	503.25
356.172	500.25
356.399	505.25
356.626	513.25
356.853	514.25
357.08	511.25
357.307	507.25
357.534	503.25
357.761	506.25
357.988	499.25
358.215	492.25
358.441	502.25
358.668	515.25
358.895	503.25
359.122	519.25
359.349	503.25
359.576	530.25
359.802	504.25
360.029	516.25
360.256	525.25
360.483	506.25
360.709	502.25
360.936	475.25
361.163	499.25
361.39	490.25
361.616	491.25
361.843	499.25
362.07	509.25
362.296	503.25
362.523	498.25
362.749	509.25
362.976	523.25
363.203	520.25
363.429	502.25
363.656	494.25
363.882	485.25
364.109	477.25
364.335	500.25
364.562	505.25
364.788	503.25
365.015	498.25
365.241	464.25
365.468	488.25
365.694	481.25
365.92	497.25
366.147	517.25
366.373	518.25
366.599	486.25
366.826	500.25
367.052	494.25
367.278	520.25
367.505	502.25
367.731	519.25
367.957	486.25
368.184	516.25
368.41	530.25
368.636	533.25
368.862	522.25
369.089	515.25
369.315	502.25
369.541	501.25
369.767	516.25
369.993	517.25
370.219	538.25
370.445	535.25
370.672	543.25
370.898	541.25
371.124	527.25
371.35	555.25
371.576	568.25
371.802	545.25
372.028	536.25
372.254	553.25
372.48	545.25
372.706	582.25
372.932	583.25
373.158	562.25
373.384	574.25
373.61	547.25
373.835	543.25
374.061	551.25
374.287	556.25
374.513	562.25
374.739	581.25
374.965	612.25
375.191	622.25
375.416	625.25
375.642	591.25
375.868	581.25
376.094	577.25
376.319	563.25
376.545	585.25
376.771	563.25
376.997	567.25
377.222	562.25
377.448	542.25
377.674	563.25
377.899	542.25
378.125	568.25
378.35	545.25
378.576	532.25
378.802	524.25
379.027	534.25
379.253	538.25
379.478	525.25
379.704	536.25
379.929	547.25
380.155	517.25
380.38	542.25
380.606	557.25
380.831	547.25
381.057	555.25
381.282	525.25
381.507	527.25
381.733	561.25
381.958	545.25
382.184	555.25
382.409	569.25
382.634	591.25
382.86	587.25
383.085	584.25
383.31	584.25
383.535	621.25
383.761	595.25
383.986	630.25
384.211	643.25
384.436	643.25
384.662	634.25
384.887	652.25
385.112	645.25
385.337	667.25
385.562	643.25
385.787	657.25
386.013	676.25
386.238	677.25
386.463	643.25
386.688	649.25
386.913	636.25
387.138	646.25
387.363	622.25
387.588	651.25
387.813	641.25
388.038	634.25
388.263	653.25
388.488	638.25
388.713	631.25
388.938	641.25
389.163	641.25
389.387	653.25
389.612	654.25
389.837	632.25
390.062	643.25
390.287	627.25
390.512	631.25
390.736	654.25
390.961	630.25
391.186	642.25
391.411	675.25
391.636	717.25
391.86	722.25
392.085	753.25
392.31	716.25
392.534	722.25
392.759	721.25
392.984	701.25
393.208	688.25
393.433	693.25
393.658	685.25
393.882	683.25
394.107	697.25
394.331	700.25
394.556	721.25
394.78	697.25
395.005	702.25
395.229	691.25
395.454	753.25
395.678	749.25
395.903	732.25
396.127	717.25
396.352	696.25
396.576	708.25
396.801	692.25
397.025	709.25
397.249	693.25
397.474	720.25
397.698	746.25
397.922	729.25
398.147	701.25
398.371	774.25
398.595	763.25
398.82	797.25
399.044	849.25
399.268	966.25
399.492	1118.25
399.717	1317.25
399.941	1293.25
400.165	1086.25
400.389	983.25
400.613	901.25
400.837	856.25
401.062	823.25
401.286	813.25
401.51	793.25
401.734	807.25
401.958	842.25
402.182	832.25
402.406	850.25
402.63	890.25
402.854	867.25
403.078	878.25
403.302	886.25
403.526	925.25
403.75	927.25
403.974	986.25
404.198	939.25
404.422	985.25
404.645	935.25
404.869	919.25
405.093	932.25
405.317	929.25
405.541	895.25
405.765	922.25
405.988	889.25
406.212	905.25
406.436	899.25
406.66	911.25
406.883	943.25
407.107	996.25
407.331	1053.25
407.555	1049.25
407.778	1055.25
408.002	1034.25
408.226	995.25
408.449	987.25
408.673	917.25
408.896	942.25
409.12	913.25
409.344	918.25
409.567	926.25
409.791	950.25
410.014	930.25
410.238	935.25
410.461	930.25
410.685	930.25
410.908	927.25
411.132	868.25
411.355	841.25
411.578	841.25
411.802	852.25
412.025	843.25
412.249	861.25
412.472	858.25
412.695	815.25
412.919	810.25
413.142	848.25
413.365	841.25
413.589	831.25
413.812	813.25
414.035	793.25
414.258	806.25
414.482	818.25
414.705	823.25
414.928	854.25
415.151	819.25
415.374	821.25
415.597	820.25
415.821	833.25
416.044	792.25
416.267	809.25
416.49	790.25
416.713	785.25
416.936	814.25
417.159	814.25
417.382	803.25
417.605	797.25
417.828	806.25
418.051	810.25
418.274	812.25
418.497	818.25
418.72	813.25
418.943	842.25
419.166	889.25
419.389	943.25
419.611	917.25
419.834	893.25
420.057	851.25
420.28	823.25
420.503	824.25
420.726	795.25
420.948	819.25
421.171	811.25
421.394	812.25
421.617	829.25
421.839	828.25
422.062	810.25
422.285	819.25
422.507	843.25
422.73	821.25
422.953	859.25
423.175	864.25
423.398	895.25
423.621	852.25
423.843	918.25
424.066	896.25
424.288	887.25
424.511	847.25
424.733	841.25
424.956	832.25
425.178	848.25
425.401	810.25
425.623	819.25
425.846	801.25
426.068	794.25
426.291	787.25
426.513	775.25
426.735	748.25
426.958	764.25
427.18	743.25
427.402	741.25
427.625	744.25
427.847	708.25
428.069	739.25
428.292	743.25
428.514	714.25
428.736	712.25
428.958	730.25
429.181	703.25
429.403	709.25
429.625	734.25
429.847	690.25
430.069	737.25
430.292	711.25
430.514	700.25
430.736	722.25
430.958	707.25
431.18	717.25
431.402	703.25
431.624	702.25
431.846	708.25
432.068	719.25
432.29	778.25
432.512	743.25
432.734	724.25
432.956	726.25
433.178	756.25
433.4	761.25
433.622	763.25
433.844	742.25
434.066	742.25
434.287	761.25
434.509	775.25
434.731	833.25
434.953	832.25
435.175	820.25
435.397	842.25
435.618	766.25
435.84	771.25
436.062	741.25
436.284	749.25
436.505	711.25
436.727	757.25
436.949	726.25
437.17	728.25
437.392	733.25
437.614	733.25
437.835	692.25
438.057	716.25
438.278	702.25
438.5	698.25
438.721	699.25
438.943	705.25
439.165	707.25
439.386	722.25
439.608	727.25
439.829	723.25
440.05	735.25
440.272	739.25
440.493	747.25
440.715	758.25
440.936	775.25
441.158	788.25
441.379	796.25
441.6	826.25
441.822	850.25
442.043	839.25
442.264	814.25
442.486	817.25
442.707	805.25
442.928	815.25
443.149	814.25
443.371	805.25
443.592	813.25
443.813	808.25
444.034	838.25
444.255	863.25
444.476	897.25
444.698	942.25
444.919	981.25
445.14	1098.25
445.361	953.25
445.582	860.25
445.803	795.25
446.024	798.25
446.245	756.25
446.466	770.25
446.687	756.25
446.908	750.25
447.129	706.25
447.35	701.25
447.571	691.25
447.792	665.25
448.013	676.25
448.234	667.25
448.455	681.25
448.675	683.25
448.896	686.25
449.117	680.25
449.338	672.25
449.559	667.25
449.779	658.25
450	671.25
450.221	681.25
450.442	672.25
450.662	686.25
450.883	690.25
451.104	703.25
451.324	704.25
451.545	687.25
451.766	682.25
451.986	723.25
452.207	686.25
452.428	661.25
452.648	690.25
452.869	682.25
453.089	676.25
453.31	679.25
453.53	671.25
453.751	676.25
453.971	665.25
454.192	663.25
454.412	635.25
454.633	671.25
454.853	647.25
455.073	652.25
455.294	652.25
455.514	606.25
455.734	620.25
455.955	643.25
456.175	625.25
456.395	630.25
456.616	634.25
456.836	636.25
457.056	643.25
457.276	645.25
457.497	636.25
457.717	636.25
457.937	626.25
458.157	631.25
458.377	625.25
458.598	680.25
458.818	669.25
459.038	710.25
459.258	717.25
459.478	743.25
459.698	789.25
459.918	789.25
460.138	814.25
460.358	870.25
460.578	871.25
460.798	892.25
461.018	897.25
461.238	853.25
461.458	869.25
461.678	851.25
461.898	885.25
462.118	866.25
462.338	921.25
462.558	954.25
462.777	981.25
462.997	1092.25
463.217	1178.25
463.437	1181.25
463.657	1085.25
463.876	1027.25
464.096	1045.25
464.316	1014.25
464.536	1051.25
464.755	1003.25
464.975	954.25
465.195	891.25
465.414	847.25
465.634	817.25
465.854	788.25
466.073	747.25
466.293	738.25
466.512	714.25
466.732	727.25
466.951	705.25
467.171	724.25
467.391	707.25
467.61	717.25
467.829	709.25
468.049	679.25
468.268	682.25
468.488	667.25
468.707	677.25
468.927	674.25
469.146	695.25
469.365	689.25
469.585	683.25
469.804	716.25
470.023	738.25
470.243	717.25
470.462	718.25
470.681	739.25
470.901	731.25
471.12	716.25
471.339	720.25
471.558	710.25
471.777	729.25
471.997	695.25
472.216	676.25
472.435	693.25
472.654	671.25
472.873	670.25
473.092	661.25
473.311	655.25
473.53	662.25
473.749	656.25
473.968	658.25
474.187	662.25
474.406	671.25
474.625	656.25
474.844	645.25
475.063	681.25
475.282	660.25
475.501	674.25
475.72	669.25
475.939	691.25
476.158	695.25
476.377	674.25
476.596	714.25
476.814	718.25
477.033	701.25
477.252	710.25
477.471	718.25
477.69	741.25
477.908	781.25
478.127	815.25
478.346	776.25
478.564	785.25
478.783	837.25
479.002	841.25
479.22	869.25
479.439	834.25
479.658	822.25
479.876	810.25
480.095	829.25
480.313	878.25
480.532	906.25
480.751	885.25
480.969	854.25
481.188	854.25
481.406	839.25
481.624	797.25
481.843	785.25
482.061	776.25
482.28	784.25
482.498	770.25
482.717	761.25
482.935	802.25
483.153	774.25
483.372	780.25
483.59	794.25
483.808	804.25
484.027	792.25
484.245	769.25
484.463	772.25
484.681	810.25
484.9	803.25
485.118	833.25
485.336	801.25
485.554	825.25
485.772	826.25
485.99	862.25
486.209	832.25
486.427	842.25
486.645	831.25
486.863	825.25
487.081	809.25
487.299	834.25
487.517	801.25
487.735	797.25
487.953	828.25
488.171	806.25
488.389	799.25
488.607	805.25
488.825	792.25
489.043	787.25
489.261	791.25
489.479	784.25
489.696	825.25
489.914	819.25
490.132	835.25
490.35	796.25
490.568	821.25
490.786	811.25
491.003	809.25
491.221	819.25
491.439	793.25
491.657	805.25
491.874	801.25
492.092	794.25
492.31	801.25
492.527	827.25
492.745	835.25
492.963	836.25
493.18	831.25
493.398	819.25
493.615	841.25
493.833	836.25
494.05	828.25
494.268	851.25
494.485	858.25
494.703	838.25
494.92	837.25
495.138	839.25
495.355	846.25
495.573	857.25
495.79	837.25
496.008	847.25
496.225	860.25
496.442	881.25
496.66	893.25
496.877	873.25
497.094	907.25
497.312	911.25
497.529	930.25
497.746	947.25
497.963	974.25
498.181	1018.25
498.398	1069.25
498.615	1101.25
498.832	1195.25
499.049	1248.25
499.267	1379.25
499.484	1549.25
499.701	1704.25
499.918	1891.25
500.135	2155.25
500.352	2511.25
500.569	2634.25
500.786	2643.25
501.003	2373.25
