Data from Ni(NO3)2@0.25M.TitratingCurve.Agarose3%dH2O.NegLispCup.LampEnergy10.LIBS07252019_HRD10591_18-05-15-566.txt Node
Date: Thu Jul 25 18:05:15 EDT 2019
User: cochatt
Spectrometer: HR+D1059
Trigger mode: 1
Integration Time (sec): 1.000000E-1
Scans to average: 1
Electric dark correction enabled: true
Nonlinearity correction enabled: false
Boxcar width: 0
XAxis mode: Wavelengths
Number of Pixels in Spectrum: 2048
>>>>>Begin Spectral Data<<<<<
223.165	-28.44
223.4	-28.44
223.635	-28.44
223.869	-17.44
224.104	-17.44
224.338	-22.44
224.573	-12.44
224.808	-5.44
225.042	7.56
225.277	-9.44
225.511	3.56
225.746	7.56
225.98	9.56
226.215	11.56
226.449	21.56
226.683	11.56
226.918	23.56
227.152	16.56
227.387	19.56
227.621	18.56
227.856	32.56
228.09	39.56
228.324	41.56
228.559	46.56
228.793	83.56
229.027	118.56
229.262	119.56
229.496	120.56
229.73	117.56
229.964	126.56
230.199	145.56
230.433	137.56
230.667	125.56
230.901	128.56
231.136	128.56
231.37	152.56
231.604	150.56
231.838	145.56
232.072	154.56
232.306	150.56
232.541	154.56
232.775	164.56
233.009	138.56
233.243	151.56
233.477	143.56
233.711	149.56
233.945	147.56
234.179	156.56
234.413	155.56
234.647	162.56
234.881	142.56
235.115	151.56
235.349	161.56
235.583	151.56
235.817	160.56
236.051	161.56
236.285	167.56
236.519	161.56
236.753	162.56
236.987	166.56
237.221	180.56
237.455	173.56
237.689	176.56
237.922	166.56
238.156	174.56
238.39	166.56
238.624	167.56
238.858	168.56
239.091	177.56
239.325	185.56
239.559	179.56
239.793	179.56
240.027	182.56
240.26	179.56
240.494	185.56
240.728	189.56
240.961	191.56
241.195	193.56
241.429	193.56
241.662	193.56
241.896	192.56
242.13	215.56
242.363	209.56
242.597	204.56
242.83	216.56
243.064	208.56
243.298	201.56
243.531	201.56
243.765	188.56
243.998	234.56
244.232	210.56
244.465	222.56
244.699	219.56
244.932	211.56
245.166	234.56
245.399	228.56
245.633	227.56
245.866	242.56
246.099	224.56
246.333	225.56
246.566	249.56
246.8	238.56
247.033	235.56
247.266	242.56
247.5	238.56
247.733	257.56
247.966	271.56
248.2	255.56
248.433	271.56
248.666	251.56
248.899	277.56
249.133	249.56
249.366	264.56
249.599	264.56
249.832	264.56
250.066	273.56
250.299	295.56
250.532	272.56
250.765	295.56
250.998	289.56
251.231	271.56
251.465	287.56
251.698	308.56
251.931	302.56
252.164	324.56
252.397	316.56
252.63	304.56
252.863	313.56
253.096	310.56
253.329	323.56
253.562	328.56
253.795	329.56
254.028	330.56
254.261	328.56
254.494	337.56
254.727	324.56
254.96	322.56
255.193	357.56
255.426	346.56
255.659	345.56
255.892	338.56
256.124	350.56
256.357	353.56
256.59	348.56
256.823	374.56
257.056	354.56
257.289	351.56
257.521	370.56
257.754	349.56
257.987	352.56
258.22	378.56
258.452	359.56
258.685	365.56
258.918	354.56
259.151	377.56
259.383	392.56
259.616	358.56
259.849	395.56
260.081	390.56
260.314	394.56
260.547	396.56
260.779	395.56
261.012	405.56
261.244	391.56
261.477	415.56
261.71	406.56
261.942	409.56
262.175	414.56
262.407	416.56
262.64	410.56
262.872	402.56
263.105	407.56
263.337	400.56
263.57	421.56
263.802	437.56
264.035	431.56
264.267	422.56
264.499	423.56
264.732	426.56
264.964	469.56
265.197	427.56
265.429	444.56
265.661	443.56
265.894	440.56
266.126	444.56
266.358	439.56
266.591	444.56
266.823	453.56
267.055	471.56
267.287	450.56
267.52	433.56
267.752	478.56
267.984	444.56
268.216	480.56
268.448	458.56
268.681	456.56
268.913	481.56
269.145	462.56
269.377	455.56
269.609	458.56
269.841	463.56
270.073	450.56
270.306	473.56
270.538	447.56
270.77	463.56
271.002	468.56
271.234	459.56
271.466	491.56
271.698	473.56
271.93	478.56
272.162	467.56
272.394	485.56
272.626	490.56
272.858	487.56
273.09	523.56
273.322	498.56
273.553	513.56
273.785	498.56
274.017	507.56
274.249	505.56
274.481	529.56
274.713	496.56
274.945	524.56
275.176	514.56
275.408	520.56
275.64	489.56
275.872	502.56
276.104	519.56
276.335	509.56
276.567	500.56
276.799	519.56
277.031	519.56
277.262	509.56
277.494	504.56
277.726	531.56
277.957	517.56
278.189	548.56
278.421	540.56
278.652	537.56
278.884	546.56
279.115	549.56
279.347	551.56
279.579	542.56
279.81	565.56
280.042	519.56
280.273	551.56
280.505	537.56
280.736	561.56
280.968	553.56
281.199	553.56
281.431	564.56
281.662	581.56
281.894	558.56
282.125	571.56
282.356	570.56
282.588	553.56
282.819	588.56
283.051	584.56
283.282	567.56
283.513	569.56
283.745	581.56
283.976	547.56
284.207	563.56
284.439	593.56
284.67	569.56
284.901	601.56
285.132	589.56
285.364	586.56
285.595	586.56
285.826	586.56
286.057	604.56
286.288	569.56
286.52	594.56
286.751	592.56
286.982	610.56
287.213	588.56
287.444	609.56
287.675	616.56
287.906	621.56
288.138	600.56
288.369	616.56
288.6	629.56
288.831	633.56
289.062	629.56
289.293	610.56
289.524	613.56
289.755	618.56
289.986	608.56
290.217	625.56
290.448	623.56
290.679	634.56
290.91	632.56
291.141	589.56
291.371	602.56
291.602	618.56
291.833	614.56
292.064	589.56
292.295	615.56
292.526	625.56
292.757	636.56
292.987	638.56
293.218	585.56
293.449	627.56
293.68	620.56
293.91	615.56
294.141	634.56
294.372	625.56
294.603	624.56
294.833	626.56
295.064	632.56
295.295	634.56
295.525	633.56
295.756	633.56
295.987	669.56
296.217	657.56
296.448	644.56
296.679	648.56
296.909	630.56
297.14	660.56
297.37	674.56
297.601	662.56
297.831	674.56
298.062	665.56
298.292	677.56
298.523	669.56
298.753	702.56
298.984	681.56
299.214	687.56
299.445	655.56
299.675	675.56
299.905	679.56
300.136	673.56
300.366	690.56
300.597	685.56
300.827	676.56
301.057	704.56
301.288	688.56
301.518	722.56
301.748	701.56
301.979	730.56
302.209	730.56
302.439	735.56
302.669	728.56
302.9	719.56
303.13	690.56
303.36	722.56
303.59	706.56
303.82	699.56
304.051	705.56
304.281	697.56
304.511	724.56
304.741	727.56
304.971	712.56
305.201	730.56
305.431	743.56
305.661	721.56
305.891	714.56
306.121	722.56
306.352	703.56
306.582	689.56
306.812	705.56
307.042	710.56
307.272	709.56
307.502	693.56
307.731	711.56
307.961	710.56
308.191	680.56
308.421	695.56
308.651	717.56
308.881	705.56
309.111	699.56
309.341	701.56
309.571	720.56
309.8	738.56
310.03	722.56
310.26	730.56
310.49	707.56
310.72	697.56
310.949	695.56
311.179	733.56
311.409	715.56
311.639	734.56
311.868	751.56
312.098	742.56
312.328	743.56
312.557	735.56
312.787	735.56
313.017	743.56
313.246	775.56
313.476	757.56
313.706	789.56
313.935	779.56
314.165	775.56
314.394	781.56
314.624	791.56
314.853	769.56
315.083	797.56
315.312	776.56
315.542	774.56
315.771	764.56
316.001	797.56
316.23	793.56
316.46	771.56
316.689	791.56
316.919	817.56
317.148	795.56
317.377	804.56
317.607	768.56
317.836	779.56
318.065	786.56
318.295	828.56
318.524	771.56
318.753	777.56
318.983	797.56
319.212	790.56
319.441	796.56
319.67	819.56
319.9	808.56
320.129	767.56
320.358	798.56
320.587	802.56
320.816	825.56
321.046	821.56
321.275	825.56
321.504	827.56
321.733	836.56
321.962	849.56
322.191	828.56
322.42	833.56
322.649	838.56
322.878	850.56
323.108	826.56
323.337	846.56
323.566	864.56
323.795	874.56
324.024	865.56
324.253	871.56
324.482	842.56
324.71	878.56
324.939	882.56
325.168	864.56
325.397	899.56
325.626	913.56
325.855	900.56
326.084	911.56
326.313	927.56
326.542	917.56
326.77	938.56
326.999	922.56
327.228	900.56
327.457	907.56
327.686	894.56
327.914	917.56
328.143	952.56
328.372	934.56
328.6	926.56
328.829	934.56
329.058	932.56
329.287	941.56
329.515	976.56
329.744	943.56
329.972	980.56
330.201	957.56
330.43	966.56
330.658	1023.56
330.887	971.56
331.115	988.56
331.344	1014.56
331.572	1018.56
331.801	1010.56
332.03	1050.56
332.258	1039.56
332.486	1074.56
332.715	1081.56
332.943	1110.56
333.172	1183.56
333.4	1163.56
333.629	1180.56
333.857	1264.56
334.085	1261.56
334.314	1273.56
334.542	1251.56
334.771	1262.56
334.999	1240.56
335.227	1251.56
335.455	1267.56
335.684	1238.56
335.912	1205.56
336.14	1209.56
336.369	1207.56
336.597	1220.56
336.825	1203.56
337.053	1197.56
337.281	1206.56
337.51	1164.56
337.738	1139.56
337.966	1076.56
338.194	1149.56
338.422	1117.56
338.65	1061.56
338.878	1073.56
339.106	1085.56
339.334	1095.56
339.562	1089.56
339.79	1037.56
340.018	1015.56
340.246	1041.56
340.474	1049.56
340.702	1046.56
340.93	1023.56
341.158	1041.56
341.386	1044.56
341.614	1051.56
341.842	1031.56
342.07	1001.56
342.298	1008.56
342.526	1025.56
342.754	1005.56
342.981	1053.56
343.209	1067.56
343.437	1075.56
343.665	1153.56
343.893	1171.56
344.12	1227.56
344.348	1211.56
344.576	1199.56
344.804	1163.56
345.031	1101.56
345.259	1080.56
345.487	1079.56
345.714	1092.56
345.942	1049.56
346.17	1057.56
346.397	1031.56
346.625	1005.56
346.853	992.56
347.08	969.56
347.308	979.56
347.535	1021.56
347.763	986.56
347.99	973.56
348.218	977.56
348.445	1009.56
348.673	988.56
348.9	976.56
349.128	983.56
349.355	995.56
349.583	991.56
349.81	993.56
350.037	989.56
350.265	967.56
350.492	963.56
350.72	962.56
350.947	944.56
351.174	954.56
351.402	987.56
351.629	1011.56
351.856	995.56
352.083	963.56
352.311	964.56
352.538	1000.56
352.765	979.56
352.992	975.56
353.22	963.56
353.447	922.56
353.674	946.56
353.901	932.56
354.128	938.56
354.355	920.56
354.583	961.56
354.81	941.56
355.037	970.56
355.264	949.56
355.491	977.56
355.718	951.56
355.945	965.56
356.172	948.56
356.399	974.56
356.626	974.56
356.853	978.56
357.08	953.56
357.307	935.56
357.534	957.56
357.761	960.56
357.988	941.56
358.215	961.56
358.441	968.56
358.668	961.56
358.895	902.56
359.122	925.56
359.349	954.56
359.576	963.56
359.802	966.56
360.029	954.56
360.256	969.56
360.483	923.56
360.709	962.56
360.936	956.56
361.163	936.56
361.39	938.56
361.616	975.56
361.843	997.56
362.07	965.56
362.296	962.56
362.523	964.56
362.749	977.56
362.976	931.56
363.203	925.56
363.429	926.56
363.656	951.56
363.882	943.56
364.109	963.56
364.335	924.56
364.562	937.56
364.788	955.56
365.015	931.56
365.241	929.56
365.468	926.56
365.694	925.56
365.92	926.56
366.147	928.56
366.373	935.56
366.599	913.56
366.826	941.56
367.052	951.56
367.278	942.56
367.505	952.56
367.731	950.56
367.957	959.56
368.184	945.56
368.41	924.56
368.636	929.56
368.862	967.56
369.089	969.56
369.315	946.56
369.541	961.56
369.767	983.56
369.993	967.56
370.219	958.56
370.445	970.56
370.672	959.56
370.898	992.56
371.124	982.56
371.35	1002.56
371.576	1005.56
371.802	1006.56
372.028	1032.56
372.254	1026.56
372.48	1039.56
372.706	1057.56
372.932	1042.56
373.158	1032.56
373.384	992.56
373.61	1024.56
373.835	1030.56
374.061	992.56
374.287	1021.56
374.513	1021.56
374.739	1049.56
374.965	1058.56
375.191	1109.56
375.416	1089.56
375.642	1051.56
375.868	1033.56
376.094	1049.56
376.319	1029.56
376.545	1015.56
376.771	1038.56
376.997	996.56
377.222	996.56
377.448	998.56
377.674	990.56
377.899	1014.56
378.125	1012.56
378.35	982.56
378.576	1020.56
378.802	1020.56
379.027	983.56
379.253	979.56
379.478	975.56
379.704	963.56
379.929	955.56
380.155	1007.56
380.38	994.56
380.606	984.56
380.831	966.56
381.057	989.56
381.282	976.56
381.507	1009.56
381.733	974.56
381.958	1009.56
382.184	1025.56
382.409	1009.56
382.634	997.56
382.86	1005.56
383.085	1022.56
383.31	1044.56
383.535	1076.56
383.761	1067.56
383.986	1086.56
384.211	1101.56
384.436	1136.56
384.662	1103.56
384.887	1149.56
385.112	1175.56
385.337	1162.56
385.562	1152.56
385.787	1164.56
386.013	1213.56
386.238	1154.56
386.463	1205.56
386.688	1194.56
386.913	1175.56
387.138	1196.56
387.363	1169.56
387.588	1167.56
387.813	1169.56
388.038	1158.56
388.263	1193.56
388.488	1208.56
388.713	1222.56
388.938	1209.56
389.163	1141.56
389.387	1163.56
389.612	1136.56
389.837	1193.56
390.062	1188.56
390.287	1173.56
390.512	1153.56
390.736	1188.56
390.961	1183.56
391.186	1230.56
391.411	1234.56
391.636	1281.56
391.86	1285.56
392.085	1313.56
392.31	1297.56
392.534	1311.56
392.759	1304.56
392.984	1300.56
393.208	1238.56
393.433	1259.56
393.658	1257.56
393.882	1228.56
394.107	1258.56
394.331	1271.56
394.556	1263.56
394.78	1255.56
395.005	1257.56
395.229	1278.56
395.454	1321.56
395.678	1331.56
395.903	1313.56
396.127	1319.56
396.352	1306.56
396.576	1284.56
396.801	1288.56
397.025	1291.56
397.249	1342.56
397.474	1329.56
397.698	1355.56
397.922	1375.56
398.147	1382.56
398.371	1405.56
398.595	1435.56
398.82	1510.56
399.044	1608.56
399.268	1665.56
399.492	1833.56
399.717	1992.56
399.941	2034.56
400.165	1925.56
400.389	1833.56
400.613	1717.56
400.837	1586.56
401.062	1584.56
401.286	1550.56
401.51	1515.56
401.734	1478.56
401.958	1543.56
402.182	1525.56
402.406	1505.56
402.63	1498.56
402.854	1539.56
403.078	1569.56
403.302	1547.56
403.526	1599.56
403.75	1577.56
403.974	1597.56
404.198	1592.56
404.422	1607.56
404.645	1612.56
404.869	1571.56
405.093	1585.56
405.317	1625.56
405.541	1619.56
405.765	1650.56
405.988	1639.56
406.212	1636.56
406.436	1618.56
406.66	1701.56
406.883	1704.56
407.107	1764.56
407.331	1822.56
407.555	1886.56
407.778	1867.56
408.002	1855.56
408.226	1822.56
408.449	1797.56
408.673	1751.56
408.896	1722.56
409.12	1696.56
409.344	1705.56
409.567	1697.56
409.791	1735.56
410.014	1688.56
410.238	1642.56
410.461	1645.56
410.685	1614.56
410.908	1589.56
411.132	1560.56
411.355	1525.56
411.578	1563.56
411.802	1577.56
412.025	1561.56
412.249	1598.56
412.472	1605.56
412.695	1575.56
412.919	1565.56
413.142	1541.56
413.365	1506.56
413.589	1543.56
413.812	1491.56
414.035	1504.56
414.258	1488.56
414.482	1530.56
414.705	1534.56
414.928	1528.56
415.151	1525.56
415.374	1523.56
415.597	1548.56
415.821	1464.56
416.044	1457.56
416.267	1469.56
416.49	1479.56
416.713	1447.56
416.936	1493.56
417.159	1480.56
417.382	1503.56
417.605	1463.56
417.828	1494.56
418.051	1492.56
418.274	1463.56
418.497	1463.56
418.72	1538.56
418.943	1539.56
419.166	1617.56
419.389	1706.56
419.611	1693.56
419.834	1631.56
420.057	1584.56
420.28	1517.56
420.503	1450.56
420.726	1501.56
420.948	1481.56
421.171	1517.56
421.394	1536.56
421.617	1478.56
421.839	1495.56
422.062	1488.56
422.285	1453.56
422.507	1522.56
422.73	1525.56
422.953	1500.56
423.175	1488.56
423.398	1537.56
423.621	1521.56
423.843	1550.56
424.066	1563.56
424.288	1506.56
424.511	1524.56
424.733	1471.56
424.956	1537.56
425.178	1517.56
425.401	1485.56
425.623	1479.56
425.846	1485.56
426.068	1481.56
426.291	1436.56
426.513	1449.56
426.735	1465.56
426.958	1462.56
427.18	1426.56
427.402	1441.56
427.625	1439.56
427.847	1391.56
428.069	1424.56
428.292	1383.56
428.514	1376.56
428.736	1363.56
428.958	1433.56
429.181	1325.56
429.403	1385.56
429.625	1373.56
429.847	1359.56
430.069	1349.56
430.292	1350.56
430.514	1319.56
430.736	1358.56
430.958	1329.56
431.18	1322.56
431.402	1316.56
431.624	1352.56
431.846	1380.56
432.068	1364.56
432.29	1390.56
432.512	1356.56
432.734	1401.56
432.956	1349.56
433.178	1420.56
433.4	1360.56
433.622	1401.56
433.844	1448.56
434.066	1394.56
434.287	1412.56
434.509	1457.56
434.731	1467.56
434.953	1518.56
435.175	1533.56
435.397	1529.56
435.618	1447.56
435.84	1447.56
436.062	1378.56
436.284	1403.56
436.505	1415.56
436.727	1393.56
436.949	1367.56
437.17	1348.56
437.392	1354.56
437.614	1366.56
437.835	1349.56
438.057	1341.56
438.278	1286.56
438.5	1342.56
438.721	1331.56
438.943	1384.56
439.165	1323.56
439.386	1347.56
439.608	1346.56
439.829	1365.56
440.05	1377.56
440.272	1405.56
440.493	1392.56
440.715	1423.56
440.936	1435.56
441.158	1439.56
441.379	1447.56
441.6	1533.56
441.822	1528.56
442.043	1546.56
442.264	1522.56
442.486	1478.56
442.707	1510.56
442.928	1504.56
443.149	1518.56
443.371	1536.56
443.592	1540.56
443.813	1530.56
444.034	1521.56
444.255	1584.56
444.476	1669.56
444.698	1715.56
444.919	1755.56
445.14	1836.56
445.361	1654.56
445.582	1603.56
445.803	1529.56
446.024	1482.56
446.245	1481.56
446.466	1480.56
446.687	1422.56
446.908	1422.56
447.129	1402.56
447.35	1362.56
447.571	1349.56
447.792	1305.56
448.013	1341.56
448.234	1301.56
448.455	1315.56
448.675	1290.56
448.896	1288.56
449.117	1278.56
449.338	1274.56
449.559	1250.56
449.779	1226.56
450	1230.56
450.221	1251.56
450.442	1295.56
450.662	1285.56
450.883	1298.56
451.104	1291.56
451.324	1280.56
451.545	1266.56
451.766	1295.56
451.986	1260.56
452.207	1231.56
452.428	1257.56
452.648	1254.56
452.869	1244.56
453.089	1221.56
453.31	1241.56
453.53	1210.56
453.751	1201.56
453.971	1185.56
454.192	1177.56
454.412	1185.56
454.633	1208.56
454.853	1187.56
455.073	1179.56
455.294	1175.56
455.514	1193.56
455.734	1168.56
455.955	1177.56
456.175	1203.56
456.395	1193.56
456.616	1155.56
456.836	1194.56
457.056	1199.56
457.276	1169.56
457.497	1186.56
457.717	1183.56
457.937	1192.56
458.157	1220.56
458.377	1227.56
458.598	1261.56
458.818	1301.56
459.038	1306.56
459.258	1335.56
459.478	1365.56
459.698	1395.56
459.918	1435.56
460.138	1516.56
460.358	1523.56
460.578	1567.56
460.798	1607.56
461.018	1604.56
461.238	1605.56
461.458	1605.56
461.678	1576.56
461.898	1641.56
462.118	1607.56
462.338	1748.56
462.558	1760.56
462.777	1823.56
462.997	1907.56
463.217	2006.56
463.437	1996.56
463.657	1936.56
463.876	1908.56
464.096	1902.56
464.316	1833.56
464.536	1856.56
464.755	1809.56
464.975	1773.56
465.195	1664.56
465.414	1602.56
465.634	1512.56
465.854	1461.56
466.073	1428.56
466.293	1385.56
466.512	1352.56
466.732	1309.56
466.951	1315.56
467.171	1344.56
467.391	1345.56
467.61	1337.56
467.829	1305.56
468.049	1286.56
468.268	1282.56
468.488	1265.56
468.707	1284.56
468.927	1259.56
469.146	1293.56
469.365	1295.56
469.585	1290.56
469.804	1305.56
470.023	1333.56
470.243	1340.56
470.462	1361.56
470.681	1355.56
470.901	1374.56
471.12	1339.56
471.339	1343.56
471.558	1322.56
471.777	1318.56
471.997	1296.56
472.216	1289.56
472.435	1284.56
472.654	1244.56
472.873	1216.56
473.092	1252.56
473.311	1262.56
473.53	1238.56
473.749	1241.56
473.968	1254.56
474.187	1231.56
474.406	1237.56
474.625	1264.56
474.844	1240.56
475.063	1293.56
475.282	1247.56
475.501	1265.56
475.72	1279.56
475.939	1294.56
476.158	1268.56
476.377	1326.56
476.596	1329.56
476.814	1315.56
477.033	1351.56
477.252	1367.56
477.471	1382.56
477.69	1409.56
477.908	1436.56
478.127	1424.56
478.346	1454.56
478.564	1474.56
478.783	1521.56
479.002	1505.56
479.22	1551.56
479.439	1536.56
479.658	1553.56
479.876	1536.56
480.095	1575.56
480.313	1554.56
480.532	1598.56
480.751	1579.56
480.969	1563.56
481.188	1547.56
481.406	1495.56
481.624	1455.56
481.843	1455.56
482.061	1441.56
482.28	1409.56
482.498	1388.56
482.717	1418.56
482.935	1411.56
483.153	1444.56
483.372	1421.56
483.59	1416.56
483.808	1395.56
484.027	1435.56
484.245	1439.56
484.463	1458.56
484.681	1471.56
484.9	1462.56
485.118	1481.56
485.336	1470.56
485.554	1471.56
485.772	1467.56
485.99	1482.56
486.209	1479.56
486.427	1498.56
486.645	1463.56
486.863	1511.56
487.081	1492.56
487.299	1476.56
487.517	1453.56
487.735	1469.56
487.953	1481.56
488.171	1496.56
488.389	1464.56
488.607	1447.56
488.825	1471.56
489.043	1448.56
489.261	1493.56
489.479	1501.56
489.696	1494.56
489.914	1478.56
490.132	1515.56
490.35	1499.56
490.568	1521.56
490.786	1525.56
491.003	1536.56
491.221	1537.56
491.439	1565.56
491.657	1528.56
491.874	1527.56
492.092	1556.56
492.31	1581.56
492.527	1515.56
492.745	1601.56
492.963	1555.56
493.18	1573.56
493.398	1569.56
