Data from Ni(NO3)2@0.5M.TitratingCurve.Agarose3%dH2O.NegLispCup.LampEnergy10.LIBS07252019_HRD10591_17-57-54-564.txt Node
Date: Thu Jul 25 17:57:54 EDT 2019
User: cochatt
Spectrometer: HR+D1059
Trigger mode: 1
Integration Time (sec): 1.000000E-1
Scans to average: 1
Electric dark correction enabled: true
Nonlinearity correction enabled: false
Boxcar width: 0
XAxis mode: Wavelengths
Number of Pixels in Spectrum: 2048
>>>>>Begin Spectral Data<<<<<
223.165	-18.62
223.4	-18.62
223.635	-18.62
223.869	-18.62
224.104	-27.62
224.338	-6.62
224.573	-27.62
224.808	-17.62
225.042	-7.62
225.277	0.38
225.511	-1.62
225.746	4.38
225.98	-0.62
226.215	15.38
226.449	18.38
226.683	25.38
226.918	32.38
227.152	30.38
227.387	29.38
227.621	21.38
227.856	31.38
228.09	42.38
228.324	36.38
228.559	52.38
228.793	84.38
229.027	140.38
229.262	156.38
229.496	155.38
229.73	155.38
229.964	190.38
230.199	216.38
230.433	228.38
230.667	216.38
230.901	191.38
231.136	192.38
231.37	187.38
231.604	205.38
231.838	234.38
232.072	232.38
232.306	217.38
232.541	193.38
232.775	188.38
233.009	182.38
233.243	181.38
233.477	186.38
233.711	187.38
233.945	191.38
234.179	173.38
234.413	160.38
234.647	215.38
234.881	197.38
235.115	188.38
235.349	171.38
235.583	180.38
235.817	171.38
236.051	191.38
236.285	163.38
236.519	183.38
236.753	174.38
236.987	181.38
237.221	168.38
237.455	164.38
237.689	192.38
237.922	185.38
238.156	191.38
238.39	194.38
238.624	203.38
238.858	207.38
239.091	210.38
239.325	212.38
239.559	234.38
239.793	254.38
240.027	260.38
240.26	231.38
240.494	213.38
240.728	199.38
240.961	214.38
241.195	226.38
241.429	226.38
241.662	247.38
241.896	243.38
242.13	273.38
242.363	251.38
242.597	220.38
242.83	220.38
243.064	215.38
243.298	236.38
243.531	228.38
243.765	258.38
243.998	251.38
244.232	253.38
244.465	248.38
244.699	254.38
244.932	254.38
245.166	252.38
245.399	245.38
245.633	256.38
245.866	245.38
246.099	246.38
246.333	270.38
246.566	261.38
246.8	262.38
247.033	268.38
247.266	273.38
247.5	270.38
247.733	273.38
247.966	288.38
248.2	287.38
248.433	294.38
248.666	288.38
248.899	292.38
249.133	293.38
249.366	285.38
249.599	310.38
249.832	301.38
250.066	315.38
250.299	334.38
250.532	286.38
250.765	313.38
250.998	346.38
251.231	350.38
251.465	387.38
251.698	350.38
251.931	336.38
252.164	341.38
252.397	348.38
252.63	334.38
252.863	343.38
253.096	348.38
253.329	355.38
253.562	345.38
253.795	352.38
254.028	363.38
254.261	378.38
254.494	380.38
254.727	369.38
254.96	384.38
255.193	374.38
255.426	372.38
255.659	385.38
255.892	398.38
256.124	387.38
256.357	390.38
256.59	394.38
256.823	406.38
257.056	400.38
257.289	417.38
257.521	417.38
257.754	412.38
257.987	413.38
258.22	406.38
258.452	419.38
258.685	406.38
258.918	425.38
259.151	429.38
259.383	418.38
259.616	419.38
259.849	440.38
260.081	432.38
260.314	427.38
260.547	444.38
260.779	456.38
261.012	458.38
261.244	452.38
261.477	460.38
261.71	460.38
261.942	465.38
262.175	462.38
262.407	450.38
262.64	490.38
262.872	445.38
263.105	481.38
263.337	479.38
263.57	461.38
263.802	464.38
264.035	482.38
264.267	474.38
264.499	490.38
264.732	469.38
264.964	497.38
265.197	518.38
265.429	492.38
265.661	498.38
265.894	500.38
266.126	488.38
266.358	525.38
266.591	528.38
266.823	513.38
267.055	491.38
267.287	506.38
267.52	525.38
267.752	523.38
267.984	521.38
268.216	533.38
268.448	544.38
268.681	539.38
268.913	523.38
269.145	516.38
269.377	522.38
269.609	525.38
269.841	536.38
270.073	541.38
270.306	535.38
270.538	534.38
270.77	542.38
271.002	569.38
271.234	557.38
271.466	565.38
271.698	562.38
271.93	546.38
272.162	535.38
272.394	555.38
272.626	548.38
272.858	548.38
273.09	566.38
273.322	588.38
273.553	565.38
273.785	565.38
274.017	548.38
274.249	562.38
274.481	593.38
274.713	580.38
274.945	608.38
275.176	609.38
275.408	586.38
275.64	587.38
275.872	600.38
276.104	614.38
276.335	588.38
276.567	616.38
276.799	596.38
277.031	606.38
277.262	608.38
277.494	627.38
277.726	605.38
277.957	608.38
278.189	603.38
278.421	634.38
278.652	617.38
278.884	621.38
279.115	650.38
279.347	623.38
279.579	626.38
279.81	643.38
280.042	626.38
280.273	642.38
280.505	617.38
280.736	634.38
280.968	638.38
281.199	637.38
281.431	648.38
281.662	640.38
281.894	635.38
282.125	662.38
282.356	648.38
282.588	664.38
282.819	636.38
283.051	644.38
283.282	658.38
283.513	670.38
283.745	664.38
283.976	653.38
284.207	654.38
284.439	655.38
284.67	650.38
284.901	676.38
285.132	669.38
285.364	680.38
285.595	676.38
285.826	663.38
286.057	676.38
286.288	660.38
286.52	700.38
286.751	704.38
286.982	687.38
287.213	678.38
287.444	707.38
287.675	692.38
287.906	693.38
288.138	711.38
288.369	688.38
288.6	716.38
288.831	708.38
289.062	690.38
289.293	692.38
289.524	686.38
289.755	689.38
289.986	698.38
290.217	683.38
290.448	703.38
290.679	710.38
290.91	698.38
291.141	703.38
291.371	738.38
291.602	706.38
291.833	717.38
292.064	704.38
292.295	726.38
292.526	705.38
292.757	708.38
292.987	688.38
293.218	682.38
293.449	692.38
293.68	713.38
293.91	708.38
294.141	708.38
294.372	717.38
294.603	743.38
294.833	741.38
295.064	710.38
295.295	696.38
295.525	734.38
295.756	725.38
295.987	724.38
296.217	732.38
296.448	735.38
296.679	714.38
296.909	722.38
297.14	731.38
297.37	753.38
297.601	733.38
297.831	752.38
298.062	736.38
298.292	770.38
298.523	751.38
298.753	742.38
298.984	755.38
299.214	790.38
299.445	771.38
299.675	770.38
299.905	776.38
300.136	786.38
300.366	819.38
300.597	804.38
300.827	799.38
301.057	783.38
301.288	794.38
301.518	806.38
301.748	809.38
301.979	781.38
302.209	790.38
302.439	808.38
302.669	804.38
302.9	794.38
303.13	797.38
303.36	822.38
303.59	829.38
303.82	835.38
304.051	828.38
304.281	818.38
304.511	821.38
304.741	816.38
304.971	841.38
305.201	849.38
305.431	867.38
305.661	857.38
305.891	864.38
306.121	842.38
306.352	825.38
306.582	824.38
306.812	813.38
307.042	836.38
307.272	835.38
307.502	826.38
307.731	846.38
307.961	857.38
308.191	845.38
308.421	867.38
308.651	853.38
308.881	823.38
309.111	820.38
309.341	813.38
309.571	856.38
309.8	867.38
310.03	903.38
310.26	922.38
310.49	893.38
310.72	890.38
310.949	885.38
311.179	867.38
311.409	859.38
311.639	892.38
311.868	876.38
312.098	908.38
312.328	896.38
312.557	888.38
312.787	892.38
313.017	896.38
313.246	923.38
313.476	935.38
313.706	939.38
313.935	914.38
314.165	938.38
314.394	932.38
314.624	914.38
314.853	919.38
315.083	934.38
315.312	946.38
315.542	940.38
315.771	930.38
316.001	966.38
316.23	944.38
316.46	971.38
316.689	959.38
316.919	940.38
317.148	972.38
317.377	980.38
317.607	949.38
317.836	960.38
318.065	975.38
318.295	987.38
318.524	997.38
318.753	977.38
318.983	1017.38
319.212	992.38
319.441	992.38
319.67	1021.38
319.9	1011.38
320.129	1030.38
320.358	1034.38
320.587	996.38
320.816	1032.38
321.046	1034.38
321.275	1053.38
321.504	1048.38
321.733	1059.38
321.962	1061.38
322.191	1042.38
322.42	1052.38
322.649	1031.38
322.878	1060.38
323.108	1038.38
323.337	1066.38
323.566	1068.38
323.795	1061.38
324.024	1065.38
324.253	1067.38
324.482	1072.38
324.71	1078.38
324.939	1082.38
325.168	1078.38
325.397	1093.38
325.626	1089.38
325.855	1109.38
326.084	1114.38
326.313	1138.38
326.542	1098.38
326.77	1131.38
326.999	1106.38
327.228	1072.38
327.457	1130.38
327.686	1136.38
327.914	1154.38
328.143	1129.38
328.372	1124.38
328.6	1149.38
328.829	1144.38
329.058	1146.38
329.287	1137.38
329.515	1167.38
329.744	1149.38
329.972	1141.38
330.201	1163.38
330.43	1148.38
330.658	1184.38
330.887	1171.38
331.115	1188.38
331.344	1210.38
331.572	1192.38
331.801	1208.38
332.03	1195.38
332.258	1189.38
332.486	1218.38
332.715	1185.38
332.943	1201.38
333.172	1202.38
333.4	1245.38
333.629	1210.38
333.857	1230.38
334.085	1239.38
334.314	1232.38
334.542	1253.38
334.771	1264.38
334.999	1252.38
335.227	1261.38
335.455	1269.38
335.684	1294.38
335.912	1296.38
336.14	1290.38
336.369	1294.38
336.597	1270.38
336.825	1312.38
337.053	1344.38
337.281	1321.38
337.51	1310.38
337.738	1300.38
337.966	1323.38
338.194	1319.38
338.422	1301.38
338.65	1284.38
338.878	1258.38
339.106	1301.38
339.334	1303.38
339.562	1276.38
339.79	1236.38
340.018	1253.38
340.246	1236.38
340.474	1241.38
340.702	1220.38
340.93	1257.38
341.158	1253.38
341.386	1287.38
341.614	1344.38
341.842	1303.38
342.07	1226.38
342.298	1261.38
342.526	1244.38
342.754	1233.38
342.981	1230.38
343.209	1233.38
343.437	1284.38
343.665	1302.38
343.893	1286.38
344.12	1289.38
344.348	1240.38
344.576	1302.38
344.804	1295.38
345.031	1275.38
345.259	1306.38
345.487	1291.38
345.714	1284.38
345.942	1310.38
346.17	1317.38
346.397	1333.38
346.625	1246.38
346.853	1204.38
347.08	1238.38
347.308	1248.38
347.535	1221.38
347.763	1238.38
347.99	1233.38
348.218	1186.38
348.445	1251.38
348.673	1240.38
348.9	1197.38
349.128	1248.38
349.355	1266.38
349.583	1251.38
349.81	1222.38
350.037	1224.38
350.265	1190.38
350.492	1192.38
350.72	1206.38
350.947	1179.38
351.174	1246.38
351.402	1282.38
351.629	1286.38
351.856	1271.38
352.083	1210.38
352.311	1253.38
352.538	1260.38
352.765	1289.38
352.992	1174.38
353.22	1170.38
353.447	1179.38
353.674	1166.38
353.901	1147.38
354.128	1171.38
354.355	1190.38
354.583	1197.38
354.81	1186.38
355.037	1175.38
355.264	1164.38
355.491	1186.38
355.718	1184.38
355.945	1187.38
356.172	1230.38
356.399	1195.38
356.626	1196.38
356.853	1256.38
357.08	1217.38
357.307	1178.38
357.534	1184.38
357.761	1201.38
357.988	1213.38
358.215	1214.38
358.441	1192.38
358.668	1196.38
358.895	1189.38
359.122	1168.38
359.349	1213.38
359.576	1193.38
359.802	1207.38
360.029	1233.38
360.256	1198.38
360.483	1216.38
360.709	1196.38
360.936	1195.38
361.163	1208.38
361.39	1209.38
361.616	1192.38
361.843	1300.38
362.07	1283.38
362.296	1286.38
362.523	1232.38
362.749	1196.38
362.976	1211.38
363.203	1201.38
363.429	1162.38
363.656	1201.38
363.882	1193.38
364.109	1193.38
364.335	1181.38
364.562	1183.38
364.788	1206.38
365.015	1175.38
365.241	1193.38
365.468	1196.38
365.694	1220.38
365.92	1184.38
366.147	1205.38
366.373	1234.38
366.599	1220.38
366.826	1217.38
367.052	1220.38
367.278	1190.38
367.505	1252.38
367.731	1214.38
367.957	1217.38
368.184	1186.38
368.41	1222.38
368.636	1225.38
368.862	1256.38
369.089	1241.38
369.315	1209.38
369.541	1238.38
369.767	1232.38
369.993	1243.38
370.219	1245.38
370.445	1239.38
370.672	1216.38
370.898	1225.38
371.124	1257.38
371.35	1252.38
371.576	1262.38
371.802	1298.38
372.028	1246.38
372.254	1240.38
372.48	1237.38
372.706	1253.38
372.932	1235.38
373.158	1260.38
373.384	1268.38
373.61	1227.38
373.835	1233.38
374.061	1264.38
374.287	1235.38
374.513	1244.38
374.739	1284.38
374.965	1261.38
375.191	1287.38
375.416	1270.38
375.642	1240.38
375.868	1212.38
376.094	1229.38
376.319	1214.38
376.545	1199.38
376.771	1241.38
376.997	1249.38
377.222	1261.38
377.448	1212.38
377.674	1257.38
377.899	1229.38
378.125	1240.38
378.35	1245.38
378.576	1215.38
378.802	1195.38
379.027	1220.38
379.253	1221.38
379.478	1195.38
379.704	1238.38
379.929	1205.38
380.155	1213.38
380.38	1231.38
380.606	1218.38
380.831	1237.38
381.057	1243.38
381.282	1203.38
381.507	1245.38
381.733	1227.38
381.958	1247.38
382.184	1214.38
382.409	1231.38
382.634	1241.38
382.86	1220.38
383.085	1216.38
383.31	1239.38
383.535	1244.38
383.761	1241.38
383.986	1232.38
384.211	1269.38
384.436	1253.38
384.662	1295.38
384.887	1272.38
385.112	1290.38
385.337	1286.38
385.562	1278.38
385.787	1302.38
386.013	1324.38
386.238	1312.38
386.463	1304.38
386.688	1273.38
386.913	1324.38
387.138	1317.38
387.363	1341.38
387.588	1325.38
387.813	1298.38
388.038	1313.38
388.263	1289.38
388.488	1319.38
388.713	1342.38
388.938	1322.38
389.163	1326.38
389.387	1341.38
389.612	1337.38
389.837	1347.38
390.062	1349.38
390.287	1325.38
390.512	1332.38
390.736	1296.38
390.961	1365.38
391.186	1358.38
391.411	1342.38
391.636	1346.38
391.86	1353.38
392.085	1341.38
392.31	1345.38
392.534	1357.38
392.759	1354.38
392.984	1362.38
393.208	1360.38
393.433	1383.38
393.658	1346.38
393.882	1348.38
394.107	1369.38
394.331	1324.38
394.556	1357.38
394.78	1332.38
395.005	1313.38
395.229	1364.38
395.454	1364.38
395.678	1350.38
395.903	1363.38
396.127	1389.38
396.352	1369.38
396.576	1366.38
396.801	1384.38
397.025	1403.38
397.249	1387.38
397.474	1393.38
397.698	1393.38
397.922	1368.38
398.147	1380.38
398.371	1429.38
398.595	1444.38
398.82	1443.38
399.044	1472.38
399.268	1493.38
399.492	1543.38
399.717	1522.38
399.941	1564.38
400.165	1535.38
400.389	1490.38
400.613	1508.38
400.837	1494.38
401.062	1506.38
401.286	1490.38
401.51	1476.38
401.734	1441.38
401.958	1488.38
402.182	1474.38
402.406	1460.38
402.63	1464.38
402.854	1459.38
403.078	1463.38
403.302	1468.38
403.526	1424.38
403.75	1457.38
403.974	1468.38
404.198	1454.38
404.422	1440.38
404.645	1449.38
404.869	1463.38
405.093	1473.38
405.317	1462.38
405.541	1509.38
405.765	1490.38
405.988	1492.38
406.212	1549.38
406.436	1495.38
406.66	1549.38
406.883	1501.38
407.107	1535.38
407.331	1554.38
407.555	1587.38
407.778	1580.38
408.002	1558.38
408.226	1600.38
408.449	1601.38
408.673	1573.38
408.896	1541.38
409.12	1548.38
409.344	1573.38
409.567	1498.38
409.791	1516.38
410.014	1536.38
410.238	1500.38
410.461	1543.38
410.685	1526.38
410.908	1541.38
411.132	1520.38
411.355	1488.38
411.578	1495.38
411.802	1491.38
412.025	1521.38
412.249	1483.38
412.472	1506.38
412.695	1471.38
412.919	1485.38
413.142	1496.38
413.365	1485.38
413.589	1503.38
413.812	1484.38
414.035	1505.38
414.258	1470.38
414.482	1476.38
414.705	1486.38
414.928	1462.38
415.151	1454.38
415.374	1468.38
415.597	1461.38
415.821	1422.38
416.044	1420.38
416.267	1440.38
416.49	1431.38
416.713	1423.38
416.936	1458.38
417.159	1417.38
417.382	1409.38
417.605	1364.38
417.828	1396.38
418.051	1426.38
418.274	1428.38
418.497	1387.38
418.72	1397.38
418.943	1380.38
419.166	1471.38
419.389	1534.38
419.611	1522.38
419.834	1468.38
420.057	1435.38
420.28	1434.38
420.503	1362.38
420.726	1416.38
420.948	1412.38
421.171	1384.38
421.394	1398.38
421.617	1427.38
421.839	1414.38
422.062	1408.38
422.285	1380.38
422.507	1430.38
422.73	1364.38
422.953	1400.38
423.175	1404.38
423.398	1412.38
423.621	1391.38
423.843	1393.38
424.066	1419.38
424.288	1404.38
424.511	1420.38
424.733	1412.38
424.956	1412.38
425.178	1434.38
425.401	1413.38
425.623	1379.38
425.846	1392.38
426.068	1417.38
426.291	1421.38
426.513	1410.38
426.735	1401.38
426.958	1436.38
427.18	1406.38
427.402	1396.38
427.625	1427.38
427.847	1392.38
428.069	1374.38
428.292	1412.38
428.514	1403.38
428.736	1401.38
428.958	1407.38
429.181	1400.38
429.403	1371.38
429.625	1394.38
429.847	1376.38
430.069	1379.38
430.292	1385.38
430.514	1358.38
430.736	1421.38
430.958	1394.38
431.18	1380.38
431.402	1398.38
431.624	1402.38
431.846	1384.38
432.068	1407.38
432.29	1392.38
432.512	1404.38
432.734	1404.38
432.956	1419.38
433.178	1407.38
433.4	1464.38
433.622	1451.38
433.844	1463.38
434.066	1448.38
434.287	1414.38
434.509	1423.38
434.731	1411.38
434.953	1433.38
435.175	1474.38
435.397	1484.38
435.618	1432.38
435.84	1411.38
436.062	1418.38
436.284	1406.38
436.505	1420.38
436.727	1442.38
436.949	1411.38
437.17	1440.38
437.392	1408.38
437.614	1361.38
437.835	1362.38
438.057	1369.38
438.278	1379.38
438.5	1369.38
438.721	1360.38
438.943	1347.38
439.165	1370.38
439.386	1406.38
439.608	1394.38
439.829	1362.38
440.05	1412.38
440.272	1387.38
440.493	1447.38
440.715	1458.38
440.936	1392.38
441.158	1409.38
441.379	1425.38
441.6	1461.38
441.822	1425.38
442.043	1438.38
442.264	1430.38
442.486	1393.38
442.707	1445.38
442.928	1410.38
443.149	1451.38
443.371	1483.38
443.592	1532.38
443.813	1526.38
444.034	1442.38
444.255	1480.38
444.476	1456.38
444.698	1445.38
444.919	1504.38
445.14	1612.38
445.361	1516.38
445.582	1468.38
445.803	1444.38
446.024	1403.38
446.245	1387.38
446.466	1384.38
446.687	1404.38
446.908	1376.38
447.129	1386.38
447.35	1365.38
447.571	1351.38
447.792	1328.38
448.013	1320.38
448.234	1320.38
448.455	1328.38
448.675	1304.38
448.896	1304.38
449.117	1326.38
449.338	1310.38
449.559	1320.38
449.779	1295.38
450	1276.38
450.221	1267.38
450.442	1291.38
450.662	1276.38
450.883	1303.38
451.104	1352.38
451.324	1301.38
451.545	1274.38
451.766	1338.38
451.986	1309.38
452.207	1260.38
452.428	1240.38
452.648	1273.38
452.869	1274.38
453.089	1291.38
453.31	1315.38
453.53	1251.38
453.751	1229.38
453.971	1251.38
454.192	1310.38
454.412	1298.38
454.633	1272.38
454.853	1280.38
455.073	1269.38
455.294	1297.38
455.514	1291.38
455.734	1307.38
455.955	1308.38
456.175	1314.38
456.395	1252.38
456.616	1255.38
456.836	1281.38
457.056	1274.38
457.276	1233.38
457.497	1328.38
457.717	1308.38
457.937	1297.38
458.157	1291.38
458.377	1256.38
458.598	1307.38
458.818	1294.38
459.038	1298.38
459.258	1357.38
459.478	1424.38
459.698	1512.38
459.918	1468.38
460.138	1445.38
460.358	1464.38
460.578	1432.38
460.798	1478.38
461.018	1472.38
461.238	1397.38
461.458	1413.38
461.678	1444.38
461.898	1425.38
462.118	1420.38
462.338	1477.38
462.558	1534.38
462.777	1539.38
462.997	1561.38
463.217	1572.38
463.437	1631.38
463.657	1607.38
463.876	1518.38
464.096	1524.38
464.316	1522.38
464.536	1531.38
464.755	1516.38
464.975	1451.38
465.195	1417.38
465.414	1437.38
465.634	1401.38
465.854	1393.38
466.073	1375.38
466.293	1348.38
466.512	1374.38
466.732	1370.38
466.951	1374.38
467.171	1394.38
467.391	1354.38
467.61	1318.38
467.829	1357.38
468.049	1346.38
468.268	1347.38
468.488	1336.38
468.707	1321.38
468.927	1340.38
469.146	1352.38
469.365	1372.38
469.585	1350.38
469.804	1347.38
470.023	1364.38
470.243	1344.38
470.462	1350.38
470.681	1351.38
470.901	1357.38
471.12	1339.38
471.339	1348.38
471.558	1353.38
471.777	1386.38
471.997	1339.38
472.216	1348.38
472.435	1342.38
472.654	1332.38
472.873	1338.38
473.092	1338.38
473.311	1338.38
473.53	1369.38
473.749	1373.38
473.968	1374.38
474.187	1366.38
474.406	1365.38
474.625	1394.38
474.844	1385.38
475.063	1404.38
475.282	1412.38
475.501	1449.38
475.72	1428.38
475.939	1434.38
476.158	1442.38
476.377	1440.38
476.596	1449.38
476.814	1459.38
477.033	1472.38
477.252	1464.38
477.471	1453.38
477.69	1467.38
477.908	1526.38
478.127	1503.38
478.346	1506.38
478.564	1555.38
478.783	1581.38
479.002	1607.38
479.22	1697.38
479.439	1650.38
479.658	1580.38
479.876	1590.38
480.095	1580.38
480.313	1590.38
480.532	1609.38
480.751	1625.38
480.969	1592.38
481.188	1588.38
481.406	1607.38
481.624	1602.38
481.843	1574.38
482.061	1588.38
482.28	1612.38
482.498	1598.38
482.717	1601.38
482.935	1623.38
483.153	1672.38
483.372	1709.38
483.59	1708.38
483.808	1674.38
484.027	1628.38
484.245	1641.38
484.463	1654.38
484.681	1661.38
484.9	1677.38
485.118	1681.38
485.336	1656.38
485.554	1664.38
485.772	1671.38
485.99	1659.38
486.209	1667.38
486.427	1664.38
486.645	1663.38
486.863	1664.38
487.081	1677.38
487.299	1701.38
487.517	1677.38
487.735	1728.38
487.953	1732.38
488.171	1701.38
488.389	1728.38
488.607	1697.38
488.825	1682.38
489.043	1625.38
489.261	1673.38
489.479	1664.38
489.696	1687.38
489.914	1625.38
490.132	1682.38
490.35	1688.38
490.568	1703.38
490.786	1724.38
491.003	1704.38
