Data from Ni(NO3)2@0.125M.TitratingCurve.Agarose3%dH2O.NegLispCup.LampEnergy10.LIBS07252019_HRD10591_18-11-01-568.txt Node
Date: Thu Jul 25 18:11:01 EDT 2019
User: cochatt
Spectrometer: HR+D1059
Trigger mode: 1
Integration Time (sec): 1.000000E-1
Scans to average: 1
Electric dark correction enabled: true
Nonlinearity correction enabled: false
Boxcar width: 0
XAxis mode: Wavelengths
Number of Pixels in Spectrum: 2048
>>>>>Begin Spectral Data<<<<<
223.165	-6.31
223.4	-6.31
223.635	-6.31
223.869	-11.31
224.104	-16.31
224.338	-21.31
224.573	-19.31
224.808	-12.31
225.042	-7.31
225.277	3.69
225.511	-13.31
225.746	-11.31
225.98	22.69
226.215	9.69
226.449	2.69
226.683	30.69
226.918	22.69
227.152	26.69
227.387	47.69
227.621	25.69
227.856	44.69
228.09	49.69
228.324	56.69
228.559	69.69
228.793	69.69
229.027	92.69
229.262	101.69
229.496	100.69
229.73	115.69
229.964	115.69
230.199	116.69
230.433	110.69
230.667	105.69
230.901	112.69
231.136	125.69
231.37	117.69
231.604	124.69
231.838	124.69
232.072	136.69
232.306	124.69
232.541	108.69
232.775	125.69
233.009	126.69
233.243	144.69
233.477	131.69
233.711	133.69
233.945	122.69
234.179	122.69
234.413	133.69
234.647	133.69
234.881	132.69
235.115	126.69
235.349	125.69
235.583	115.69
235.817	143.69
236.051	137.69
236.285	130.69
236.519	134.69
236.753	147.69
236.987	137.69
237.221	133.69
237.455	135.69
237.689	137.69
237.922	139.69
238.156	150.69
238.39	136.69
238.624	134.69
238.858	134.69
239.091	139.69
239.325	145.69
239.559	147.69
239.793	164.69
240.027	147.69
240.26	131.69
240.494	162.69
240.728	168.69
240.961	153.69
241.195	158.69
241.429	153.69
241.662	174.69
241.896	173.69
242.13	159.69
242.363	156.69
242.597	156.69
242.83	158.69
243.064	167.69
243.298	163.69
243.531	168.69
243.765	167.69
243.998	161.69
244.232	174.69
244.465	180.69
244.699	176.69
244.932	186.69
245.166	178.69
245.399	198.69
245.633	196.69
245.866	182.69
246.099	174.69
246.333	173.69
246.566	176.69
246.8	181.69
247.033	188.69
247.266	194.69
247.5	184.69
247.733	188.69
247.966	192.69
248.2	198.69
248.433	200.69
248.666	205.69
248.899	200.69
249.133	194.69
249.366	216.69
249.599	209.69
249.832	208.69
250.066	199.69
250.299	221.69
250.532	198.69
250.765	212.69
250.998	205.69
251.231	226.69
251.465	206.69
251.698	214.69
251.931	212.69
252.164	221.69
252.397	228.69
252.63	220.69
252.863	205.69
253.096	216.69
253.329	220.69
253.562	225.69
253.795	237.69
254.028	216.69
254.261	235.69
254.494	200.69
254.727	241.69
254.96	217.69
255.193	227.69
255.426	230.69
255.659	230.69
255.892	236.69
256.124	228.69
256.357	241.69
256.59	240.69
256.823	229.69
257.056	244.69
257.289	233.69
257.521	250.69
257.754	237.69
257.987	247.69
258.22	235.69
258.452	240.69
258.685	242.69
258.918	261.69
259.151	243.69
259.383	256.69
259.616	251.69
259.849	251.69
260.081	245.69
260.314	251.69
260.547	251.69
260.779	242.69
261.012	261.69
261.244	291.69
261.477	279.69
261.71	261.69
261.942	260.69
262.175	263.69
262.407	257.69
262.64	256.69
262.872	280.69
263.105	274.69
263.337	269.69
263.57	271.69
263.802	282.69
264.035	264.69
264.267	270.69
264.499	289.69
264.732	292.69
264.964	276.69
265.197	268.69
265.429	290.69
265.661	280.69
265.894	279.69
266.126	300.69
266.358	287.69
266.591	258.69
266.823	293.69
267.055	284.69
267.287	295.69
267.52	302.69
267.752	312.69
267.984	289.69
268.216	302.69
268.448	291.69
268.681	287.69
268.913	291.69
269.145	306.69
269.377	314.69
269.609	296.69
269.841	308.69
270.073	309.69
270.306	314.69
270.538	308.69
270.77	292.69
271.002	300.69
271.234	301.69
271.466	322.69
271.698	320.69
271.93	317.69
272.162	309.69
272.394	323.69
272.626	301.69
272.858	326.69
273.09	313.69
273.322	325.69
273.553	316.69
273.785	310.69
274.017	317.69
274.249	309.69
274.481	327.69
274.713	330.69
274.945	355.69
275.176	328.69
275.408	344.69
275.64	348.69
275.872	326.69
276.104	333.69
276.335	334.69
276.567	332.69
276.799	331.69
277.031	331.69
277.262	349.69
277.494	331.69
277.726	347.69
277.957	343.69
278.189	356.69
278.421	337.69
278.652	335.69
278.884	337.69
279.115	359.69
279.347	338.69
279.579	349.69
279.81	348.69
280.042	351.69
280.273	368.69
280.505	369.69
280.736	369.69
280.968	390.69
281.199	358.69
281.431	369.69
281.662	362.69
281.894	376.69
282.125	374.69
282.356	376.69
282.588	364.69
282.819	389.69
283.051	382.69
283.282	366.69
283.513	405.69
283.745	393.69
283.976	380.69
284.207	377.69
284.439	402.69
284.67	391.69
284.901	390.69
285.132	395.69
285.364	385.69
285.595	395.69
285.826	386.69
286.057	397.69
286.288	383.69
286.52	390.69
286.751	392.69
286.982	394.69
287.213	421.69
287.444	420.69
287.675	417.69
287.906	410.69
288.138	406.69
288.369	415.69
288.6	415.69
288.831	411.69
289.062	393.69
289.293	417.69
289.524	412.69
289.755	398.69
289.986	424.69
290.217	415.69
290.448	412.69
290.679	404.69
290.91	411.69
291.141	418.69
291.371	421.69
291.602	412.69
291.833	420.69
292.064	434.69
292.295	417.69
292.526	415.69
292.757	424.69
292.987	415.69
293.218	410.69
293.449	419.69
293.68	410.69
293.91	429.69
294.141	420.69
294.372	432.69
294.603	421.69
294.833	432.69
295.064	420.69
295.295	422.69
295.525	435.69
295.756	424.69
295.987	418.69
296.217	457.69
296.448	427.69
296.679	429.69
296.909	434.69
297.14	432.69
297.37	428.69
297.601	429.69
297.831	432.69
298.062	443.69
298.292	460.69
298.523	466.69
298.753	478.69
298.984	467.69
299.214	466.69
299.445	461.69
299.675	456.69
299.905	443.69
300.136	467.69
300.366	454.69
300.597	476.69
300.827	483.69
301.057	500.69
301.288	470.69
301.518	475.69
301.748	473.69
301.979	498.69
302.209	454.69
302.439	488.69
302.669	465.69
302.9	489.69
303.13	481.69
303.36	485.69
303.59	453.69
303.82	473.69
304.051	475.69
304.281	473.69
304.511	482.69
304.741	484.69
304.971	474.69
305.201	480.69
305.431	464.69
305.661	462.69
305.891	455.69
306.121	463.69
306.352	460.69
306.582	466.69
306.812	472.69
307.042	479.69
307.272	457.69
307.502	487.69
307.731	468.69
307.961	447.69
308.191	481.69
308.421	448.69
308.651	479.69
308.881	455.69
309.111	470.69
309.341	462.69
309.571	486.69
309.8	463.69
310.03	496.69
310.26	471.69
310.49	484.69
310.72	461.69
310.949	480.69
311.179	486.69
311.409	482.69
311.639	469.69
311.868	491.69
312.098	488.69
312.328	486.69
312.557	489.69
312.787	497.69
313.017	483.69
313.246	499.69
313.476	476.69
313.706	509.69
313.935	524.69
314.165	514.69
314.394	516.69
314.624	513.69
314.853	498.69
315.083	513.69
315.312	489.69
315.542	501.69
315.771	488.69
316.001	506.69
316.23	503.69
316.46	513.69
316.689	489.69
316.919	493.69
317.148	497.69
317.377	499.69
317.607	500.69
317.836	508.69
318.065	493.69
318.295	501.69
318.524	501.69
318.753	484.69
318.983	498.69
319.212	486.69
319.441	504.69
319.67	488.69
319.9	492.69
320.129	515.69
320.358	491.69
320.587	494.69
320.816	475.69
321.046	489.69
321.275	510.69
321.504	477.69
321.733	520.69
321.962	524.69
322.191	537.69
322.42	520.69
322.649	523.69
322.878	487.69
323.108	500.69
323.337	510.69
323.566	515.69
323.795	518.69
324.024	511.69
324.253	509.69
324.482	548.69
324.71	529.69
324.939	534.69
325.168	535.69
325.397	524.69
325.626	522.69
325.855	523.69
326.084	548.69
326.313	566.69
326.542	560.69
326.77	566.69
326.999	562.69
327.228	560.69
327.457	566.69
327.686	573.69
327.914	534.69
328.143	540.69
328.372	554.69
328.6	548.69
328.829	545.69
329.058	552.69
329.287	543.69
329.515	554.69
329.744	562.69
329.972	556.69
330.201	569.69
330.43	582.69
330.658	576.69
330.887	589.69
331.115	586.69
331.344	573.69
331.572	597.69
331.801	608.69
332.03	619.69
332.258	631.69
332.486	640.69
332.715	658.69
332.943	703.69
333.172	718.69
333.4	747.69
333.629	776.69
333.857	788.69
334.085	764.69
334.314	741.69
334.542	741.69
334.771	708.69
334.999	690.69
335.227	688.69
335.455	700.69
335.684	693.69
335.912	678.69
336.14	655.69
336.369	654.69
336.597	690.69
336.825	674.69
337.053	668.69
337.281	647.69
337.51	640.69
337.738	643.69
337.966	621.69
338.194	613.69
338.422	609.69
338.65	596.69
338.878	587.69
339.106	614.69
339.334	632.69
339.562	605.69
339.79	590.69
340.018	576.69
340.246	592.69
340.474	574.69
340.702	582.69
340.93	598.69
341.158	589.69
341.386	589.69
341.614	584.69
341.842	576.69
342.07	575.69
342.298	594.69
342.526	577.69
342.754	590.69
342.981	594.69
343.209	596.69
343.437	634.69
343.665	683.69
343.893	740.69
344.12	728.69
344.348	683.69
344.576	650.69
344.804	626.69
345.031	586.69
345.259	585.69
345.487	579.69
345.714	594.69
345.942	598.69
346.17	588.69
346.397	552.69
346.625	571.69
346.853	556.69
347.08	570.69
347.308	570.69
347.535	579.69
347.763	579.69
347.99	565.69
348.218	565.69
348.445	550.69
348.673	560.69
348.9	552.69
349.128	550.69
349.355	548.69
349.583	561.69
349.81	527.69
350.037	542.69
350.265	535.69
350.492	564.69
350.72	566.69
350.947	539.69
351.174	554.69
351.402	552.69
351.629	526.69
351.856	542.69
352.083	541.69
352.311	552.69
352.538	553.69
352.765	532.69
352.992	542.69
353.22	545.69
353.447	540.69
353.674	526.69
353.901	537.69
354.128	526.69
354.355	512.69
354.583	537.69
354.81	537.69
355.037	542.69
355.264	524.69
355.491	532.69
355.718	551.69
355.945	541.69
356.172	536.69
356.399	553.69
356.626	520.69
356.853	546.69
357.08	545.69
357.307	539.69
357.534	548.69
357.761	542.69
357.988	557.69
358.215	548.69
358.441	533.69
358.668	562.69
358.895	552.69
359.122	532.69
359.349	543.69
359.576	570.69
359.802	544.69
360.029	546.69
360.256	550.69
360.483	554.69
360.709	552.69
360.936	561.69
361.163	541.69
361.39	549.69
361.616	542.69
361.843	571.69
362.07	540.69
362.296	548.69
362.523	566.69
362.749	529.69
362.976	546.69
363.203	541.69
363.429	518.69
363.656	537.69
363.882	544.69
364.109	514.69
364.335	532.69
364.562	560.69
364.788	520.69
365.015	547.69
365.241	534.69
365.468	556.69
365.694	552.69
365.92	535.69
366.147	525.69
366.373	522.69
366.599	533.69
366.826	539.69
367.052	547.69
367.278	534.69
367.505	542.69
367.731	535.69
367.957	554.69
368.184	547.69
368.41	564.69
368.636	566.69
368.862	563.69
369.089	558.69
369.315	564.69
369.541	544.69
369.767	571.69
369.993	576.69
370.219	578.69
370.445	570.69
370.672	578.69
370.898	589.69
371.124	580.69
371.35	613.69
371.576	590.69
371.802	586.69
372.028	581.69
372.254	584.69
372.48	608.69
372.706	614.69
372.932	635.69
373.158	608.69
373.384	619.69
373.61	601.69
373.835	590.69
374.061	607.69
374.287	594.69
374.513	611.69
374.739	668.69
374.965	660.69
375.191	661.69
375.416	652.69
375.642	644.69
375.868	632.69
376.094	601.69
376.319	616.69
376.545	615.69
376.771	609.69
376.997	583.69
377.222	605.69
377.448	594.69
377.674	588.69
377.899	592.69
378.125	594.69
378.35	589.69
378.576	576.69
378.802	578.69
379.027	577.69
379.253	598.69
379.478	581.69
379.704	588.69
379.929	589.69
380.155	581.69
380.38	598.69
380.606	578.69
380.831	581.69
381.057	592.69
381.282	568.69
381.507	608.69
381.733	592.69
381.958	590.69
382.184	597.69
382.409	601.69
382.634	629.69
382.86	636.69
383.085	632.69
383.31	635.69
383.535	673.69
383.761	645.69
383.986	675.69
384.211	689.69
384.436	692.69
384.662	721.69
384.887	697.69
385.112	707.69
385.337	733.69
385.562	710.69
385.787	731.69
386.013	730.69
386.238	708.69
386.463	748.69
386.688	714.69
386.913	692.69
387.138	672.69
387.363	688.69
387.588	704.69
387.813	692.69
388.038	709.69
388.263	715.69
388.488	702.69
388.713	709.69
388.938	684.69
389.163	666.69
389.387	705.69
389.612	666.69
389.837	707.69
390.062	688.69
390.287	691.69
390.512	678.69
390.736	700.69
390.961	729.69
391.186	724.69
391.411	770.69
391.636	750.69
391.86	786.69
392.085	828.69
392.31	793.69
392.534	771.69
392.759	746.69
392.984	747.69
393.208	756.69
393.433	754.69
393.658	763.69
393.882	754.69
394.107	759.69
394.331	747.69
394.556	767.69
394.78	743.69
395.005	763.69
395.229	748.69
395.454	778.69
395.678	794.69
395.903	788.69
396.127	746.69
396.352	774.69
396.576	742.69
396.801	708.69
397.025	756.69
397.249	747.69
397.474	779.69
397.698	805.69
397.922	791.69
398.147	801.69
398.371	788.69
398.595	838.69
398.82	875.69
399.044	918.69
399.268	1060.69
399.492	1229.69
399.717	1414.69
399.941	1369.69
400.165	1193.69
400.389	1041.69
400.613	963.69
400.837	911.69
401.062	896.69
401.286	910.69
401.51	900.69
401.734	874.69
401.958	875.69
402.182	914.69
402.406	898.69
402.63	964.69
402.854	967.69
403.078	986.69
403.302	1008.69
403.526	1004.69
403.75	1033.69
403.974	1058.69
404.198	1072.69
404.422	1026.69
404.645	1045.69
404.869	1011.69
405.093	1040.69
405.317	991.69
405.541	979.69
405.765	1005.69
405.988	953.69
406.212	969.69
406.436	976.69
406.66	996.69
406.883	998.69
407.107	1105.69
407.331	1124.69
407.555	1155.69
407.778	1182.69
408.002	1127.69
408.226	1103.69
408.449	1055.69
408.673	1041.69
408.896	1010.69
409.12	1010.69
409.344	1032.69
409.567	1030.69
409.791	997.69
410.014	1031.69
410.238	1037.69
410.461	1041.69
410.685	1008.69
410.908	974.69
411.132	958.69
411.355	945.69
411.578	930.69
411.802	922.69
412.025	893.69
412.249	930.69
412.472	948.69
412.695	889.69
412.919	892.69
413.142	866.69
413.365	882.69
413.589	877.69
413.812	861.69
414.035	875.69
414.258	883.69
414.482	872.69
414.705	884.69
414.928	896.69
415.151	894.69
415.374	877.69
415.597	898.69
415.821	896.69
416.044	850.69
416.267	848.69
416.49	858.69
416.713	852.69
416.936	870.69
417.159	864.69
417.382	885.69
417.605	876.69
417.828	869.69
418.051	860.69
418.274	909.69
418.497	902.69
418.72	914.69
418.943	926.69
419.166	961.69
419.389	1017.69
419.611	1001.69
419.834	953.69
420.057	940.69
420.28	882.69
420.503	864.69
420.726	900.69
420.948	890.69
421.171	884.69
421.394	885.69
421.617	882.69
421.839	912.69
422.062	880.69
422.285	880.69
422.507	891.69
422.73	924.69
422.953	928.69
423.175	924.69
423.398	970.69
423.621	940.69
423.843	956.69
424.066	967.69
424.288	960.69
424.511	929.69
424.733	950.69
424.956	893.69
425.178	898.69
425.401	898.69
425.623	888.69
425.846	838.69
426.068	834.69
426.291	850.69
426.513	830.69
426.735	840.69
426.958	833.69
427.18	829.69
427.402	818.69
427.625	803.69
427.847	778.69
428.069	777.69
428.292	781.69
428.514	777.69
428.736	797.69
428.958	786.69
429.181	752.69
429.403	754.69
429.625	764.69
429.847	747.69
430.069	745.69
430.292	787.69
430.514	744.69
430.736	738.69
430.958	773.69
431.18	772.69
431.402	775.69
431.624	740.69
431.846	797.69
432.068	781.69
432.29	808.69
432.512	763.69
432.734	772.69
432.956	773.69
433.178	820.69
433.4	790.69
433.622	813.69
433.844	800.69
434.066	778.69
434.287	811.69
434.509	829.69
434.731	875.69
434.953	875.69
435.175	875.69
435.397	885.69
435.618	842.69
435.84	809.69
436.062	782.69
436.284	812.69
436.505	769.69
436.727	813.69
436.949	794.69
437.17	802.69
437.392	762.69
437.614	798.69
437.835	741.69
438.057	738.69
438.278	756.69
438.5	754.69
438.721	753.69
438.943	796.69
439.165	772.69
439.386	750.69
439.608	802.69
439.829	782.69
440.05	813.69
440.272	797.69
440.493	803.69
440.715	799.69
440.936	820.69
441.158	832.69
441.379	857.69
441.6	886.69
441.822	896.69
442.043	891.69
442.264	870.69
442.486	854.69
442.707	860.69
442.928	887.69
443.149	869.69
443.371	871.69
443.592	873.69
443.813	908.69
444.034	907.69
444.255	950.69
444.476	995.69
444.698	1032.69
444.919	1091.69
445.14	1152.69
445.361	994.69
445.582	937.69
445.803	859.69
446.024	824.69
446.245	818.69
446.466	808.69
446.687	792.69
446.908	808.69
447.129	764.69
447.35	804.69
447.571	762.69
447.792	753.69
448.013	732.69
448.234	756.69
448.455	756.69
448.675	726.69
448.896	730.69
449.117	712.69
449.338	728.69
449.559	697.69
449.779	671.69
450	706.69
450.221	719.69
450.442	737.69
450.662	756.69
450.883	749.69
451.104	747.69
451.324	754.69
451.545	732.69
451.766	768.69
451.986	733.69
452.207	759.69
452.428	762.69
452.648	744.69
452.869	717.69
453.089	740.69
453.31	707.69
453.53	705.69
453.751	696.69
453.971	696.69
454.192	708.69
454.412	690.69
454.633	708.69
454.853	674.69
455.073	701.69
455.294	696.69
455.514	664.69
455.734	659.69
455.955	686.69
456.175	670.69
456.395	675.69
456.616	673.69
456.836	673.69
457.056	680.69
457.276	647.69
457.497	657.69
457.717	679.69
457.937	653.69
458.157	668.69
458.377	672.69
458.598	693.69
458.818	738.69
459.038	744.69
459.258	778.69
459.478	779.69
459.698	793.69
459.918	812.69
460.138	876.69
460.358	914.69
460.578	920.69
460.798	921.69
461.018	957.69
461.238	906.69
461.458	908.69
461.678	933.69
461.898	918.69
462.118	946.69
462.338	986.69
462.558	1031.69
462.777	1032.69
462.997	1189.69
463.217	1298.69
463.437	1280.69
463.657	1149.69
463.876	1093.69
464.096	1104.69
464.316	1109.69
464.536	1092.69
464.755	1055.69
464.975	1027.69
465.195	928.69
465.414	897.69
465.634	843.69
465.854	812.69
466.073	835.69
466.293	786.69
466.512	743.69
466.732	764.69
466.951	752.69
467.171	740.69
467.391	792.69
467.61	741.69
467.829	756.69
468.049	762.69
468.268	736.69
468.488	744.69
468.707	729.69
468.927	731.69
469.146	716.69
469.365	744.69
469.585	736.69
469.804	772.69
470.023	755.69
470.243	781.69
470.462	780.69
470.681	802.69
470.901	800.69
471.12	786.69
471.339	772.69
471.558	717.69
471.777	754.69
471.997	728.69
472.216	726.69
472.435	708.69
472.654	695.69
472.873	718.69
473.092	708.69
473.311	700.69
473.53	698.69
473.749	677.69
473.968	696.69
474.187	718.69
474.406	690.69
474.625	691.69
474.844	681.69
475.063	711.69
475.282	707.69
475.501	702.69
475.72	697.69
475.939	729.69
476.158	724.69
476.377	714.69
476.596	708.69
476.814	735.69
477.033	721.69
477.252	753.69
477.471	786.69
477.69	806.69
477.908	821.69
478.127	824.69
478.346	828.69
478.564	842.69
478.783	880.69
479.002	889.69
479.22	888.69
479.439	871.69
479.658	865.69
479.876	866.69
480.095	858.69
480.313	957.69
480.532	953.69
480.751	942.69
480.969	896.69
481.188	865.69
481.406	826.69
481.624	840.69
481.843	811.69
482.061	776.69
482.28	808.69
482.498	789.69
482.717	790.69
482.935	754.69
483.153	796.69
483.372	772.69
483.59	778.69
483.808	789.69
484.027	806.69
484.245	807.69
484.463	816.69
484.681	795.69
484.9	839.69
485.118	832.69
485.336	796.69
485.554	825.69
485.772	852.69
485.99	821.69
486.209	865.69
486.427	876.69
486.645	858.69
486.863	857.69
487.081	836.69
487.299	835.69
487.517	833.69
487.735	826.69
487.953	832.69
488.171	826.69
488.389	786.69
488.607	840.69
488.825	813.69
489.043	803.69
489.261	828.69
489.479	832.69
489.696	826.69
489.914	838.69
490.132	835.69
490.35	835.69
490.568	821.69
490.786	828.69
491.003	837.69
491.221	821.69
491.439	827.69
491.657	846.69
491.874	836.69
492.092	829.69
492.31	858.69
492.527	846.69
492.745	841.69
492.963	855.69
493.18	873.69
493.398	861.69
493.615	874.69
493.833	888.69
494.05	888.69
494.268	856.69
494.485	878.69
494.703	870.69
494.92	864.69
495.138	862.69
495.355	902.69
495.573	906.69
495.79	881.69
496.008	893.69
496.225	884.69
496.442	879.69
496.66	922.69
496.877	930.69
497.094	939.69
497.312	962.69
497.529	952.69
497.746	983.69
497.963	1000.69
498.181	1067.69
498.398	1142.69
498.615	1150.69
498.832	1283.69
499.049	1383.69
499.267	1475.69
499.484	1627.69
499.701	1832.69
499.918	1977.69
500.135	2335.69
500.352	2723.69
500.569	2877.69
500.786	2800.69
