Data from Ni(NO3)2@0.25M.TitratingCurve.Agarose3%dH2O.NegLispCup.LampEnergy10.LIBS07252019_HRD10591_18-03-03-565.txt Node
Date: Thu Jul 25 18:03:03 EDT 2019
User: cochatt
Spectrometer: HR+D1059
Trigger mode: 1
Integration Time (sec): 1.000000E-1
Scans to average: 1
Electric dark correction enabled: true
Nonlinearity correction enabled: false
Boxcar width: 0
XAxis mode: Wavelengths
Number of Pixels in Spectrum: 2048
>>>>>Begin Spectral Data<<<<<
223.165	-28.75
223.4	-28.75
223.635	-28.75
223.869	-33.75
224.104	-8.75
224.338	-16.75
224.573	-16.75
224.808	-5.75
225.042	-5.75
225.277	-12.75
225.511	-8.75
225.746	12.25
225.98	14.25
226.215	19.25
226.449	16.25
226.683	14.25
226.918	24.25
227.152	37.25
227.387	41.25
227.621	33.25
227.856	34.25
228.09	43.25
228.324	57.25
228.559	62.25
228.793	75.25
229.027	90.25
229.262	114.25
229.496	117.25
229.73	104.25
229.964	120.25
230.199	123.25
230.433	115.25
230.667	124.25
230.901	130.25
231.136	118.25
231.37	128.25
231.604	120.25
231.838	150.25
232.072	130.25
232.306	120.25
232.541	122.25
232.775	135.25
233.009	127.25
233.243	133.25
233.477	136.25
233.711	140.25
233.945	127.25
234.179	139.25
234.413	130.25
234.647	141.25
234.881	140.25
235.115	128.25
235.349	131.25
235.583	126.25
235.817	116.25
236.051	135.25
236.285	130.25
236.519	128.25
236.753	142.25
236.987	138.25
237.221	133.25
237.455	147.25
237.689	136.25
237.922	143.25
238.156	145.25
238.39	140.25
238.624	133.25
238.858	135.25
239.091	145.25
239.325	146.25
239.559	155.25
239.793	163.25
240.027	167.25
240.26	160.25
240.494	147.25
240.728	156.25
240.961	144.25
241.195	156.25
241.429	155.25
241.662	147.25
241.896	167.25
242.13	173.25
242.363	162.25
242.597	172.25
242.83	147.25
243.064	178.25
243.298	158.25
243.531	166.25
243.765	164.25
243.998	177.25
244.232	184.25
244.465	184.25
244.699	188.25
244.932	164.25
245.166	186.25
245.399	180.25
245.633	192.25
245.866	193.25
246.099	187.25
246.333	202.25
246.566	185.25
246.8	183.25
247.033	201.25
247.266	206.25
247.5	210.25
247.733	227.25
247.966	208.25
248.2	219.25
248.433	226.25
248.666	212.25
248.899	235.25
249.133	235.25
249.366	237.25
249.599	245.25
249.832	247.25
250.066	256.25
250.299	263.25
250.532	255.25
250.765	262.25
250.998	269.25
251.231	301.25
251.465	302.25
251.698	281.25
251.931	290.25
252.164	288.25
252.397	304.25
252.63	301.25
252.863	314.25
253.096	313.25
253.329	344.25
253.562	335.25
253.795	324.25
254.028	342.25
254.261	348.25
254.494	359.25
254.727	364.25
254.96	367.25
255.193	352.25
255.426	370.25
255.659	382.25
255.892	379.25
256.124	367.25
256.357	390.25
256.59	400.25
256.823	380.25
257.056	415.25
257.289	418.25
257.521	399.25
257.754	404.25
257.987	403.25
258.22	421.25
258.452	425.25
258.685	421.25
258.918	426.25
259.151	423.25
259.383	451.25
259.616	439.25
259.849	460.25
260.081	449.25
260.314	435.25
260.547	429.25
260.779	470.25
261.012	474.25
261.244	464.25
261.477	458.25
261.71	461.25
261.942	472.25
262.175	483.25
262.407	481.25
262.64	460.25
262.872	483.25
263.105	484.25
263.337	471.25
263.57	488.25
263.802	509.25
264.035	501.25
264.267	500.25
264.499	495.25
264.732	501.25
264.964	502.25
265.197	513.25
265.429	517.25
265.661	518.25
265.894	505.25
266.126	511.25
266.358	518.25
266.591	514.25
266.823	538.25
267.055	509.25
267.287	501.25
267.52	538.25
267.752	546.25
267.984	528.25
268.216	527.25
268.448	547.25
268.681	541.25
268.913	531.25
269.145	541.25
269.377	515.25
269.609	534.25
269.841	513.25
270.073	534.25
270.306	523.25
270.538	554.25
270.77	554.25
271.002	556.25
271.234	544.25
271.466	544.25
271.698	521.25
271.93	523.25
272.162	542.25
272.394	563.25
272.626	546.25
272.858	549.25
273.09	566.25
273.322	566.25
273.553	542.25
273.785	555.25
274.017	570.25
274.249	568.25
274.481	569.25
274.713	575.25
274.945	572.25
275.176	559.25
275.408	585.25
275.64	591.25
275.872	566.25
276.104	549.25
276.335	578.25
276.567	584.25
276.799	570.25
277.031	572.25
277.262	599.25
277.494	566.25
277.726	591.25
277.957	590.25
278.189	576.25
278.421	581.25
278.652	564.25
278.884	580.25
279.115	592.25
279.347	581.25
279.579	620.25
279.81	576.25
280.042	547.25
280.273	590.25
280.505	594.25
280.736	580.25
280.968	584.25
281.199	549.25
281.431	598.25
281.662	564.25
281.894	587.25
282.125	583.25
282.356	605.25
282.588	594.25
282.819	581.25
283.051	552.25
283.282	589.25
283.513	586.25
283.745	596.25
283.976	588.25
284.207	590.25
284.439	570.25
284.67	589.25
284.901	590.25
285.132	592.25
285.364	606.25
285.595	606.25
285.826	607.25
286.057	592.25
286.288	605.25
286.52	607.25
286.751	598.25
286.982	587.25
287.213	590.25
287.444	615.25
287.675	611.25
287.906	617.25
288.138	595.25
288.369	588.25
288.6	597.25
288.831	603.25
289.062	614.25
289.293	601.25
289.524	590.25
289.755	613.25
289.986	611.25
290.217	571.25
290.448	578.25
290.679	575.25
290.91	592.25
291.141	606.25
291.371	616.25
291.602	604.25
291.833	589.25
292.064	615.25
292.295	587.25
292.526	607.25
292.757	611.25
292.987	584.25
293.218	589.25
293.449	592.25
293.68	602.25
293.91	610.25
294.141	599.25
294.372	596.25
294.603	608.25
294.833	588.25
295.064	582.25
295.295	600.25
295.525	619.25
295.756	616.25
295.987	609.25
296.217	609.25
296.448	579.25
296.679	604.25
296.909	609.25
297.14	649.25
297.37	632.25
297.601	615.25
297.831	605.25
298.062	588.25
298.292	617.25
298.523	607.25
298.753	643.25
298.984	613.25
299.214	630.25
299.445	637.25
299.675	639.25
299.905	630.25
300.136	622.25
300.366	608.25
300.597	623.25
300.827	624.25
301.057	625.25
301.288	659.25
301.518	635.25
301.748	640.25
301.979	640.25
302.209	649.25
302.439	650.25
302.669	653.25
302.9	644.25
303.13	660.25
303.36	671.25
303.59	646.25
303.82	652.25
304.051	658.25
304.281	672.25
304.511	670.25
304.741	674.25
304.971	666.25
305.201	684.25
305.431	681.25
305.661	717.25
305.891	683.25
306.121	675.25
306.352	692.25
306.582	684.25
306.812	679.25
307.042	684.25
307.272	660.25
307.502	704.25
307.731	700.25
307.961	705.25
308.191	703.25
308.421	703.25
308.651	691.25
308.881	682.25
309.111	708.25
309.341	726.25
309.571	725.25
309.8	730.25
310.03	736.25
310.26	727.25
310.49	728.25
310.72	735.25
310.949	747.25
311.179	747.25
311.409	749.25
311.639	772.25
311.868	772.25
312.098	787.25
312.328	816.25
312.557	793.25
312.787	779.25
313.017	783.25
313.246	798.25
313.476	783.25
313.706	807.25
313.935	837.25
314.165	829.25
314.394	808.25
314.624	832.25
314.853	831.25
315.083	845.25
315.312	833.25
315.542	859.25
315.771	868.25
316.001	880.25
316.23	855.25
316.46	883.25
316.689	904.25
316.919	888.25
317.148	906.25
317.377	904.25
317.607	894.25
317.836	927.25
318.065	938.25
318.295	934.25
318.524	971.25
318.753	946.25
318.983	950.25
319.212	941.25
319.441	967.25
319.67	975.25
319.9	978.25
320.129	971.25
320.358	1005.25
320.587	984.25
320.816	1052.25
321.046	1026.25
321.275	995.25
321.504	1030.25
321.733	1051.25
321.962	1065.25
322.191	1054.25
322.42	1070.25
322.649	1084.25
322.878	1100.25
323.108	1085.25
323.337	1120.25
323.566	1095.25
323.795	1074.25
324.024	1154.25
324.253	1150.25
324.482	1146.25
324.71	1145.25
324.939	1176.25
325.168	1176.25
325.397	1168.25
325.626	1183.25
325.855	1186.25
326.084	1211.25
326.313	1227.25
326.542	1241.25
326.77	1254.25
326.999	1251.25
327.228	1228.25
327.457	1245.25
327.686	1274.25
327.914	1255.25
328.143	1286.25
328.372	1267.25
328.6	1256.25
328.829	1274.25
329.058	1264.25
329.287	1264.25
329.515	1272.25
329.744	1310.25
329.972	1337.25
330.201	1331.25
330.43	1325.25
330.658	1339.25
330.887	1347.25
331.115	1347.25
331.344	1343.25
331.572	1349.25
331.801	1387.25
332.03	1396.25
332.258	1390.25
332.486	1368.25
332.715	1429.25
332.943	1418.25
333.172	1407.25
333.4	1449.25
333.629	1453.25
333.857	1471.25
334.085	1484.25
334.314	1499.25
334.542	1491.25
334.771	1530.25
334.999	1478.25
335.227	1514.25
335.455	1501.25
335.684	1509.25
335.912	1552.25
336.14	1506.25
336.369	1539.25
336.597	1561.25
336.825	1541.25
337.053	1534.25
337.281	1494.25
337.51	1538.25
337.738	1560.25
337.966	1506.25
338.194	1538.25
338.422	1526.25
338.65	1496.25
338.878	1503.25
339.106	1524.25
339.334	1512.25
339.562	1494.25
339.79	1494.25
340.018	1485.25
340.246	1498.25
340.474	1503.25
340.702	1508.25
340.93	1495.25
341.158	1486.25
341.386	1474.25
341.614	1510.25
341.842	1485.25
342.07	1481.25
342.298	1473.25
342.526	1528.25
342.754	1512.25
342.981	1492.25
343.209	1502.25
343.437	1536.25
343.665	1516.25
343.893	1542.25
344.12	1547.25
344.348	1562.25
344.576	1511.25
344.804	1531.25
345.031	1544.25
345.259	1518.25
345.487	1516.25
345.714	1548.25
345.942	1499.25
346.17	1508.25
346.397	1479.25
346.625	1462.25
346.853	1502.25
347.08	1477.25
347.308	1504.25
347.535	1469.25
347.763	1457.25
347.99	1491.25
348.218	1485.25
348.445	1465.25
348.673	1451.25
348.9	1455.25
349.128	1488.25
349.355	1471.25
349.583	1438.25
349.81	1454.25
350.037	1456.25
350.265	1438.25
350.492	1441.25
350.72	1469.25
350.947	1459.25
351.174	1464.25
351.402	1462.25
351.629	1455.25
351.856	1446.25
352.083	1468.25
352.311	1404.25
352.538	1455.25
352.765	1440.25
352.992	1415.25
353.22	1442.25
353.447	1395.25
353.674	1435.25
353.901	1423.25
354.128	1414.25
354.355	1464.25
354.583	1437.25
354.81	1388.25
355.037	1414.25
355.264	1414.25
355.491	1447.25
355.718	1439.25
355.945	1439.25
356.172	1412.25
356.399	1431.25
356.626	1462.25
356.853	1422.25
357.08	1413.25
357.307	1434.25
357.534	1416.25
357.761	1417.25
357.988	1445.25
358.215	1420.25
358.441	1445.25
358.668	1422.25
358.895	1420.25
359.122	1429.25
359.349	1459.25
359.576	1432.25
359.802	1408.25
360.029	1379.25
360.256	1424.25
360.483	1383.25
360.709	1414.25
360.936	1410.25
361.163	1427.25
361.39	1435.25
361.616	1397.25
361.843	1401.25
362.07	1426.25
362.296	1422.25
362.523	1375.25
362.749	1426.25
362.976	1440.25
363.203	1405.25
363.429	1415.25
363.656	1421.25
363.882	1409.25
364.109	1403.25
364.335	1386.25
364.562	1420.25
364.788	1415.25
365.015	1419.25
365.241	1422.25
365.468	1450.25
365.694	1437.25
365.92	1417.25
366.147	1410.25
366.373	1411.25
366.599	1410.25
366.826	1393.25
367.052	1421.25
367.278	1395.25
367.505	1374.25
367.731	1378.25
367.957	1428.25
368.184	1410.25
368.41	1401.25
368.636	1417.25
368.862	1395.25
369.089	1425.25
369.315	1416.25
369.541	1396.25
369.767	1421.25
369.993	1415.25
370.219	1434.25
370.445	1406.25
370.672	1427.25
370.898	1391.25
371.124	1396.25
371.35	1444.25
371.576	1418.25
371.802	1421.25
372.028	1424.25
372.254	1428.25
372.48	1443.25
372.706	1414.25
372.932	1396.25
373.158	1410.25
373.384	1468.25
373.61	1432.25
373.835	1392.25
374.061	1388.25
374.287	1403.25
374.513	1381.25
374.739	1357.25
374.965	1385.25
375.191	1419.25
375.416	1392.25
375.642	1387.25
375.868	1391.25
376.094	1378.25
376.319	1369.25
376.545	1371.25
376.771	1371.25
376.997	1336.25
377.222	1327.25
377.448	1342.25
377.674	1358.25
377.899	1333.25
378.125	1321.25
378.35	1294.25
378.576	1350.25
378.802	1333.25
379.027	1335.25
379.253	1345.25
379.478	1303.25
379.704	1330.25
379.929	1375.25
380.155	1319.25
380.38	1351.25
380.606	1322.25
380.831	1300.25
381.057	1297.25
381.282	1290.25
381.507	1312.25
381.733	1341.25
381.958	1328.25
382.184	1318.25
382.409	1336.25
382.634	1325.25
382.86	1352.25
383.085	1332.25
383.31	1373.25
383.535	1337.25
383.761	1362.25
383.986	1346.25
384.211	1354.25
384.436	1359.25
384.662	1375.25
384.887	1352.25
385.112	1375.25
385.337	1415.25
385.562	1390.25
385.787	1384.25
386.013	1390.25
386.238	1400.25
386.463	1406.25
386.688	1427.25
386.913	1400.25
387.138	1409.25
387.363	1406.25
387.588	1386.25
387.813	1414.25
388.038	1396.25
388.263	1387.25
388.488	1413.25
388.713	1436.25
388.938	1392.25
389.163	1434.25
389.387	1402.25
389.612	1372.25
389.837	1408.25
390.062	1412.25
390.287	1393.25
390.512	1380.25
390.736	1421.25
390.961	1414.25
391.186	1418.25
391.411	1433.25
391.636	1459.25
391.86	1434.25
392.085	1436.25
392.31	1419.25
392.534	1436.25
392.759	1468.25
392.984	1435.25
393.208	1425.25
393.433	1423.25
393.658	1415.25
393.882	1435.25
394.107	1399.25
394.331	1453.25
394.556	1456.25
394.78	1439.25
395.005	1455.25
395.229	1403.25
395.454	1451.25
395.678	1448.25
395.903	1460.25
396.127	1462.25
396.352	1479.25
396.576	1449.25
396.801	1455.25
397.025	1470.25
397.249	1470.25
397.474	1477.25
397.698	1489.25
397.922	1493.25
398.147	1507.25
398.371	1534.25
398.595	1510.25
398.82	1567.25
399.044	1591.25
399.268	1588.25
399.492	1644.25
399.717	1668.25
399.941	1660.25
400.165	1667.25
400.389	1643.25
400.613	1658.25
400.837	1653.25
401.062	1667.25
401.286	1607.25
401.51	1596.25
401.734	1592.25
401.958	1609.25
402.182	1596.25
402.406	1564.25
402.63	1599.25
402.854	1584.25
403.078	1599.25
403.302	1599.25
403.526	1600.25
403.75	1620.25
403.974	1593.25
404.198	1590.25
404.422	1609.25
404.645	1633.25
404.869	1627.25
405.093	1629.25
405.317	1659.25
405.541	1625.25
405.765	1676.25
405.988	1664.25
406.212	1664.25
406.436	1698.25
406.66	1670.25
406.883	1686.25
407.107	1723.25
407.331	1800.25
407.555	1731.25
407.778	1771.25
408.002	1744.25
408.226	1743.25
408.449	1765.25
408.673	1734.25
408.896	1678.25
409.12	1734.25
409.344	1790.25
409.567	1742.25
409.791	1732.25
410.014	1706.25
410.238	1718.25
410.461	1718.25
410.685	1695.25
410.908	1694.25
411.132	1693.25
411.355	1707.25
411.578	1721.25
411.802	1669.25
412.025	1693.25
412.249	1695.25
412.472	1714.25
412.695	1670.25
412.919	1642.25
413.142	1692.25
413.365	1700.25
413.589	1694.25
413.812	1686.25
414.035	1692.25
414.258	1698.25
414.482	1671.25
414.705	1669.25
414.928	1657.25
415.151	1665.25
415.374	1693.25
415.597	1693.25
415.821	1635.25
416.044	1654.25
416.267	1640.25
416.49	1661.25
416.713	1593.25
416.936	1655.25
417.159	1656.25
417.382	1671.25
417.605	1650.25
417.828	1593.25
418.051	1655.25
418.274	1657.25
418.497	1644.25
418.72	1654.25
418.943	1623.25
419.166	1741.25
419.389	1832.25
419.611	1797.25
419.834	1753.25
420.057	1728.25
420.28	1682.25
420.503	1630.25
420.726	1672.25
420.948	1676.25
421.171	1646.25
421.394	1677.25
421.617	1656.25
421.839	1674.25
422.062	1657.25
422.285	1612.25
422.507	1686.25
422.73	1660.25
422.953	1700.25
423.175	1691.25
423.398	1692.25
423.621	1694.25
423.843	1710.25
424.066	1682.25
424.288	1667.25
424.511	1720.25
424.733	1701.25
424.956	1739.25
425.178	1736.25
425.401	1715.25
425.623	1684.25
425.846	1668.25
426.068	1664.25
426.291	1689.25
426.513	1685.25
426.735	1692.25
426.958	1686.25
427.18	1667.25
427.402	1686.25
427.625	1764.25
427.847	1726.25
428.069	1711.25
428.292	1711.25
428.514	1691.25
428.736	1735.25
428.958	1716.25
429.181	1671.25
429.403	1701.25
429.625	1720.25
429.847	1685.25
430.069	1675.25
430.292	1727.25
430.514	1729.25
430.736	1738.25
430.958	1738.25
431.18	1687.25
431.402	1726.25
431.624	1686.25
431.846	1703.25
432.068	1705.25
432.29	1736.25
432.512	1719.25
432.734	1708.25
432.956	1747.25
433.178	1722.25
433.4	1719.25
433.622	1740.25
433.844	1762.25
434.066	1746.25
434.287	1721.25
434.509	1740.25
434.731	1731.25
434.953	1742.25
435.175	1758.25
435.397	1771.25
435.618	1747.25
435.84	1717.25
436.062	1709.25
436.284	1731.25
436.505	1746.25
436.727	1739.25
436.949	1682.25
437.17	1732.25
437.392	1733.25
437.614	1690.25
437.835	1653.25
438.057	1709.25
438.278	1700.25
438.5	1688.25
438.721	1689.25
438.943	1753.25
439.165	1695.25
439.386	1706.25
439.608	1732.25
439.829	1711.25
440.05	1739.25
440.272	1730.25
440.493	1699.25
440.715	1734.25
440.936	1727.25
441.158	1743.25
441.379	1734.25
441.6	1749.25
441.822	1740.25
442.043	1771.25
442.264	1709.25
442.486	1735.25
442.707	1756.25
442.928	1731.25
443.149	1745.25
443.371	1770.25
443.592	1743.25
443.813	1740.25
444.034	1755.25
444.255	1783.25
444.476	1791.25
444.698	1805.25
444.919	1802.25
445.14	1900.25
445.361	1844.25
445.582	1780.25
445.803	1727.25
446.024	1738.25
446.245	1727.25
446.466	1742.25
446.687	1700.25
446.908	1697.25
447.129	1702.25
447.35	1698.25
447.571	1678.25
447.792	1652.25
448.013	1650.25
448.234	1651.25
448.455	1643.25
448.675	1618.25
448.896	1632.25
449.117	1633.25
449.338	1644.25
449.559	1579.25
449.779	1608.25
450	1611.25
450.221	1599.25
450.442	1647.25
450.662	1648.25
450.883	1629.25
451.104	1625.25
451.324	1584.25
451.545	1602.25
451.766	1628.25
451.986	1591.25
452.207	1594.25
452.428	1606.25
452.648	1616.25
452.869	1582.25
453.089	1589.25
453.31	1613.25
453.53	1571.25
453.751	1547.25
453.971	1566.25
454.192	1548.25
454.412	1546.25
454.633	1572.25
454.853	1538.25
455.073	1509.25
455.294	1560.25
455.514	1592.25
455.734	1612.25
455.955	1567.25
456.175	1534.25
456.395	1538.25
456.616	1558.25
456.836	1589.25
457.056	1584.25
457.276	1538.25
457.497	1608.25
457.717	1555.25
457.937	1602.25
458.157	1590.25
458.377	1581.25
458.598	1615.25
458.818	1631.25
459.038	1633.25
459.258	1621.25
459.478	1656.25
459.698	1675.25
459.918	1694.25
460.138	1688.25
460.358	1734.25
460.578	1716.25
460.798	1737.25
461.018	1769.25
461.238	1746.25
461.458	1741.25
461.678	1732.25
461.898	1778.25
462.118	1764.25
462.338	1821.25
462.558	1845.25
462.777	1808.25
462.997	1869.25
463.217	1852.25
463.437	1901.25
463.657	1862.25
463.876	1846.25
464.096	1883.25
464.316	1830.25
464.536	1837.25
464.755	1807.25
464.975	1812.25
465.195	1783.25
465.414	1808.25
465.634	1716.25
465.854	1722.25
466.073	1736.25
466.293	1698.25
466.512	1700.25
466.732	1668.25
466.951	1717.25
467.171	1689.25
467.391	1678.25
467.61	1662.25
467.829	1660.25
468.049	1703.25
468.268	1704.25
468.488	1661.25
468.707	1717.25
468.927	1666.25
469.146	1646.25
469.365	1686.25
469.585	1658.25
469.804	1685.25
470.023	1692.25
470.243	1675.25
470.462	1680.25
470.681	1701.25
470.901	1720.25
471.12	1714.25
471.339	1717.25
471.558	1704.25
471.777	1738.25
471.997	1681.25
472.216	1694.25
472.435	1708.25
472.654	1676.25
472.873	1677.25
473.092	1727.25
473.311	1717.25
473.53	1719.25
473.749	1721.25
473.968	1749.25
474.187	1758.25
474.406	1758.25
474.625	1776.25
474.844	1764.25
475.063	1770.25
475.282	1763.25
475.501	1786.25
475.72	1798.25
475.939	1787.25
476.158	1777.25
476.377	1862.25
476.596	1832.25
476.814	1876.25
477.033	1850.25
477.252	1862.25
477.471	1850.25
477.69	1894.25
477.908	1875.25
478.127	1932.25
478.346	1910.25
478.564	1948.25
478.783	1963.25
479.002	2035.25
479.22	2021.25
479.439	1985.25
479.658	1986.25
479.876	1971.25
480.095	2015.25
480.313	2003.25
480.532	2047.25
480.751	2010.25
480.969	2054.25
481.188	2042.25
481.406	2060.25
481.624	2036.25
481.843	2048.25
482.061	2030.25
482.28	2018.25
482.498	2077.25
482.717	2070.25
482.935	2064.25
483.153	2061.25
483.372	2109.25
483.59	2133.25
483.808	2096.25
484.027	2082.25
484.245	2110.25
484.463	2097.25
484.681	2127.25
484.9	2105.25
485.118	2112.25
485.336	2084.25
485.554	2125.25
485.772	2122.25
485.99	2123.25
486.209	2098.25
486.427	2096.25
486.645	2115.25
486.863	2171.25
487.081	2127.25
487.299	2152.25
487.517	2155.25
487.735	2151.25
487.953	2160.25
488.171	2182.25
488.389	2146.25
488.607	2133.25
488.825	2178.25
489.043	2171.25
489.261	2134.25
489.479	2145.25
489.696	2118.25
489.914	2184.25
490.132	2171.25
490.35	2172.25
490.568	2201.25
490.786	2243.25
491.003	2199.25
