Data from Ni(NO3)2@0.0625M.TitratingCurve.Agarose3%dH2O.NegLispCup.LampEnergy10.LIBS07252019_HRD10591_18-15-54-570.txt Node
Date: Thu Jul 25 18:15:54 EDT 2019
User: cochatt
Spectrometer: HR+D1059
Trigger mode: 1
Integration Time (sec): 1.000000E-1
Scans to average: 1
Electric dark correction enabled: true
Nonlinearity correction enabled: false
Boxcar width: 0
XAxis mode: Wavelengths
Number of Pixels in Spectrum: 2048
>>>>>Begin Spectral Data<<<<<
223.165	-8.19
223.4	-8.19
223.635	-8.19
223.869	-13.19
224.104	-18.19
224.338	-21.19
224.573	-11.19
224.808	-16.19
225.042	7.81
225.277	-2.19
225.511	-21.19
225.746	2.81
225.98	-1.19
226.215	5.81
226.449	18.81
226.683	11.81
226.918	29.81
227.152	35.81
227.387	15.81
227.621	34.81
227.856	40.81
228.09	57.81
228.324	60.81
228.559	49.81
228.793	70.81
229.027	96.81
229.262	90.81
229.496	102.81
229.73	119.81
229.964	121.81
230.199	118.81
230.433	118.81
230.667	110.81
230.901	103.81
231.136	117.81
231.37	121.81
231.604	128.81
231.838	119.81
232.072	133.81
232.306	114.81
232.541	145.81
232.775	131.81
233.009	129.81
233.243	134.81
233.477	111.81
233.711	131.81
233.945	135.81
234.179	142.81
234.413	110.81
234.647	128.81
234.881	124.81
235.115	122.81
235.349	143.81
235.583	131.81
235.817	123.81
236.051	126.81
236.285	133.81
236.519	129.81
236.753	122.81
236.987	124.81
237.221	130.81
237.455	140.81
237.689	129.81
237.922	126.81
238.156	135.81
238.39	137.81
238.624	122.81
238.858	139.81
239.091	130.81
239.325	134.81
239.559	157.81
239.793	132.81
240.027	135.81
240.26	160.81
240.494	148.81
240.728	157.81
240.961	150.81
241.195	142.81
241.429	158.81
241.662	165.81
241.896	154.81
242.13	161.81
242.363	161.81
242.597	162.81
242.83	152.81
243.064	133.81
243.298	145.81
243.531	151.81
243.765	182.81
243.998	167.81
244.232	139.81
244.465	177.81
244.699	156.81
244.932	158.81
245.166	158.81
245.399	161.81
245.633	165.81
245.866	183.81
246.099	184.81
246.333	169.81
246.566	165.81
246.8	158.81
247.033	181.81
247.266	189.81
247.5	176.81
247.733	173.81
247.966	187.81
248.2	191.81
248.433	179.81
248.666	187.81
248.899	209.81
249.133	183.81
249.366	190.81
249.599	178.81
249.832	189.81
250.066	199.81
250.299	201.81
250.532	191.81
250.765	203.81
250.998	215.81
251.231	193.81
251.465	207.81
251.698	176.81
251.931	186.81
252.164	197.81
252.397	209.81
252.63	206.81
252.863	218.81
253.096	207.81
253.329	209.81
253.562	205.81
253.795	211.81
254.028	213.81
254.261	206.81
254.494	195.81
254.727	216.81
254.96	211.81
255.193	208.81
255.426	225.81
255.659	227.81
255.892	225.81
256.124	228.81
256.357	227.81
256.59	222.81
256.823	215.81
257.056	201.81
257.289	214.81
257.521	238.81
257.754	221.81
257.987	225.81
258.22	229.81
258.452	231.81
258.685	234.81
258.918	220.81
259.151	215.81
259.383	239.81
259.616	217.81
259.849	245.81
260.081	219.81
260.314	239.81
260.547	240.81
260.779	245.81
261.012	259.81
261.244	224.81
261.477	242.81
261.71	240.81
261.942	249.81
262.175	232.81
262.407	240.81
262.64	249.81
262.872	249.81
263.105	249.81
263.337	265.81
263.57	234.81
263.802	259.81
264.035	257.81
264.267	263.81
264.499	258.81
264.732	274.81
264.964	262.81
265.197	271.81
265.429	250.81
265.661	284.81
265.894	272.81
266.126	262.81
266.358	259.81
266.591	279.81
266.823	277.81
267.055	277.81
267.287	288.81
267.52	271.81
267.752	265.81
267.984	285.81
268.216	274.81
268.448	298.81
268.681	274.81
268.913	283.81
269.145	261.81
269.377	285.81
269.609	261.81
269.841	273.81
270.073	274.81
270.306	273.81
270.538	279.81
270.77	284.81
271.002	280.81
271.234	309.81
271.466	298.81
271.698	288.81
271.93	297.81
272.162	297.81
272.394	294.81
272.626	295.81
272.858	310.81
273.09	291.81
273.322	313.81
273.553	283.81
273.785	294.81
274.017	268.81
274.249	315.81
274.481	329.81
274.713	312.81
274.945	305.81
275.176	304.81
275.408	301.81
275.64	317.81
275.872	301.81
276.104	324.81
276.335	319.81
276.567	338.81
276.799	312.81
277.031	310.81
277.262	333.81
277.494	324.81
277.726	320.81
277.957	320.81
278.189	318.81
278.421	308.81
278.652	319.81
278.884	320.81
279.115	328.81
279.347	326.81
279.579	326.81
279.81	324.81
280.042	323.81
280.273	329.81
280.505	337.81
280.736	337.81
280.968	347.81
281.199	349.81
281.431	343.81
281.662	341.81
281.894	337.81
282.125	353.81
282.356	345.81
282.588	338.81
282.819	354.81
283.051	355.81
283.282	337.81
283.513	361.81
283.745	366.81
283.976	344.81
284.207	337.81
284.439	356.81
284.67	355.81
284.901	387.81
285.132	327.81
285.364	336.81
285.595	354.81
285.826	338.81
286.057	359.81
286.288	363.81
286.52	372.81
286.751	385.81
286.982	362.81
287.213	377.81
287.444	361.81
287.675	377.81
287.906	375.81
288.138	389.81
288.369	399.81
288.6	379.81
288.831	366.81
289.062	385.81
289.293	371.81
289.524	373.81
289.755	366.81
289.986	391.81
290.217	373.81
290.448	379.81
290.679	402.81
290.91	393.81
291.141	391.81
291.371	394.81
291.602	396.81
291.833	377.81
292.064	386.81
292.295	406.81
292.526	385.81
292.757	398.81
292.987	409.81
293.218	383.81
293.449	397.81
293.68	400.81
293.91	416.81
294.141	381.81
294.372	406.81
294.603	422.81
294.833	389.81
295.064	403.81
295.295	398.81
295.525	404.81
295.756	419.81
295.987	423.81
296.217	398.81
296.448	394.81
296.679	424.81
296.909	396.81
297.14	418.81
297.37	397.81
297.601	407.81
297.831	425.81
298.062	431.81
298.292	455.81
298.523	432.81
298.753	446.81
298.984	430.81
299.214	453.81
299.445	433.81
299.675	440.81
299.905	446.81
300.136	437.81
300.366	418.81
300.597	435.81
300.827	459.81
301.057	442.81
301.288	443.81
301.518	437.81
301.748	451.81
301.979	442.81
302.209	467.81
302.439	449.81
302.669	453.81
302.9	446.81
303.13	422.81
303.36	440.81
303.59	433.81
303.82	445.81
304.051	451.81
304.281	452.81
304.511	449.81
304.741	450.81
304.971	463.81
305.201	469.81
305.431	441.81
305.661	440.81
305.891	450.81
306.121	411.81
306.352	439.81
306.582	421.81
306.812	440.81
307.042	459.81
307.272	451.81
307.502	441.81
307.731	452.81
307.961	439.81
308.191	427.81
308.421	447.81
308.651	433.81
308.881	429.81
309.111	433.81
309.341	425.81
309.571	458.81
309.8	441.81
310.03	440.81
310.26	435.81
310.49	446.81
310.72	436.81
310.949	438.81
311.179	443.81
311.409	441.81
311.639	423.81
311.868	437.81
312.098	439.81
312.328	448.81
312.557	473.81
312.787	465.81
313.017	465.81
313.246	452.81
313.476	490.81
313.706	486.81
313.935	480.81
314.165	473.81
314.394	485.81
314.624	475.81
314.853	465.81
315.083	464.81
315.312	461.81
315.542	448.81
315.771	480.81
316.001	468.81
316.23	455.81
316.46	442.81
316.689	473.81
316.919	450.81
317.148	441.81
317.377	449.81
317.607	453.81
317.836	449.81
318.065	459.81
318.295	449.81
318.524	446.81
318.753	443.81
318.983	457.81
319.212	462.81
319.441	467.81
319.67	456.81
319.9	454.81
320.129	453.81
320.358	450.81
320.587	461.81
320.816	470.81
321.046	447.81
321.275	438.81
321.504	461.81
321.733	461.81
321.962	445.81
322.191	474.81
322.42	483.81
322.649	467.81
322.878	458.81
323.108	454.81
323.337	473.81
323.566	469.81
323.795	464.81
324.024	485.81
324.253	468.81
324.482	449.81
324.71	476.81
324.939	490.81
325.168	471.81
325.397	463.81
325.626	465.81
325.855	511.81
326.084	497.81
326.313	508.81
326.542	510.81
326.77	521.81
326.999	511.81
327.228	488.81
327.457	522.81
327.686	495.81
327.914	497.81
328.143	494.81
328.372	511.81
328.6	511.81
328.829	513.81
329.058	515.81
329.287	484.81
329.515	498.81
329.744	521.81
329.972	505.81
330.201	513.81
330.43	527.81
330.658	517.81
330.887	492.81
331.115	531.81
331.344	533.81
331.572	526.81
331.801	554.81
332.03	549.81
332.258	567.81
332.486	592.81
332.715	578.81
332.943	610.81
333.172	639.81
333.4	679.81
333.629	685.81
333.857	697.81
334.085	663.81
334.314	666.81
334.542	647.81
334.771	623.81
334.999	638.81
335.227	661.81
335.455	637.81
335.684	616.81
335.912	639.81
336.14	621.81
336.369	601.81
336.597	606.81
336.825	634.81
337.053	619.81
337.281	603.81
337.51	593.81
337.738	553.81
337.966	567.81
338.194	563.81
338.422	550.81
338.65	539.81
338.878	533.81
339.106	541.81
339.334	546.81
339.562	544.81
339.79	519.81
340.018	532.81
340.246	506.81
340.474	533.81
340.702	519.81
340.93	523.81
341.158	535.81
341.386	521.81
341.614	524.81
341.842	526.81
342.07	514.81
342.298	512.81
342.526	521.81
342.754	511.81
342.981	517.81
343.209	561.81
343.437	565.81
343.665	605.81
343.893	667.81
344.12	665.81
344.348	634.81
344.576	599.81
344.804	552.81
345.031	553.81
345.259	535.81
345.487	557.81
345.714	507.81
345.942	529.81
346.17	533.81
346.397	552.81
346.625	525.81
346.853	505.81
347.08	523.81
347.308	500.81
347.535	536.81
347.763	560.81
347.99	530.81
348.218	522.81
348.445	547.81
348.673	495.81
348.9	509.81
349.128	503.81
349.355	525.81
349.583	506.81
349.81	508.81
350.037	497.81
350.265	495.81
350.492	510.81
350.72	480.81
350.947	505.81
351.174	498.81
351.402	523.81
351.629	493.81
351.856	488.81
352.083	490.81
352.311	511.81
352.538	531.81
352.765	506.81
352.992	483.81
353.22	497.81
353.447	499.81
353.674	477.81
353.901	475.81
354.128	487.81
354.355	483.81
354.583	498.81
354.81	492.81
355.037	498.81
355.264	483.81
355.491	505.81
355.718	511.81
355.945	506.81
356.172	510.81
356.399	520.81
356.626	514.81
356.853	512.81
357.08	537.81
357.307	506.81
357.534	499.81
357.761	513.81
357.988	498.81
358.215	486.81
358.441	507.81
358.668	509.81
358.895	517.81
359.122	495.81
359.349	498.81
359.576	492.81
359.802	504.81
360.029	491.81
360.256	501.81
360.483	507.81
360.709	489.81
360.936	509.81
361.163	499.81
361.39	507.81
361.616	496.81
361.843	487.81
362.07	490.81
362.296	494.81
362.523	491.81
362.749	507.81
362.976	513.81
363.203	521.81
363.429	478.81
363.656	506.81
363.882	509.81
364.109	493.81
364.335	470.81
364.562	482.81
364.788	480.81
365.015	497.81
365.241	481.81
365.468	490.81
365.694	461.81
365.92	486.81
366.147	509.81
366.373	488.81
366.599	491.81
366.826	494.81
367.052	491.81
367.278	467.81
367.505	509.81
367.731	503.81
367.957	491.81
368.184	516.81
368.41	529.81
368.636	482.81
368.862	506.81
369.089	499.81
369.315	506.81
369.541	543.81
369.767	541.81
369.993	520.81
370.219	530.81
370.445	518.81
370.672	521.81
370.898	542.81
371.124	530.81
371.35	553.81
371.576	547.81
371.802	533.81
372.028	561.81
372.254	562.81
372.48	581.81
372.706	567.81
372.932	571.81
373.158	558.81
373.384	536.81
373.61	517.81
373.835	548.81
374.061	569.81
374.287	555.81
374.513	577.81
374.739	604.81
374.965	622.81
375.191	616.81
375.416	626.81
375.642	609.81
375.868	571.81
376.094	580.81
376.319	566.81
376.545	561.81
376.771	536.81
376.997	550.81
377.222	551.81
377.448	546.81
377.674	551.81
377.899	526.81
378.125	552.81
378.35	546.81
378.576	548.81
378.802	517.81
379.027	535.81
379.253	525.81
379.478	542.81
379.704	542.81
379.929	559.81
380.155	529.81
380.38	525.81
380.606	533.81
380.831	535.81
381.057	541.81
381.282	543.81
381.507	545.81
381.733	562.81
381.958	561.81
382.184	566.81
382.409	555.81
382.634	555.81
382.86	573.81
383.085	595.81
383.31	602.81
383.535	588.81
383.761	623.81
383.986	626.81
384.211	622.81
384.436	629.81
384.662	662.81
384.887	645.81
385.112	674.81
385.337	643.81
385.562	679.81
385.787	658.81
386.013	672.81
386.238	647.81
386.463	659.81
386.688	665.81
386.913	645.81
387.138	659.81
387.363	635.81
387.588	634.81
387.813	640.81
388.038	643.81
388.263	650.81
388.488	628.81
388.713	649.81
388.938	634.81
389.163	618.81
389.387	631.81
389.612	629.81
389.837	648.81
390.062	631.81
390.287	626.81
390.512	632.81
390.736	648.81
390.961	658.81
391.186	647.81
391.411	674.81
391.636	693.81
391.86	728.81
392.085	745.81
392.31	735.81
392.534	720.81
392.759	680.81
392.984	677.81
393.208	673.81
393.433	690.81
393.658	673.81
393.882	699.81
394.107	712.81
394.331	695.81
394.556	701.81
394.78	703.81
395.005	701.81
395.229	691.81
395.454	691.81
395.678	729.81
395.903	738.81
396.127	701.81
396.352	702.81
396.576	686.81
396.801	677.81
397.025	680.81
397.249	688.81
397.474	722.81
397.698	713.81
397.922	723.81
398.147	723.81
398.371	721.81
398.595	777.81
398.82	763.81
399.044	829.81
399.268	906.81
399.492	1087.81
399.717	1257.81
399.941	1280.81
400.165	1081.81
400.389	965.81
400.613	877.81
400.837	841.81
401.062	800.81
401.286	813.81
401.51	799.81
401.734	789.81
401.958	830.81
402.182	835.81
402.406	838.81
402.63	850.81
402.854	875.81
403.078	874.81
403.302	901.81
403.526	933.81
403.75	933.81
403.974	929.81
404.198	989.81
404.422	987.81
404.645	966.81
404.869	929.81
405.093	899.81
405.317	894.81
405.541	890.81
405.765	909.81
405.988	843.81
406.212	892.81
406.436	877.81
406.66	910.81
406.883	922.81
407.107	959.81
407.331	1048.81
407.555	1047.81
407.778	1081.81
408.002	1017.81
408.226	1002.81
408.449	970.81
408.673	948.81
408.896	930.81
409.12	935.81
409.344	898.81
409.567	919.81
409.791	953.81
410.014	958.81
410.238	945.81
410.461	916.81
410.685	930.81
410.908	885.81
411.132	893.81
411.355	859.81
411.578	870.81
411.802	832.81
412.025	848.81
412.249	871.81
412.472	883.81
412.695	834.81
412.919	805.81
413.142	797.81
413.365	843.81
413.589	840.81
413.812	813.81
414.035	809.81
414.258	787.81
414.482	824.81
414.705	838.81
414.928	853.81
415.151	843.81
415.374	805.81
415.597	800.81
415.821	798.81
416.044	781.81
416.267	768.81
416.49	801.81
416.713	800.81
416.936	787.81
417.159	773.81
417.382	779.81
417.605	795.81
417.828	778.81
418.051	821.81
418.274	815.81
418.497	801.81
418.72	817.81
418.943	829.81
419.166	878.81
419.389	950.81
419.611	913.81
419.834	873.81
420.057	854.81
420.28	808.81
420.503	799.81
420.726	825.81
420.948	805.81
421.171	805.81
421.394	801.81
421.617	799.81
421.839	806.81
422.062	838.81
422.285	771.81
422.507	834.81
422.73	824.81
422.953	830.81
423.175	845.81
423.398	870.81
423.621	849.81
423.843	842.81
424.066	837.81
424.288	872.81
424.511	860.81
424.733	850.81
424.956	817.81
425.178	821.81
425.401	809.81
425.623	811.81
425.846	822.81
426.068	799.81
426.291	776.81
426.513	765.81
426.735	784.81
426.958	765.81
427.18	740.81
427.402	750.81
427.625	730.81
427.847	716.81
428.069	719.81
428.292	743.81
428.514	703.81
428.736	715.81
428.958	719.81
429.181	703.81
429.403	711.81
429.625	698.81
429.847	705.81
430.069	700.81
430.292	712.81
430.514	670.81
430.736	666.81
430.958	718.81
431.18	708.81
431.402	729.81
431.624	695.81
431.846	719.81
432.068	740.81
432.29	759.81
432.512	739.81
432.734	717.81
432.956	731.81
433.178	717.81
433.4	707.81
433.622	721.81
433.844	741.81
434.066	744.81
434.287	759.81
434.509	791.81
434.731	811.81
434.953	810.81
435.175	862.81
435.397	804.81
435.618	775.81
435.84	761.81
436.062	742.81
436.284	719.81
436.505	751.81
436.727	743.81
436.949	735.81
437.17	710.81
437.392	705.81
437.614	693.81
437.835	698.81
438.057	701.81
438.278	685.81
438.5	710.81
438.721	692.81
438.943	693.81
439.165	704.81
439.386	715.81
439.608	731.81
439.829	740.81
440.05	718.81
440.272	735.81
440.493	739.81
440.715	739.81
440.936	730.81
441.158	767.81
441.379	782.81
441.6	817.81
441.822	825.81
442.043	835.81
442.264	806.81
442.486	795.81
442.707	796.81
442.928	797.81
443.149	815.81
443.371	777.81
443.592	802.81
443.813	833.81
444.034	839.81
444.255	852.81
444.476	865.81
444.698	945.81
444.919	982.81
445.14	1023.81
445.361	909.81
445.582	828.81
445.803	817.81
446.024	800.81
446.245	763.81
446.466	764.81
446.687	731.81
446.908	716.81
447.129	714.81
447.35	715.81
447.571	715.81
447.792	673.81
448.013	694.81
448.234	654.81
448.455	669.81
448.675	675.81
448.896	691.81
449.117	652.81
449.338	667.81
449.559	676.81
449.779	649.81
450	668.81
450.221	661.81
450.442	681.81
450.662	659.81
450.883	657.81
451.104	691.81
451.324	709.81
451.545	688.81
451.766	695.81
451.986	677.81
452.207	695.81
452.428	678.81
452.648	681.81
452.869	674.81
453.089	655.81
453.31	674.81
453.53	653.81
453.751	651.81
453.971	674.81
454.192	664.81
454.412	673.81
454.633	658.81
454.853	643.81
455.073	635.81
455.294	632.81
455.514	645.81
455.734	648.81
455.955	624.81
456.175	627.81
456.395	617.81
456.616	633.81
456.836	649.81
457.056	627.81
457.276	621.81
457.497	617.81
457.717	600.81
457.937	635.81
458.157	642.81
458.377	663.81
458.598	665.81
458.818	665.81
459.038	672.81
459.258	713.81
459.478	738.81
459.698	768.81
459.918	793.81
460.138	805.81
460.358	850.81
460.578	858.81
460.798	912.81
461.018	867.81
461.238	871.81
461.458	862.81
461.678	870.81
461.898	848.81
462.118	854.81
462.338	893.81
462.558	947.81
462.777	958.81
462.997	1053.81
463.217	1187.81
463.437	1171.81
463.657	1074.81
463.876	1021.81
464.096	1034.81
464.316	1020.81
464.536	1053.81
464.755	993.81
464.975	961.81
465.195	854.81
465.414	872.81
465.634	827.81
465.854	779.81
466.073	751.81
466.293	723.81
466.512	701.81
466.732	719.81
466.951	729.81
467.171	717.81
467.391	707.81
467.61	709.81
467.829	707.81
468.049	707.81
468.268	677.81
468.488	670.81
468.707	669.81
468.927	665.81
469.146	647.81
469.365	697.81
469.585	701.81
469.804	728.81
470.023	708.81
470.243	707.81
470.462	725.81
470.681	725.81
470.901	735.81
471.12	725.81
471.339	698.81
471.558	695.81
471.777	694.81
471.997	679.81
472.216	674.81
472.435	661.81
472.654	673.81
472.873	675.81
473.092	666.81
473.311	654.81
473.53	650.81
473.749	659.81
473.968	649.81
474.187	662.81
474.406	657.81
474.625	648.81
474.844	645.81
475.063	681.81
475.282	670.81
475.501	681.81
475.72	665.81
475.939	684.81
476.158	683.81
476.377	662.81
476.596	695.81
476.814	702.81
477.033	682.81
477.252	698.81
477.471	742.81
477.69	738.81
477.908	751.81
478.127	800.81
478.346	805.81
478.564	792.81
478.783	814.81
479.002	826.81
479.22	831.81
479.439	804.81
479.658	823.81
479.876	808.81
480.095	814.81
480.313	884.81
480.532	911.81
480.751	897.81
480.969	855.81
481.188	805.81
481.406	792.81
481.624	786.81
481.843	803.81
482.061	766.81
482.28	775.81
482.498	743.81
482.717	767.81
482.935	778.81
483.153	783.81
483.372	753.81
483.59	783.81
483.808	755.81
484.027	768.81
484.245	766.81
484.463	789.81
484.681	803.81
484.9	786.81
485.118	803.81
485.336	817.81
485.554	810.81
485.772	832.81
485.99	823.81
486.209	823.81
486.427	828.81
486.645	816.81
486.863	835.81
487.081	819.81
487.299	816.81
487.517	821.81
487.735	778.81
487.953	815.81
488.171	819.81
488.389	794.81
488.607	804.81
488.825	770.81
489.043	780.81
489.261	805.81
489.479	801.81
489.696	817.81
489.914	795.81
490.132	808.81
490.35	814.81
490.568	785.81
490.786	809.81
491.003	797.81
491.221	805.81
491.439	800.81
491.657	802.81
491.874	827.81
492.092	826.81
492.31	810.81
492.527	810.81
492.745	815.81
492.963	799.81
493.18	817.81
493.398	828.81
493.615	829.81
493.833	818.81
494.05	833.81
494.268	806.81
494.485	845.81
494.703	843.81
494.92	860.81
495.138	842.81
495.355	843.81
495.573	845.81
495.79	840.81
496.008	879.81
496.225	867.81
496.442	869.81
496.66	887.81
496.877	881.81
497.094	879.81
497.312	893.81
497.529	909.81
497.746	950.81
497.963	961.81
498.181	983.81
498.398	1047.81
498.615	1116.81
498.832	1176.81
499.049	1237.81
499.267	1342.81
499.484	1489.81
499.701	1644.81
499.918	1807.81
500.135	2108.81
500.352	2440.81
500.569	2575.81
500.786	2546.81
501.003	2359.81
501.22	2081.81
