Data from Ni(NO3)2Standard.Agarose3%.GreenCap.LampEnergy5.5.E.O_HRD10591_14-40-34-187.txt Node
Date: Mon Jul 22 14:40:34 EDT 2019
User: cochatt
Spectrometer: HR+D1059
Trigger mode: 1
Integration Time (sec): 1.000000E-1
Scans to average: 1
Electric dark correction enabled: true
Nonlinearity correction enabled: false
Boxcar width: 0
XAxis mode: Wavelengths
Number of Pixels in Spectrum: 2048
>>>>>Begin Spectral Data<<<<<
223.165	-4.19
223.4	-4.19
223.635	-4.19
223.869	-22.19
224.104	-22.19
224.338	-8.19
224.573	-26.19
224.808	-6.19
225.042	-8.19
225.277	-8.19
225.511	-16.19
225.746	4.81
225.98	4.81
226.215	11.81
226.449	22.81
226.683	13.81
226.918	27.81
227.152	35.81
227.387	43.81
227.621	40.81
227.856	44.81
228.09	48.81
228.324	51.81
228.559	53.81
228.793	65.81
229.027	63.81
229.262	70.81
229.496	57.81
229.73	81.81
229.964	81.81
230.199	63.81
230.433	75.81
230.667	80.81
230.901	82.81
231.136	82.81
231.37	71.81
231.604	81.81
231.838	72.81
232.072	83.81
232.306	82.81
232.541	89.81
232.775	79.81
233.009	72.81
233.243	73.81
233.477	82.81
233.711	75.81
233.945	79.81
234.179	83.81
234.413	83.81
234.647	69.81
234.881	81.81
235.115	83.81
235.349	95.81
235.583	75.81
235.817	75.81
236.051	83.81
236.285	92.81
236.519	75.81
236.753	77.81
236.987	65.81
237.221	73.81
237.455	69.81
237.689	68.81
237.922	74.81
238.156	79.81
238.39	74.81
238.624	93.81
238.858	78.81
239.091	66.81
239.325	66.81
239.559	75.81
239.793	77.81
240.027	77.81
240.26	86.81
240.494	64.81
240.728	75.81
240.961	73.81
241.195	72.81
241.429	74.81
241.662	82.81
241.896	77.81
242.13	79.81
242.363	85.81
242.597	84.81
242.83	86.81
243.064	82.81
243.298	72.81
243.531	85.81
243.765	83.81
243.998	82.81
244.232	86.81
244.465	78.81
244.699	69.81
244.932	76.81
245.166	81.81
245.399	73.81
245.633	74.81
245.866	90.81
246.099	76.81
246.333	92.81
246.566	76.81
246.8	82.81
247.033	77.81
247.266	63.81
247.5	91.81
247.733	74.81
247.966	92.81
248.2	70.81
248.433	90.81
248.666	76.81
248.899	80.81
249.133	59.81
249.366	82.81
249.599	92.81
249.832	86.81
250.066	91.81
250.299	80.81
250.532	80.81
250.765	87.81
250.998	88.81
251.231	80.81
251.465	92.81
251.698	77.81
251.931	76.81
252.164	89.81
252.397	79.81
252.63	73.81
252.863	95.81
253.096	95.81
253.329	71.81
253.562	83.81
253.795	79.81
254.028	85.81
254.261	77.81
254.494	88.81
254.727	76.81
254.96	81.81
255.193	77.81
255.426	78.81
255.659	91.81
255.892	99.81
256.124	74.81
256.357	87.81
256.59	84.81
256.823	78.81
257.056	73.81
257.289	70.81
257.521	78.81
257.754	79.81
257.987	67.81
258.22	90.81
258.452	84.81
258.685	87.81
258.918	77.81
259.151	72.81
259.383	83.81
259.616	79.81
259.849	72.81
260.081	82.81
260.314	80.81
260.547	93.81
260.779	88.81
261.012	84.81
261.244	71.81
261.477	78.81
261.71	83.81
261.942	88.81
262.175	83.81
262.407	79.81
262.64	80.81
262.872	87.81
263.105	92.81
263.337	93.81
263.57	82.81
263.802	82.81
264.035	96.81
264.267	91.81
264.499	89.81
264.732	75.81
264.964	57.81
265.197	99.81
265.429	93.81
265.661	83.81
265.894	72.81
266.126	93.81
266.358	84.81
266.591	75.81
266.823	84.81
267.055	80.81
267.287	69.81
267.52	77.81
267.752	77.81
267.984	82.81
268.216	87.81
268.448	78.81
268.681	80.81
268.913	74.81
269.145	67.81
269.377	82.81
269.609	89.81
269.841	89.81
270.073	82.81
270.306	80.81
270.538	95.81
270.77	90.81
271.002	84.81
271.234	94.81
271.466	86.81
271.698	82.81
271.93	88.81
272.162	83.81
272.394	82.81
272.626	93.81
272.858	84.81
273.09	80.81
273.322	80.81
273.553	66.81
273.785	91.81
274.017	75.81
274.249	94.81
274.481	70.81
274.713	79.81
274.945	89.81
275.176	95.81
275.408	96.81
275.64	83.81
275.872	77.81
276.104	88.81
276.335	87.81
276.567	78.81
276.799	75.81
277.031	72.81
277.262	87.81
277.494	76.81
277.726	78.81
277.957	81.81
278.189	74.81
278.421	95.81
278.652	78.81
278.884	80.81
279.115	87.81
279.347	84.81
279.579	92.81
279.81	82.81
280.042	83.81
280.273	69.81
280.505	74.81
280.736	77.81
280.968	90.81
281.199	90.81
281.431	95.81
281.662	80.81
281.894	85.81
282.125	80.81
282.356	86.81
282.588	82.81
282.819	92.81
283.051	95.81
283.282	77.81
283.513	92.81
283.745	87.81
283.976	81.81
284.207	79.81
284.439	85.81
284.67	95.81
284.901	93.81
285.132	91.81
285.364	84.81
285.595	92.81
285.826	85.81
286.057	85.81
286.288	88.81
286.52	84.81
286.751	88.81
286.982	75.81
287.213	95.81
287.444	72.81
287.675	89.81
287.906	91.81
288.138	71.81
288.369	81.81
288.6	87.81
288.831	84.81
289.062	76.81
289.293	83.81
289.524	89.81
289.755	77.81
289.986	77.81
290.217	87.81
290.448	82.81
290.679	81.81
290.91	87.81
291.141	87.81
291.371	96.81
291.602	91.81
291.833	75.81
292.064	82.81
292.295	94.81
292.526	58.81
292.757	78.81
292.987	89.81
293.218	83.81
293.449	85.81
293.68	84.81
293.91	97.81
294.141	73.81
294.372	82.81
294.603	82.81
294.833	100.81
295.064	87.81
295.295	80.81
295.525	92.81
295.756	85.81
295.987	85.81
296.217	74.81
296.448	80.81
296.679	59.81
296.909	89.81
297.14	79.81
297.37	80.81
297.601	78.81
297.831	75.81
298.062	90.81
298.292	92.81
298.523	86.81
298.753	75.81
298.984	71.81
299.214	83.81
299.445	85.81
299.675	90.81
299.905	85.81
300.136	82.81
300.366	97.81
300.597	82.81
300.827	81.81
301.057	88.81
301.288	77.81
301.518	87.81
301.748	81.81
301.979	84.81
302.209	84.81
302.439	80.81
302.669	75.81
302.9	89.81
303.13	91.81
303.36	82.81
303.59	77.81
303.82	94.81
304.051	95.81
304.281	77.81
304.511	98.81
304.741	101.81
304.971	77.81
305.201	71.81
305.431	92.81
305.661	90.81
305.891	89.81
306.121	84.81
306.352	83.81
306.582	83.81
306.812	75.81
307.042	77.81
307.272	82.81
307.502	67.81
307.731	87.81
307.961	81.81
308.191	86.81
308.421	96.81
308.651	89.81
308.881	88.81
309.111	79.81
309.341	92.81
309.571	82.81
309.8	96.81
310.03	98.81
310.26	90.81
310.49	84.81
310.72	86.81
310.949	82.81
311.179	84.81
311.409	103.81
311.639	89.81
311.868	88.81
312.098	86.81
312.328	95.81
312.557	79.81
312.787	97.81
313.017	81.81
313.246	78.81
313.476	81.81
313.706	83.81
313.935	83.81
314.165	90.81
314.394	94.81
314.624	79.81
314.853	91.81
315.083	83.81
315.312	88.81
315.542	83.81
315.771	85.81
316.001	85.81
316.23	90.81
316.46	88.81
316.689	83.81
316.919	78.81
317.148	82.81
317.377	98.81
317.607	81.81
317.836	91.81
318.065	88.81
318.295	77.81
318.524	88.81
318.753	75.81
318.983	71.81
319.212	84.81
319.441	99.81
319.67	78.81
319.9	81.81
320.129	93.81
320.358	74.81
320.587	75.81
320.816	97.81
321.046	77.81
321.275	93.81
321.504	89.81
321.733	65.81
321.962	76.81
322.191	79.81
322.42	93.81
322.649	99.81
322.878	87.81
323.108	77.81
323.337	95.81
323.566	87.81
323.795	70.81
324.024	79.81
324.253	71.81
324.482	80.81
324.71	75.81
324.939	78.81
325.168	83.81
325.397	91.81
325.626	88.81
325.855	103.81
326.084	86.81
326.313	98.81
326.542	83.81
326.77	93.81
326.999	92.81
327.228	85.81
327.457	79.81
327.686	83.81
327.914	82.81
328.143	103.81
328.372	92.81
328.6	97.81
328.829	89.81
329.058	96.81
329.287	83.81
329.515	90.81
329.744	91.81
329.972	82.81
330.201	86.81
330.43	85.81
330.658	89.81
330.887	93.81
331.115	84.81
331.344	72.81
331.572	92.81
331.801	91.81
332.03	91.81
332.258	75.81
332.486	85.81
332.715	87.81
332.943	65.81
333.172	83.81
333.4	81.81
333.629	96.81
333.857	90.81
334.085	99.81
334.314	86.81
334.542	91.81
334.771	77.81
334.999	92.81
335.227	100.81
335.455	80.81
335.684	96.81
335.912	91.81
336.14	100.81
336.369	77.81
336.597	87.81
336.825	86.81
337.053	86.81
337.281	86.81
337.51	85.81
337.738	83.81
337.966	79.81
338.194	100.81
338.422	76.81
338.65	92.81
338.878	79.81
339.106	90.81
339.334	102.81
339.562	81.81
339.79	82.81
340.018	99.81
340.246	77.81
340.474	82.81
340.702	98.81
340.93	85.81
341.158	93.81
341.386	91.81
341.614	79.81
341.842	81.81
342.07	92.81
342.298	100.81
342.526	86.81
342.754	92.81
342.981	78.81
343.209	83.81
343.437	76.81
343.665	80.81
343.893	92.81
344.12	88.81
344.348	82.81
344.576	83.81
344.804	80.81
345.031	79.81
345.259	81.81
345.487	84.81
345.714	85.81
345.942	89.81
346.17	78.81
346.397	76.81
346.625	81.81
346.853	81.81
347.08	87.81
347.308	86.81
347.535	94.81
347.763	83.81
347.99	83.81
348.218	102.81
348.445	93.81
348.673	89.81
348.9	88.81
349.128	87.81
349.355	98.81
349.583	83.81
349.81	82.81
350.037	83.81
350.265	89.81
350.492	77.81
350.72	59.81
350.947	79.81
351.174	99.81
351.402	85.81
351.629	89.81
351.856	84.81
352.083	76.81
352.311	84.81
352.538	91.81
352.765	91.81
352.992	87.81
353.22	85.81
353.447	81.81
353.674	86.81
353.901	86.81
354.128	77.81
354.355	91.81
354.583	79.81
354.81	84.81
355.037	86.81
355.264	93.81
355.491	79.81
355.718	83.81
355.945	85.81
356.172	80.81
356.399	99.81
356.626	98.81
356.853	85.81
357.08	93.81
357.307	96.81
357.534	85.81
357.761	89.81
357.988	89.81
358.215	89.81
358.441	77.81
358.668	85.81
358.895	80.81
359.122	81.81
359.349	70.81
359.576	87.81
359.802	90.81
360.029	77.81
360.256	63.81
360.483	93.81
360.709	89.81
360.936	80.81
361.163	73.81
361.39	80.81
361.616	75.81
361.843	81.81
362.07	86.81
362.296	96.81
362.523	76.81
362.749	85.81
362.976	82.81
363.203	94.81
363.429	93.81
363.656	89.81
363.882	91.81
364.109	82.81
364.335	89.81
364.562	100.81
364.788	79.81
365.015	81.81
365.241	90.81
365.468	93.81
365.694	80.81
365.92	80.81
366.147	84.81
366.373	80.81
366.599	89.81
366.826	83.81
367.052	87.81
367.278	92.81
367.505	88.81
367.731	86.81
367.957	87.81
368.184	83.81
368.41	73.81
368.636	89.81
368.862	80.81
369.089	88.81
369.315	91.81
369.541	88.81
369.767	67.81
369.993	90.81
370.219	77.81
370.445	88.81
370.672	73.81
370.898	98.81
371.124	81.81
371.35	87.81
371.576	84.81
371.802	95.81
372.028	85.81
372.254	94.81
372.48	85.81
372.706	99.81
372.932	81.81
373.158	81.81
373.384	81.81
373.61	86.81
373.835	64.81
374.061	73.81
374.287	89.81
374.513	83.81
374.739	94.81
374.965	93.81
375.191	83.81
375.416	75.81
375.642	88.81
375.868	88.81
376.094	87.81
376.319	91.81
376.545	89.81
376.771	91.81
376.997	87.81
377.222	81.81
377.448	95.81
377.674	78.81
377.899	79.81
378.125	81.81
378.35	90.81
378.576	80.81
378.802	80.81
379.027	93.81
379.253	81.81
379.478	84.81
379.704	81.81
379.929	80.81
380.155	79.81
380.38	74.81
380.606	93.81
380.831	76.81
381.057	83.81
381.282	99.81
381.507	84.81
381.733	86.81
381.958	75.81
382.184	90.81
382.409	81.81
382.634	83.81
382.86	91.81
383.085	90.81
383.31	86.81
383.535	88.81
383.761	92.81
383.986	72.81
384.211	87.81
384.436	83.81
384.662	76.81
384.887	76.81
385.112	83.81
385.337	91.81
385.562	81.81
385.787	87.81
386.013	79.81
386.238	82.81
386.463	85.81
386.688	81.81
386.913	87.81
387.138	93.81
387.363	86.81
387.588	96.81
387.813	90.81
388.038	93.81
388.263	85.81
388.488	97.81
388.713	98.81
388.938	87.81
389.163	87.81
389.387	85.81
389.612	75.81
389.837	73.81
390.062	76.81
390.287	86.81
390.512	94.81
390.736	87.81
390.961	92.81
391.186	79.81
391.411	75.81
391.636	89.81
391.86	96.81
392.085	92.81
392.31	86.81
392.534	76.81
392.759	81.81
392.984	80.81
393.208	94.81
393.433	79.81
393.658	81.81
393.882	80.81
394.107	87.81
394.331	75.81
394.556	78.81
394.78	85.81
395.005	75.81
395.229	92.81
395.454	96.81
395.678	87.81
395.903	85.81
396.127	94.81
396.352	104.81
396.576	94.81
396.801	89.81
397.025	75.81
397.249	91.81
397.474	86.81
397.698	92.81
397.922	90.81
398.147	80.81
398.371	85.81
398.595	94.81
398.82	89.81
399.044	85.81
399.268	86.81
399.492	92.81
399.717	87.81
399.941	87.81
400.165	82.81
400.389	84.81
400.613	89.81
400.837	83.81
401.062	77.81
401.286	90.81
401.51	90.81
401.734	89.81
401.958	83.81
402.182	80.81
402.406	103.81
402.63	84.81
402.854	78.81
403.078	79.81
403.302	81.81
403.526	85.81
403.75	82.81
403.974	84.81
404.198	71.81
404.422	75.81
404.645	76.81
404.869	87.81
405.093	87.81
405.317	86.81
405.541	89.81
405.765	92.81
405.988	75.81
406.212	93.81
406.436	80.81
406.66	101.81
406.883	85.81
407.107	93.81
407.331	99.81
407.555	89.81
407.778	73.81
408.002	81.81
408.226	79.81
408.449	86.81
408.673	88.81
408.896	102.81
409.12	103.81
409.344	81.81
409.567	76.81
409.791	68.81
410.014	80.81
410.238	87.81
410.461	96.81
410.685	90.81
410.908	90.81
411.132	93.81
411.355	91.81
411.578	84.81
411.802	89.81
412.025	86.81
412.249	77.81
412.472	89.81
412.695	95.81
412.919	90.81
413.142	83.81
413.365	93.81
413.589	89.81
413.812	70.81
414.035	81.81
414.258	87.81
414.482	75.81
414.705	85.81
414.928	89.81
415.151	96.81
415.374	72.81
415.597	83.81
415.821	73.81
416.044	80.81
416.267	91.81
416.49	90.81
416.713	101.81
416.936	88.81
417.159	91.81
417.382	71.81
417.605	81.81
417.828	82.81
418.051	84.81
418.274	88.81
418.497	81.81
418.72	79.81
418.943	74.81
419.166	80.81
419.389	95.81
419.611	90.81
419.834	79.81
420.057	90.81
420.28	81.81
420.503	93.81
420.726	92.81
420.948	93.81
421.171	75.81
421.394	72.81
421.617	106.81
421.839	80.81
422.062	99.81
422.285	100.81
422.507	93.81
422.73	86.81
422.953	79.81
423.175	97.81
423.398	88.81
423.621	94.81
423.843	83.81
424.066	89.81
424.288	92.81
424.511	87.81
424.733	95.81
424.956	97.81
425.178	101.81
425.401	71.81
425.623	80.81
425.846	84.81
426.068	89.81
426.291	82.81
426.513	83.81
426.735	87.81
426.958	75.81
427.18	94.81
427.402	85.81
427.625	88.81
427.847	76.81
428.069	94.81
428.292	81.81
428.514	85.81
428.736	82.81
428.958	79.81
429.181	75.81
429.403	86.81
429.625	84.81
429.847	91.81
430.069	86.81
430.292	84.81
430.514	97.81
430.736	81.81
430.958	91.81
431.18	103.81
431.402	96.81
431.624	90.81
431.846	81.81
432.068	86.81
432.29	93.81
432.512	95.81
432.734	89.81
432.956	97.81
433.178	89.81
433.4	98.81
433.622	79.81
433.844	84.81
434.066	69.81
434.287	86.81
434.509	83.81
434.731	83.81
434.953	74.81
435.175	76.81
435.397	80.81
435.618	88.81
435.84	73.81
436.062	86.81
436.284	84.81
436.505	89.81
436.727	82.81
436.949	85.81
437.17	71.81
437.392	80.81
437.614	78.81
437.835	83.81
438.057	76.81
438.278	96.81
438.5	78.81
438.721	94.81
438.943	99.81
439.165	70.81
439.386	88.81
439.608	90.81
439.829	93.81
440.05	90.81
440.272	82.81
440.493	91.81
440.715	63.81
440.936	86.81
441.158	78.81
441.379	75.81
441.6	84.81
441.822	92.81
442.043	98.81
442.264	88.81
442.486	93.81
442.707	90.81
442.928	84.81
443.149	92.81
443.371	99.81
443.592	95.81
443.813	100.81
444.034	84.81
444.255	99.81
444.476	95.81
444.698	101.81
444.919	83.81
445.14	212.81
445.361	136.81
445.582	87.81
445.803	96.81
446.024	92.81
446.245	87.81
446.466	74.81
446.687	73.81
446.908	85.81
447.129	81.81
447.35	85.81
447.571	91.81
447.792	71.81
448.013	74.81
448.234	82.81
448.455	87.81
448.675	83.81
448.896	73.81
449.117	92.81
449.338	81.81
449.559	87.81
449.779	74.81
450	90.81
450.221	89.81
450.442	96.81
450.662	83.81
450.883	84.81
451.104	82.81
451.324	89.81
451.545	84.81
451.766	80.81
451.986	83.81
452.207	87.81
452.428	98.81
452.648	91.81
452.869	89.81
453.089	85.81
453.31	72.81
453.53	78.81
453.751	92.81
453.971	88.81
454.192	81.81
454.412	89.81
454.633	91.81
454.853	83.81
455.073	87.81
455.294	75.81
455.514	97.81
455.734	78.81
455.955	92.81
456.175	76.81
456.395	99.81
456.616	84.81
456.836	59.81
457.056	81.81
457.276	81.81
457.497	73.81
457.717	79.81
457.937	91.81
458.157	77.81
458.377	75.81
458.598	86.81
458.818	97.81
459.038	90.81
459.258	83.81
459.478	92.81
459.698	81.81
459.918	91.81
460.138	73.81
460.358	93.81
460.578	86.81
460.798	84.81
461.018	84.81
461.238	84.81
461.458	89.81
461.678	101.81
461.898	89.81
462.118	86.81
462.338	96.81
462.558	89.81
462.777	83.81
462.997	80.81
463.217	89.81
463.437	83.81
463.657	104.81
463.876	85.81
464.096	92.81
464.316	97.81
464.536	89.81
464.755	82.81
464.975	81.81
465.195	84.81
465.414	69.81
465.634	84.81
465.854	100.81
466.073	85.81
466.293	82.81
466.512	81.81
466.732	74.81
466.951	74.81
467.171	104.81
467.391	85.81
467.61	93.81
467.829	71.81
468.049	73.81
468.268	81.81
468.488	92.81
468.707	89.81
468.927	98.81
469.146	89.81
469.365	83.81
469.585	79.81
469.804	78.81
470.023	90.81
470.243	94.81
470.462	91.81
470.681	85.81
470.901	95.81
471.12	89.81
471.339	83.81
471.558	93.81
471.777	97.81
471.997	77.81
472.216	98.81
472.435	104.81
472.654	79.81
472.873	92.81
473.092	73.81
473.311	85.81
473.53	91.81
473.749	93.81
473.968	96.81
474.187	93.81
474.406	78.81
474.625	64.81
474.844	77.81
475.063	92.81
475.282	98.81
475.501	87.81
475.72	88.81
475.939	83.81
476.158	99.81
476.377	91.81
476.596	91.81
476.814	93.81
477.033	84.81
477.252	97.81
477.471	86.81
477.69	92.81
477.908	94.81
478.127	83.81
478.346	91.81
478.564	85.81
478.783	82.81
479.002	84.81
479.22	102.81
479.439	98.81
479.658	95.81
479.876	87.81
480.095	87.81
480.313	84.81
480.532	97.81
480.751	86.81
480.969	81.81
481.188	87.81
481.406	75.81
481.624	99.81
481.843	91.81
482.061	89.81
482.28	94.81
482.498	78.81
482.717	83.81
482.935	82.81
483.153	106.81
483.372	90.81
483.59	87.81
483.808	87.81
484.027	94.81
484.245	97.81
484.463	88.81
484.681	90.81
484.9	103.81
485.118	101.81
485.336	79.81
485.554	90.81
485.772	90.81
485.99	87.81
486.209	102.81
486.427	78.81
486.645	97.81
486.863	87.81
487.081	85.81
487.299	91.81
487.517	97.81
487.735	102.81
487.953	89.81
488.171	101.81
488.389	84.81
488.607	91.81
488.825	81.81
489.043	93.81
489.261	76.81
489.479	100.81
489.696	84.81
489.914	85.81
490.132	103.81
490.35	96.81
490.568	95.81
490.786	102.81
491.003	78.81
491.221	112.81
491.439	105.81
491.657	106.81
491.874	96.81
492.092	94.81
492.31	93.81
492.527	92.81
492.745	106.81
492.963	97.81
493.18	102.81
493.398	107.81
493.615	102.81
493.833	104.81
494.05	82.81
494.268	91.81
494.485	93.81
494.703	89.81
494.92	98.81
495.138	101.81
495.355	99.81
495.573	100.81
495.79	87.81
496.008	99.81
496.225	106.81
496.442	70.81
496.66	81.81
496.877	103.81
497.094	93.81
497.312	93.81
497.529	86.81
497.746	84.81
497.963	93.81
498.181	91.81
498.398	94.81
498.615	97.81
498.832	104.81
499.049	101.81
499.267	105.81
499.484	114.81
499.701	95.81
499.918	113.81
500.135	107.81
500.352	116.81
500.569	129.81
500.786	118.81
501.003	115.81
501.22	108.81
501.437	109.81
501.654	108.81
501.871	96.81
502.088	91.81
502.305	107.81
502.522	96.81
502.739	109.81
502.956	106.81
503.172	86.81
503.389	95.81
503.606	100.81
503.823	107.81
504.04	100.81
504.256	91.81
504.473	97.81
504.69	105.81
504.907	98.81
505.123	86.81
505.34	93.81
505.557	89.81
505.773	109.81
505.99	100.81
506.207	85.81
506.423	88.81
506.64	102.81
506.856	106.81
507.073	87.81
507.289	83.81
507.506	90.81
507.722	90.81
507.939	99.81
508.155	88.81
508.372	81.81
508.588	89.81
508.805	85.81
509.021	97.81
509.238	91.81
509.454	88.81
509.67	98.81
509.887	101.81
510.103	96.81
510.319	101.81
510.536	70.81
510.752	94.81
510.968	96.81
511.184	83.81
511.401	94.81
511.617	98.81
511.833	91.81
512.049	99.81
512.265	94.81
512.481	90.81
512.698	90.81
512.914	89.81
513.13	94.81
513.346	94.81
513.562	89.81
513.778	87.81
513.994	100.81
514.21	89.81
514.426	93.81
514.642	108.81
514.858	86.81
515.074	98.81
515.29	96.81
515.506	76.81
515.721	90.81
515.937	101.81
516.153	89.81
516.369	89.81
516.585	82.81
516.801	94.81
517.016	96.81
517.232	97.81
517.448	114.81
517.664	100.81
517.879	87.81
518.095	95.81
518.311	96.81
