Data from Ni(NO3)2@0.25M.TitratingCurve.Agarose3%dH2O.NegLispCup.LampEnergy10.LIBS07252019_HRD10591_18-05-21-566.txt Node
Date: Thu Jul 25 18:05:21 EDT 2019
User: cochatt
Spectrometer: HR+D1059
Trigger mode: 1
Integration Time (sec): 1.000000E-1
Scans to average: 1
Electric dark correction enabled: true
Nonlinearity correction enabled: false
Boxcar width: 0
XAxis mode: Wavelengths
Number of Pixels in Spectrum: 2048
>>>>>Begin Spectral Data<<<<<
223.165	-12.44
223.4	-12.44
223.635	-12.44
223.869	-26.44
224.104	-12.44
224.338	-13.44
224.573	-14.44
224.808	-18.44
225.042	-13.44
225.277	-6.44
225.511	5.56
225.746	10.56
225.98	3.56
226.215	8.56
226.449	10.56
226.683	11.56
226.918	27.56
227.152	39.56
227.387	45.56
227.621	38.56
227.856	48.56
228.09	45.56
228.324	55.56
228.559	47.56
228.793	45.56
229.027	70.56
229.262	75.56
229.496	74.56
229.73	87.56
229.964	81.56
230.199	98.56
230.433	112.56
230.667	97.56
230.901	112.56
231.136	93.56
231.37	87.56
231.604	93.56
231.838	102.56
232.072	99.56
232.306	103.56
232.541	101.56
232.775	97.56
233.009	97.56
233.243	80.56
233.477	89.56
233.711	83.56
233.945	104.56
234.179	95.56
234.413	88.56
234.647	88.56
234.881	86.56
235.115	94.56
235.349	97.56
235.583	106.56
235.817	102.56
236.051	84.56
236.285	94.56
236.519	110.56
236.753	93.56
236.987	94.56
237.221	91.56
237.455	90.56
237.689	98.56
237.922	112.56
238.156	90.56
238.39	98.56
238.624	90.56
238.858	91.56
239.091	95.56
239.325	106.56
239.559	95.56
239.793	103.56
240.027	113.56
240.26	78.56
240.494	91.56
240.728	91.56
240.961	100.56
241.195	120.56
241.429	100.56
241.662	105.56
241.896	93.56
242.13	115.56
242.363	108.56
242.597	95.56
242.83	87.56
243.064	99.56
243.298	107.56
243.531	100.56
243.765	104.56
243.998	110.56
244.232	119.56
244.465	115.56
244.699	119.56
244.932	121.56
245.166	98.56
245.399	99.56
245.633	115.56
245.866	119.56
246.099	119.56
246.333	128.56
246.566	112.56
246.8	118.56
247.033	115.56
247.266	112.56
247.5	123.56
247.733	120.56
247.966	125.56
248.2	127.56
248.433	128.56
248.666	127.56
248.899	127.56
249.133	135.56
249.366	142.56
249.599	132.56
249.832	128.56
250.066	135.56
250.299	127.56
250.532	147.56
250.765	153.56
250.998	148.56
251.231	140.56
251.465	151.56
251.698	151.56
251.931	148.56
252.164	162.56
252.397	172.56
252.63	164.56
252.863	155.56
253.096	142.56
253.329	156.56
253.562	138.56
253.795	168.56
254.028	163.56
254.261	160.56
254.494	172.56
254.727	178.56
254.96	184.56
255.193	169.56
255.426	172.56
255.659	164.56
255.892	177.56
256.124	187.56
256.357	173.56
256.59	186.56
256.823	187.56
257.056	186.56
257.289	179.56
257.521	173.56
257.754	189.56
257.987	189.56
258.22	211.56
258.452	187.56
258.685	188.56
258.918	190.56
259.151	202.56
259.383	200.56
259.616	200.56
259.849	189.56
260.081	202.56
260.314	197.56
260.547	200.56
260.779	217.56
261.012	220.56
261.244	209.56
261.477	214.56
261.71	204.56
261.942	221.56
262.175	189.56
262.407	216.56
262.64	209.56
262.872	201.56
263.105	208.56
263.337	193.56
263.57	199.56
263.802	200.56
264.035	200.56
264.267	220.56
264.499	228.56
264.732	223.56
264.964	243.56
265.197	203.56
265.429	225.56
265.661	223.56
265.894	218.56
266.126	211.56
266.358	217.56
266.591	228.56
266.823	224.56
267.055	216.56
267.287	233.56
267.52	215.56
267.752	231.56
267.984	232.56
268.216	240.56
268.448	222.56
268.681	231.56
268.913	246.56
269.145	244.56
269.377	237.56
269.609	227.56
269.841	200.56
270.073	232.56
270.306	231.56
270.538	231.56
270.77	231.56
271.002	227.56
271.234	226.56
271.466	228.56
271.698	241.56
271.93	235.56
272.162	239.56
272.394	257.56
272.626	248.56
272.858	239.56
273.09	258.56
273.322	244.56
273.553	239.56
273.785	237.56
274.017	249.56
274.249	249.56
274.481	234.56
274.713	245.56
274.945	248.56
275.176	235.56
275.408	238.56
275.64	242.56
275.872	239.56
276.104	241.56
276.335	259.56
276.567	254.56
276.799	244.56
277.031	251.56
277.262	250.56
277.494	253.56
277.726	247.56
277.957	262.56
278.189	239.56
278.421	248.56
278.652	259.56
278.884	254.56
279.115	255.56
279.347	241.56
279.579	254.56
279.81	258.56
280.042	266.56
280.273	256.56
280.505	243.56
280.736	241.56
280.968	244.56
281.199	283.56
281.431	265.56
281.662	260.56
281.894	259.56
282.125	253.56
282.356	248.56
282.588	256.56
282.819	256.56
283.051	261.56
283.282	264.56
283.513	275.56
283.745	259.56
283.976	245.56
284.207	274.56
284.439	259.56
284.67	266.56
284.901	274.56
285.132	264.56
285.364	258.56
285.595	274.56
285.826	266.56
286.057	263.56
286.288	261.56
286.52	268.56
286.751	262.56
286.982	280.56
287.213	266.56
287.444	281.56
287.675	275.56
287.906	286.56
288.138	248.56
288.369	268.56
288.6	269.56
288.831	247.56
289.062	274.56
289.293	277.56
289.524	281.56
289.755	276.56
289.986	265.56
290.217	266.56
290.448	279.56
290.679	259.56
290.91	258.56
291.141	275.56
291.371	271.56
291.602	274.56
291.833	275.56
292.064	259.56
292.295	266.56
292.526	259.56
292.757	266.56
292.987	272.56
293.218	269.56
293.449	266.56
293.68	260.56
293.91	266.56
294.141	245.56
294.372	290.56
294.603	263.56
294.833	281.56
295.064	280.56
295.295	268.56
295.525	268.56
295.756	266.56
295.987	272.56
296.217	279.56
296.448	264.56
296.679	266.56
296.909	277.56
297.14	266.56
297.37	280.56
297.601	279.56
297.831	277.56
298.062	281.56
298.292	269.56
298.523	284.56
298.753	295.56
298.984	261.56
299.214	282.56
299.445	296.56
299.675	281.56
299.905	287.56
300.136	286.56
300.366	298.56
300.597	327.56
300.827	300.56
301.057	308.56
301.288	291.56
301.518	292.56
301.748	298.56
301.979	299.56
302.209	306.56
302.439	285.56
302.669	280.56
302.9	290.56
303.13	283.56
303.36	314.56
303.59	309.56
303.82	294.56
304.051	305.56
304.281	295.56
304.511	300.56
304.741	307.56
304.971	281.56
305.201	299.56
305.431	325.56
305.661	308.56
305.891	306.56
306.121	294.56
306.352	293.56
306.582	314.56
306.812	300.56
307.042	314.56
307.272	317.56
307.502	308.56
307.731	314.56
307.961	321.56
308.191	282.56
308.421	299.56
308.651	309.56
308.881	301.56
309.111	311.56
309.341	297.56
309.571	325.56
309.8	323.56
310.03	316.56
310.26	342.56
310.49	351.56
310.72	315.56
310.949	313.56
311.179	323.56
311.409	307.56
311.639	321.56
311.868	329.56
312.098	332.56
312.328	329.56
312.557	337.56
312.787	327.56
313.017	339.56
313.246	348.56
313.476	348.56
313.706	355.56
313.935	361.56
314.165	347.56
314.394	348.56
314.624	334.56
314.853	357.56
315.083	363.56
315.312	360.56
315.542	359.56
315.771	363.56
316.001	344.56
316.23	331.56
316.46	366.56
316.689	345.56
316.919	377.56
317.148	367.56
317.377	366.56
317.607	378.56
317.836	374.56
318.065	356.56
318.295	375.56
318.524	373.56
318.753	353.56
318.983	379.56
319.212	374.56
319.441	395.56
319.67	372.56
319.9	364.56
320.129	381.56
320.358	391.56
320.587	373.56
320.816	382.56
321.046	367.56
321.275	391.56
321.504	407.56
321.733	400.56
321.962	398.56
322.191	403.56
322.42	396.56
322.649	395.56
322.878	404.56
323.108	401.56
323.337	409.56
323.566	437.56
323.795	420.56
324.024	432.56
324.253	411.56
324.482	434.56
324.71	403.56
324.939	428.56
325.168	439.56
325.397	440.56
325.626	450.56
325.855	438.56
326.084	437.56
326.313	449.56
326.542	444.56
326.77	451.56
326.999	456.56
327.228	443.56
327.457	465.56
327.686	445.56
327.914	461.56
328.143	473.56
328.372	479.56
328.6	467.56
328.829	444.56
329.058	457.56
329.287	481.56
329.515	467.56
329.744	470.56
329.972	490.56
330.201	495.56
330.43	516.56
330.658	503.56
330.887	493.56
331.115	531.56
331.344	519.56
331.572	508.56
331.801	511.56
332.03	529.56
332.258	545.56
332.486	541.56
332.715	539.56
332.943	571.56
333.172	548.56
333.4	575.56
333.629	578.56
333.857	614.56
334.085	599.56
334.314	608.56
334.542	619.56
334.771	604.56
334.999	606.56
335.227	610.56
335.455	631.56
335.684	605.56
335.912	610.56
336.14	603.56
336.369	610.56
336.597	621.56
336.825	615.56
337.053	592.56
337.281	610.56
337.51	593.56
337.738	559.56
337.966	563.56
338.194	578.56
338.422	550.56
338.65	559.56
338.878	555.56
339.106	567.56
339.334	572.56
339.562	583.56
339.79	561.56
340.018	532.56
340.246	539.56
340.474	517.56
340.702	550.56
340.93	538.56
341.158	518.56
341.386	574.56
341.614	575.56
341.842	561.56
342.07	559.56
342.298	539.56
342.526	537.56
342.754	532.56
342.981	526.56
343.209	540.56
343.437	573.56
343.665	602.56
343.893	619.56
344.12	626.56
344.348	609.56
344.576	611.56
344.804	590.56
345.031	587.56
345.259	556.56
345.487	556.56
345.714	565.56
345.942	573.56
346.17	559.56
346.397	554.56
346.625	535.56
346.853	516.56
347.08	539.56
347.308	541.56
347.535	528.56
347.763	535.56
347.99	521.56
348.218	520.56
348.445	508.56
348.673	530.56
348.9	524.56
349.128	535.56
349.355	539.56
349.583	532.56
349.81	530.56
350.037	515.56
350.265	532.56
350.492	552.56
350.72	513.56
350.947	535.56
351.174	528.56
351.402	524.56
351.629	523.56
351.856	539.56
352.083	510.56
352.311	522.56
352.538	552.56
352.765	521.56
352.992	496.56
353.22	500.56
353.447	489.56
353.674	484.56
353.901	519.56
354.128	508.56
354.355	495.56
354.583	480.56
354.81	499.56
355.037	505.56
355.264	503.56
355.491	522.56
355.718	488.56
355.945	509.56
356.172	522.56
356.399	512.56
356.626	522.56
356.853	529.56
357.08	518.56
357.307	527.56
357.534	495.56
357.761	508.56
357.988	531.56
358.215	510.56
358.441	513.56
358.668	516.56
358.895	493.56
359.122	489.56
359.349	520.56
359.576	488.56
359.802	507.56
360.029	499.56
360.256	502.56
360.483	499.56
360.709	521.56
360.936	535.56
361.163	514.56
361.39	499.56
361.616	519.56
361.843	502.56
362.07	506.56
362.296	556.56
362.523	502.56
362.749	493.56
362.976	486.56
363.203	495.56
363.429	502.56
363.656	500.56
363.882	488.56
364.109	501.56
364.335	508.56
364.562	497.56
364.788	487.56
365.015	505.56
365.241	479.56
365.468	502.56
365.694	489.56
365.92	508.56
366.147	499.56
366.373	497.56
366.599	490.56
366.826	474.56
367.052	477.56
367.278	485.56
367.505	502.56
367.731	485.56
367.957	499.56
368.184	496.56
368.41	508.56
368.636	512.56
368.862	498.56
369.089	498.56
369.315	481.56
369.541	491.56
369.767	498.56
369.993	490.56
370.219	500.56
370.445	513.56
370.672	499.56
370.898	515.56
371.124	513.56
371.35	525.56
371.576	530.56
371.802	547.56
372.028	520.56
372.254	508.56
372.48	517.56
372.706	484.56
372.932	500.56
373.158	523.56
373.384	529.56
373.61	513.56
373.835	518.56
374.061	508.56
374.287	500.56
374.513	505.56
374.739	533.56
374.965	520.56
375.191	544.56
375.416	540.56
375.642	528.56
375.868	538.56
376.094	520.56
376.319	500.56
376.545	502.56
376.771	517.56
376.997	500.56
377.222	534.56
377.448	487.56
377.674	518.56
377.899	495.56
378.125	483.56
378.35	487.56
378.576	523.56
378.802	495.56
379.027	504.56
379.253	468.56
379.478	501.56
379.704	484.56
379.929	497.56
380.155	499.56
380.38	493.56
380.606	497.56
380.831	504.56
381.057	501.56
381.282	491.56
381.507	507.56
381.733	512.56
381.958	521.56
382.184	509.56
382.409	514.56
382.634	521.56
382.86	512.56
383.085	503.56
383.31	523.56
383.535	498.56
383.761	529.56
383.986	541.56
384.211	522.56
384.436	556.56
384.662	533.56
384.887	569.56
385.112	539.56
385.337	550.56
385.562	582.56
385.787	563.56
386.013	575.56
386.238	563.56
386.463	588.56
386.688	556.56
386.913	557.56
387.138	575.56
387.363	582.56
387.588	556.56
387.813	547.56
388.038	555.56
388.263	569.56
388.488	554.56
388.713	581.56
388.938	552.56
389.163	576.56
389.387	580.56
389.612	554.56
389.837	551.56
390.062	572.56
390.287	551.56
390.512	576.56
390.736	539.56
390.961	565.56
391.186	578.56
391.411	584.56
391.636	591.56
391.86	610.56
392.085	604.56
392.31	608.56
392.534	613.56
392.759	607.56
392.984	603.56
393.208	589.56
393.433	586.56
393.658	589.56
393.882	606.56
394.107	595.56
394.331	613.56
394.556	600.56
394.78	598.56
395.005	584.56
395.229	616.56
395.454	632.56
395.678	633.56
395.903	628.56
396.127	625.56
396.352	609.56
396.576	600.56
396.801	600.56
397.025	611.56
397.249	607.56
397.474	619.56
397.698	665.56
397.922	642.56
398.147	627.56
398.371	681.56
398.595	691.56
398.82	705.56
399.044	752.56
399.268	780.56
399.492	815.56
399.717	899.56
399.941	899.56
400.165	868.56
400.389	815.56
400.613	780.56
400.837	747.56
401.062	733.56
401.286	729.56
401.51	736.56
401.734	711.56
401.958	705.56
402.182	725.56
402.406	710.56
402.63	691.56
402.854	708.56
403.078	711.56
403.302	707.56
403.526	728.56
403.75	736.56
403.974	724.56
404.198	730.56
404.422	722.56
404.645	746.56
404.869	726.56
405.093	767.56
405.317	736.56
405.541	748.56
405.765	748.56
405.988	753.56
406.212	720.56
406.436	775.56
406.66	780.56
406.883	799.56
407.107	808.56
407.331	812.56
407.555	873.56
407.778	851.56
408.002	837.56
408.226	832.56
408.449	831.56
408.673	800.56
408.896	787.56
409.12	791.56
409.344	778.56
409.567	787.56
409.791	769.56
410.014	761.56
410.238	771.56
410.461	779.56
410.685	770.56
410.908	764.56
411.132	760.56
411.355	747.56
411.578	744.56
411.802	737.56
412.025	732.56
412.249	724.56
412.472	746.56
412.695	760.56
412.919	763.56
413.142	740.56
413.365	710.56
413.589	714.56
413.812	727.56
414.035	723.56
414.258	730.56
414.482	711.56
414.705	731.56
414.928	727.56
415.151	723.56
415.374	764.56
415.597	743.56
415.821	715.56
416.044	708.56
416.267	711.56
416.49	694.56
416.713	721.56
416.936	720.56
417.159	726.56
417.382	683.56
417.605	719.56
417.828	691.56
418.051	722.56
418.274	729.56
418.497	712.56
418.72	741.56
418.943	730.56
419.166	798.56
419.389	825.56
419.611	807.56
419.834	794.56
420.057	756.56
420.28	739.56
420.503	741.56
420.726	714.56
420.948	712.56
421.171	736.56
421.394	714.56
421.617	753.56
421.839	731.56
422.062	707.56
422.285	716.56
422.507	732.56
422.73	733.56
422.953	736.56
423.175	716.56
423.398	740.56
423.621	749.56
423.843	767.56
424.066	744.56
424.288	741.56
424.511	764.56
424.733	758.56
424.956	755.56
425.178	748.56
425.401	745.56
425.623	734.56
425.846	706.56
426.068	734.56
426.291	712.56
426.513	730.56
426.735	741.56
426.958	741.56
427.18	728.56
427.402	713.56
427.625	716.56
427.847	706.56
428.069	690.56
428.292	692.56
428.514	703.56
428.736	717.56
428.958	742.56
429.181	713.56
429.403	703.56
429.625	713.56
429.847	725.56
430.069	683.56
430.292	683.56
430.514	688.56
430.736	697.56
430.958	686.56
431.18	675.56
431.402	694.56
431.624	693.56
431.846	700.56
432.068	727.56
432.29	704.56
432.512	711.56
432.734	743.56
432.956	729.56
433.178	697.56
433.4	732.56
433.622	710.56
433.844	760.56
434.066	721.56
434.287	713.56
434.509	724.56
434.731	744.56
434.953	753.56
435.175	768.56
435.397	778.56
435.618	762.56
435.84	754.56
436.062	729.56
436.284	746.56
436.505	718.56
436.727	714.56
436.949	705.56
437.17	693.56
437.392	724.56
437.614	709.56
437.835	681.56
438.057	678.56
438.278	688.56
438.5	699.56
438.721	701.56
438.943	713.56
439.165	715.56
439.386	712.56
439.608	715.56
439.829	710.56
440.05	700.56
440.272	715.56
440.493	723.56
440.715	721.56
440.936	735.56
441.158	763.56
441.379	771.56
441.6	776.56
441.822	773.56
442.043	792.56
442.264	777.56
442.486	767.56
442.707	772.56
442.928	765.56
443.149	788.56
443.371	774.56
443.592	807.56
443.813	789.56
444.034	793.56
444.255	804.56
444.476	819.56
444.698	835.56
444.919	859.56
445.14	966.56
445.361	887.56
445.582	810.56
445.803	793.56
446.024	774.56
446.245	745.56
446.466	773.56
446.687	750.56
446.908	729.56
447.129	715.56
447.35	721.56
447.571	696.56
447.792	698.56
448.013	706.56
448.234	685.56
448.455	687.56
448.675	673.56
448.896	677.56
449.117	673.56
449.338	649.56
449.559	675.56
449.779	660.56
450	652.56
450.221	657.56
450.442	676.56
450.662	663.56
450.883	673.56
451.104	673.56
451.324	682.56
451.545	664.56
451.766	676.56
451.986	684.56
452.207	652.56
452.428	649.56
452.648	671.56
452.869	620.56
453.089	637.56
453.31	645.56
453.53	661.56
453.751	638.56
453.971	663.56
454.192	637.56
454.412	633.56
454.633	629.56
454.853	617.56
455.073	632.56
455.294	654.56
455.514	625.56
455.734	603.56
455.955	621.56
456.175	607.56
456.395	619.56
456.616	651.56
456.836	604.56
457.056	633.56
457.276	625.56
457.497	639.56
457.717	640.56
457.937	641.56
458.157	651.56
458.377	630.56
458.598	665.56
458.818	668.56
459.038	661.56
459.258	689.56
459.478	716.56
459.698	730.56
459.918	758.56
460.138	765.56
460.358	782.56
460.578	811.56
460.798	820.56
461.018	807.56
461.238	833.56
461.458	805.56
461.678	803.56
461.898	846.56
462.118	829.56
462.338	893.56
462.558	882.56
462.777	898.56
462.997	929.56
463.217	981.56
463.437	983.56
463.657	982.56
463.876	923.56
464.096	940.56
464.316	923.56
464.536	885.56
464.755	900.56
464.975	864.56
465.195	837.56
465.414	828.56
465.634	781.56
465.854	763.56
466.073	730.56
466.293	728.56
466.512	720.56
466.732	698.56
466.951	688.56
467.171	714.56
467.391	704.56
467.61	684.56
467.829	695.56
468.049	691.56
468.268	688.56
468.488	670.56
468.707	681.56
468.927	675.56
469.146	677.56
469.365	680.56
469.585	694.56
469.804	677.56
470.023	697.56
470.243	700.56
470.462	717.56
470.681	735.56
470.901	709.56
471.12	701.56
471.339	696.56
471.558	705.56
471.777	701.56
471.997	673.56
472.216	656.56
472.435	692.56
472.654	683.56
472.873	665.56
473.092	688.56
473.311	689.56
473.53	678.56
473.749	646.56
473.968	670.56
474.187	657.56
474.406	673.56
474.625	696.56
474.844	687.56
475.063	701.56
475.282	685.56
475.501	667.56
475.72	685.56
475.939	698.56
476.158	693.56
476.377	704.56
476.596	708.56
476.814	728.56
477.033	718.56
477.252	723.56
477.471	739.56
477.69	764.56
477.908	744.56
478.127	782.56
478.346	772.56
478.564	821.56
478.783	784.56
479.002	819.56
479.22	807.56
479.439	812.56
479.658	819.56
479.876	806.56
480.095	810.56
480.313	849.56
480.532	844.56
480.751	812.56
480.969	831.56
481.188	827.56
481.406	800.56
481.624	792.56
481.843	773.56
482.061	784.56
482.28	777.56
482.498	783.56
482.717	773.56
482.935	791.56
483.153	781.56
483.372	796.56
483.59	799.56
483.808	783.56
484.027	806.56
484.245	796.56
484.463	795.56
484.681	829.56
484.9	800.56
485.118	810.56
485.336	811.56
485.554	831.56
485.772	817.56
485.99	807.56
486.209	826.56
486.427	787.56
486.645	795.56
486.863	838.56
487.081	815.56
487.299	808.56
487.517	812.56
487.735	817.56
487.953	828.56
488.171	829.56
488.389	826.56
488.607	838.56
488.825	817.56
489.043	817.56
489.261	824.56
489.479	794.56
489.696	813.56
489.914	832.56
490.132	820.56
490.35	829.56
490.568	850.56
490.786	833.56
491.003	853.56
491.221	851.56
491.439	847.56
491.657	857.56
491.874	857.56
492.092	868.56
492.31	871.56
492.527	880.56
492.745	895.56
492.963	866.56
493.18	883.56
493.398	879.56
493.615	903.56
493.833	875.56
494.05	890.56
494.268	874.56
494.485	887.56
494.703	906.56
494.92	905.56
495.138	888.56
495.355	892.56
495.573	899.56
495.79	922.56
496.008	913.56
496.225	938.56
496.442	967.56
496.66	939.56
496.877	968.56
497.094	951.56
497.312	963.56
497.529	1004.56
497.746	1037.56
497.963	1052.56
498.181	1080.56
498.398	1114.56
498.615	1169.56
498.832	1163.56
499.049	1256.56
499.267	1335.56
499.484	1433.56
499.701	1548.56
499.918	1635.56
500.135	1757.56
500.352	1858.56
500.569	1905.56
500.786	1903.56
501.003	1814.56
501.22	1716.56
501.437	1621.56
501.654	1514.56
501.871	1403.56
