Data from Ni(NO3)2Standard.Agarose3%.GreenCap.LampEnergy5.5.E.O_HRD10591_14-41-42-187.txt Node
Date: Mon Jul 22 14:41:42 EDT 2019
User: cochatt
Spectrometer: HR+D1059
Trigger mode: 1
Integration Time (sec): 1.000000E-1
Scans to average: 1
Electric dark correction enabled: true
Nonlinearity correction enabled: false
Boxcar width: 0
XAxis mode: Wavelengths
Number of Pixels in Spectrum: 2048
>>>>>Begin Spectral Data<<<<<
223.165	-20.56
223.4	-20.56
223.635	-20.56
223.869	-18.56
224.104	-17.56
224.338	-15.56
224.573	-17.56
224.808	-17.56
225.042	1.44
225.277	2.44
225.511	-0.56
225.746	1.44
225.98	10.44
226.215	21.44
226.449	9.44
226.683	7.44
226.918	25.44
227.152	28.44
227.387	29.44
227.621	30.44
227.856	27.44
228.09	56.44
228.324	52.44
228.559	51.44
228.793	58.44
229.027	69.44
229.262	61.44
229.496	68.44
229.73	74.44
229.964	69.44
230.199	88.44
230.433	73.44
230.667	70.44
230.901	71.44
231.136	86.44
231.37	68.44
231.604	81.44
231.838	77.44
232.072	77.44
232.306	87.44
232.541	73.44
232.775	84.44
233.009	81.44
233.243	76.44
233.477	88.44
233.711	90.44
233.945	84.44
234.179	89.44
234.413	92.44
234.647	81.44
234.881	101.44
235.115	77.44
235.349	68.44
235.583	72.44
235.817	74.44
236.051	76.44
236.285	74.44
236.519	80.44
236.753	77.44
236.987	87.44
237.221	78.44
237.455	57.44
237.689	82.44
237.922	97.44
238.156	61.44
238.39	93.44
238.624	69.44
238.858	84.44
239.091	78.44
239.325	83.44
239.559	83.44
239.793	57.44
240.027	90.44
240.26	70.44
240.494	98.44
240.728	69.44
240.961	80.44
241.195	73.44
241.429	73.44
241.662	92.44
241.896	94.44
242.13	79.44
242.363	72.44
242.597	68.44
242.83	76.44
243.064	75.44
243.298	75.44
243.531	71.44
243.765	77.44
243.998	78.44
244.232	90.44
244.465	86.44
244.699	82.44
244.932	84.44
245.166	88.44
245.399	84.44
245.633	73.44
245.866	72.44
246.099	59.44
246.333	84.44
246.566	75.44
246.8	73.44
247.033	81.44
247.266	82.44
247.5	77.44
247.733	69.44
247.966	94.44
248.2	72.44
248.433	72.44
248.666	84.44
248.899	84.44
249.133	79.44
249.366	104.44
249.599	90.44
249.832	82.44
250.066	94.44
250.299	91.44
250.532	82.44
250.765	66.44
250.998	76.44
251.231	77.44
251.465	81.44
251.698	69.44
251.931	80.44
252.164	68.44
252.397	94.44
252.63	81.44
252.863	73.44
253.096	85.44
253.329	73.44
253.562	72.44
253.795	87.44
254.028	80.44
254.261	74.44
254.494	89.44
254.727	83.44
254.96	80.44
255.193	75.44
255.426	78.44
255.659	77.44
255.892	86.44
256.124	82.44
256.357	79.44
256.59	94.44
256.823	84.44
257.056	84.44
257.289	87.44
257.521	97.44
257.754	85.44
257.987	74.44
258.22	77.44
258.452	81.44
258.685	74.44
258.918	79.44
259.151	97.44
259.383	89.44
259.616	71.44
259.849	88.44
260.081	81.44
260.314	73.44
260.547	77.44
260.779	77.44
261.012	82.44
261.244	65.44
261.477	90.44
261.71	79.44
261.942	83.44
262.175	70.44
262.407	81.44
262.64	83.44
262.872	82.44
263.105	86.44
263.337	77.44
263.57	90.44
263.802	71.44
264.035	96.44
264.267	84.44
264.499	82.44
264.732	81.44
264.964	78.44
265.197	83.44
265.429	85.44
265.661	95.44
265.894	96.44
266.126	81.44
266.358	75.44
266.591	83.44
266.823	91.44
267.055	101.44
267.287	82.44
267.52	81.44
267.752	84.44
267.984	72.44
268.216	85.44
268.448	83.44
268.681	72.44
268.913	82.44
269.145	77.44
269.377	83.44
269.609	77.44
269.841	83.44
270.073	75.44
270.306	82.44
270.538	74.44
270.77	80.44
271.002	89.44
271.234	67.44
271.466	83.44
271.698	88.44
271.93	79.44
272.162	78.44
272.394	78.44
272.626	77.44
272.858	85.44
273.09	82.44
273.322	82.44
273.553	77.44
273.785	91.44
274.017	77.44
274.249	72.44
274.481	73.44
274.713	80.44
274.945	82.44
275.176	76.44
275.408	82.44
275.64	92.44
275.872	96.44
276.104	81.44
276.335	71.44
276.567	93.44
276.799	90.44
277.031	98.44
277.262	77.44
277.494	77.44
277.726	96.44
277.957	81.44
278.189	77.44
278.421	80.44
278.652	78.44
278.884	75.44
279.115	78.44
279.347	76.44
279.579	82.44
279.81	78.44
280.042	78.44
280.273	80.44
280.505	85.44
280.736	90.44
280.968	90.44
281.199	96.44
281.431	91.44
281.662	92.44
281.894	89.44
282.125	80.44
282.356	81.44
282.588	87.44
282.819	96.44
283.051	88.44
283.282	71.44
283.513	81.44
283.745	97.44
283.976	92.44
284.207	82.44
284.439	78.44
284.67	81.44
284.901	78.44
285.132	75.44
285.364	74.44
285.595	90.44
285.826	83.44
286.057	82.44
286.288	77.44
286.52	95.44
286.751	71.44
286.982	79.44
287.213	70.44
287.444	78.44
287.675	68.44
287.906	84.44
288.138	80.44
288.369	84.44
288.6	85.44
288.831	87.44
289.062	108.44
289.293	88.44
289.524	82.44
289.755	96.44
289.986	89.44
290.217	86.44
290.448	68.44
290.679	86.44
290.91	81.44
291.141	89.44
291.371	90.44
291.602	86.44
291.833	99.44
292.064	92.44
292.295	92.44
292.526	90.44
292.757	83.44
292.987	74.44
293.218	84.44
293.449	79.44
293.68	94.44
293.91	82.44
294.141	92.44
294.372	78.44
294.603	93.44
294.833	93.44
295.064	91.44
295.295	89.44
295.525	98.44
295.756	88.44
295.987	78.44
296.217	87.44
296.448	89.44
296.679	78.44
296.909	99.44
297.14	75.44
297.37	85.44
297.601	91.44
297.831	74.44
298.062	85.44
298.292	89.44
298.523	84.44
298.753	80.44
298.984	78.44
299.214	82.44
299.445	93.44
299.675	88.44
299.905	70.44
300.136	86.44
300.366	86.44
300.597	78.44
300.827	88.44
301.057	86.44
301.288	93.44
301.518	91.44
301.748	92.44
301.979	91.44
302.209	73.44
302.439	90.44
302.669	88.44
302.9	79.44
303.13	86.44
303.36	93.44
303.59	85.44
303.82	87.44
304.051	80.44
304.281	78.44
304.511	91.44
304.741	75.44
304.971	85.44
305.201	82.44
305.431	89.44
305.661	81.44
305.891	100.44
306.121	81.44
306.352	87.44
306.582	69.44
306.812	81.44
307.042	101.44
307.272	90.44
307.502	92.44
307.731	76.44
307.961	93.44
308.191	82.44
308.421	95.44
308.651	95.44
308.881	94.44
309.111	88.44
309.341	91.44
309.571	105.44
309.8	73.44
310.03	81.44
310.26	83.44
310.49	80.44
310.72	76.44
310.949	87.44
311.179	67.44
311.409	86.44
311.639	90.44
311.868	93.44
312.098	97.44
312.328	85.44
312.557	74.44
312.787	85.44
313.017	82.44
313.246	81.44
313.476	84.44
313.706	88.44
313.935	74.44
314.165	104.44
314.394	79.44
314.624	85.44
314.853	87.44
315.083	93.44
315.312	91.44
315.542	91.44
315.771	73.44
316.001	101.44
316.23	80.44
316.46	101.44
316.689	92.44
316.919	77.44
317.148	78.44
317.377	93.44
317.607	92.44
317.836	74.44
318.065	80.44
318.295	76.44
318.524	83.44
318.753	90.44
318.983	88.44
319.212	96.44
319.441	87.44
319.67	90.44
319.9	98.44
320.129	79.44
320.358	95.44
320.587	91.44
320.816	92.44
321.046	98.44
321.275	89.44
321.504	84.44
321.733	89.44
321.962	76.44
322.191	71.44
322.42	87.44
322.649	84.44
322.878	89.44
323.108	96.44
323.337	94.44
323.566	89.44
323.795	88.44
324.024	85.44
324.253	82.44
324.482	94.44
324.71	85.44
324.939	87.44
325.168	84.44
325.397	90.44
325.626	101.44
325.855	77.44
326.084	78.44
326.313	81.44
326.542	85.44
326.77	85.44
326.999	91.44
327.228	90.44
327.457	85.44
327.686	90.44
327.914	81.44
328.143	84.44
328.372	87.44
328.6	86.44
328.829	86.44
329.058	87.44
329.287	82.44
329.515	88.44
329.744	93.44
329.972	95.44
330.201	88.44
330.43	80.44
330.658	96.44
330.887	84.44
331.115	87.44
331.344	74.44
331.572	102.44
331.801	87.44
332.03	75.44
332.258	84.44
332.486	84.44
332.715	97.44
332.943	83.44
333.172	99.44
333.4	86.44
333.629	78.44
333.857	73.44
334.085	83.44
334.314	82.44
334.542	87.44
334.771	82.44
334.999	86.44
335.227	86.44
335.455	73.44
335.684	82.44
335.912	98.44
336.14	75.44
336.369	71.44
336.597	88.44
336.825	91.44
337.053	99.44
337.281	82.44
337.51	80.44
337.738	89.44
337.966	87.44
338.194	76.44
338.422	75.44
338.65	93.44
338.878	77.44
339.106	74.44
339.334	96.44
339.562	84.44
339.79	82.44
340.018	73.44
340.246	87.44
340.474	90.44
340.702	96.44
340.93	83.44
341.158	77.44
341.386	72.44
341.614	77.44
341.842	83.44
342.07	101.44
342.298	89.44
342.526	89.44
342.754	92.44
342.981	83.44
343.209	83.44
343.437	85.44
343.665	88.44
343.893	75.44
344.12	91.44
344.348	81.44
344.576	101.44
344.804	81.44
345.031	86.44
345.259	97.44
345.487	82.44
345.714	101.44
345.942	78.44
346.17	98.44
346.397	92.44
346.625	81.44
346.853	100.44
347.08	84.44
347.308	82.44
347.535	92.44
347.763	90.44
347.99	75.44
348.218	84.44
348.445	87.44
348.673	95.44
348.9	85.44
349.128	83.44
349.355	79.44
349.583	82.44
349.81	82.44
350.037	84.44
350.265	85.44
350.492	80.44
350.72	83.44
350.947	92.44
351.174	101.44
351.402	81.44
351.629	91.44
351.856	88.44
352.083	76.44
352.311	82.44
352.538	80.44
352.765	87.44
352.992	91.44
353.22	85.44
353.447	99.44
353.674	88.44
353.901	81.44
354.128	93.44
354.355	88.44
354.583	83.44
354.81	86.44
355.037	99.44
355.264	76.44
355.491	80.44
355.718	77.44
355.945	90.44
356.172	87.44
356.399	95.44
356.626	81.44
356.853	74.44
357.08	93.44
357.307	81.44
357.534	88.44
357.761	95.44
357.988	85.44
358.215	81.44
358.441	83.44
358.668	85.44
358.895	80.44
359.122	87.44
359.349	92.44
359.576	90.44
359.802	76.44
360.029	81.44
360.256	90.44
360.483	91.44
360.709	84.44
360.936	100.44
361.163	81.44
361.39	77.44
361.616	93.44
361.843	89.44
362.07	96.44
362.296	98.44
362.523	80.44
362.749	79.44
362.976	84.44
363.203	94.44
363.429	89.44
363.656	83.44
363.882	84.44
364.109	86.44
364.335	92.44
364.562	92.44
364.788	84.44
365.015	85.44
365.241	83.44
365.468	78.44
365.694	91.44
365.92	107.44
366.147	79.44
366.373	98.44
366.599	75.44
366.826	92.44
367.052	78.44
367.278	76.44
367.505	84.44
367.731	94.44
367.957	85.44
368.184	85.44
368.41	77.44
368.636	76.44
368.862	102.44
369.089	73.44
369.315	79.44
369.541	89.44
369.767	103.44
369.993	109.44
370.219	89.44
370.445	92.44
370.672	88.44
370.898	90.44
371.124	86.44
371.35	89.44
371.576	81.44
371.802	82.44
372.028	85.44
372.254	91.44
372.48	83.44
372.706	87.44
372.932	90.44
373.158	91.44
373.384	93.44
373.61	86.44
373.835	92.44
374.061	93.44
374.287	82.44
374.513	72.44
374.739	93.44
374.965	84.44
375.191	84.44
375.416	79.44
375.642	82.44
375.868	81.44
376.094	91.44
376.319	85.44
376.545	74.44
376.771	74.44
376.997	86.44
377.222	94.44
377.448	90.44
377.674	84.44
377.899	82.44
378.125	99.44
378.35	92.44
378.576	80.44
378.802	88.44
379.027	81.44
379.253	97.44
379.478	83.44
379.704	86.44
379.929	81.44
380.155	78.44
380.38	81.44
380.606	82.44
380.831	81.44
381.057	80.44
381.282	80.44
381.507	85.44
381.733	75.44
381.958	86.44
382.184	74.44
382.409	68.44
382.634	83.44
382.86	81.44
383.085	86.44
383.31	77.44
383.535	77.44
383.761	86.44
383.986	92.44
384.211	91.44
384.436	80.44
384.662	82.44
384.887	74.44
385.112	93.44
385.337	82.44
385.562	85.44
385.787	103.44
386.013	96.44
386.238	86.44
386.463	82.44
386.688	76.44
386.913	78.44
387.138	77.44
387.363	82.44
387.588	102.44
387.813	83.44
388.038	82.44
388.263	70.44
388.488	79.44
388.713	86.44
388.938	87.44
389.163	86.44
389.387	73.44
389.612	82.44
389.837	83.44
390.062	90.44
390.287	82.44
390.512	82.44
390.736	96.44
390.961	86.44
391.186	86.44
391.411	84.44
391.636	92.44
391.86	95.44
392.085	88.44
392.31	83.44
392.534	98.44
392.759	83.44
392.984	77.44
393.208	81.44
393.433	87.44
393.658	89.44
393.882	90.44
394.107	93.44
394.331	77.44
394.556	88.44
394.78	71.44
395.005	68.44
395.229	87.44
395.454	80.44
395.678	87.44
395.903	91.44
396.127	87.44
396.352	77.44
396.576	85.44
396.801	80.44
397.025	78.44
397.249	88.44
397.474	91.44
397.698	76.44
397.922	93.44
398.147	85.44
398.371	82.44
398.595	79.44
398.82	95.44
399.044	90.44
399.268	83.44
399.492	94.44
399.717	86.44
399.941	92.44
400.165	91.44
400.389	81.44
400.613	90.44
400.837	90.44
401.062	77.44
401.286	88.44
401.51	92.44
401.734	82.44
401.958	98.44
402.182	85.44
402.406	81.44
402.63	97.44
402.854	78.44
403.078	80.44
403.302	77.44
403.526	102.44
403.75	97.44
403.974	71.44
404.198	86.44
404.422	70.44
404.645	76.44
404.869	86.44
405.093	93.44
405.317	82.44
405.541	101.44
405.765	77.44
405.988	90.44
406.212	109.44
406.436	91.44
406.66	90.44
406.883	88.44
407.107	76.44
407.331	81.44
407.555	71.44
407.778	91.44
408.002	80.44
408.226	82.44
408.449	74.44
408.673	93.44
408.896	86.44
409.12	71.44
409.344	87.44
409.567	80.44
409.791	89.44
410.014	83.44
410.238	83.44
410.461	106.44
410.685	98.44
410.908	93.44
411.132	92.44
411.355	104.44
411.578	88.44
411.802	88.44
412.025	95.44
412.249	92.44
412.472	88.44
412.695	80.44
412.919	87.44
413.142	86.44
413.365	96.44
413.589	84.44
413.812	81.44
414.035	91.44
414.258	101.44
414.482	92.44
414.705	86.44
414.928	98.44
415.151	73.44
415.374	67.44
415.597	97.44
415.821	99.44
416.044	92.44
416.267	93.44
416.49	82.44
416.713	78.44
416.936	87.44
417.159	93.44
417.382	78.44
417.605	97.44
417.828	97.44
418.051	77.44
418.274	83.44
418.497	85.44
418.72	93.44
418.943	97.44
419.166	88.44
419.389	98.44
419.611	96.44
419.834	89.44
420.057	91.44
420.28	82.44
420.503	83.44
420.726	84.44
420.948	92.44
421.171	81.44
421.394	87.44
421.617	89.44
421.839	86.44
422.062	99.44
422.285	93.44
422.507	76.44
422.73	83.44
422.953	74.44
423.175	78.44
423.398	86.44
423.621	93.44
423.843	85.44
424.066	78.44
424.288	91.44
424.511	92.44
424.733	89.44
424.956	80.44
425.178	93.44
425.401	70.44
425.623	81.44
425.846	80.44
426.068	103.44
426.291	91.44
426.513	77.44
426.735	87.44
426.958	85.44
427.18	85.44
427.402	79.44
427.625	92.44
427.847	88.44
428.069	81.44
428.292	82.44
428.514	109.44
428.736	94.44
428.958	83.44
429.181	102.44
429.403	90.44
429.625	85.44
429.847	86.44
430.069	94.44
430.292	82.44
430.514	85.44
430.736	100.44
430.958	102.44
431.18	72.44
431.402	87.44
431.624	96.44
431.846	83.44
432.068	82.44
432.29	91.44
432.512	86.44
432.734	90.44
432.956	90.44
433.178	87.44
433.4	91.44
433.622	92.44
433.844	88.44
434.066	88.44
434.287	94.44
434.509	92.44
434.731	98.44
434.953	81.44
435.175	80.44
435.397	97.44
435.618	91.44
435.84	84.44
436.062	74.44
436.284	88.44
436.505	90.44
436.727	83.44
436.949	89.44
437.17	76.44
437.392	72.44
437.614	88.44
437.835	92.44
438.057	85.44
438.278	83.44
438.5	86.44
438.721	82.44
438.943	73.44
439.165	87.44
439.386	70.44
439.608	96.44
439.829	85.44
440.05	86.44
440.272	88.44
440.493	87.44
440.715	86.44
440.936	97.44
441.158	85.44
441.379	78.44
441.6	88.44
441.822	102.44
442.043	66.44
442.264	91.44
442.486	82.44
442.707	97.44
442.928	89.44
443.149	94.44
443.371	84.44
443.592	88.44
443.813	95.44
444.034	86.44
444.255	77.44
444.476	86.44
444.698	85.44
444.919	89.44
445.14	187.44
445.361	127.44
445.582	94.44
445.803	90.44
446.024	87.44
446.245	96.44
446.466	82.44
446.687	88.44
446.908	83.44
447.129	73.44
447.35	79.44
447.571	84.44
447.792	85.44
448.013	89.44
448.234	83.44
448.455	80.44
448.675	78.44
448.896	84.44
449.117	90.44
449.338	84.44
449.559	85.44
449.779	88.44
450	83.44
450.221	83.44
450.442	85.44
450.662	81.44
450.883	79.44
451.104	87.44
451.324	94.44
451.545	91.44
451.766	84.44
451.986	76.44
452.207	92.44
452.428	89.44
452.648	84.44
452.869	93.44
453.089	90.44
453.31	86.44
453.53	78.44
453.751	100.44
453.971	71.44
454.192	91.44
454.412	88.44
454.633	96.44
454.853	88.44
455.073	80.44
455.294	88.44
455.514	83.44
455.734	75.44
455.955	72.44
456.175	79.44
456.395	88.44
456.616	80.44
456.836	88.44
457.056	85.44
457.276	74.44
457.497	79.44
457.717	88.44
457.937	92.44
458.157	85.44
458.377	92.44
458.598	80.44
458.818	92.44
459.038	99.44
459.258	84.44
459.478	76.44
459.698	68.44
459.918	71.44
460.138	90.44
460.358	68.44
460.578	95.44
460.798	87.44
461.018	81.44
461.238	71.44
461.458	90.44
461.678	75.44
461.898	85.44
462.118	79.44
462.338	96.44
462.558	89.44
462.777	93.44
462.997	102.44
463.217	93.44
463.437	88.44
463.657	79.44
463.876	87.44
464.096	98.44
464.316	89.44
464.536	68.44
464.755	90.44
464.975	93.44
465.195	94.44
465.414	96.44
465.634	95.44
465.854	79.44
466.073	99.44
466.293	94.44
466.512	95.44
466.732	93.44
466.951	96.44
467.171	84.44
467.391	84.44
467.61	79.44
467.829	92.44
468.049	86.44
468.268	79.44
468.488	99.44
468.707	89.44
468.927	96.44
469.146	90.44
469.365	75.44
469.585	91.44
469.804	98.44
470.023	79.44
470.243	90.44
470.462	97.44
470.681	90.44
470.901	84.44
471.12	83.44
471.339	100.44
471.558	96.44
471.777	73.44
471.997	87.44
472.216	89.44
472.435	84.44
472.654	78.44
472.873	105.44
473.092	74.44
473.311	100.44
473.53	89.44
473.749	85.44
473.968	89.44
474.187	94.44
474.406	105.44
474.625	88.44
474.844	91.44
475.063	101.44
475.282	91.44
475.501	92.44
475.72	100.44
475.939	88.44
476.158	87.44
476.377	97.44
476.596	89.44
476.814	87.44
477.033	92.44
477.252	89.44
477.471	80.44
477.69	93.44
477.908	87.44
478.127	84.44
478.346	73.44
478.564	109.44
478.783	99.44
479.002	97.44
479.22	78.44
479.439	87.44
479.658	94.44
479.876	98.44
480.095	100.44
480.313	108.44
480.532	85.44
480.751	85.44
480.969	76.44
481.188	88.44
481.406	89.44
481.624	85.44
481.843	96.44
482.061	97.44
482.28	95.44
482.498	96.44
482.717	70.44
482.935	95.44
483.153	81.44
483.372	81.44
483.59	87.44
483.808	92.44
484.027	106.44
484.245	82.44
484.463	99.44
484.681	81.44
484.9	84.44
485.118	75.44
485.336	92.44
485.554	88.44
485.772	82.44
485.99	86.44
486.209	87.44
486.427	88.44
486.645	94.44
486.863	104.44
487.081	92.44
487.299	89.44
487.517	105.44
487.735	90.44
487.953	100.44
488.171	92.44
488.389	103.44
488.607	96.44
488.825	83.44
489.043	87.44
489.261	91.44
489.479	85.44
489.696	99.44
489.914	92.44
490.132	80.44
490.35	93.44
490.568	91.44
490.786	92.44
491.003	81.44
491.221	102.44
491.439	101.44
491.657	87.44
491.874	97.44
492.092	97.44
492.31	94.44
492.527	97.44
492.745	106.44
492.963	96.44
493.18	97.44
493.398	112.44
493.615	106.44
493.833	83.44
494.05	99.44
494.268	90.44
494.485	101.44
494.703	85.44
494.92	97.44
495.138	109.44
495.355	101.44
495.573	88.44
495.79	96.44
496.008	91.44
496.225	84.44
496.442	84.44
496.66	97.44
496.877	88.44
497.094	93.44
497.312	92.44
497.529	106.44
497.746	102.44
497.963	98.44
498.181	97.44
498.398	96.44
498.615	108.44
498.832	114.44
499.049	88.44
499.267	93.44
499.484	96.44
499.701	95.44
499.918	120.44
500.135	116.44
500.352	99.44
500.569	108.44
500.786	123.44
501.003	104.44
501.22	110.44
501.437	81.44
501.654	103.44
501.871	104.44
502.088	98.44
502.305	102.44
502.522	94.44
502.739	89.44
502.956	104.44
503.172	114.44
503.389	90.44
503.606	93.44
503.823	78.44
504.04	93.44
504.256	99.44
504.473	101.44
504.69	105.44
504.907	98.44
505.123	93.44
505.34	97.44
505.557	100.44
505.773	91.44
505.99	98.44
506.207	89.44
506.423	84.44
506.64	92.44
506.856	98.44
507.073	99.44
507.289	97.44
507.506	97.44
507.722	102.44
507.939	106.44
508.155	81.44
508.372	78.44
508.588	93.44
508.805	86.44
509.021	85.44
509.238	101.44
509.454	79.44
509.67	86.44
509.887	93.44
510.103	82.44
510.319	89.44
510.536	101.44
510.752	100.44
510.968	102.44
511.184	84.44
511.401	79.44
511.617	100.44
511.833	101.44
512.049	78.44
512.265	94.44
512.481	92.44
512.698	90.44
512.914	104.44
513.13	98.44
513.346	93.44
513.562	92.44
513.778	113.44
513.994	105.44
514.21	82.44
514.426	112.44
514.642	97.44
514.858	81.44
515.074	97.44
515.29	85.44
515.506	91.44
515.721	83.44
515.937	98.44
516.153	107.44
516.369	93.44
516.585	94.44
516.801	85.44
517.016	88.44
517.232	99.44
517.448	108.44
517.664	88.44
517.879	81.44
518.095	76.44
