Data from Ni(NO3)2@0.5M.TitratingCurve.Agarose3%dH2O.NegLispCup.LampEnergy10.LIBS07252019_HRD10591_17-57-17-564.txt Node
Date: Thu Jul 25 17:57:17 EDT 2019
User: cochatt
Spectrometer: HR+D1059
Trigger mode: 1
Integration Time (sec): 1.000000E-1
Scans to average: 1
Electric dark correction enabled: true
Nonlinearity correction enabled: false
Boxcar width: 0
XAxis mode: Wavelengths
Number of Pixels in Spectrum: 2048
>>>>>Begin Spectral Data<<<<<
223.165	-11
223.4	-11
223.635	-11
223.869	-21
224.104	-24
224.338	-23
224.573	-19
224.808	-23
225.042	-12
225.277	-15
225.511	-2
225.746	21
225.98	24
226.215	3
226.449	31
226.683	10
226.918	26
227.152	35
227.387	44
227.621	37
227.856	28
228.09	56
228.324	52
228.559	69
228.793	74
229.027	139
229.262	169
229.496	157
229.73	150
229.964	192
230.199	214
230.433	214
230.667	214
230.901	206
231.136	191
231.37	187
231.604	206
231.838	234
232.072	246
232.306	202
232.541	199
232.775	204
233.009	197
233.243	186
233.477	205
233.711	193
233.945	200
234.179	202
234.413	192
234.647	193
234.881	202
235.115	198
235.349	184
235.583	199
235.817	190
236.051	202
236.285	190
236.519	198
236.753	193
236.987	188
237.221	202
237.455	197
237.689	200
237.922	223
238.156	208
238.39	205
238.624	230
238.858	227
239.091	220
239.325	228
239.559	232
239.793	265
240.027	265
240.26	233
240.494	238
240.728	263
240.961	228
241.195	221
241.429	250
241.662	275
241.896	282
242.13	277
242.363	264
242.597	259
242.83	268
243.064	261
243.298	257
243.531	245
243.765	256
243.998	281
244.232	283
244.465	282
244.699	288
244.932	287
245.166	283
245.399	286
245.633	281
245.866	278
246.099	294
246.333	298
246.566	291
246.8	303
247.033	287
247.266	292
247.5	287
247.733	309
247.966	309
248.2	313
248.433	339
248.666	331
248.899	345
249.133	300
249.366	343
249.599	337
249.832	347
250.066	338
250.299	353
250.532	361
250.765	370
250.998	377
251.231	381
251.465	397
251.698	365
251.931	367
252.164	370
252.397	385
252.63	357
252.863	395
253.096	385
253.329	399
253.562	375
253.795	394
254.028	393
254.261	418
254.494	411
254.727	405
254.96	430
255.193	410
255.426	406
255.659	430
255.892	410
256.124	443
256.357	446
256.59	431
256.823	441
257.056	428
257.289	445
257.521	445
257.754	444
257.987	445
258.22	466
258.452	437
258.685	447
258.918	466
259.151	451
259.383	461
259.616	456
259.849	476
260.081	477
260.314	483
260.547	480
260.779	461
261.012	481
261.244	497
261.477	488
261.71	494
261.942	486
262.175	487
262.407	504
262.64	516
262.872	506
263.105	519
263.337	505
263.57	508
263.802	530
264.035	506
264.267	532
264.499	529
264.732	539
264.964	542
265.197	552
265.429	539
265.661	527
265.894	546
266.126	563
266.358	550
266.591	565
266.823	567
267.055	580
267.287	567
267.52	546
267.752	573
267.984	568
268.216	534
268.448	557
268.681	570
268.913	567
269.145	579
269.377	575
269.609	583
269.841	572
270.073	556
270.306	574
270.538	563
270.77	580
271.002	585
271.234	580
271.466	595
271.698	596
271.93	583
272.162	629
272.394	603
272.626	601
272.858	599
273.09	616
273.322	635
273.553	597
273.785	637
274.017	618
274.249	628
274.481	626
274.713	621
274.945	643
275.176	643
275.408	619
275.64	631
275.872	651
276.104	639
276.335	618
276.567	628
276.799	659
277.031	668
277.262	662
277.494	662
277.726	642
277.957	638
278.189	656
278.421	661
278.652	656
278.884	681
279.115	672
279.347	659
279.579	677
279.81	673
280.042	690
280.273	697
280.505	660
280.736	655
280.968	664
281.199	695
281.431	697
281.662	712
281.894	683
282.125	689
282.356	708
282.588	695
282.819	705
283.051	697
283.282	706
283.513	711
283.745	707
283.976	702
284.207	716
284.439	711
284.67	723
284.901	719
285.132	701
285.364	700
285.595	695
285.826	723
286.057	713
286.288	740
286.52	701
286.751	720
286.982	729
287.213	718
287.444	732
287.675	751
287.906	724
288.138	736
288.369	727
288.6	736
288.831	742
289.062	762
289.293	743
289.524	749
289.755	753
289.986	747
290.217	762
290.448	741
290.679	730
290.91	740
291.141	764
291.371	759
291.602	740
291.833	747
292.064	757
292.295	791
292.526	754
292.757	733
292.987	765
293.218	761
293.449	789
293.68	780
293.91	785
294.141	750
294.372	732
294.603	768
294.833	770
295.064	792
295.295	798
295.525	754
295.756	780
295.987	757
296.217	787
296.448	782
296.679	792
296.909	802
297.14	803
297.37	789
297.601	783
297.831	777
298.062	802
298.292	800
298.523	807
298.753	819
298.984	810
299.214	813
299.445	823
299.675	804
299.905	840
300.136	836
300.366	854
300.597	854
300.827	855
301.057	851
301.288	858
301.518	859
301.748	850
301.979	859
302.209	875
302.439	870
302.669	838
302.9	828
303.13	866
303.36	855
303.59	855
303.82	892
304.051	888
304.281	886
304.511	877
304.741	850
304.971	898
305.201	918
305.431	921
305.661	893
305.891	874
306.121	890
306.352	882
306.582	880
306.812	892
307.042	867
307.272	870
307.502	854
307.731	874
307.961	889
308.191	919
308.421	889
308.651	895
308.881	877
309.111	915
309.341	885
309.571	906
309.8	918
310.03	953
310.26	975
310.49	953
310.72	961
310.949	934
311.179	909
311.409	903
311.639	913
311.868	948
312.098	940
312.328	968
312.557	951
312.787	941
313.017	951
313.246	977
313.476	994
313.706	1002
313.935	969
314.165	984
314.394	999
314.624	946
314.853	961
315.083	958
315.312	959
315.542	1003
315.771	1015
316.001	1004
316.23	979
316.46	1025
316.689	1001
316.919	998
317.148	998
317.377	1025
317.607	1043
317.836	1003
318.065	1007
318.295	996
318.524	1077
318.753	1024
318.983	1028
319.212	1018
319.441	1051
319.67	1030
319.9	1024
320.129	1047
320.358	1062
320.587	1068
320.816	1078
321.046	1039
321.275	1051
321.504	1059
321.733	1088
321.962	1081
322.191	1085
322.42	1081
322.649	1116
322.878	1089
323.108	1085
323.337	1125
323.566	1122
323.795	1095
324.024	1153
324.253	1124
324.482	1122
324.71	1145
324.939	1114
325.168	1132
325.397	1138
325.626	1129
325.855	1117
326.084	1137
326.313	1118
326.542	1139
326.77	1162
326.999	1153
327.228	1130
327.457	1161
327.686	1161
327.914	1145
328.143	1162
328.372	1173
328.6	1160
328.829	1140
329.058	1156
329.287	1153
329.515	1180
329.744	1155
329.972	1180
330.201	1211
330.43	1223
330.658	1216
330.887	1193
331.115	1209
331.344	1197
331.572	1190
331.801	1239
332.03	1225
332.258	1215
332.486	1243
332.715	1226
332.943	1241
333.172	1245
333.4	1221
333.629	1242
333.857	1235
334.085	1242
334.314	1300
334.542	1273
334.771	1260
334.999	1303
335.227	1282
335.455	1286
335.684	1280
335.912	1313
336.14	1302
336.369	1285
336.597	1319
336.825	1291
337.053	1347
337.281	1313
337.51	1294
337.738	1306
337.966	1308
338.194	1325
338.422	1302
338.65	1281
338.878	1305
339.106	1311
339.334	1313
339.562	1315
339.79	1309
340.018	1292
340.246	1275
340.474	1267
340.702	1251
340.93	1293
341.158	1280
341.386	1329
341.614	1342
341.842	1326
342.07	1288
342.298	1279
342.526	1301
342.754	1292
342.981	1253
343.209	1254
343.437	1297
343.665	1319
343.893	1247
344.12	1301
344.348	1288
344.576	1305
344.804	1325
345.031	1262
345.259	1290
345.487	1276
345.714	1313
345.942	1309
346.17	1338
346.397	1350
346.625	1257
346.853	1249
347.08	1241
347.308	1255
347.535	1283
347.763	1256
347.99	1237
348.218	1214
348.445	1265
348.673	1235
348.9	1250
349.128	1238
349.355	1267
349.583	1253
349.81	1268
350.037	1231
350.265	1230
350.492	1256
350.72	1225
350.947	1247
351.174	1277
351.402	1269
351.629	1277
351.856	1241
352.083	1237
352.311	1256
352.538	1313
352.765	1301
352.992	1217
353.22	1198
353.447	1174
353.674	1201
353.901	1228
354.128	1187
354.355	1201
354.583	1203
354.81	1189
355.037	1229
355.264	1199
355.491	1236
355.718	1221
355.945	1222
356.172	1234
356.399	1242
356.626	1227
356.853	1262
357.08	1221
357.307	1230
357.534	1215
357.761	1213
357.988	1194
358.215	1207
358.441	1205
358.668	1189
358.895	1182
359.122	1213
359.349	1181
359.576	1180
359.802	1214
360.029	1214
360.256	1245
360.483	1241
360.709	1197
360.936	1220
361.163	1218
361.39	1214
361.616	1195
361.843	1237
362.07	1263
362.296	1249
362.523	1242
362.749	1182
362.976	1209
363.203	1213
363.429	1202
363.656	1189
363.882	1235
364.109	1218
364.335	1242
364.562	1188
364.788	1193
365.015	1196
365.241	1236
365.468	1213
365.694	1254
365.92	1224
366.147	1233
366.373	1220
366.599	1217
366.826	1223
367.052	1194
367.278	1232
367.505	1243
367.731	1215
367.957	1245
368.184	1200
368.41	1217
368.636	1226
368.862	1236
369.089	1235
369.315	1260
369.541	1223
369.767	1229
369.993	1243
370.219	1252
370.445	1265
370.672	1272
370.898	1239
371.124	1236
371.35	1230
371.576	1271
371.802	1253
372.028	1242
372.254	1211
372.48	1239
372.706	1247
372.932	1234
373.158	1239
373.384	1216
373.61	1214
373.835	1256
374.061	1212
374.287	1241
374.513	1244
374.739	1268
374.965	1258
375.191	1224
375.416	1265
375.642	1240
375.868	1208
376.094	1255
376.319	1260
376.545	1225
376.771	1212
376.997	1209
377.222	1223
377.448	1236
377.674	1229
377.899	1243
378.125	1247
378.35	1204
378.576	1190
378.802	1183
379.027	1230
379.253	1207
379.478	1205
379.704	1218
379.929	1217
380.155	1190
380.38	1206
380.606	1202
380.831	1231
381.057	1236
381.282	1228
381.507	1217
381.733	1192
381.958	1193
382.184	1212
382.409	1211
382.634	1236
382.86	1232
383.085	1258
383.31	1249
383.535	1229
383.761	1241
383.986	1219
384.211	1250
384.436	1259
384.662	1269
384.887	1299
385.112	1233
385.337	1253
385.562	1256
385.787	1285
386.013	1292
386.238	1320
386.463	1291
386.688	1317
386.913	1285
387.138	1283
387.363	1305
387.588	1319
387.813	1266
388.038	1233
388.263	1294
388.488	1291
388.713	1285
388.938	1293
389.163	1336
389.387	1325
389.612	1292
389.837	1326
390.062	1305
390.287	1313
390.512	1322
390.736	1284
390.961	1271
391.186	1299
391.411	1322
391.636	1297
391.86	1324
392.085	1331
392.31	1285
392.534	1307
392.759	1338
392.984	1328
393.208	1350
393.433	1315
393.658	1342
393.882	1305
394.107	1308
394.331	1294
394.556	1311
394.78	1338
395.005	1297
395.229	1303
395.454	1284
395.678	1334
395.903	1305
396.127	1322
396.352	1325
396.576	1302
396.801	1338
397.025	1318
397.249	1341
397.474	1342
397.698	1359
397.922	1366
398.147	1366
398.371	1347
398.595	1383
398.82	1382
399.044	1403
399.268	1427
399.492	1449
399.717	1467
399.941	1478
400.165	1429
400.389	1429
400.613	1453
400.837	1439
401.062	1434
401.286	1434
401.51	1383
401.734	1392
401.958	1395
402.182	1422
402.406	1416
402.63	1370
402.854	1402
403.078	1393
403.302	1408
403.526	1364
403.75	1407
403.974	1405
404.198	1404
404.422	1386
404.645	1397
404.869	1432
405.093	1466
405.317	1412
405.541	1424
405.765	1436
405.988	1420
406.212	1443
406.436	1418
406.66	1500
406.883	1454
407.107	1481
407.331	1443
407.555	1486
407.778	1485
408.002	1456
408.226	1514
408.449	1504
408.673	1497
408.896	1465
409.12	1482
409.344	1508
409.567	1466
409.791	1481
410.014	1445
410.238	1466
410.461	1457
410.685	1445
410.908	1443
411.132	1444
411.355	1446
411.578	1441
411.802	1452
412.025	1428
412.249	1427
412.472	1459
412.695	1412
412.919	1394
413.142	1422
413.365	1437
413.589	1434
413.812	1421
414.035	1424
414.258	1418
414.482	1442
414.705	1417
414.928	1445
415.151	1409
415.374	1416
415.597	1405
415.821	1369
416.044	1362
416.267	1365
416.49	1388
416.713	1371
416.936	1409
417.159	1351
417.382	1344
417.605	1359
417.828	1350
418.051	1370
418.274	1352
418.497	1307
418.72	1361
418.943	1353
419.166	1413
419.389	1492
419.611	1477
419.834	1426
420.057	1400
420.28	1358
420.503	1335
420.726	1335
420.948	1321
421.171	1345
421.394	1343
421.617	1363
421.839	1357
422.062	1370
422.285	1353
422.507	1372
422.73	1348
422.953	1356
423.175	1357
423.398	1347
423.621	1337
423.843	1336
424.066	1347
424.288	1358
424.511	1349
424.733	1351
424.956	1320
425.178	1347
425.401	1379
425.623	1359
425.846	1342
426.068	1367
426.291	1366
426.513	1351
426.735	1335
426.958	1349
427.18	1358
427.402	1349
427.625	1358
427.847	1338
428.069	1317
428.292	1345
428.514	1347
428.736	1337
428.958	1367
429.181	1351
429.403	1349
429.625	1356
429.847	1339
430.069	1338
430.292	1379
430.514	1343
430.736	1373
430.958	1346
431.18	1356
431.402	1359
431.624	1318
431.846	1327
432.068	1351
432.29	1371
432.512	1313
432.734	1358
432.956	1379
433.178	1354
433.4	1403
433.622	1431
433.844	1422
434.066	1399
434.287	1378
434.509	1350
434.731	1363
434.953	1357
435.175	1429
435.397	1413
435.618	1378
435.84	1371
436.062	1379
436.284	1397
436.505	1367
436.727	1348
436.949	1325
437.17	1385
437.392	1368
437.614	1354
437.835	1313
438.057	1316
438.278	1301
438.5	1291
438.721	1322
438.943	1332
439.165	1334
439.386	1334
439.608	1323
439.829	1324
440.05	1337
440.272	1389
440.493	1384
440.715	1358
440.936	1334
441.158	1362
441.379	1367
441.6	1395
441.822	1359
442.043	1367
442.264	1382
442.486	1383
442.707	1382
442.928	1356
443.149	1398
443.371	1386
443.592	1455
443.813	1397
444.034	1384
444.255	1385
444.476	1379
444.698	1403
444.919	1410
445.14	1554
445.361	1449
445.582	1373
445.803	1373
446.024	1352
446.245	1347
446.466	1375
446.687	1313
446.908	1345
447.129	1274
447.35	1287
447.571	1307
447.792	1266
448.013	1303
448.234	1239
448.455	1283
448.675	1285
448.896	1287
449.117	1240
449.338	1254
449.559	1244
449.779	1259
450	1244
450.221	1238
450.442	1220
450.662	1233
450.883	1255
451.104	1228
451.324	1229
451.545	1246
451.766	1244
451.986	1211
452.207	1216
452.428	1205
452.648	1220
452.869	1225
453.089	1245
453.31	1236
453.53	1191
453.751	1198
453.971	1203
454.192	1225
454.412	1219
454.633	1230
454.853	1213
455.073	1223
455.294	1214
455.514	1229
455.734	1253
455.955	1226
456.175	1271
456.395	1211
456.616	1194
456.836	1205
457.056	1220
457.276	1193
457.497	1210
457.717	1209
457.937	1248
458.157	1217
458.377	1235
458.598	1240
458.818	1252
459.038	1246
459.258	1258
459.478	1331
459.698	1370
459.918	1394
460.138	1359
460.358	1360
460.578	1345
460.798	1392
461.018	1403
461.238	1375
461.458	1345
461.678	1295
461.898	1335
462.118	1337
462.338	1374
462.558	1374
462.777	1442
462.997	1436
463.217	1477
463.437	1529
463.657	1458
463.876	1409
464.096	1453
464.316	1378
464.536	1407
464.755	1393
464.975	1368
465.195	1343
465.414	1365
465.634	1331
465.854	1326
466.073	1339
466.293	1307
466.512	1321
466.732	1304
466.951	1327
467.171	1342
467.391	1352
467.61	1286
467.829	1289
468.049	1291
468.268	1309
468.488	1304
468.707	1307
468.927	1322
469.146	1293
469.365	1338
469.585	1315
469.804	1273
470.023	1349
470.243	1313
470.462	1287
470.681	1312
470.901	1313
471.12	1315
471.339	1327
471.558	1313
471.777	1301
471.997	1303
472.216	1339
472.435	1335
472.654	1317
472.873	1333
473.092	1336
473.311	1330
473.53	1325
473.749	1326
473.968	1362
474.187	1345
474.406	1342
474.625	1333
474.844	1356
475.063	1373
475.282	1384
475.501	1393
475.72	1356
475.939	1379
476.158	1393
476.377	1397
476.596	1369
476.814	1433
477.033	1429
477.252	1415
477.471	1467
477.69	1417
477.908	1458
478.127	1473
478.346	1457
478.564	1486
478.783	1527
479.002	1635
479.22	1618
479.439	1561
479.658	1545
479.876	1562
480.095	1558
480.313	1593
480.532	1569
480.751	1556
480.969	1555
481.188	1583
481.406	1587
481.624	1556
481.843	1553
482.061	1551
482.28	1573
482.498	1545
482.717	1596
482.935	1572
483.153	1613
483.372	1681
483.59	1693
483.808	1650
484.027	1637
484.245	1607
484.463	1614
484.681	1628
484.9	1647
485.118	1649
485.336	1609
485.554	1670
485.772	1636
485.99	1623
486.209	1626
486.427	1639
486.645	1641
486.863	1660
487.081	1673
487.299	1679
487.517	1657
487.735	1749
487.953	1739
488.171	1709
488.389	1684
488.607	1643
488.825	1643
489.043	1646
489.261	1662
489.479	1621
489.696	1665
489.914	1666
490.132	1665
490.35	1629
490.568	1679
490.786	1698
491.003	1646
491.221	1684
491.439	1723
491.657	1696
491.874	1719
492.092	1706
492.31	1749
492.527	1712
492.745	1698
492.963	1717
493.18	1701
493.398	1715
493.615	1698
493.833	1746
494.05	1721
494.268	1701
494.485	1665
494.703	1659
494.92	1680
495.138	1722
495.355	1721
495.573	1733
495.79	1731
496.008	1729
496.225	1722
496.442	1758
496.66	1803
496.877	1729
497.094	1769
497.312	1794
497.529	1774
497.746	1811
497.963	1802
498.181	1852
498.398	1847
498.615	1882
498.832	1845
499.049	1921
499.267	1907
499.484	1941
499.701	2024
499.918	2019
500.135	2073
500.352	2052
500.569	2118
500.786	2106
501.003	2090
501.22	2073
501.437	2018
501.654	1973
501.871	1979
502.088	1971
502.305	1923
502.522	1907
502.739	1883
502.956	1785
503.172	1794
503.389	1766
503.606	1766
503.823	1750
504.04	1701
504.256	1670
504.473	1699
504.69	1690
504.907	1630
505.123	1633
505.34	1607
505.557	1564
505.773	1602
505.99	1583
506.207	1564
506.423	1513
506.64	1522
506.856	1531
507.073	1525
507.289	1525
507.506	1464
507.722	1498
507.939	1471
508.155	1458
508.372	1487
508.588	1495
508.805	1477
509.021	1460
509.238	1443
509.454	1440
509.67	1470
509.887	1397
510.103	1391
510.319	1401
510.536	1389
510.752	1393
510.968	1401
511.184	1374
511.401	1371
511.617	1382
511.833	1391
512.049	1369
512.265	1370
512.481	1401
512.698	1369
512.914	1391
513.13	1377
513.346	1349
513.562	1388
513.778	1355
513.994	1406
514.21	1360
514.426	1362
514.642	1382
514.858	1404
515.074	1363
515.29	1350
515.506	1393
515.721	1385
515.937	1393
516.153	1386
516.369	1397
516.585	1373
516.801	1417
517.016	1401
517.232	1361
517.448	1413
517.664	1380
517.879	1396
518.095	1429
518.311	1397
518.527	1373
518.742	1385
518.958	1371
519.173	1367
519.389	1354
519.605	1350
519.82	1369
520.036	1358
520.251	1309
520.467	1299
520.682	1334
520.898	1322
521.113	1345
521.329	1317
521.544	1281
521.76	1263
521.975	1297
522.19	1294
522.406	1277
522.621	1298
522.836	1250
523.052	1264
523.267	1276
523.482	1261
523.698	1249
523.913	1262
524.128	1238
524.343	1249
524.559	1246
524.774	1217
524.989	1257
525.204	1229
525.419	1253
525.634	1291
525.849	1209
526.064	1208
526.28	1208
526.495	1231
526.71	1218
526.925	1209
527.14	1216
527.355	1221
527.57	1187
527.785	1222
527.999	1177
528.214	1207
528.429	1211
528.644	1188
528.859	1241
529.074	1222
529.289	1230
529.503	1241
529.718	1189
529.933	1203
530.148	1201
530.363	1176
530.577	1196
530.792	1198
531.007	1160
531.221	1156
531.436	1159
531.651	1194
531.865	1138
532.08	1130
532.295	1144
532.509	1184
532.724	1140
532.938	1153
533.153	1166
533.367	1173
533.582	1156
533.796	1195
534.011	1163
534.225	1157
534.44	1112
534.654	1132
534.868	1139
535.083	1171
535.297	1142
535.511	1152
535.726	1134
535.94	1134
536.154	1115
536.369	1106
536.583	1119
536.797	1108
537.011	1062
537.225	1065
537.44	1081
537.654	1075
537.868	1087
538.082	1089
538.296	1068
538.51	1079
538.724	1086
538.938	1086
539.153	1095
539.367	1038
539.581	1081
539.795	1033
540.009	1065
540.222	1061
540.436	1061
540.65	1073
540.864	1073
541.078	1071
541.292	1073
541.506	1089
541.72	1066
541.934	1080
542.147	1077
542.361	1092
542.575	1071
542.789	1047
543.002	1050
543.216	1039
543.43	1037
543.644	1043
543.857	1057
544.071	1057
544.285	1058
544.498	1034
544.712	1035
544.925	1057
545.139	1022
545.352	1039
545.566	1045
545.779	1038
545.993	1095
