Data from Ni(NO3)2@0.0625M.TitratingCurve.Agarose3%dH2O.NegLispCup.LampEnergy10.LIBS07252019_HRD10591_18-15-42-570.txt Node
Date: Thu Jul 25 18:15:42 EDT 2019
User: cochatt
Spectrometer: HR+D1059
Trigger mode: 1
Integration Time (sec): 1.000000E-1
Scans to average: 1
Electric dark correction enabled: true
Nonlinearity correction enabled: false
Boxcar width: 0
XAxis mode: Wavelengths
Number of Pixels in Spectrum: 2048
>>>>>Begin Spectral Data<<<<<
223.165	-21.25
223.4	-21.25
223.635	-21.25
223.869	-35.25
224.104	-28.25
224.338	-8.25
224.573	-15.25
224.808	-0.25
225.042	-4.25
225.277	-4.25
225.511	5.75
225.746	-10.25
225.98	-3.25
226.215	20.75
226.449	20.75
226.683	14.75
226.918	40.75
227.152	27.75
227.387	36.75
227.621	28.75
227.856	44.75
228.09	50.75
228.324	53.75
228.559	52.75
228.793	59.75
229.027	111.75
229.262	113.75
229.496	116.75
229.73	115.75
229.964	121.75
230.199	137.75
230.433	130.75
230.667	131.75
230.901	126.75
231.136	137.75
231.37	132.75
231.604	140.75
231.838	138.75
232.072	154.75
232.306	156.75
232.541	156.75
232.775	147.75
233.009	149.75
233.243	150.75
233.477	161.75
233.711	165.75
233.945	157.75
234.179	161.75
234.413	161.75
234.647	160.75
234.881	164.75
235.115	162.75
235.349	160.75
235.583	155.75
235.817	150.75
236.051	153.75
236.285	168.75
236.519	169.75
236.753	172.75
236.987	166.75
237.221	167.75
237.455	152.75
237.689	151.75
237.922	172.75
238.156	175.75
238.39	176.75
238.624	181.75
238.858	180.75
239.091	187.75
239.325	164.75
239.559	174.75
239.793	166.75
240.027	168.75
240.26	169.75
240.494	187.75
240.728	183.75
240.961	196.75
241.195	189.75
241.429	198.75
241.662	210.75
241.896	201.75
242.13	216.75
242.363	213.75
242.597	205.75
242.83	211.75
243.064	191.75
243.298	205.75
243.531	200.75
243.765	211.75
243.998	210.75
244.232	223.75
244.465	221.75
244.699	215.75
244.932	241.75
245.166	233.75
245.399	241.75
245.633	220.75
245.866	240.75
246.099	235.75
246.333	243.75
246.566	222.75
246.8	237.75
247.033	261.75
247.266	239.75
247.5	239.75
247.733	246.75
247.966	238.75
248.2	266.75
248.433	244.75
248.666	239.75
248.899	251.75
249.133	255.75
249.366	256.75
249.599	259.75
249.832	263.75
250.066	264.75
250.299	271.75
250.532	268.75
250.765	292.75
250.998	271.75
251.231	272.75
251.465	275.75
251.698	292.75
251.931	269.75
252.164	277.75
252.397	279.75
252.63	296.75
252.863	288.75
253.096	304.75
253.329	291.75
253.562	303.75
253.795	305.75
254.028	302.75
254.261	299.75
254.494	296.75
254.727	296.75
254.96	302.75
255.193	308.75
255.426	313.75
255.659	311.75
255.892	309.75
256.124	286.75
256.357	293.75
256.59	306.75
256.823	311.75
257.056	293.75
257.289	321.75
257.521	313.75
257.754	300.75
257.987	337.75
258.22	316.75
258.452	323.75
258.685	315.75
258.918	335.75
259.151	335.75
259.383	353.75
259.616	340.75
259.849	320.75
260.081	320.75
260.314	360.75
260.547	337.75
260.779	341.75
261.012	349.75
261.244	364.75
261.477	353.75
261.71	359.75
261.942	357.75
262.175	353.75
262.407	355.75
262.64	332.75
262.872	352.75
263.105	333.75
263.337	353.75
263.57	352.75
263.802	361.75
264.035	373.75
264.267	377.75
264.499	367.75
264.732	380.75
264.964	375.75
265.197	382.75
265.429	390.75
265.661	364.75
265.894	380.75
266.126	376.75
266.358	378.75
266.591	395.75
266.823	397.75
267.055	385.75
267.287	391.75
267.52	379.75
267.752	403.75
267.984	417.75
268.216	411.75
268.448	407.75
268.681	402.75
268.913	407.75
269.145	401.75
269.377	385.75
269.609	403.75
269.841	420.75
270.073	400.75
270.306	395.75
270.538	401.75
270.77	402.75
271.002	408.75
271.234	418.75
271.466	419.75
271.698	418.75
271.93	431.75
272.162	416.75
272.394	432.75
272.626	425.75
272.858	419.75
273.09	415.75
273.322	420.75
273.553	423.75
273.785	415.75
274.017	458.75
274.249	427.75
274.481	435.75
274.713	445.75
274.945	428.75
275.176	484.75
275.408	444.75
275.64	454.75
275.872	455.75
276.104	458.75
276.335	454.75
276.567	460.75
276.799	433.75
277.031	464.75
277.262	458.75
277.494	477.75
277.726	453.75
277.957	467.75
278.189	460.75
278.421	481.75
278.652	471.75
278.884	486.75
279.115	479.75
279.347	499.75
279.579	469.75
279.81	487.75
280.042	472.75
280.273	505.75
280.505	485.75
280.736	471.75
280.968	525.75
281.199	495.75
281.431	486.75
281.662	485.75
281.894	483.75
282.125	502.75
282.356	513.75
282.588	495.75
282.819	516.75
283.051	498.75
283.282	499.75
283.513	510.75
283.745	518.75
283.976	511.75
284.207	515.75
284.439	537.75
284.67	531.75
284.901	525.75
285.132	524.75
285.364	533.75
285.595	541.75
285.826	535.75
286.057	546.75
286.288	534.75
286.52	536.75
286.751	536.75
286.982	561.75
287.213	529.75
287.444	532.75
287.675	541.75
287.906	579.75
288.138	553.75
288.369	562.75
288.6	560.75
288.831	560.75
289.062	573.75
289.293	566.75
289.524	557.75
289.755	534.75
289.986	559.75
290.217	561.75
290.448	571.75
290.679	562.75
290.91	563.75
291.141	590.75
291.371	581.75
291.602	555.75
291.833	578.75
292.064	565.75
292.295	578.75
292.526	590.75
292.757	588.75
292.987	564.75
293.218	556.75
293.449	588.75
293.68	569.75
293.91	570.75
294.141	580.75
294.372	580.75
294.603	582.75
294.833	594.75
295.064	573.75
295.295	573.75
295.525	590.75
295.756	584.75
295.987	571.75
296.217	604.75
296.448	586.75
296.679	579.75
296.909	615.75
297.14	611.75
297.37	615.75
297.601	631.75
297.831	620.75
298.062	648.75
298.292	648.75
298.523	630.75
298.753	630.75
298.984	639.75
299.214	607.75
299.445	621.75
299.675	602.75
299.905	616.75
300.136	599.75
300.366	627.75
300.597	624.75
300.827	652.75
301.057	661.75
301.288	664.75
301.518	675.75
301.748	670.75
301.979	667.75
302.209	671.75
302.439	655.75
302.669	656.75
302.9	659.75
303.13	647.75
303.36	642.75
303.59	626.75
303.82	645.75
304.051	632.75
304.281	634.75
304.511	631.75
304.741	625.75
304.971	621.75
305.201	664.75
305.431	628.75
305.661	619.75
305.891	639.75
306.121	623.75
306.352	640.75
306.582	629.75
306.812	595.75
307.042	623.75
307.272	631.75
307.502	622.75
307.731	640.75
307.961	650.75
308.191	621.75
308.421	619.75
308.651	631.75
308.881	646.75
309.111	648.75
309.341	636.75
309.571	627.75
309.8	638.75
310.03	621.75
310.26	624.75
310.49	621.75
310.72	654.75
310.949	629.75
311.179	655.75
311.409	640.75
311.639	653.75
311.868	645.75
312.098	642.75
312.328	637.75
312.557	655.75
312.787	639.75
313.017	668.75
313.246	676.75
313.476	673.75
313.706	695.75
313.935	691.75
314.165	680.75
314.394	680.75
314.624	684.75
314.853	665.75
315.083	695.75
315.312	679.75
315.542	685.75
315.771	689.75
316.001	661.75
316.23	678.75
316.46	670.75
316.689	652.75
316.919	624.75
317.148	679.75
317.377	680.75
317.607	659.75
317.836	623.75
318.065	636.75
318.295	673.75
318.524	692.75
318.753	647.75
318.983	664.75
319.212	664.75
319.441	670.75
319.67	664.75
319.9	649.75
320.129	670.75
320.358	658.75
320.587	668.75
320.816	654.75
321.046	658.75
321.275	676.75
321.504	668.75
321.733	657.75
321.962	652.75
322.191	659.75
322.42	676.75
322.649	677.75
322.878	672.75
323.108	689.75
323.337	667.75
323.566	688.75
323.795	677.75
324.024	689.75
324.253	693.75
324.482	678.75
324.71	675.75
324.939	688.75
325.168	683.75
325.397	678.75
325.626	669.75
325.855	702.75
326.084	717.75
326.313	711.75
326.542	707.75
326.77	753.75
326.999	731.75
327.228	717.75
327.457	726.75
327.686	707.75
327.914	712.75
328.143	710.75
328.372	750.75
328.6	723.75
328.829	743.75
329.058	738.75
329.287	764.75
329.515	723.75
329.744	740.75
329.972	767.75
330.201	765.75
330.43	769.75
330.658	735.75
330.887	742.75
331.115	759.75
331.344	784.75
331.572	771.75
331.801	823.75
332.03	792.75
332.258	819.75
332.486	835.75
332.715	860.75
332.943	903.75
333.172	949.75
333.4	1004.75
333.629	1027.75
333.857	1048.75
334.085	1001.75
334.314	985.75
334.542	965.75
334.771	933.75
334.999	933.75
335.227	915.75
335.455	918.75
335.684	906.75
335.912	912.75
336.14	883.75
336.369	877.75
336.597	923.75
336.825	907.75
337.053	875.75
337.281	872.75
337.51	835.75
337.738	819.75
337.966	835.75
338.194	798.75
338.422	812.75
338.65	767.75
338.878	793.75
339.106	799.75
339.334	807.75
339.562	736.75
339.79	773.75
340.018	743.75
340.246	777.75
340.474	760.75
340.702	757.75
340.93	750.75
341.158	785.75
341.386	782.75
341.614	780.75
341.842	791.75
342.07	764.75
342.298	772.75
342.526	738.75
342.754	733.75
342.981	723.75
343.209	768.75
343.437	813.75
343.665	859.75
343.893	959.75
344.12	981.75
344.348	951.75
344.576	886.75
344.804	812.75
345.031	799.75
345.259	787.75
345.487	772.75
345.714	761.75
345.942	752.75
346.17	731.75
346.397	741.75
346.625	735.75
346.853	749.75
347.08	722.75
347.308	744.75
347.535	747.75
347.763	763.75
347.99	746.75
348.218	760.75
348.445	769.75
348.673	749.75
348.9	766.75
349.128	728.75
349.355	711.75
349.583	717.75
349.81	748.75
350.037	725.75
350.265	729.75
350.492	727.75
350.72	717.75
350.947	712.75
351.174	710.75
351.402	723.75
351.629	705.75
351.856	711.75
352.083	698.75
352.311	717.75
352.538	727.75
352.765	705.75
352.992	721.75
353.22	718.75
353.447	702.75
353.674	698.75
353.901	717.75
354.128	711.75
354.355	696.75
354.583	696.75
354.81	707.75
355.037	701.75
355.264	700.75
355.491	718.75
355.718	717.75
355.945	709.75
356.172	692.75
356.399	710.75
356.626	731.75
356.853	708.75
357.08	710.75
357.307	736.75
357.534	725.75
357.761	702.75
357.988	731.75
358.215	722.75
358.441	695.75
358.668	723.75
358.895	720.75
359.122	733.75
359.349	727.75
359.576	703.75
359.802	686.75
360.029	725.75
360.256	696.75
360.483	713.75
360.709	720.75
360.936	721.75
361.163	709.75
361.39	718.75
361.616	723.75
361.843	705.75
362.07	702.75
362.296	726.75
362.523	717.75
362.749	705.75
362.976	727.75
363.203	696.75
363.429	691.75
363.656	729.75
363.882	708.75
364.109	704.75
364.335	702.75
364.562	688.75
364.788	695.75
365.015	704.75
365.241	704.75
365.468	713.75
365.694	721.75
365.92	735.75
366.147	738.75
366.373	705.75
366.599	723.75
366.826	718.75
367.052	714.75
367.278	709.75
367.505	697.75
367.731	711.75
367.957	713.75
368.184	747.75
368.41	724.75
368.636	749.75
368.862	739.75
369.089	736.75
369.315	747.75
369.541	732.75
369.767	756.75
369.993	732.75
370.219	733.75
370.445	764.75
370.672	776.75
370.898	748.75
371.124	753.75
371.35	778.75
371.576	795.75
371.802	798.75
372.028	752.75
372.254	812.75
372.48	766.75
372.706	788.75
372.932	819.75
373.158	803.75
373.384	794.75
373.61	795.75
373.835	778.75
374.061	764.75
374.287	797.75
374.513	804.75
374.739	824.75
374.965	857.75
375.191	863.75
375.416	845.75
375.642	839.75
375.868	825.75
376.094	804.75
376.319	801.75
376.545	802.75
376.771	786.75
376.997	766.75
377.222	765.75
377.448	769.75
377.674	764.75
377.899	751.75
378.125	758.75
378.35	777.75
378.576	787.75
378.802	775.75
379.027	764.75
379.253	756.75
379.478	781.75
379.704	773.75
379.929	778.75
380.155	775.75
380.38	735.75
380.606	772.75
380.831	771.75
381.057	796.75
381.282	757.75
381.507	761.75
381.733	783.75
381.958	774.75
382.184	783.75
382.409	804.75
382.634	805.75
382.86	816.75
383.085	801.75
383.31	854.75
383.535	854.75
383.761	864.75
383.986	881.75
384.211	873.75
384.436	925.75
384.662	957.75
384.887	958.75
385.112	950.75
385.337	956.75
385.562	931.75
385.787	952.75
386.013	960.75
386.238	968.75
386.463	956.75
386.688	957.75
386.913	955.75
387.138	900.75
387.363	933.75
387.588	907.75
387.813	930.75
388.038	943.75
388.263	923.75
388.488	924.75
388.713	931.75
388.938	931.75
389.163	915.75
389.387	931.75
389.612	906.75
389.837	920.75
390.062	919.75
390.287	917.75
390.512	908.75
390.736	916.75
390.961	946.75
391.186	969.75
391.411	1021.75
391.636	1034.75
391.86	1055.75
392.085	1076.75
392.31	1085.75
392.534	1029.75
392.759	1010.75
392.984	979.75
393.208	962.75
393.433	994.75
393.658	969.75
393.882	1023.75
394.107	1011.75
394.331	1019.75
394.556	1016.75
394.78	996.75
395.005	997.75
395.229	1003.75
395.454	1017.75
395.678	1054.75
395.903	1083.75
396.127	1038.75
396.352	987.75
396.576	989.75
396.801	991.75
397.025	1037.75
397.249	1042.75
397.474	1045.75
397.698	1076.75
397.922	1044.75
398.147	1051.75
398.371	1070.75
398.595	1087.75
398.82	1135.75
399.044	1226.75
399.268	1379.75
399.492	1611.75
399.717	1899.75
399.941	1889.75
400.165	1629.75
400.389	1392.75
400.613	1304.75
400.837	1240.75
401.062	1173.75
401.286	1171.75
401.51	1181.75
401.734	1151.75
401.958	1165.75
402.182	1216.75
402.406	1214.75
402.63	1250.75
402.854	1268.75
403.078	1301.75
403.302	1333.75
403.526	1356.75
403.75	1395.75
403.974	1455.75
404.198	1399.75
404.422	1433.75
404.645	1389.75
404.869	1356.75
405.093	1327.75
405.317	1309.75
405.541	1325.75
405.765	1330.75
405.988	1292.75
406.212	1311.75
406.436	1281.75
406.66	1310.75
406.883	1383.75
407.107	1457.75
407.331	1510.75
407.555	1584.75
407.778	1555.75
408.002	1489.75
408.226	1459.75
408.449	1410.75
408.673	1357.75
408.896	1391.75
409.12	1359.75
409.344	1343.75
409.567	1333.75
409.791	1399.75
410.014	1375.75
410.238	1383.75
410.461	1361.75
410.685	1313.75
410.908	1289.75
411.132	1259.75
411.355	1214.75
411.578	1245.75
411.802	1219.75
412.025	1232.75
412.249	1263.75
412.472	1233.75
412.695	1190.75
412.919	1160.75
413.142	1191.75
413.365	1162.75
413.589	1210.75
413.812	1154.75
414.035	1139.75
414.258	1143.75
414.482	1199.75
414.705	1212.75
414.928	1200.75
415.151	1218.75
415.374	1181.75
415.597	1183.75
415.821	1149.75
416.044	1143.75
416.267	1143.75
416.49	1101.75
416.713	1147.75
416.936	1164.75
417.159	1132.75
417.382	1136.75
417.605	1190.75
417.828	1151.75
418.051	1159.75
418.274	1170.75
418.497	1173.75
418.72	1201.75
418.943	1213.75
419.166	1291.75
419.389	1368.75
419.611	1349.75
419.834	1275.75
420.057	1187.75
420.28	1171.75
420.503	1180.75
420.726	1149.75
420.948	1153.75
421.171	1131.75
421.394	1161.75
421.617	1151.75
421.839	1160.75
422.062	1187.75
422.285	1170.75
422.507	1192.75
422.73	1195.75
422.953	1206.75
423.175	1243.75
423.398	1238.75
423.621	1261.75
423.843	1307.75
424.066	1285.75
424.288	1279.75
424.511	1239.75
424.733	1248.75
424.956	1222.75
425.178	1195.75
425.401	1201.75
425.623	1169.75
425.846	1127.75
426.068	1147.75
426.291	1150.75
426.513	1073.75
426.735	1091.75
426.958	1103.75
427.18	1058.75
427.402	1065.75
427.625	1067.75
427.847	1058.75
428.069	1037.75
428.292	1065.75
428.514	1031.75
428.736	1025.75
428.958	1048.75
429.181	996.75
429.403	995.75
429.625	1006.75
429.847	996.75
430.069	1029.75
430.292	1033.75
430.514	986.75
430.736	1027.75
430.958	975.75
431.18	1003.75
431.402	1031.75
431.624	1006.75
431.846	1027.75
432.068	1065.75
432.29	1022.75
432.512	1013.75
432.734	1080.75
432.956	1041.75
433.178	1051.75
433.4	1039.75
433.622	1047.75
433.844	1057.75
434.066	1059.75
434.287	1029.75
434.509	1112.75
434.731	1157.75
434.953	1189.75
435.175	1214.75
435.397	1192.75
435.618	1078.75
435.84	1062.75
436.062	1062.75
436.284	1065.75
436.505	1039.75
436.727	1047.75
436.949	1054.75
437.17	1057.75
437.392	1030.75
437.614	1021.75
437.835	976.75
438.057	977.75
438.278	1008.75
438.5	992.75
438.721	990.75
438.943	1003.75
439.165	994.75
439.386	1041.75
439.608	1045.75
439.829	997.75
440.05	1033.75
440.272	1039.75
440.493	1044.75
440.715	1033.75
440.936	1055.75
441.158	1112.75
441.379	1118.75
441.6	1185.75
441.822	1197.75
442.043	1171.75
442.264	1156.75
442.486	1117.75
442.707	1141.75
442.928	1143.75
443.149	1157.75
443.371	1146.75
443.592	1173.75
443.813	1156.75
444.034	1181.75
444.255	1203.75
444.476	1303.75
444.698	1383.75
444.919	1453.75
445.14	1555.75
445.361	1380.75
445.582	1207.75
445.803	1131.75
446.024	1127.75
446.245	1075.75
446.466	1072.75
446.687	1038.75
446.908	1023.75
447.129	1031.75
447.35	974.75
447.571	980.75
447.792	994.75
448.013	986.75
448.234	964.75
448.455	963.75
448.675	972.75
448.896	951.75
449.117	936.75
449.338	934.75
449.559	944.75
449.779	903.75
450	941.75
450.221	962.75
450.442	970.75
450.662	950.75
450.883	955.75
451.104	974.75
451.324	968.75
451.545	979.75
451.766	982.75
451.986	926.75
452.207	973.75
452.428	949.75
452.648	964.75
452.869	969.75
453.089	966.75
453.31	943.75
453.53	919.75
453.751	936.75
453.971	932.75
454.192	908.75
454.412	881.75
454.633	894.75
454.853	916.75
455.073	941.75
455.294	885.75
455.514	881.75
455.734	891.75
455.955	881.75
456.175	876.75
456.395	888.75
456.616	892.75
456.836	876.75
457.056	896.75
457.276	887.75
457.497	893.75
457.717	895.75
457.937	887.75
458.157	916.75
458.377	944.75
458.598	918.75
458.818	953.75
459.038	1004.75
459.258	1041.75
459.478	1072.75
459.698	1088.75
459.918	1101.75
460.138	1173.75
460.358	1219.75
460.578	1214.75
460.798	1266.75
461.018	1275.75
461.238	1251.75
461.458	1183.75
461.678	1216.75
461.898	1217.75
462.118	1219.75
462.338	1341.75
462.558	1377.75
462.777	1412.75
462.997	1551.75
463.217	1682.75
463.437	1728.75
463.657	1570.75
463.876	1437.75
464.096	1467.75
464.316	1440.75
464.536	1510.75
464.755	1394.75
464.975	1342.75
465.195	1269.75
465.414	1209.75
465.634	1176.75
465.854	1119.75
466.073	1088.75
466.293	1042.75
466.512	1039.75
466.732	1008.75
466.951	991.75
467.171	999.75
467.391	1026.75
467.61	1009.75
467.829	989.75
468.049	994.75
468.268	968.75
468.488	948.75
468.707	930.75
468.927	977.75
469.146	928.75
469.365	963.75
469.585	970.75
469.804	997.75
470.023	1027.75
470.243	1028.75
470.462	1035.75
470.681	1019.75
470.901	1054.75
471.12	1048.75
471.339	1028.75
471.558	982.75
471.777	980.75
471.997	978.75
472.216	935.75
472.435	943.75
472.654	910.75
472.873	947.75
473.092	945.75
473.311	944.75
473.53	936.75
473.749	933.75
473.968	928.75
474.187	906.75
474.406	919.75
474.625	901.75
474.844	918.75
475.063	922.75
475.282	926.75
475.501	936.75
475.72	968.75
475.939	941.75
476.158	951.75
476.377	988.75
476.596	959.75
476.814	987.75
477.033	971.75
477.252	1014.75
477.471	1051.75
477.69	1052.75
477.908	1076.75
478.127	1105.75
478.346	1108.75
478.564	1133.75
478.783	1148.75
479.002	1157.75
479.22	1190.75
479.439	1178.75
479.658	1162.75
479.876	1165.75
480.095	1172.75
480.313	1239.75
480.532	1290.75
480.751	1275.75
480.969	1241.75
481.188	1151.75
481.406	1144.75
481.624	1074.75
481.843	1087.75
482.061	1069.75
482.28	1102.75
482.498	1051.75
482.717	1066.75
482.935	1071.75
483.153	1051.75
483.372	1039.75
483.59	1059.75
483.808	1058.75
484.027	1061.75
484.245	1056.75
484.463	1061.75
484.681	1096.75
484.9	1053.75
485.118	1123.75
485.336	1102.75
485.554	1147.75
485.772	1141.75
485.99	1119.75
486.209	1138.75
486.427	1131.75
486.645	1144.75
486.863	1122.75
487.081	1133.75
487.299	1110.75
487.517	1127.75
487.735	1109.75
487.953	1100.75
488.171	1106.75
488.389	1087.75
488.607	1076.75
488.825	1083.75
489.043	1116.75
489.261	1123.75
489.479	1095.75
489.696	1134.75
489.914	1126.75
490.132	1116.75
490.35	1107.75
490.568	1112.75
490.786	1120.75
491.003	1123.75
491.221	1111.75
491.439	1116.75
491.657	1153.75
491.874	1124.75
492.092	1142.75
492.31	1147.75
492.527	1124.75
492.745	1129.75
492.963	1155.75
493.18	1149.75
493.398	1166.75
493.615	1168.75
493.833	1151.75
494.05	1149.75
494.268	1183.75
494.485	1187.75
494.703	1214.75
494.92	1164.75
495.138	1164.75
495.355	1182.75
495.573	1211.75
495.79	1178.75
496.008	1199.75
496.225	1205.75
496.442	1221.75
