Data from Ni(NO3)2Standard.Agarose3%.GreenCap.LampEnergy5.5.E.O_HRD10591_14-40-46-188.txt Node
Date: Mon Jul 22 14:40:46 EDT 2019
User: cochatt
Spectrometer: HR+D1059
Trigger mode: 1
Integration Time (sec): 1.000000E-1
Scans to average: 1
Electric dark correction enabled: true
Nonlinearity correction enabled: false
Boxcar width: 0
XAxis mode: Wavelengths
Number of Pixels in Spectrum: 2048
>>>>>Begin Spectral Data<<<<<
223.165	4.25
223.4	4.25
223.635	4.25
223.869	-18.75
224.104	-4.75
224.338	-17.75
224.573	-15.75
224.808	-14.75
225.042	-11.75
225.277	-13.75
225.511	-2.75
225.746	0.25
225.98	21.25
226.215	2.25
226.449	13.25
226.683	25.25
226.918	18.25
227.152	15.25
227.387	33.25
227.621	43.25
227.856	47.25
228.09	41.25
228.324	57.25
228.559	49.25
228.793	58.25
229.027	70.25
229.262	66.25
229.496	74.25
229.73	71.25
229.964	93.25
230.199	70.25
230.433	83.25
230.667	90.25
230.901	75.25
231.136	72.25
231.37	84.25
231.604	81.25
231.838	90.25
232.072	91.25
232.306	77.25
232.541	100.25
232.775	82.25
233.009	83.25
233.243	72.25
233.477	90.25
233.711	85.25
233.945	73.25
234.179	88.25
234.413	92.25
234.647	82.25
234.881	72.25
235.115	81.25
235.349	77.25
235.583	93.25
235.817	76.25
236.051	81.25
236.285	68.25
236.519	70.25
236.753	92.25
236.987	77.25
237.221	80.25
237.455	87.25
237.689	88.25
237.922	93.25
238.156	76.25
238.39	72.25
238.624	70.25
238.858	91.25
239.091	79.25
239.325	92.25
239.559	69.25
239.793	78.25
240.027	77.25
240.26	86.25
240.494	98.25
240.728	65.25
240.961	93.25
241.195	82.25
241.429	93.25
241.662	82.25
241.896	68.25
242.13	77.25
242.363	90.25
242.597	93.25
242.83	79.25
243.064	83.25
243.298	74.25
243.531	83.25
243.765	86.25
243.998	89.25
244.232	94.25
244.465	95.25
244.699	84.25
244.932	72.25
245.166	82.25
245.399	66.25
245.633	85.25
245.866	86.25
246.099	88.25
246.333	74.25
246.566	69.25
246.8	89.25
247.033	91.25
247.266	81.25
247.5	92.25
247.733	76.25
247.966	81.25
248.2	88.25
248.433	72.25
248.666	85.25
248.899	81.25
249.133	82.25
249.366	89.25
249.599	88.25
249.832	78.25
250.066	86.25
250.299	82.25
250.532	86.25
250.765	88.25
250.998	78.25
251.231	85.25
251.465	84.25
251.698	76.25
251.931	76.25
252.164	89.25
252.397	71.25
252.63	78.25
252.863	89.25
253.096	82.25
253.329	88.25
253.562	101.25
253.795	83.25
254.028	97.25
254.261	88.25
254.494	69.25
254.727	83.25
254.96	92.25
255.193	81.25
255.426	92.25
255.659	97.25
255.892	84.25
256.124	79.25
256.357	76.25
256.59	87.25
256.823	94.25
257.056	87.25
257.289	73.25
257.521	85.25
257.754	79.25
257.987	74.25
258.22	90.25
258.452	79.25
258.685	86.25
258.918	91.25
259.151	90.25
259.383	86.25
259.616	85.25
259.849	91.25
260.081	80.25
260.314	88.25
260.547	86.25
260.779	89.25
261.012	72.25
261.244	92.25
261.477	93.25
261.71	91.25
261.942	81.25
262.175	93.25
262.407	81.25
262.64	77.25
262.872	89.25
263.105	87.25
263.337	107.25
263.57	86.25
263.802	89.25
264.035	77.25
264.267	79.25
264.499	95.25
264.732	95.25
264.964	92.25
265.197	91.25
265.429	82.25
265.661	94.25
265.894	86.25
266.126	85.25
266.358	106.25
266.591	76.25
266.823	101.25
267.055	80.25
267.287	83.25
267.52	87.25
267.752	92.25
267.984	86.25
268.216	83.25
268.448	105.25
268.681	82.25
268.913	79.25
269.145	82.25
269.377	85.25
269.609	86.25
269.841	88.25
270.073	96.25
270.306	79.25
270.538	87.25
270.77	88.25
271.002	76.25
271.234	89.25
271.466	96.25
271.698	91.25
271.93	93.25
272.162	72.25
272.394	85.25
272.626	90.25
272.858	91.25
273.09	93.25
273.322	80.25
273.553	83.25
273.785	100.25
274.017	86.25
274.249	97.25
274.481	87.25
274.713	80.25
274.945	97.25
275.176	97.25
275.408	95.25
275.64	78.25
275.872	81.25
276.104	83.25
276.335	84.25
276.567	88.25
276.799	98.25
277.031	82.25
277.262	93.25
277.494	103.25
277.726	85.25
277.957	78.25
278.189	84.25
278.421	84.25
278.652	90.25
278.884	83.25
279.115	74.25
279.347	99.25
279.579	95.25
279.81	93.25
280.042	94.25
280.273	94.25
280.505	76.25
280.736	91.25
280.968	78.25
281.199	88.25
281.431	80.25
281.662	88.25
281.894	88.25
282.125	76.25
282.356	89.25
282.588	94.25
282.819	102.25
283.051	84.25
283.282	85.25
283.513	70.25
283.745	94.25
283.976	101.25
284.207	97.25
284.439	89.25
284.67	101.25
284.901	105.25
285.132	91.25
285.364	88.25
285.595	98.25
285.826	100.25
286.057	91.25
286.288	90.25
286.52	110.25
286.751	93.25
286.982	81.25
287.213	71.25
287.444	97.25
287.675	95.25
287.906	97.25
288.138	85.25
288.369	88.25
288.6	86.25
288.831	81.25
289.062	106.25
289.293	89.25
289.524	85.25
289.755	76.25
289.986	99.25
290.217	97.25
290.448	95.25
290.679	101.25
290.91	108.25
291.141	72.25
291.371	80.25
291.602	80.25
291.833	103.25
292.064	104.25
292.295	85.25
292.526	86.25
292.757	82.25
292.987	91.25
293.218	85.25
293.449	80.25
293.68	103.25
293.91	92.25
294.141	87.25
294.372	85.25
294.603	91.25
294.833	92.25
295.064	85.25
295.295	69.25
295.525	80.25
295.756	88.25
295.987	83.25
296.217	97.25
296.448	80.25
296.679	102.25
296.909	78.25
297.14	90.25
297.37	98.25
297.601	86.25
297.831	77.25
298.062	90.25
298.292	95.25
298.523	71.25
298.753	86.25
298.984	83.25
299.214	87.25
299.445	85.25
299.675	89.25
299.905	79.25
300.136	80.25
300.366	92.25
300.597	74.25
300.827	92.25
301.057	96.25
301.288	95.25
301.518	95.25
301.748	79.25
301.979	90.25
302.209	86.25
302.439	80.25
302.669	93.25
302.9	95.25
303.13	93.25
303.36	98.25
303.59	94.25
303.82	92.25
304.051	96.25
304.281	93.25
304.511	103.25
304.741	102.25
304.971	99.25
305.201	94.25
305.431	94.25
305.661	83.25
305.891	105.25
306.121	92.25
306.352	90.25
306.582	91.25
306.812	95.25
307.042	74.25
307.272	99.25
307.502	86.25
307.731	102.25
307.961	95.25
308.191	102.25
308.421	104.25
308.651	84.25
308.881	104.25
309.111	105.25
309.341	72.25
309.571	84.25
309.8	84.25
310.03	86.25
310.26	104.25
310.49	108.25
310.72	89.25
310.949	84.25
311.179	86.25
311.409	91.25
311.639	106.25
311.868	90.25
312.098	88.25
312.328	95.25
312.557	101.25
312.787	81.25
313.017	103.25
313.246	76.25
313.476	81.25
313.706	91.25
313.935	99.25
314.165	94.25
314.394	87.25
314.624	85.25
314.853	85.25
315.083	98.25
315.312	92.25
315.542	82.25
315.771	85.25
316.001	108.25
316.23	80.25
316.46	85.25
316.689	90.25
316.919	80.25
317.148	101.25
317.377	95.25
317.607	86.25
317.836	82.25
318.065	89.25
318.295	97.25
318.524	85.25
318.753	103.25
318.983	96.25
319.212	88.25
319.441	85.25
319.67	89.25
319.9	89.25
320.129	88.25
320.358	101.25
320.587	91.25
320.816	82.25
321.046	93.25
321.275	89.25
321.504	91.25
321.733	111.25
321.962	93.25
322.191	86.25
322.42	84.25
322.649	93.25
322.878	99.25
323.108	85.25
323.337	87.25
323.566	96.25
323.795	81.25
324.024	94.25
324.253	91.25
324.482	93.25
324.71	95.25
324.939	83.25
325.168	93.25
325.397	102.25
325.626	85.25
325.855	102.25
326.084	84.25
326.313	96.25
326.542	91.25
326.77	88.25
326.999	91.25
327.228	85.25
327.457	89.25
327.686	89.25
327.914	81.25
328.143	81.25
328.372	84.25
328.6	99.25
328.829	102.25
329.058	87.25
329.287	101.25
329.515	104.25
329.744	94.25
329.972	72.25
330.201	101.25
330.43	85.25
330.658	75.25
330.887	90.25
331.115	98.25
331.344	82.25
331.572	95.25
331.801	89.25
332.03	82.25
332.258	92.25
332.486	90.25
332.715	77.25
332.943	85.25
333.172	92.25
333.4	97.25
333.629	85.25
333.857	91.25
334.085	82.25
334.314	87.25
334.542	93.25
334.771	107.25
334.999	104.25
335.227	101.25
335.455	101.25
335.684	97.25
335.912	83.25
336.14	97.25
336.369	92.25
336.597	97.25
336.825	97.25
337.053	101.25
337.281	96.25
337.51	102.25
337.738	92.25
337.966	80.25
338.194	88.25
338.422	92.25
338.65	82.25
338.878	88.25
339.106	89.25
339.334	93.25
339.562	85.25
339.79	105.25
340.018	108.25
340.246	90.25
340.474	98.25
340.702	103.25
340.93	96.25
341.158	81.25
341.386	85.25
341.614	97.25
341.842	96.25
342.07	77.25
342.298	72.25
342.526	82.25
342.754	89.25
342.981	105.25
343.209	86.25
343.437	103.25
343.665	108.25
343.893	81.25
344.12	97.25
344.348	101.25
344.576	106.25
344.804	97.25
345.031	84.25
345.259	89.25
345.487	97.25
345.714	92.25
345.942	89.25
346.17	84.25
346.397	96.25
346.625	107.25
346.853	96.25
347.08	90.25
347.308	97.25
347.535	88.25
347.763	93.25
347.99	92.25
348.218	97.25
348.445	88.25
348.673	94.25
348.9	100.25
349.128	89.25
349.355	97.25
349.583	104.25
349.81	86.25
350.037	78.25
350.265	88.25
350.492	94.25
350.72	93.25
350.947	87.25
351.174	96.25
351.402	94.25
351.629	98.25
351.856	85.25
352.083	85.25
352.311	89.25
352.538	94.25
352.765	96.25
352.992	97.25
353.22	104.25
353.447	76.25
353.674	89.25
353.901	81.25
354.128	96.25
354.355	91.25
354.583	92.25
354.81	96.25
355.037	87.25
355.264	96.25
355.491	88.25
355.718	102.25
355.945	90.25
356.172	100.25
356.399	81.25
356.626	73.25
356.853	95.25
357.08	82.25
357.307	80.25
357.534	95.25
357.761	92.25
357.988	90.25
358.215	84.25
358.441	90.25
358.668	88.25
358.895	80.25
359.122	88.25
359.349	82.25
359.576	81.25
359.802	97.25
360.029	89.25
360.256	75.25
360.483	81.25
360.709	86.25
360.936	87.25
361.163	92.25
361.39	98.25
361.616	82.25
361.843	82.25
362.07	79.25
362.296	86.25
362.523	88.25
362.749	88.25
362.976	87.25
363.203	97.25
363.429	89.25
363.656	94.25
363.882	91.25
364.109	102.25
364.335	80.25
364.562	81.25
364.788	97.25
365.015	98.25
365.241	84.25
365.468	87.25
365.694	94.25
365.92	92.25
366.147	79.25
366.373	77.25
366.599	89.25
366.826	96.25
367.052	82.25
367.278	99.25
367.505	101.25
367.731	90.25
367.957	92.25
368.184	79.25
368.41	68.25
368.636	102.25
368.862	84.25
369.089	89.25
369.315	84.25
369.541	100.25
369.767	100.25
369.993	79.25
370.219	84.25
370.445	91.25
370.672	95.25
370.898	95.25
371.124	82.25
371.35	86.25
371.576	85.25
371.802	92.25
372.028	76.25
372.254	82.25
372.48	73.25
372.706	87.25
372.932	86.25
373.158	94.25
373.384	97.25
373.61	105.25
373.835	83.25
374.061	83.25
374.287	94.25
374.513	84.25
374.739	96.25
374.965	81.25
375.191	93.25
375.416	95.25
375.642	89.25
375.868	90.25
376.094	96.25
376.319	93.25
376.545	88.25
376.771	91.25
376.997	86.25
377.222	89.25
377.448	72.25
377.674	97.25
377.899	87.25
378.125	69.25
378.35	86.25
378.576	85.25
378.802	81.25
379.027	85.25
379.253	84.25
379.478	85.25
379.704	88.25
379.929	88.25
380.155	88.25
380.38	100.25
380.606	81.25
380.831	91.25
381.057	97.25
381.282	88.25
381.507	101.25
381.733	104.25
381.958	79.25
382.184	79.25
382.409	89.25
382.634	96.25
382.86	90.25
383.085	79.25
383.31	76.25
383.535	73.25
383.761	89.25
383.986	94.25
384.211	90.25
384.436	90.25
384.662	91.25
384.887	85.25
385.112	87.25
385.337	83.25
385.562	89.25
385.787	92.25
386.013	82.25
386.238	93.25
386.463	96.25
386.688	91.25
386.913	93.25
387.138	102.25
387.363	99.25
387.588	79.25
387.813	82.25
388.038	84.25
388.263	84.25
388.488	90.25
388.713	99.25
388.938	87.25
389.163	86.25
389.387	73.25
389.612	93.25
389.837	89.25
390.062	78.25
390.287	85.25
390.512	86.25
390.736	71.25
390.961	70.25
391.186	86.25
391.411	90.25
391.636	99.25
391.86	91.25
392.085	82.25
392.31	100.25
392.534	103.25
392.759	91.25
392.984	85.25
393.208	77.25
393.433	82.25
393.658	89.25
393.882	97.25
394.107	92.25
394.331	94.25
394.556	102.25
394.78	89.25
395.005	96.25
395.229	97.25
395.454	84.25
395.678	97.25
395.903	92.25
396.127	86.25
396.352	73.25
396.576	92.25
396.801	111.25
397.025	81.25
397.249	100.25
397.474	97.25
397.698	95.25
397.922	91.25
398.147	84.25
398.371	82.25
398.595	94.25
398.82	90.25
399.044	83.25
399.268	88.25
399.492	100.25
399.717	94.25
399.941	104.25
400.165	103.25
400.389	89.25
400.613	85.25
400.837	91.25
401.062	94.25
401.286	101.25
401.51	82.25
401.734	88.25
401.958	97.25
402.182	78.25
402.406	84.25
402.63	91.25
402.854	91.25
403.078	75.25
403.302	82.25
403.526	92.25
403.75	96.25
403.974	77.25
404.198	98.25
404.422	97.25
404.645	97.25
404.869	95.25
405.093	92.25
405.317	82.25
405.541	90.25
405.765	82.25
405.988	82.25
406.212	96.25
406.436	78.25
406.66	100.25
406.883	88.25
407.107	88.25
407.331	89.25
407.555	89.25
407.778	89.25
408.002	69.25
408.226	89.25
408.449	85.25
408.673	88.25
408.896	96.25
409.12	85.25
409.344	84.25
409.567	92.25
409.791	89.25
410.014	96.25
410.238	79.25
410.461	84.25
410.685	99.25
410.908	89.25
411.132	107.25
411.355	87.25
411.578	89.25
411.802	89.25
412.025	88.25
412.249	80.25
412.472	89.25
412.695	92.25
412.919	98.25
413.142	82.25
413.365	83.25
413.589	103.25
413.812	81.25
414.035	88.25
414.258	95.25
414.482	91.25
414.705	98.25
414.928	79.25
415.151	89.25
415.374	90.25
415.597	94.25
415.821	91.25
416.044	100.25
416.267	87.25
416.49	95.25
416.713	97.25
416.936	86.25
417.159	95.25
417.382	82.25
417.605	83.25
417.828	91.25
418.051	103.25
418.274	96.25
418.497	92.25
418.72	94.25
418.943	79.25
419.166	99.25
419.389	89.25
419.611	98.25
419.834	91.25
420.057	101.25
420.28	98.25
420.503	80.25
420.726	95.25
420.948	86.25
421.171	86.25
421.394	88.25
421.617	93.25
421.839	89.25
422.062	85.25
422.285	92.25
422.507	98.25
422.73	98.25
422.953	93.25
423.175	110.25
423.398	100.25
423.621	90.25
423.843	98.25
424.066	80.25
424.288	86.25
424.511	84.25
424.733	104.25
424.956	100.25
425.178	87.25
425.401	80.25
425.623	88.25
425.846	96.25
426.068	83.25
426.291	94.25
426.513	82.25
426.735	86.25
426.958	91.25
427.18	89.25
427.402	89.25
427.625	102.25
427.847	85.25
428.069	70.25
428.292	98.25
428.514	97.25
428.736	80.25
428.958	86.25
429.181	88.25
429.403	76.25
429.625	92.25
429.847	82.25
430.069	92.25
430.292	88.25
430.514	87.25
430.736	86.25
430.958	88.25
431.18	83.25
431.402	93.25
431.624	105.25
431.846	98.25
432.068	88.25
432.29	93.25
432.512	74.25
432.734	79.25
432.956	86.25
433.178	92.25
433.4	80.25
433.622	84.25
433.844	96.25
434.066	97.25
434.287	88.25
434.509	98.25
434.731	89.25
434.953	101.25
435.175	90.25
435.397	104.25
435.618	89.25
435.84	90.25
436.062	102.25
436.284	93.25
436.505	77.25
436.727	90.25
436.949	101.25
437.17	88.25
437.392	95.25
437.614	102.25
437.835	94.25
438.057	80.25
438.278	81.25
438.5	90.25
438.721	93.25
438.943	107.25
439.165	90.25
439.386	77.25
439.608	83.25
439.829	108.25
440.05	100.25
440.272	88.25
440.493	91.25
440.715	90.25
440.936	64.25
441.158	88.25
441.379	93.25
441.6	93.25
441.822	101.25
442.043	92.25
442.264	103.25
442.486	98.25
442.707	85.25
442.928	82.25
443.149	91.25
443.371	80.25
443.592	86.25
443.813	97.25
444.034	78.25
444.255	89.25
444.476	74.25
444.698	88.25
444.919	99.25
445.14	202.25
445.361	132.25
445.582	87.25
445.803	80.25
446.024	85.25
446.245	90.25
446.466	92.25
446.687	89.25
446.908	90.25
447.129	102.25
447.35	75.25
447.571	93.25
447.792	96.25
448.013	79.25
448.234	88.25
448.455	84.25
448.675	112.25
448.896	96.25
449.117	80.25
449.338	104.25
449.559	87.25
449.779	81.25
450	89.25
450.221	94.25
450.442	88.25
450.662	90.25
450.883	82.25
451.104	85.25
451.324	76.25
451.545	94.25
451.766	82.25
451.986	86.25
452.207	97.25
452.428	100.25
452.648	100.25
452.869	82.25
453.089	88.25
453.31	85.25
453.53	99.25
453.751	82.25
453.971	84.25
454.192	95.25
454.412	89.25
454.633	75.25
454.853	74.25
455.073	97.25
455.294	98.25
455.514	92.25
455.734	92.25
455.955	88.25
456.175	96.25
456.395	90.25
456.616	84.25
456.836	103.25
457.056	93.25
457.276	96.25
457.497	90.25
457.717	87.25
457.937	81.25
458.157	85.25
458.377	81.25
458.598	83.25
458.818	97.25
459.038	103.25
459.258	90.25
459.478	83.25
459.698	82.25
459.918	84.25
460.138	82.25
460.358	81.25
460.578	100.25
460.798	84.25
461.018	83.25
461.238	95.25
461.458	78.25
461.678	82.25
461.898	81.25
462.118	88.25
462.338	95.25
462.558	80.25
462.777	85.25
462.997	96.25
463.217	82.25
463.437	94.25
463.657	79.25
463.876	95.25
464.096	94.25
464.316	83.25
464.536	90.25
464.755	95.25
464.975	92.25
465.195	83.25
465.414	105.25
465.634	83.25
465.854	100.25
466.073	85.25
466.293	94.25
466.512	95.25
466.732	83.25
466.951	80.25
467.171	89.25
467.391	79.25
467.61	92.25
467.829	82.25
468.049	92.25
468.268	101.25
468.488	88.25
468.707	97.25
468.927	111.25
469.146	88.25
469.365	78.25
469.585	83.25
469.804	97.25
470.023	91.25
470.243	108.25
470.462	103.25
470.681	92.25
470.901	100.25
471.12	95.25
471.339	97.25
471.558	74.25
471.777	88.25
471.997	84.25
472.216	98.25
472.435	98.25
472.654	99.25
472.873	105.25
473.092	82.25
473.311	97.25
473.53	89.25
473.749	93.25
473.968	104.25
474.187	96.25
474.406	90.25
474.625	95.25
474.844	105.25
475.063	78.25
475.282	93.25
475.501	81.25
475.72	92.25
475.939	89.25
476.158	96.25
476.377	96.25
476.596	91.25
476.814	90.25
477.033	101.25
477.252	82.25
477.471	86.25
477.69	92.25
477.908	87.25
478.127	86.25
478.346	88.25
478.564	101.25
478.783	88.25
479.002	87.25
479.22	97.25
479.439	94.25
479.658	101.25
479.876	99.25
480.095	90.25
480.313	95.25
480.532	106.25
480.751	88.25
480.969	102.25
481.188	93.25
481.406	95.25
481.624	75.25
481.843	81.25
482.061	87.25
482.28	80.25
482.498	79.25
482.717	86.25
482.935	79.25
483.153	85.25
483.372	97.25
483.59	106.25
483.808	97.25
484.027	105.25
484.245	95.25
484.463	96.25
484.681	101.25
484.9	100.25
485.118	96.25
485.336	99.25
485.554	102.25
485.772	92.25
485.99	89.25
486.209	97.25
486.427	90.25
486.645	105.25
486.863	106.25
487.081	94.25
487.299	93.25
487.517	92.25
487.735	102.25
487.953	86.25
488.171	103.25
488.389	97.25
488.607	80.25
488.825	92.25
489.043	101.25
489.261	91.25
489.479	103.25
489.696	89.25
489.914	93.25
490.132	94.25
490.35	88.25
490.568	86.25
490.786	90.25
491.003	102.25
491.221	101.25
491.439	97.25
491.657	89.25
491.874	97.25
492.092	104.25
492.31	92.25
492.527	97.25
492.745	94.25
492.963	91.25
493.18	102.25
493.398	98.25
493.615	103.25
493.833	96.25
494.05	98.25
494.268	101.25
494.485	107.25
494.703	101.25
494.92	95.25
495.138	103.25
495.355	91.25
495.573	112.25
495.79	101.25
496.008	89.25
496.225	81.25
496.442	109.25
496.66	104.25
496.877	101.25
497.094	97.25
497.312	92.25
497.529	101.25
497.746	94.25
497.963	93.25
498.181	107.25
498.398	86.25
498.615	114.25
498.832	98.25
499.049	99.25
499.267	99.25
499.484	106.25
499.701	97.25
499.918	107.25
500.135	124.25
500.352	98.25
500.569	125.25
500.786	108.25
501.003	113.25
501.22	94.25
501.437	106.25
501.654	112.25
501.871	104.25
502.088	90.25
502.305	99.25
502.522	108.25
502.739	95.25
502.956	102.25
503.172	101.25
503.389	101.25
503.606	101.25
503.823	89.25
504.04	101.25
504.256	111.25
504.473	102.25
504.69	102.25
504.907	83.25
505.123	90.25
505.34	104.25
505.557	102.25
505.773	98.25
505.99	105.25
506.207	89.25
506.423	95.25
506.64	104.25
506.856	98.25
507.073	86.25
507.289	99.25
507.506	97.25
507.722	87.25
507.939	95.25
508.155	89.25
508.372	90.25
508.588	98.25
508.805	93.25
509.021	95.25
509.238	95.25
509.454	88.25
509.67	95.25
509.887	109.25
510.103	100.25
510.319	100.25
510.536	101.25
510.752	100.25
510.968	91.25
511.184	101.25
511.401	102.25
511.617	88.25
511.833	92.25
512.049	82.25
512.265	97.25
512.481	95.25
512.698	88.25
512.914	98.25
513.13	109.25
513.346	89.25
513.562	84.25
513.778	98.25
513.994	71.25
514.21	94.25
514.426	88.25
514.642	95.25
514.858	96.25
515.074	96.25
515.29	95.25
515.506	98.25
515.721	105.25
515.937	97.25
516.153	96.25
516.369	105.25
516.585	102.25
516.801	100.25
