Data from Ni(NO3)2@0.5M.TitratingCurve.Agarose3%dH2O.NegLispCup.LampEnergy10.LIBS07252019_HRD10591_17-58-17-565.txt Node
Date: Thu Jul 25 17:58:17 EDT 2019
User: cochatt
Spectrometer: HR+D1059
Trigger mode: 1
Integration Time (sec): 1.000000E-1
Scans to average: 1
Electric dark correction enabled: true
Nonlinearity correction enabled: false
Boxcar width: 0
XAxis mode: Wavelengths
Number of Pixels in Spectrum: 2048
>>>>>Begin Spectral Data<<<<<
223.165	-25.75
223.4	-25.75
223.635	-25.75
223.869	-31.75
224.104	-34.75
224.338	-4.75
224.573	-11.75
224.808	-3.75
225.042	0.25
225.277	3.25
225.511	-4.75
225.746	-0.75
225.98	10.25
226.215	15.25
226.449	6.25
226.683	21.25
226.918	31.25
227.152	30.25
227.387	40.25
227.621	31.25
227.856	48.25
228.09	51.25
228.324	52.25
228.559	60.25
228.793	67.25
229.027	114.25
229.262	119.25
229.496	134.25
229.73	127.25
229.964	151.25
230.199	172.25
230.433	196.25
230.667	180.25
230.901	167.25
231.136	161.25
231.37	169.25
231.604	169.25
231.838	176.25
232.072	174.25
232.306	172.25
232.541	184.25
232.775	160.25
233.009	150.25
233.243	159.25
233.477	144.25
233.711	164.25
233.945	165.25
234.179	160.25
234.413	182.25
234.647	163.25
234.881	162.25
235.115	173.25
235.349	158.25
235.583	165.25
235.817	142.25
236.051	157.25
236.285	155.25
236.519	160.25
236.753	171.25
236.987	158.25
237.221	156.25
237.455	166.25
237.689	161.25
237.922	166.25
238.156	167.25
238.39	169.25
238.624	168.25
238.858	176.25
239.091	176.25
239.325	189.25
239.559	190.25
239.793	215.25
240.027	210.25
240.26	189.25
240.494	199.25
240.728	189.25
240.961	184.25
241.195	200.25
241.429	199.25
241.662	204.25
241.896	215.25
242.13	223.25
242.363	203.25
242.597	189.25
242.83	205.25
243.064	189.25
243.298	194.25
243.531	217.25
243.765	216.25
243.998	215.25
244.232	236.25
244.465	229.25
244.699	230.25
244.932	211.25
245.166	216.25
245.399	237.25
245.633	223.25
245.866	220.25
246.099	238.25
246.333	222.25
246.566	217.25
246.8	219.25
247.033	240.25
247.266	241.25
247.5	260.25
247.733	235.25
247.966	236.25
248.2	244.25
248.433	264.25
248.666	249.25
248.899	258.25
249.133	248.25
249.366	279.25
249.599	268.25
249.832	260.25
250.066	260.25
250.299	247.25
250.532	264.25
250.765	271.25
250.998	282.25
251.231	282.25
251.465	298.25
251.698	303.25
251.931	301.25
252.164	282.25
252.397	279.25
252.63	270.25
252.863	282.25
253.096	305.25
253.329	295.25
253.562	309.25
253.795	293.25
254.028	290.25
254.261	333.25
254.494	323.25
254.727	317.25
254.96	313.25
255.193	326.25
255.426	330.25
255.659	320.25
255.892	328.25
256.124	320.25
256.357	311.25
256.59	328.25
256.823	330.25
257.056	330.25
257.289	319.25
257.521	333.25
257.754	341.25
257.987	346.25
258.22	355.25
258.452	356.25
258.685	364.25
258.918	352.25
259.151	346.25
259.383	347.25
259.616	357.25
259.849	382.25
260.081	365.25
260.314	367.25
260.547	364.25
260.779	355.25
261.012	356.25
261.244	385.25
261.477	396.25
261.71	380.25
261.942	379.25
262.175	389.25
262.407	395.25
262.64	364.25
262.872	367.25
263.105	376.25
263.337	390.25
263.57	390.25
263.802	403.25
264.035	398.25
264.267	420.25
264.499	401.25
264.732	399.25
264.964	395.25
265.197	390.25
265.429	412.25
265.661	421.25
265.894	407.25
266.126	406.25
266.358	421.25
266.591	436.25
266.823	424.25
267.055	414.25
267.287	411.25
267.52	412.25
267.752	420.25
267.984	420.25
268.216	429.25
268.448	438.25
268.681	432.25
268.913	423.25
269.145	440.25
269.377	422.25
269.609	427.25
269.841	420.25
270.073	442.25
270.306	438.25
270.538	437.25
270.77	439.25
271.002	465.25
271.234	443.25
271.466	449.25
271.698	458.25
271.93	455.25
272.162	449.25
272.394	476.25
272.626	453.25
272.858	465.25
273.09	475.25
273.322	464.25
273.553	464.25
273.785	462.25
274.017	479.25
274.249	481.25
274.481	488.25
274.713	484.25
274.945	454.25
275.176	461.25
275.408	483.25
275.64	471.25
275.872	482.25
276.104	492.25
276.335	492.25
276.567	502.25
276.799	513.25
277.031	524.25
277.262	497.25
277.494	493.25
277.726	502.25
277.957	496.25
278.189	503.25
278.421	520.25
278.652	495.25
278.884	507.25
279.115	513.25
279.347	498.25
279.579	499.25
279.81	521.25
280.042	496.25
280.273	522.25
280.505	511.25
280.736	518.25
280.968	531.25
281.199	541.25
281.431	510.25
281.662	539.25
281.894	528.25
282.125	544.25
282.356	537.25
282.588	556.25
282.819	545.25
283.051	542.25
283.282	550.25
283.513	557.25
283.745	535.25
283.976	528.25
284.207	538.25
284.439	523.25
284.67	546.25
284.901	540.25
285.132	562.25
285.364	546.25
285.595	567.25
285.826	581.25
286.057	569.25
286.288	541.25
286.52	572.25
286.751	576.25
286.982	592.25
287.213	556.25
287.444	559.25
287.675	586.25
287.906	582.25
288.138	582.25
288.369	580.25
288.6	569.25
288.831	576.25
289.062	573.25
289.293	583.25
289.524	575.25
289.755	589.25
289.986	557.25
290.217	575.25
290.448	591.25
290.679	587.25
290.91	567.25
291.141	596.25
291.371	589.25
291.602	581.25
291.833	571.25
292.064	600.25
292.295	592.25
292.526	595.25
292.757	580.25
292.987	580.25
293.218	600.25
293.449	597.25
293.68	594.25
293.91	607.25
294.141	592.25
294.372	604.25
294.603	615.25
294.833	603.25
295.064	595.25
295.295	600.25
295.525	581.25
295.756	587.25
295.987	604.25
296.217	618.25
296.448	595.25
296.679	614.25
296.909	599.25
297.14	604.25
297.37	624.25
297.601	614.25
297.831	616.25
298.062	610.25
298.292	617.25
298.523	624.25
298.753	632.25
298.984	619.25
299.214	632.25
299.445	659.25
299.675	657.25
299.905	668.25
300.136	650.25
300.366	679.25
300.597	666.25
300.827	665.25
301.057	676.25
301.288	642.25
301.518	639.25
301.748	662.25
301.979	683.25
302.209	686.25
302.439	680.25
302.669	672.25
302.9	691.25
303.13	671.25
303.36	670.25
303.59	655.25
303.82	700.25
304.051	667.25
304.281	713.25
304.511	674.25
304.741	701.25
304.971	679.25
305.201	725.25
305.431	724.25
305.661	712.25
305.891	699.25
306.121	706.25
306.352	679.25
306.582	678.25
306.812	685.25
307.042	718.25
307.272	685.25
307.502	693.25
307.731	695.25
307.961	703.25
308.191	706.25
308.421	710.25
308.651	689.25
308.881	672.25
309.111	692.25
309.341	675.25
309.571	683.25
309.8	706.25
310.03	740.25
310.26	756.25
310.49	768.25
310.72	729.25
310.949	718.25
311.179	731.25
311.409	687.25
311.639	719.25
311.868	708.25
312.098	730.25
312.328	729.25
312.557	726.25
312.787	723.25
313.017	746.25
313.246	749.25
313.476	743.25
313.706	758.25
313.935	766.25
314.165	745.25
314.394	786.25
314.624	756.25
314.853	737.25
315.083	752.25
315.312	750.25
315.542	769.25
315.771	769.25
316.001	780.25
316.23	768.25
316.46	778.25
316.689	779.25
316.919	802.25
317.148	793.25
317.377	802.25
317.607	784.25
317.836	772.25
318.065	768.25
318.295	816.25
318.524	797.25
318.753	781.25
318.983	795.25
319.212	784.25
319.441	790.25
319.67	804.25
319.9	795.25
320.129	825.25
320.358	813.25
320.587	826.25
320.816	804.25
321.046	804.25
321.275	807.25
321.504	824.25
321.733	814.25
321.962	823.25
322.191	846.25
322.42	842.25
322.649	828.25
322.878	856.25
323.108	849.25
323.337	867.25
323.566	874.25
323.795	865.25
324.024	891.25
324.253	873.25
324.482	857.25
324.71	885.25
324.939	872.25
325.168	888.25
325.397	872.25
325.626	882.25
325.855	860.25
326.084	890.25
326.313	862.25
326.542	898.25
326.77	898.25
326.999	901.25
327.228	853.25
327.457	867.25
327.686	876.25
327.914	904.25
328.143	932.25
328.372	908.25
328.6	911.25
328.829	919.25
329.058	898.25
329.287	904.25
329.515	911.25
329.744	905.25
329.972	930.25
330.201	918.25
330.43	910.25
330.658	952.25
330.887	952.25
331.115	923.25
331.344	943.25
331.572	950.25
331.801	952.25
332.03	975.25
332.258	986.25
332.486	974.25
332.715	970.25
332.943	957.25
333.172	991.25
333.4	972.25
333.629	994.25
333.857	1042.25
334.085	1010.25
334.314	1035.25
334.542	1052.25
334.771	1056.25
334.999	1006.25
335.227	1053.25
335.455	1066.25
335.684	1044.25
335.912	1074.25
336.14	1064.25
336.369	1046.25
336.597	1055.25
336.825	1099.25
337.053	1102.25
337.281	1056.25
337.51	1054.25
337.738	1090.25
337.966	1062.25
338.194	1061.25
338.422	1037.25
338.65	1035.25
338.878	1040.25
339.106	1062.25
339.334	1046.25
339.562	1043.25
339.79	1046.25
340.018	1037.25
340.246	1031.25
340.474	1007.25
340.702	1014.25
340.93	988.25
341.158	1015.25
341.386	1052.25
341.614	1057.25
341.842	1044.25
342.07	1003.25
342.298	1016.25
342.526	1003.25
342.754	1026.25
342.981	988.25
343.209	1030.25
343.437	1082.25
343.665	1044.25
343.893	1043.25
344.12	1057.25
344.348	1060.25
344.576	1055.25
344.804	1043.25
345.031	1066.25
345.259	1039.25
345.487	1044.25
345.714	1052.25
345.942	1069.25
346.17	1075.25
346.397	1038.25
346.625	1026.25
346.853	1014.25
347.08	1035.25
347.308	999.25
347.535	996.25
347.763	990.25
347.99	977.25
348.218	968.25
348.445	983.25
348.673	971.25
348.9	986.25
349.128	1035.25
349.355	1031.25
349.583	998.25
349.81	951.25
350.037	962.25
350.265	962.25
350.492	945.25
350.72	964.25
350.947	974.25
351.174	1000.25
351.402	1018.25
351.629	1006.25
351.856	1039.25
352.083	1010.25
352.311	1003.25
352.538	1020.25
352.765	1000.25
352.992	956.25
353.22	952.25
353.447	932.25
353.674	956.25
353.901	956.25
354.128	959.25
354.355	947.25
354.583	952.25
354.81	925.25
355.037	943.25
355.264	951.25
355.491	952.25
355.718	921.25
355.945	946.25
356.172	942.25
356.399	967.25
356.626	962.25
356.853	1014.25
357.08	946.25
357.307	961.25
357.534	989.25
357.761	960.25
357.988	977.25
358.215	948.25
358.441	974.25
358.668	952.25
358.895	976.25
359.122	957.25
359.349	951.25
359.576	941.25
359.802	966.25
360.029	971.25
360.256	971.25
360.483	960.25
360.709	956.25
360.936	969.25
361.163	983.25
361.39	967.25
361.616	986.25
361.843	1010.25
362.07	996.25
362.296	1010.25
362.523	959.25
362.749	960.25
362.976	967.25
363.203	952.25
363.429	942.25
363.656	959.25
363.882	948.25
364.109	958.25
364.335	975.25
364.562	984.25
364.788	972.25
365.015	989.25
365.241	966.25
365.468	957.25
365.694	980.25
365.92	979.25
366.147	974.25
366.373	936.25
366.599	964.25
366.826	995.25
367.052	951.25
367.278	969.25
367.505	983.25
367.731	953.25
367.957	995.25
368.184	975.25
368.41	1012.25
368.636	1005.25
368.862	993.25
369.089	994.25
369.315	1010.25
369.541	990.25
369.767	1002.25
369.993	997.25
370.219	1006.25
370.445	1008.25
370.672	1026.25
370.898	1006.25
371.124	1012.25
371.35	1048.25
371.576	996.25
371.802	1032.25
372.028	1027.25
372.254	1019.25
372.48	1038.25
372.706	1029.25
372.932	1054.25
373.158	1021.25
373.384	1028.25
373.61	1007.25
373.835	1026.25
374.061	1021.25
374.287	1042.25
374.513	1031.25
374.739	1050.25
374.965	1040.25
375.191	1022.25
375.416	1068.25
375.642	1049.25
375.868	1022.25
376.094	1035.25
376.319	1028.25
376.545	998.25
376.771	1038.25
376.997	1000.25
377.222	994.25
377.448	1025.25
377.674	1037.25
377.899	1016.25
378.125	999.25
378.35	1005.25
378.576	1004.25
378.802	1019.25
379.027	1003.25
379.253	1032.25
379.478	1020.25
379.704	1002.25
379.929	1006.25
380.155	1006.25
380.38	997.25
380.606	1016.25
380.831	1013.25
381.057	1037.25
381.282	969.25
381.507	978.25
381.733	1005.25
381.958	1041.25
382.184	1034.25
382.409	1035.25
382.634	1005.25
382.86	1001.25
383.085	1016.25
383.31	1042.25
383.535	1052.25
383.761	1084.25
383.986	1022.25
384.211	1051.25
384.436	1077.25
384.662	1041.25
384.887	1080.25
385.112	1061.25
385.337	1080.25
385.562	1110.25
385.787	1104.25
386.013	1112.25
386.238	1110.25
386.463	1096.25
386.688	1111.25
386.913	1107.25
387.138	1080.25
387.363	1114.25
387.588	1124.25
387.813	1151.25
388.038	1091.25
388.263	1094.25
388.488	1079.25
388.713	1124.25
388.938	1146.25
389.163	1112.25
389.387	1140.25
389.612	1091.25
389.837	1128.25
390.062	1138.25
390.287	1167.25
390.512	1148.25
390.736	1154.25
390.961	1139.25
391.186	1126.25
391.411	1136.25
391.636	1166.25
391.86	1163.25
392.085	1159.25
392.31	1167.25
392.534	1160.25
392.759	1185.25
392.984	1166.25
393.208	1174.25
393.433	1199.25
393.658	1160.25
393.882	1156.25
394.107	1166.25
394.331	1145.25
394.556	1167.25
394.78	1146.25
395.005	1147.25
395.229	1162.25
395.454	1176.25
395.678	1188.25
395.903	1187.25
396.127	1197.25
396.352	1202.25
396.576	1232.25
396.801	1193.25
397.025	1215.25
397.249	1222.25
397.474	1222.25
397.698	1194.25
397.922	1250.25
398.147	1251.25
398.371	1271.25
398.595	1274.25
398.82	1264.25
399.044	1308.25
399.268	1333.25
399.492	1357.25
399.717	1383.25
399.941	1408.25
400.165	1428.25
400.389	1375.25
400.613	1358.25
400.837	1325.25
401.062	1359.25
401.286	1340.25
401.51	1336.25
401.734	1308.25
401.958	1290.25
402.182	1289.25
402.406	1317.25
402.63	1307.25
402.854	1295.25
403.078	1304.25
403.302	1320.25
403.526	1299.25
403.75	1286.25
403.974	1305.25
404.198	1296.25
404.422	1309.25
404.645	1306.25
404.869	1286.25
405.093	1309.25
405.317	1334.25
405.541	1344.25
405.765	1365.25
405.988	1358.25
406.212	1336.25
406.436	1358.25
406.66	1371.25
406.883	1338.25
407.107	1406.25
407.331	1379.25
407.555	1430.25
407.778	1426.25
408.002	1411.25
408.226	1404.25
408.449	1423.25
408.673	1408.25
408.896	1410.25
409.12	1412.25
409.344	1420.25
409.567	1351.25
409.791	1357.25
410.014	1389.25
410.238	1361.25
410.461	1382.25
410.685	1355.25
410.908	1359.25
411.132	1330.25
411.355	1336.25
411.578	1344.25
411.802	1342.25
412.025	1370.25
412.249	1317.25
412.472	1347.25
412.695	1322.25
412.919	1348.25
413.142	1320.25
413.365	1311.25
413.589	1348.25
413.812	1310.25
414.035	1322.25
414.258	1286.25
414.482	1293.25
414.705	1281.25
414.928	1323.25
415.151	1309.25
415.374	1314.25
415.597	1282.25
415.821	1260.25
416.044	1286.25
416.267	1305.25
416.49	1261.25
416.713	1262.25
416.936	1268.25
417.159	1270.25
417.382	1244.25
417.605	1259.25
417.828	1234.25
418.051	1258.25
418.274	1261.25
418.497	1239.25
418.72	1240.25
418.943	1210.25
419.166	1296.25
419.389	1389.25
419.611	1340.25
419.834	1338.25
420.057	1319.25
420.28	1270.25
420.503	1255.25
420.726	1242.25
420.948	1217.25
421.171	1271.25
421.394	1268.25
421.617	1263.25
421.839	1260.25
422.062	1269.25
422.285	1236.25
422.507	1255.25
422.73	1229.25
422.953	1243.25
423.175	1243.25
423.398	1260.25
423.621	1228.25
423.843	1233.25
424.066	1271.25
424.288	1256.25
424.511	1236.25
424.733	1258.25
424.956	1250.25
425.178	1228.25
425.401	1233.25
425.623	1261.25
425.846	1217.25
426.068	1225.25
426.291	1254.25
426.513	1258.25
426.735	1227.25
426.958	1215.25
427.18	1215.25
427.402	1230.25
427.625	1248.25
427.847	1225.25
428.069	1214.25
428.292	1234.25
428.514	1222.25
428.736	1249.25
428.958	1222.25
429.181	1207.25
429.403	1228.25
429.625	1220.25
429.847	1207.25
430.069	1211.25
430.292	1233.25
430.514	1198.25
430.736	1238.25
430.958	1229.25
431.18	1221.25
431.402	1250.25
431.624	1212.25
431.846	1208.25
432.068	1212.25
432.29	1210.25
432.512	1214.25
432.734	1252.25
432.956	1241.25
433.178	1251.25
433.4	1254.25
433.622	1274.25
433.844	1314.25
434.066	1257.25
434.287	1257.25
434.509	1257.25
434.731	1269.25
434.953	1256.25
435.175	1242.25
435.397	1316.25
435.618	1290.25
435.84	1239.25
436.062	1259.25
436.284	1255.25
436.505	1256.25
436.727	1262.25
436.949	1220.25
437.17	1222.25
437.392	1197.25
437.614	1218.25
437.835	1186.25
438.057	1195.25
438.278	1148.25
438.5	1202.25
438.721	1176.25
438.943	1208.25
439.165	1204.25
439.386	1195.25
439.608	1244.25
439.829	1223.25
440.05	1212.25
440.272	1216.25
440.493	1241.25
440.715	1242.25
440.936	1250.25
441.158	1244.25
441.379	1256.25
441.6	1282.25
441.822	1275.25
442.043	1259.25
442.264	1273.25
442.486	1233.25
442.707	1257.25
442.928	1243.25
443.149	1291.25
443.371	1302.25
443.592	1323.25
443.813	1310.25
444.034	1284.25
444.255	1294.25
444.476	1317.25
444.698	1340.25
444.919	1349.25
445.14	1447.25
445.361	1325.25
445.582	1294.25
445.803	1256.25
446.024	1236.25
446.245	1287.25
446.466	1266.25
446.687	1206.25
446.908	1221.25
447.129	1245.25
447.35	1212.25
447.571	1206.25
447.792	1165.25
448.013	1150.25
448.234	1172.25
448.455	1157.25
448.675	1150.25
448.896	1183.25
449.117	1155.25
449.338	1174.25
449.559	1158.25
449.779	1175.25
450	1128.25
450.221	1138.25
450.442	1163.25
450.662	1105.25
450.883	1134.25
451.104	1149.25
451.324	1143.25
451.545	1170.25
451.766	1135.25
451.986	1150.25
452.207	1120.25
452.428	1107.25
452.648	1148.25
452.869	1124.25
453.089	1102.25
453.31	1143.25
453.53	1116.25
453.751	1131.25
453.971	1099.25
454.192	1150.25
454.412	1119.25
454.633	1118.25
454.853	1105.25
455.073	1111.25
455.294	1110.25
455.514	1108.25
455.734	1127.25
455.955	1139.25
456.175	1106.25
456.395	1089.25
456.616	1078.25
456.836	1116.25
457.056	1096.25
457.276	1077.25
457.497	1119.25
457.717	1111.25
457.937	1142.25
458.157	1113.25
458.377	1114.25
458.598	1139.25
458.818	1126.25
459.038	1163.25
459.258	1218.25
459.478	1260.25
459.698	1292.25
459.918	1283.25
460.138	1274.25
460.358	1284.25
460.578	1320.25
460.798	1329.25
461.018	1354.25
461.238	1314.25
461.458	1295.25
461.678	1302.25
461.898	1335.25
462.118	1285.25
462.338	1310.25
462.558	1375.25
462.777	1364.25
462.997	1424.25
463.217	1416.25
463.437	1462.25
463.657	1414.25
463.876	1366.25
464.096	1400.25
464.316	1382.25
464.536	1343.25
464.755	1337.25
464.975	1308.25
465.195	1314.25
465.414	1296.25
465.634	1251.25
465.854	1224.25
466.073	1238.25
466.293	1212.25
466.512	1213.25
466.732	1188.25
466.951	1208.25
467.171	1205.25
467.391	1229.25
467.61	1204.25
467.829	1215.25
468.049	1188.25
468.268	1174.25
468.488	1156.25
468.707	1155.25
468.927	1166.25
469.146	1198.25
469.365	1210.25
469.585	1170.25
469.804	1213.25
470.023	1215.25
470.243	1189.25
470.462	1202.25
470.681	1180.25
470.901	1180.25
471.12	1179.25
471.339	1182.25
471.558	1168.25
471.777	1209.25
471.997	1206.25
472.216	1206.25
472.435	1190.25
472.654	1162.25
472.873	1204.25
473.092	1184.25
473.311	1180.25
473.53	1185.25
473.749	1176.25
473.968	1210.25
474.187	1189.25
474.406	1147.25
474.625	1189.25
474.844	1210.25
475.063	1209.25
475.282	1216.25
475.501	1254.25
475.72	1252.25
475.939	1239.25
476.158	1227.25
476.377	1224.25
476.596	1254.25
476.814	1248.25
477.033	1259.25
477.252	1272.25
477.471	1278.25
477.69	1305.25
477.908	1316.25
478.127	1341.25
478.346	1273.25
478.564	1342.25
478.783	1364.25
479.002	1389.25
479.22	1412.25
479.439	1367.25
479.658	1358.25
479.876	1380.25
480.095	1411.25
480.313	1379.25
480.532	1391.25
480.751	1382.25
480.969	1378.25
481.188	1396.25
481.406	1352.25
481.624	1365.25
481.843	1383.25
482.061	1393.25
482.28	1360.25
482.498	1341.25
482.717	1385.25
482.935	1383.25
483.153	1407.25
483.372	1438.25
483.59	1418.25
483.808	1443.25
484.027	1393.25
484.245	1416.25
484.463	1393.25
484.681	1420.25
484.9	1447.25
485.118	1414.25
485.336	1414.25
485.554	1445.25
485.772	1442.25
485.99	1396.25
486.209	1431.25
486.427	1407.25
486.645	1410.25
486.863	1478.25
487.081	1448.25
487.299	1478.25
487.517	1452.25
487.735	1483.25
487.953	1467.25
488.171	1483.25
488.389	1436.25
488.607	1448.25
488.825	1447.25
489.043	1434.25
489.261	1460.25
489.479	1443.25
489.696	1420.25
489.914	1424.25
490.132	1453.25
490.35	1418.25
490.568	1481.25
490.786	1470.25
491.003	1492.25
491.221	1480.25
491.439	1470.25
491.657	1493.25
491.874	1528.25
492.092	1483.25
492.31	1511.25
492.527	1504.25
492.745	1499.25
492.963	1535.25
493.18	1499.25
