Data from Ni(NO3)2@0.0625M.TitratingCurve.Agarose3%dH2O.NegLispCup.LampEnergy10.LIBS07252019_HRD10591_18-14-49-571.txt Node
Date: Thu Jul 25 18:14:49 EDT 2019
User: cochatt
Spectrometer: HR+D1059
Trigger mode: 1
Integration Time (sec): 1.000000E-1
Scans to average: 1
Electric dark correction enabled: true
Nonlinearity correction enabled: false
Boxcar width: 0
XAxis mode: Wavelengths
Number of Pixels in Spectrum: 2048
>>>>>Begin Spectral Data<<<<<
223.165	-12.69
223.4	-12.69
223.635	-12.69
223.869	-18.69
224.104	-29.69
224.338	-13.69
224.573	-7.69
224.808	-4.69
225.042	-12.69
225.277	-14.69
225.511	-5.69
225.746	-6.69
225.98	6.31
226.215	8.31
226.449	32.31
226.683	17.31
226.918	29.31
227.152	33.31
227.387	24.31
227.621	22.31
227.856	35.31
228.09	44.31
228.324	58.31
228.559	54.31
228.793	69.31
229.027	93.31
229.262	110.31
229.496	97.31
229.73	119.31
229.964	93.31
230.199	101.31
230.433	108.31
230.667	113.31
230.901	112.31
231.136	120.31
231.37	121.31
231.604	96.31
231.838	132.31
232.072	122.31
232.306	138.31
232.541	124.31
232.775	139.31
233.009	117.31
233.243	121.31
233.477	111.31
233.711	133.31
233.945	126.31
234.179	129.31
234.413	122.31
234.647	134.31
234.881	134.31
235.115	117.31
235.349	122.31
235.583	121.31
235.817	124.31
236.051	132.31
236.285	138.31
236.519	128.31
236.753	132.31
236.987	140.31
237.221	119.31
237.455	129.31
237.689	125.31
237.922	133.31
238.156	136.31
238.39	123.31
238.624	112.31
238.858	122.31
239.091	140.31
239.325	148.31
239.559	149.31
239.793	136.31
240.027	144.31
240.26	149.31
240.494	136.31
240.728	148.31
240.961	142.31
241.195	140.31
241.429	158.31
241.662	148.31
241.896	156.31
242.13	160.31
242.363	160.31
242.597	142.31
242.83	160.31
243.064	155.31
243.298	167.31
243.531	150.31
243.765	158.31
243.998	163.31
244.232	164.31
244.465	165.31
244.699	155.31
244.932	171.31
245.166	164.31
245.399	176.31
245.633	174.31
245.866	159.31
246.099	171.31
246.333	167.31
246.566	166.31
246.8	182.31
247.033	187.31
247.266	173.31
247.5	165.31
247.733	179.31
247.966	181.31
248.2	182.31
248.433	178.31
248.666	179.31
248.899	188.31
249.133	197.31
249.366	196.31
249.599	177.31
249.832	183.31
250.066	181.31
250.299	179.31
250.532	192.31
250.765	194.31
250.998	198.31
251.231	203.31
251.465	199.31
251.698	178.31
251.931	206.31
252.164	201.31
252.397	201.31
252.63	205.31
252.863	206.31
253.096	187.31
253.329	213.31
253.562	191.31
253.795	207.31
254.028	217.31
254.261	221.31
254.494	203.31
254.727	216.31
254.96	214.31
255.193	217.31
255.426	201.31
255.659	201.31
255.892	216.31
256.124	221.31
256.357	227.31
256.59	228.31
256.823	200.31
257.056	237.31
257.289	223.31
257.521	204.31
257.754	225.31
257.987	237.31
258.22	238.31
258.452	210.31
258.685	223.31
258.918	224.31
259.151	210.31
259.383	240.31
259.616	232.31
259.849	243.31
260.081	224.31
260.314	236.31
260.547	233.31
260.779	220.31
261.012	245.31
261.244	234.31
261.477	241.31
261.71	240.31
261.942	235.31
262.175	240.31
262.407	250.31
262.64	251.31
262.872	246.31
263.105	258.31
263.337	245.31
263.57	257.31
263.802	235.31
264.035	244.31
264.267	244.31
264.499	242.31
264.732	260.31
264.964	248.31
265.197	255.31
265.429	272.31
265.661	244.31
265.894	249.31
266.126	292.31
266.358	270.31
266.591	262.31
266.823	261.31
267.055	275.31
267.287	270.31
267.52	256.31
267.752	270.31
267.984	291.31
268.216	272.31
268.448	300.31
268.681	276.31
268.913	257.31
269.145	253.31
269.377	286.31
269.609	280.31
269.841	278.31
270.073	277.31
270.306	270.31
270.538	278.31
270.77	268.31
271.002	266.31
271.234	281.31
271.466	277.31
271.698	275.31
271.93	284.31
272.162	301.31
272.394	288.31
272.626	280.31
272.858	269.31
273.09	290.31
273.322	275.31
273.553	300.31
273.785	293.31
274.017	291.31
274.249	288.31
274.481	299.31
274.713	289.31
274.945	293.31
275.176	308.31
275.408	294.31
275.64	290.31
275.872	304.31
276.104	307.31
276.335	287.31
276.567	313.31
276.799	294.31
277.031	306.31
277.262	306.31
277.494	282.31
277.726	295.31
277.957	320.31
278.189	291.31
278.421	311.31
278.652	321.31
278.884	320.31
279.115	293.31
279.347	300.31
279.579	310.31
279.81	328.31
280.042	320.31
280.273	328.31
280.505	328.31
280.736	310.31
280.968	350.31
281.199	305.31
281.431	323.31
281.662	329.31
281.894	344.31
282.125	348.31
282.356	350.31
282.588	340.31
282.819	325.31
283.051	327.31
283.282	351.31
283.513	330.31
283.745	349.31
283.976	361.31
284.207	350.31
284.439	361.31
284.67	333.31
284.901	344.31
285.132	355.31
285.364	373.31
285.595	348.31
285.826	350.31
286.057	363.31
286.288	348.31
286.52	358.31
286.751	361.31
286.982	361.31
287.213	358.31
287.444	357.31
287.675	370.31
287.906	370.31
288.138	359.31
288.369	362.31
288.6	363.31
288.831	379.31
289.062	374.31
289.293	340.31
289.524	345.31
289.755	382.31
289.986	366.31
290.217	369.31
290.448	374.31
290.679	375.31
290.91	373.31
291.141	365.31
291.371	376.31
291.602	399.31
291.833	406.31
292.064	378.31
292.295	382.31
292.526	376.31
292.757	361.31
292.987	386.31
293.218	398.31
293.449	375.31
293.68	386.31
293.91	375.31
294.141	389.31
294.372	389.31
294.603	395.31
294.833	393.31
295.064	386.31
295.295	370.31
295.525	381.31
295.756	402.31
295.987	390.31
296.217	411.31
296.448	395.31
296.679	380.31
296.909	422.31
297.14	421.31
297.37	416.31
297.601	441.31
297.831	416.31
298.062	410.31
298.292	410.31
298.523	433.31
298.753	428.31
298.984	441.31
299.214	412.31
299.445	412.31
299.675	414.31
299.905	416.31
300.136	414.31
300.366	412.31
300.597	445.31
300.827	449.31
301.057	434.31
301.288	461.31
301.518	432.31
301.748	425.31
301.979	420.31
302.209	423.31
302.439	438.31
302.669	434.31
302.9	419.31
303.13	436.31
303.36	423.31
303.59	419.31
303.82	413.31
304.051	433.31
304.281	426.31
304.511	420.31
304.741	440.31
304.971	427.31
305.201	426.31
305.431	414.31
305.661	427.31
305.891	435.31
306.121	443.31
306.352	418.31
306.582	429.31
306.812	410.31
307.042	407.31
307.272	420.31
307.502	406.31
307.731	410.31
307.961	392.31
308.191	399.31
308.421	406.31
308.651	402.31
308.881	414.31
309.111	406.31
309.341	421.31
309.571	430.31
309.8	433.31
310.03	418.31
310.26	440.31
310.49	432.31
310.72	412.31
310.949	413.31
311.179	426.31
311.409	422.31
311.639	426.31
311.868	401.31
312.098	442.31
312.328	428.31
312.557	440.31
312.787	426.31
313.017	444.31
313.246	442.31
313.476	463.31
313.706	444.31
313.935	448.31
314.165	466.31
314.394	436.31
314.624	450.31
314.853	429.31
315.083	445.31
315.312	434.31
315.542	442.31
315.771	460.31
316.001	434.31
316.23	440.31
316.46	453.31
316.689	441.31
316.919	438.31
317.148	440.31
317.377	421.31
317.607	436.31
317.836	422.31
318.065	432.31
318.295	422.31
318.524	426.31
318.753	445.31
318.983	448.31
319.212	418.31
319.441	439.31
319.67	429.31
319.9	449.31
320.129	435.31
320.358	428.31
320.587	454.31
320.816	448.31
321.046	451.31
321.275	441.31
321.504	449.31
321.733	452.31
321.962	428.31
322.191	449.31
322.42	448.31
322.649	452.31
322.878	471.31
323.108	417.31
323.337	444.31
323.566	448.31
323.795	442.31
324.024	449.31
324.253	443.31
324.482	458.31
324.71	432.31
324.939	479.31
325.168	463.31
325.397	469.31
325.626	477.31
325.855	478.31
326.084	480.31
326.313	459.31
326.542	467.31
326.77	492.31
326.999	484.31
327.228	487.31
327.457	478.31
327.686	478.31
327.914	481.31
328.143	476.31
328.372	488.31
328.6	484.31
328.829	480.31
329.058	492.31
329.287	488.31
329.515	490.31
329.744	492.31
329.972	506.31
330.201	476.31
330.43	496.31
330.658	486.31
330.887	504.31
331.115	508.31
331.344	526.31
331.572	527.31
331.801	523.31
332.03	514.31
332.258	540.31
332.486	546.31
332.715	580.31
332.943	598.31
333.172	627.31
333.4	649.31
333.629	650.31
333.857	659.31
334.085	621.31
334.314	642.31
334.542	607.31
334.771	613.31
334.999	582.31
335.227	610.31
335.455	589.31
335.684	605.31
335.912	587.31
336.14	604.31
336.369	592.31
336.597	606.31
336.825	575.31
337.053	595.31
337.281	585.31
337.51	571.31
337.738	569.31
337.966	554.31
338.194	576.31
338.422	545.31
338.65	531.31
338.878	516.31
339.106	526.31
339.334	560.31
339.562	527.31
339.79	493.31
340.018	504.31
340.246	489.31
340.474	504.31
340.702	503.31
340.93	545.31
341.158	525.31
341.386	509.31
341.614	542.31
341.842	523.31
342.07	503.31
342.298	481.31
342.526	487.31
342.754	504.31
342.981	516.31
343.209	525.31
343.437	554.31
343.665	605.31
343.893	620.31
344.12	638.31
344.348	591.31
344.576	594.31
344.804	567.31
345.031	526.31
345.259	520.31
345.487	528.31
345.714	520.31
345.942	519.31
346.17	534.31
346.397	520.31
346.625	503.31
346.853	489.31
347.08	489.31
347.308	516.31
347.535	522.31
347.763	510.31
347.99	498.31
348.218	516.31
348.445	501.31
348.673	497.31
348.9	505.31
349.128	515.31
349.355	500.31
349.583	526.31
349.81	470.31
350.037	490.31
350.265	479.31
350.492	484.31
350.72	463.31
350.947	489.31
351.174	490.31
351.402	504.31
351.629	490.31
351.856	480.31
352.083	489.31
352.311	505.31
352.538	510.31
352.765	493.31
352.992	483.31
353.22	489.31
353.447	459.31
353.674	469.31
353.901	499.31
354.128	483.31
354.355	470.31
354.583	469.31
354.81	485.31
355.037	493.31
355.264	483.31
355.491	476.31
355.718	487.31
355.945	493.31
356.172	483.31
356.399	487.31
356.626	492.31
356.853	507.31
357.08	481.31
357.307	491.31
357.534	502.31
357.761	482.31
357.988	484.31
358.215	495.31
358.441	480.31
358.668	475.31
358.895	479.31
359.122	493.31
359.349	472.31
359.576	469.31
359.802	501.31
360.029	497.31
360.256	476.31
360.483	494.31
360.709	492.31
360.936	487.31
361.163	476.31
361.39	486.31
361.616	498.31
361.843	497.31
362.07	475.31
362.296	488.31
362.523	480.31
362.749	488.31
362.976	482.31
363.203	486.31
363.429	477.31
363.656	484.31
363.882	493.31
364.109	484.31
364.335	483.31
364.562	477.31
364.788	472.31
365.015	480.31
365.241	472.31
365.468	482.31
365.694	474.31
365.92	471.31
366.147	467.31
366.373	486.31
366.599	476.31
366.826	484.31
367.052	467.31
367.278	468.31
367.505	476.31
367.731	480.31
367.957	480.31
368.184	511.31
368.41	493.31
368.636	492.31
368.862	496.31
369.089	483.31
369.315	458.31
369.541	485.31
369.767	498.31
369.993	496.31
370.219	493.31
370.445	522.31
370.672	506.31
370.898	513.31
371.124	521.31
371.35	493.31
371.576	517.31
371.802	507.31
372.028	519.31
372.254	512.31
372.48	530.31
372.706	536.31
372.932	541.31
373.158	520.31
373.384	523.31
373.61	507.31
373.835	527.31
374.061	517.31
374.287	530.31
374.513	528.31
374.739	539.31
374.965	578.31
375.191	575.31
375.416	583.31
375.642	566.31
375.868	562.31
376.094	542.31
376.319	523.31
376.545	547.31
376.771	495.31
376.997	525.31
377.222	514.31
377.448	516.31
377.674	523.31
377.899	523.31
378.125	515.31
378.35	517.31
378.576	517.31
378.802	515.31
379.027	546.31
379.253	511.31
379.478	506.31
379.704	508.31
379.929	520.31
380.155	529.31
380.38	518.31
380.606	538.31
380.831	524.31
381.057	528.31
381.282	493.31
381.507	504.31
381.733	514.31
381.958	535.31
382.184	521.31
382.409	519.31
382.634	522.31
382.86	544.31
383.085	552.31
383.31	562.31
383.535	581.31
383.761	557.31
383.986	585.31
384.211	590.31
384.436	600.31
384.662	600.31
384.887	613.31
385.112	602.31
385.337	640.31
385.562	614.31
385.787	614.31
386.013	636.31
386.238	635.31
386.463	614.31
386.688	625.31
386.913	618.31
387.138	615.31
387.363	608.31
387.588	586.31
387.813	596.31
388.038	603.31
388.263	620.31
388.488	617.31
388.713	620.31
388.938	597.31
389.163	603.31
389.387	616.31
389.612	590.31
389.837	595.31
390.062	581.31
390.287	609.31
390.512	596.31
390.736	618.31
390.961	611.31
391.186	614.31
391.411	635.31
391.636	648.31
391.86	677.31
392.085	694.31
392.31	710.31
392.534	676.31
392.759	651.31
392.984	645.31
393.208	646.31
393.433	649.31
393.658	658.31
393.882	658.31
394.107	642.31
394.331	646.31
394.556	660.31
394.78	672.31
395.005	650.31
395.229	640.31
395.454	660.31
395.678	693.31
395.903	691.31
396.127	683.31
396.352	664.31
396.576	657.31
396.801	650.31
397.025	652.31
397.249	664.31
397.474	682.31
397.698	686.31
397.922	708.31
398.147	669.31
398.371	685.31
398.595	718.31
398.82	730.31
399.044	804.31
399.268	875.31
399.492	1028.31
399.717	1163.31
399.941	1163.31
400.165	1004.31
400.389	926.31
400.613	823.31
400.837	788.31
401.062	750.31
401.286	786.31
401.51	749.31
401.734	733.31
401.958	763.31
402.182	786.31
402.406	778.31
402.63	816.31
402.854	814.31
403.078	852.31
403.302	860.31
403.526	894.31
403.75	889.31
403.974	909.31
404.198	900.31
404.422	894.31
404.645	878.31
404.869	917.31
405.093	896.31
405.317	852.31
405.541	861.31
405.765	872.31
405.988	822.31
406.212	841.31
406.436	822.31
406.66	854.31
406.883	888.31
407.107	950.31
407.331	936.31
407.555	976.31
407.778	971.31
408.002	992.31
408.226	925.31
408.449	921.31
408.673	866.31
408.896	868.31
409.12	893.31
409.344	883.31
409.567	911.31
409.791	905.31
410.014	891.31
410.238	880.31
410.461	862.31
410.685	857.31
410.908	856.31
411.132	836.31
411.355	810.31
411.578	824.31
411.802	809.31
412.025	806.31
412.249	840.31
412.472	812.31
412.695	766.31
412.919	764.31
413.142	753.31
413.365	752.31
413.589	788.31
413.812	758.31
414.035	764.31
414.258	769.31
414.482	750.31
414.705	808.31
414.928	796.31
415.151	772.31
415.374	775.31
415.597	770.31
415.821	754.31
416.044	782.31
416.267	751.31
416.49	723.31
416.713	740.31
416.936	749.31
417.159	754.31
417.382	725.31
417.605	747.31
417.828	775.31
418.051	780.31
418.274	759.31
418.497	774.31
418.72	772.31
418.943	774.31
419.166	841.31
419.389	890.31
419.611	872.31
419.834	824.31
420.057	811.31
420.28	760.31
420.503	744.31
420.726	722.31
420.948	798.31
421.171	774.31
421.394	747.31
421.617	752.31
421.839	760.31
422.062	796.31
422.285	772.31
422.507	778.31
422.73	771.31
422.953	766.31
423.175	804.31
423.398	833.31
423.621	796.31
423.843	805.31
424.066	804.31
424.288	820.31
424.511	818.31
424.733	788.31
424.956	799.31
425.178	769.31
425.401	794.31
425.623	777.31
425.846	728.31
426.068	718.31
426.291	713.31
426.513	725.31
426.735	707.31
426.958	724.31
427.18	718.31
427.402	695.31
427.625	698.31
427.847	698.31
428.069	702.31
428.292	704.31
428.514	692.31
428.736	689.31
428.958	680.31
429.181	680.31
429.403	652.31
429.625	682.31
429.847	677.31
430.069	664.31
430.292	673.31
430.514	647.31
430.736	680.31
430.958	678.31
431.18	679.31
431.402	676.31
431.624	693.31
431.846	683.31
432.068	698.31
432.29	698.31
432.512	670.31
432.734	698.31
432.956	695.31
433.178	706.31
433.4	671.31
433.622	697.31
433.844	694.31
434.066	703.31
434.287	708.31
434.509	748.31
434.731	768.31
434.953	743.31
435.175	787.31
435.397	783.31
435.618	741.31
435.84	716.31
436.062	705.31
436.284	726.31
436.505	685.31
436.727	680.31
436.949	672.31
437.17	698.31
437.392	710.31
437.614	669.31
437.835	666.31
438.057	659.31
438.278	669.31
438.5	650.31
438.721	690.31
438.943	669.31
439.165	638.31
439.386	668.31
439.608	691.31
439.829	696.31
440.05	718.31
440.272	708.31
440.493	710.31
440.715	712.31
440.936	697.31
441.158	713.31
441.379	761.31
441.6	747.31
441.822	790.31
442.043	763.31
442.264	747.31
442.486	748.31
442.707	759.31
442.928	770.31
443.149	769.31
443.371	765.31
443.592	766.31
443.813	772.31
444.034	785.31
444.255	814.31
444.476	806.31
444.698	908.31
444.919	940.31
445.14	1001.31
445.361	888.31
445.582	782.31
445.803	726.31
446.024	729.31
446.245	718.31
446.466	737.31
446.687	700.31
446.908	684.31
447.129	684.31
447.35	684.31
447.571	675.31
447.792	649.31
448.013	695.31
448.234	643.31
448.455	651.31
448.675	638.31
448.896	634.31
449.117	612.31
449.338	634.31
449.559	636.31
449.779	632.31
450	622.31
450.221	629.31
450.442	662.31
450.662	655.31
450.883	671.31
451.104	666.31
451.324	648.31
451.545	670.31
451.766	664.31
451.986	668.31
452.207	637.31
452.428	661.31
452.648	641.31
452.869	632.31
453.089	638.31
453.31	632.31
453.53	610.31
453.751	633.31
453.971	612.31
454.192	635.31
454.412	605.31
454.633	636.31
454.853	614.31
455.073	584.31
455.294	637.31
455.514	605.31
455.734	608.31
455.955	602.31
456.175	591.31
456.395	594.31
456.616	601.31
456.836	629.31
457.056	578.31
457.276	612.31
457.497	584.31
457.717	603.31
457.937	614.31
458.157	593.31
458.377	642.31
458.598	616.31
458.818	651.31
459.038	640.31
459.258	672.31
459.478	709.31
459.698	709.31
459.918	730.31
460.138	762.31
460.358	803.31
460.578	797.31
460.798	853.31
461.018	865.31
461.238	809.31
461.458	807.31
461.678	811.31
461.898	827.31
462.118	827.31
462.338	875.31
462.558	894.31
462.777	896.31
462.997	1008.31
463.217	1086.31
463.437	1093.31
463.657	1021.31
463.876	955.31
464.096	971.31
464.316	955.31
464.536	979.31
464.755	918.31
464.975	886.31
465.195	861.31
465.414	788.31
465.634	742.31
465.854	717.31
466.073	714.31
466.293	698.31
466.512	700.31
466.732	665.31
466.951	689.31
467.171	688.31
467.391	668.31
467.61	674.31
467.829	650.31
468.049	680.31
468.268	642.31
468.488	625.31
468.707	622.31
468.927	641.31
469.146	641.31
469.365	645.31
469.585	647.31
469.804	682.31
470.023	652.31
470.243	705.31
470.462	698.31
470.681	695.31
470.901	692.31
471.12	680.31
471.339	673.31
471.558	667.31
471.777	666.31
471.997	673.31
472.216	648.31
472.435	643.31
472.654	613.31
472.873	608.31
473.092	634.31
473.311	637.31
473.53	624.31
473.749	606.31
473.968	642.31
474.187	620.31
474.406	626.31
474.625	600.31
474.844	630.31
475.063	638.31
475.282	635.31
475.501	618.31
475.72	651.31
475.939	652.31
476.158	663.31
476.377	647.31
476.596	644.31
476.814	669.31
477.033	648.31
477.252	673.31
477.471	690.31
477.69	715.31
477.908	715.31
478.127	734.31
478.346	742.31
478.564	792.31
478.783	760.31
479.002	787.31
479.22	804.31
479.439	802.31
479.658	786.31
479.876	773.31
480.095	775.31
480.313	850.31
480.532	850.31
480.751	838.31
480.969	798.31
481.188	792.31
481.406	760.31
481.624	731.31
481.843	732.31
482.061	721.31
482.28	726.31
482.498	710.31
482.717	693.31
482.935	744.31
483.153	717.31
483.372	726.31
483.59	715.31
483.808	745.31
484.027	752.31
484.245	742.31
484.463	757.31
484.681	745.31
484.9	764.31
485.118	749.31
485.336	747.31
485.554	756.31
485.772	790.31
485.99	771.31
486.209	792.31
486.427	786.31
486.645	750.31
486.863	777.31
487.081	801.31
487.299	791.31
487.517	780.31
487.735	767.31
487.953	793.31
488.171	775.31
488.389	765.31
488.607	747.31
488.825	734.31
489.043	757.31
489.261	757.31
489.479	757.31
489.696	761.31
489.914	768.31
490.132	754.31
490.35	784.31
490.568	749.31
490.786	758.31
491.003	774.31
491.221	762.31
491.439	775.31
491.657	744.31
491.874	765.31
492.092	749.31
492.31	759.31
492.527	773.31
492.745	778.31
492.963	749.31
493.18	763.31
493.398	800.31
493.615	792.31
493.833	794.31
494.05	805.31
494.268	795.31
494.485	780.31
494.703	785.31
494.92	785.31
495.138	788.31
495.355	791.31
495.573	802.31
495.79	805.31
496.008	799.31
496.225	809.31
496.442	838.31
496.66	831.31
496.877	820.31
497.094	830.31
497.312	860.31
497.529	860.31
497.746	874.31
497.963	914.31
498.181	939.31
498.398	985.31
498.615	1060.31
498.832	1093.31
499.049	1186.31
499.267	1274.31
499.484	1416.31
499.701	1556.31
499.918	1704.31
500.135	1996.31
500.352	2296.31
500.569	2390.31
500.786	2366.31
501.003	2184.31
501.22	1953.31
