Data from Ni(NO3)2@0.5M.TitratingCurve.Agarose3%dH2O.NegLispCup.LampEnergy10.LIBS07252019_HRD10591_17-58-21-564.txt Node
Date: Thu Jul 25 17:58:21 EDT 2019
User: cochatt
Spectrometer: HR+D1059
Trigger mode: 1
Integration Time (sec): 1.000000E-1
Scans to average: 1
Electric dark correction enabled: true
Nonlinearity correction enabled: false
Boxcar width: 0
XAxis mode: Wavelengths
Number of Pixels in Spectrum: 2048
>>>>>Begin Spectral Data<<<<<
223.165	-28.06
223.4	-28.06
223.635	-28.06
223.869	-21.06
224.104	-18.06
224.338	-18.06
224.573	-22.06
224.808	-7.06
225.042	-9.06
225.277	-5.06
225.511	-7.06
225.746	12.94
225.98	-0.06
226.215	15.94
226.449	11.94
226.683	24.94
226.918	27.94
227.152	41.94
227.387	32.94
227.621	33.94
227.856	45.94
228.09	34.94
228.324	61.94
228.559	51.94
228.793	78.94
229.027	123.94
229.262	139.94
229.496	138.94
229.73	147.94
229.964	155.94
230.199	188.94
230.433	193.94
230.667	171.94
230.901	172.94
231.136	170.94
231.37	164.94
231.604	185.94
231.838	199.94
232.072	209.94
232.306	191.94
232.541	172.94
232.775	170.94
233.009	169.94
233.243	157.94
233.477	160.94
233.711	177.94
233.945	167.94
234.179	173.94
234.413	169.94
234.647	170.94
234.881	179.94
235.115	168.94
235.349	166.94
235.583	156.94
235.817	143.94
236.051	153.94
236.285	153.94
236.519	138.94
236.753	155.94
236.987	161.94
237.221	151.94
237.455	172.94
237.689	153.94
237.922	153.94
238.156	161.94
238.39	177.94
238.624	148.94
238.858	175.94
239.091	185.94
239.325	176.94
239.559	196.94
239.793	218.94
240.027	209.94
240.26	188.94
240.494	178.94
240.728	172.94
240.961	175.94
241.195	168.94
241.429	179.94
241.662	194.94
241.896	206.94
242.13	225.94
242.363	210.94
242.597	179.94
242.83	201.94
243.064	189.94
243.298	200.94
243.531	195.94
243.765	215.94
243.998	227.94
244.232	227.94
244.465	234.94
244.699	211.94
244.932	211.94
245.166	200.94
245.399	212.94
245.633	207.94
245.866	200.94
246.099	215.94
246.333	199.94
246.566	219.94
246.8	215.94
247.033	216.94
247.266	221.94
247.5	226.94
247.733	216.94
247.966	215.94
248.2	227.94
248.433	233.94
248.666	257.94
248.899	254.94
249.133	236.94
249.366	259.94
249.599	239.94
249.832	235.94
250.066	256.94
250.299	271.94
250.532	265.94
250.765	260.94
250.998	266.94
251.231	285.94
251.465	310.94
251.698	284.94
251.931	275.94
252.164	284.94
252.397	288.94
252.63	269.94
252.863	265.94
253.096	265.94
253.329	270.94
253.562	282.94
253.795	283.94
254.028	297.94
254.261	309.94
254.494	287.94
254.727	277.94
254.96	300.94
255.193	305.94
255.426	288.94
255.659	308.94
255.892	294.94
256.124	307.94
256.357	305.94
256.59	333.94
256.823	304.94
257.056	325.94
257.289	314.94
257.521	313.94
257.754	312.94
257.987	329.94
258.22	346.94
258.452	325.94
258.685	329.94
258.918	329.94
259.151	317.94
259.383	308.94
259.616	349.94
259.849	333.94
260.081	350.94
260.314	327.94
260.547	347.94
260.779	343.94
261.012	342.94
261.244	340.94
261.477	341.94
261.71	345.94
261.942	363.94
262.175	351.94
262.407	364.94
262.64	340.94
262.872	348.94
263.105	370.94
263.337	383.94
263.57	374.94
263.802	380.94
264.035	384.94
264.267	379.94
264.499	375.94
264.732	374.94
264.964	396.94
265.197	379.94
265.429	371.94
265.661	372.94
265.894	388.94
266.126	377.94
266.358	375.94
266.591	384.94
266.823	409.94
267.055	393.94
267.287	387.94
267.52	396.94
267.752	401.94
267.984	400.94
268.216	397.94
268.448	385.94
268.681	394.94
268.913	395.94
269.145	409.94
269.377	408.94
269.609	417.94
269.841	405.94
270.073	419.94
270.306	415.94
270.538	421.94
270.77	425.94
271.002	381.94
271.234	406.94
271.466	427.94
271.698	403.94
271.93	425.94
272.162	417.94
272.394	410.94
272.626	413.94
272.858	411.94
273.09	421.94
273.322	448.94
273.553	427.94
273.785	427.94
274.017	422.94
274.249	427.94
274.481	435.94
274.713	444.94
274.945	464.94
275.176	445.94
275.408	449.94
275.64	471.94
275.872	425.94
276.104	451.94
276.335	452.94
276.567	470.94
276.799	456.94
277.031	475.94
277.262	453.94
277.494	452.94
277.726	458.94
277.957	456.94
278.189	467.94
278.421	463.94
278.652	468.94
278.884	479.94
279.115	468.94
279.347	476.94
279.579	474.94
279.81	467.94
280.042	468.94
280.273	472.94
280.505	470.94
280.736	497.94
280.968	501.94
281.199	490.94
281.431	472.94
281.662	471.94
281.894	491.94
282.125	503.94
282.356	492.94
282.588	515.94
282.819	506.94
283.051	503.94
283.282	516.94
283.513	519.94
283.745	476.94
283.976	530.94
284.207	515.94
284.439	502.94
284.67	503.94
284.901	518.94
285.132	507.94
285.364	505.94
285.595	535.94
285.826	520.94
286.057	523.94
286.288	508.94
286.52	515.94
286.751	547.94
286.982	548.94
287.213	523.94
287.444	525.94
287.675	533.94
287.906	552.94
288.138	542.94
288.369	534.94
288.6	529.94
288.831	547.94
289.062	535.94
289.293	543.94
289.524	545.94
289.755	531.94
289.986	549.94
290.217	538.94
290.448	543.94
290.679	543.94
290.91	546.94
291.141	541.94
291.371	537.94
291.602	545.94
291.833	535.94
292.064	529.94
292.295	554.94
292.526	547.94
292.757	541.94
292.987	525.94
293.218	538.94
293.449	567.94
293.68	564.94
293.91	552.94
294.141	563.94
294.372	557.94
294.603	570.94
294.833	555.94
295.064	551.94
295.295	564.94
295.525	532.94
295.756	587.94
295.987	555.94
296.217	542.94
296.448	577.94
296.679	570.94
296.909	564.94
297.14	583.94
297.37	595.94
297.601	570.94
297.831	567.94
298.062	579.94
298.292	593.94
298.523	599.94
298.753	579.94
298.984	587.94
299.214	589.94
299.445	605.94
299.675	610.94
299.905	605.94
300.136	636.94
300.366	639.94
300.597	633.94
300.827	637.94
301.057	638.94
301.288	605.94
301.518	635.94
301.748	622.94
301.979	625.94
302.209	612.94
302.439	589.94
302.669	624.94
302.9	631.94
303.13	607.94
303.36	631.94
303.59	614.94
303.82	639.94
304.051	653.94
304.281	635.94
304.511	645.94
304.741	653.94
304.971	635.94
305.201	665.94
305.431	669.94
305.661	655.94
305.891	643.94
306.121	639.94
306.352	629.94
306.582	639.94
306.812	623.94
307.042	644.94
307.272	623.94
307.502	636.94
307.731	634.94
307.961	635.94
308.191	635.94
308.421	652.94
308.651	649.94
308.881	667.94
309.111	659.94
309.341	636.94
309.571	661.94
309.8	667.94
310.03	694.94
310.26	690.94
310.49	725.94
310.72	675.94
310.949	674.94
311.179	659.94
311.409	684.94
311.639	668.94
311.868	684.94
312.098	666.94
312.328	696.94
312.557	694.94
312.787	674.94
313.017	674.94
313.246	702.94
313.476	709.94
313.706	694.94
313.935	695.94
314.165	695.94
314.394	682.94
314.624	695.94
314.853	723.94
315.083	704.94
315.312	694.94
315.542	736.94
315.771	718.94
316.001	716.94
316.23	704.94
316.46	705.94
316.689	702.94
316.919	722.94
317.148	731.94
317.377	721.94
317.607	708.94
317.836	730.94
318.065	738.94
318.295	730.94
318.524	755.94
318.753	716.94
318.983	738.94
319.212	704.94
319.441	734.94
319.67	730.94
319.9	729.94
320.129	754.94
320.358	736.94
320.587	748.94
320.816	761.94
321.046	754.94
321.275	746.94
321.504	740.94
321.733	781.94
321.962	777.94
322.191	776.94
322.42	772.94
322.649	773.94
322.878	786.94
323.108	789.94
323.337	800.94
323.566	785.94
323.795	792.94
324.024	776.94
324.253	792.94
324.482	785.94
324.71	790.94
324.939	785.94
325.168	804.94
325.397	779.94
325.626	805.94
325.855	811.94
326.084	805.94
326.313	812.94
326.542	823.94
326.77	805.94
326.999	835.94
327.228	821.94
327.457	810.94
327.686	810.94
327.914	818.94
328.143	847.94
328.372	813.94
328.6	804.94
328.829	806.94
329.058	838.94
329.287	823.94
329.515	854.94
329.744	844.94
329.972	850.94
330.201	835.94
330.43	875.94
330.658	837.94
330.887	822.94
331.115	853.94
331.344	858.94
331.572	851.94
331.801	884.94
332.03	891.94
332.258	881.94
332.486	876.94
332.715	893.94
332.943	899.94
333.172	903.94
333.4	882.94
333.629	900.94
333.857	939.94
334.085	938.94
334.314	944.94
334.542	949.94
334.771	954.94
334.999	951.94
335.227	929.94
335.455	950.94
335.684	956.94
335.912	958.94
336.14	945.94
336.369	955.94
336.597	974.94
336.825	994.94
337.053	980.94
337.281	992.94
337.51	943.94
337.738	937.94
337.966	972.94
338.194	965.94
338.422	969.94
338.65	919.94
338.878	930.94
339.106	938.94
339.334	957.94
339.562	967.94
339.79	904.94
340.018	934.94
340.246	918.94
340.474	920.94
340.702	919.94
340.93	894.94
341.158	915.94
341.386	913.94
341.614	984.94
341.842	943.94
342.07	922.94
342.298	934.94
342.526	929.94
342.754	921.94
342.981	928.94
343.209	925.94
343.437	959.94
343.665	948.94
343.893	956.94
344.12	923.94
344.348	931.94
344.576	979.94
344.804	970.94
345.031	943.94
345.259	959.94
345.487	969.94
345.714	933.94
345.942	971.94
346.17	970.94
346.397	972.94
346.625	925.94
346.853	900.94
347.08	913.94
347.308	922.94
347.535	915.94
347.763	891.94
347.99	878.94
348.218	873.94
348.445	911.94
348.673	887.94
348.9	868.94
349.128	910.94
349.355	915.94
349.583	904.94
349.81	916.94
350.037	893.94
350.265	896.94
350.492	893.94
350.72	876.94
350.947	927.94
351.174	900.94
351.402	914.94
351.629	958.94
351.856	917.94
352.083	875.94
352.311	921.94
352.538	963.94
352.765	951.94
352.992	889.94
353.22	881.94
353.447	849.94
353.674	851.94
353.901	864.94
354.128	879.94
354.355	870.94
354.583	867.94
354.81	851.94
355.037	863.94
355.264	866.94
355.491	864.94
355.718	846.94
355.945	876.94
356.172	876.94
356.399	873.94
356.626	915.94
356.853	893.94
357.08	901.94
357.307	882.94
357.534	879.94
357.761	871.94
357.988	889.94
358.215	865.94
358.441	876.94
358.668	866.94
358.895	854.94
359.122	845.94
359.349	873.94
359.576	859.94
359.802	892.94
360.029	872.94
360.256	841.94
360.483	876.94
360.709	883.94
360.936	880.94
361.163	893.94
361.39	900.94
361.616	911.94
361.843	891.94
362.07	947.94
362.296	945.94
362.523	898.94
362.749	898.94
362.976	889.94
363.203	886.94
363.429	833.94
363.656	887.94
363.882	850.94
364.109	855.94
364.335	888.94
364.562	891.94
364.788	882.94
365.015	899.94
365.241	869.94
365.468	864.94
365.694	889.94
365.92	893.94
366.147	872.94
366.373	904.94
366.599	867.94
366.826	871.94
367.052	860.94
367.278	893.94
367.505	899.94
367.731	886.94
367.957	872.94
368.184	901.94
368.41	911.94
368.636	905.94
368.862	889.94
369.089	899.94
369.315	915.94
369.541	888.94
369.767	930.94
369.993	917.94
370.219	886.94
370.445	899.94
370.672	922.94
370.898	908.94
371.124	914.94
371.35	911.94
371.576	919.94
371.802	931.94
372.028	933.94
372.254	916.94
372.48	933.94
372.706	918.94
372.932	929.94
373.158	944.94
373.384	925.94
373.61	925.94
373.835	909.94
374.061	898.94
374.287	920.94
374.513	927.94
374.739	936.94
374.965	948.94
375.191	952.94
375.416	930.94
375.642	897.94
375.868	935.94
376.094	937.94
376.319	908.94
376.545	926.94
376.771	939.94
376.997	916.94
377.222	912.94
377.448	900.94
377.674	922.94
377.899	915.94
378.125	919.94
378.35	913.94
378.576	928.94
378.802	898.94
379.027	937.94
379.253	907.94
379.478	901.94
379.704	904.94
379.929	900.94
380.155	905.94
380.38	909.94
380.606	914.94
380.831	901.94
381.057	943.94
381.282	931.94
381.507	910.94
381.733	901.94
381.958	910.94
382.184	940.94
382.409	937.94
382.634	930.94
382.86	919.94
383.085	951.94
383.31	938.94
383.535	924.94
383.761	951.94
383.986	961.94
384.211	992.94
384.436	980.94
384.662	980.94
384.887	984.94
385.112	988.94
385.337	992.94
385.562	1004.94
385.787	967.94
386.013	1017.94
386.238	991.94
386.463	972.94
386.688	1027.94
386.913	980.94
387.138	987.94
387.363	1000.94
387.588	989.94
387.813	1012.94
388.038	1013.94
388.263	1007.94
388.488	1011.94
388.713	1024.94
388.938	1027.94
389.163	1022.94
389.387	1035.94
389.612	1003.94
389.837	1011.94
390.062	1010.94
390.287	1011.94
390.512	985.94
390.736	1039.94
390.961	1015.94
391.186	1013.94
391.411	1024.94
391.636	1040.94
391.86	1040.94
392.085	1053.94
392.31	1013.94
392.534	1045.94
392.759	1062.94
392.984	1050.94
393.208	1043.94
393.433	1056.94
393.658	1039.94
393.882	1027.94
394.107	1046.94
394.331	1036.94
394.556	1032.94
394.78	1021.94
395.005	1047.94
395.229	1048.94
395.454	1036.94
395.678	1049.94
395.903	1071.94
396.127	1093.94
396.352	1054.94
396.576	1038.94
396.801	1078.94
397.025	1087.94
397.249	1099.94
397.474	1104.94
397.698	1090.94
397.922	1094.94
398.147	1104.94
398.371	1149.94
398.595	1104.94
398.82	1124.94
399.044	1186.94
399.268	1212.94
399.492	1217.94
399.717	1244.94
399.941	1257.94
400.165	1245.94
400.389	1214.94
400.613	1181.94
400.837	1187.94
401.062	1192.94
401.286	1186.94
401.51	1146.94
401.734	1152.94
401.958	1136.94
402.182	1163.94
402.406	1149.94
402.63	1118.94
402.854	1142.94
403.078	1131.94
403.302	1120.94
403.526	1157.94
403.75	1169.94
403.974	1165.94
404.198	1138.94
404.422	1199.94
404.645	1166.94
404.869	1183.94
405.093	1188.94
405.317	1200.94
405.541	1174.94
405.765	1209.94
405.988	1207.94
406.212	1197.94
406.436	1207.94
406.66	1226.94
406.883	1211.94
407.107	1266.94
407.331	1259.94
407.555	1279.94
407.778	1289.94
408.002	1285.94
408.226	1248.94
408.449	1286.94
408.673	1239.94
408.896	1228.94
409.12	1237.94
409.344	1233.94
409.567	1201.94
409.791	1251.94
410.014	1203.94
410.238	1213.94
410.461	1186.94
410.685	1225.94
410.908	1187.94
411.132	1205.94
411.355	1203.94
411.578	1213.94
411.802	1160.94
412.025	1166.94
412.249	1198.94
412.472	1181.94
412.695	1177.94
412.919	1180.94
413.142	1174.94
413.365	1172.94
413.589	1203.94
413.812	1182.94
414.035	1170.94
414.258	1180.94
414.482	1141.94
414.705	1201.94
414.928	1171.94
415.151	1146.94
415.374	1174.94
415.597	1151.94
415.821	1154.94
416.044	1111.94
416.267	1126.94
416.49	1113.94
416.713	1141.94
416.936	1153.94
417.159	1120.94
417.382	1127.94
417.605	1123.94
417.828	1111.94
418.051	1163.94
418.274	1109.94
418.497	1093.94
418.72	1152.94
418.943	1127.94
419.166	1168.94
419.389	1224.94
419.611	1221.94
419.834	1172.94
420.057	1139.94
420.28	1125.94
420.503	1079.94
420.726	1096.94
420.948	1106.94
421.171	1117.94
421.394	1095.94
421.617	1130.94
421.839	1129.94
422.062	1135.94
422.285	1119.94
422.507	1148.94
422.73	1097.94
422.953	1108.94
423.175	1129.94
423.398	1116.94
423.621	1121.94
423.843	1117.94
424.066	1108.94
424.288	1116.94
424.511	1100.94
424.733	1087.94
424.956	1106.94
425.178	1111.94
425.401	1113.94
425.623	1131.94
425.846	1117.94
426.068	1107.94
426.291	1089.94
426.513	1101.94
426.735	1114.94
426.958	1116.94
427.18	1103.94
427.402	1078.94
427.625	1093.94
427.847	1111.94
428.069	1072.94
428.292	1079.94
428.514	1085.94
428.736	1072.94
428.958	1075.94
429.181	1080.94
429.403	1069.94
429.625	1091.94
429.847	1115.94
430.069	1089.94
430.292	1107.94
430.514	1078.94
430.736	1101.94
430.958	1102.94
431.18	1077.94
431.402	1071.94
431.624	1067.94
431.846	1067.94
432.068	1062.94
432.29	1104.94
432.512	1087.94
432.734	1128.94
432.956	1077.94
433.178	1128.94
433.4	1159.94
433.622	1148.94
433.844	1149.94
434.066	1133.94
434.287	1133.94
434.509	1132.94
434.731	1132.94
434.953	1125.94
435.175	1179.94
435.397	1173.94
435.618	1139.94
435.84	1127.94
436.062	1127.94
436.284	1093.94
436.505	1099.94
436.727	1096.94
436.949	1106.94
437.17	1118.94
437.392	1111.94
437.614	1113.94
437.835	1062.94
438.057	1071.94
438.278	1073.94
438.5	1088.94
438.721	1063.94
438.943	1052.94
439.165	1087.94
439.386	1092.94
439.608	1066.94
439.829	1100.94
440.05	1100.94
440.272	1115.94
440.493	1104.94
440.715	1109.94
440.936	1133.94
441.158	1112.94
441.379	1076.94
441.6	1157.94
441.822	1153.94
442.043	1162.94
442.264	1122.94
442.486	1117.94
442.707	1136.94
442.928	1103.94
443.149	1115.94
443.371	1157.94
443.592	1211.94
443.813	1203.94
444.034	1150.94
444.255	1143.94
444.476	1196.94
444.698	1175.94
444.919	1223.94
445.14	1296.94
445.361	1245.94
445.582	1205.94
445.803	1166.94
446.024	1119.94
446.245	1109.94
446.466	1109.94
446.687	1106.94
446.908	1105.94
447.129	1064.94
447.35	1086.94
447.571	1071.94
447.792	1027.94
448.013	1067.94
448.234	1061.94
448.455	1025.94
448.675	1064.94
448.896	1039.94
449.117	1030.94
449.338	1047.94
449.559	1027.94
449.779	1002.94
450	1009.94
450.221	1021.94
450.442	1004.94
450.662	1035.94
450.883	1043.94
451.104	1037.94
451.324	1019.94
451.545	997.94
451.766	1007.94
451.986	1031.94
452.207	1016.94
452.428	1009.94
452.648	976.94
452.869	985.94
453.089	1004.94
453.31	1031.94
453.53	1010.94
453.751	973.94
453.971	1009.94
454.192	1021.94
454.412	1009.94
454.633	997.94
454.853	990.94
455.073	987.94
455.294	1005.94
455.514	1004.94
455.734	1022.94
455.955	1052.94
456.175	1017.94
456.395	978.94
456.616	976.94
456.836	1023.94
457.056	995.94
457.276	957.94
457.497	1005.94
457.717	1034.94
457.937	1040.94
458.157	1020.94
458.377	1037.94
458.598	1007.94
458.818	1042.94
459.038	1055.94
459.258	1043.94
459.478	1115.94
459.698	1194.94
459.918	1167.94
460.138	1159.94
460.358	1148.94
460.578	1157.94
460.798	1189.94
461.018	1185.94
461.238	1150.94
461.458	1150.94
461.678	1166.94
461.898	1173.94
462.118	1165.94
462.338	1209.94
462.558	1203.94
462.777	1245.94
462.997	1287.94
463.217	1290.94
463.437	1317.94
463.657	1252.94
463.876	1236.94
464.096	1235.94
464.316	1236.94
464.536	1239.94
464.755	1205.94
464.975	1174.94
465.195	1129.94
465.414	1159.94
465.634	1120.94
465.854	1092.94
466.073	1071.94
466.293	1111.94
466.512	1075.94
466.732	1083.94
466.951	1095.94
467.171	1101.94
467.391	1079.94
467.61	1048.94
467.829	1065.94
468.049	1082.94
468.268	1071.94
468.488	1045.94
468.707	1075.94
468.927	1073.94
469.146	1052.94
469.365	1119.94
469.585	1039.94
469.804	1051.94
470.023	1053.94
470.243	1054.94
470.462	1061.94
470.681	1079.94
470.901	1077.94
471.12	1087.94
471.339	1080.94
471.558	1057.94
471.777	1078.94
471.997	1063.94
472.216	1051.94
472.435	1044.94
472.654	1042.94
472.873	1068.94
473.092	1068.94
473.311	1070.94
473.53	1068.94
473.749	1062.94
473.968	1056.94
474.187	1067.94
474.406	1075.94
474.625	1065.94
474.844	1067.94
475.063	1125.94
475.282	1113.94
475.501	1096.94
475.72	1134.94
475.939	1133.94
476.158	1127.94
476.377	1113.94
476.596	1130.94
476.814	1117.94
477.033	1161.94
477.252	1158.94
477.471	1138.94
477.69	1173.94
477.908	1164.94
478.127	1187.94
478.346	1169.94
478.564	1204.94
478.783	1193.94
479.002	1259.94
479.22	1325.94
479.439	1255.94
479.658	1233.94
479.876	1243.94
480.095	1256.94
480.313	1252.94
480.532	1233.94
480.751	1274.94
480.969	1248.94
481.188	1257.94
481.406	1255.94
481.624	1221.94
481.843	1219.94
482.061	1236.94
482.28	1239.94
482.498	1236.94
482.717	1258.94
482.935	1255.94
483.153	1257.94
483.372	1308.94
483.59	1344.94
483.808	1297.94
484.027	1312.94
484.245	1279.94
484.463	1281.94
484.681	1276.94
484.9	1285.94
485.118	1272.94
485.336	1250.94
485.554	1283.94
485.772	1314.94
485.99	1279.94
486.209	1264.94
486.427	1300.94
486.645	1283.94
486.863	1279.94
487.081	1303.94
487.299	1299.94
487.517	1317.94
487.735	1327.94
487.953	1361.94
488.171	1340.94
488.389	1312.94
488.607	1319.94
488.825	1308.94
489.043	1266.94
489.261	1285.94
489.479	1282.94
489.696	1269.94
489.914	1296.94
490.132	1330.94
490.35	1340.94
490.568	1317.94
490.786	1327.94
491.003	1303.94
491.221	1319.94
491.439	1333.94
491.657	1337.94
491.874	1351.94
492.092	1336.94
492.31	1349.94
492.527	1376.94
492.745	1353.94
492.963	1335.94
493.18	1359.94
493.398	1317.94
493.615	1369.94
493.833	1332.94
494.05	1359.94
494.268	1378.94
494.485	1385.94
494.703	1363.94
494.92	1407.94
495.138	1376.94
