Data from Ni(NO3)2Standard.Agarose3%.GreenCap.LampEnergy5.5.E.O_HRD10591_14-42-08-187.txt Node
Date: Mon Jul 22 14:42:08 EDT 2019
User: cochatt
Spectrometer: HR+D1059
Trigger mode: 1
Integration Time (sec): 1.000000E-1
Scans to average: 1
Electric dark correction enabled: true
Nonlinearity correction enabled: false
Boxcar width: 0
XAxis mode: Wavelengths
Number of Pixels in Spectrum: 2048
>>>>>Begin Spectral Data<<<<<
223.165	-17.81
223.4	-17.81
223.635	-17.81
223.869	-8.81
224.104	-17.81
224.338	-20.81
224.573	-24.81
224.808	-15.81
225.042	-5.81
225.277	-2.81
225.511	4.19
225.746	11.19
225.98	17.19
226.215	15.19
226.449	13.19
226.683	6.19
226.918	22.19
227.152	25.19
227.387	39.19
227.621	37.19
227.856	33.19
228.09	41.19
228.324	45.19
228.559	44.19
228.793	73.19
229.027	45.19
229.262	54.19
229.496	71.19
229.73	68.19
229.964	74.19
230.199	72.19
230.433	68.19
230.667	78.19
230.901	68.19
231.136	68.19
231.37	81.19
231.604	78.19
231.838	77.19
232.072	85.19
232.306	87.19
232.541	93.19
232.775	71.19
233.009	76.19
233.243	86.19
233.477	77.19
233.711	72.19
233.945	82.19
234.179	73.19
234.413	95.19
234.647	82.19
234.881	84.19
235.115	94.19
235.349	79.19
235.583	76.19
235.817	63.19
236.051	69.19
236.285	75.19
236.519	91.19
236.753	84.19
236.987	73.19
237.221	60.19
237.455	72.19
237.689	80.19
237.922	78.19
238.156	88.19
238.39	90.19
238.624	70.19
238.858	69.19
239.091	84.19
239.325	77.19
239.559	64.19
239.793	73.19
240.027	78.19
240.26	75.19
240.494	87.19
240.728	70.19
240.961	78.19
241.195	83.19
241.429	75.19
241.662	85.19
241.896	61.19
242.13	74.19
242.363	64.19
242.597	77.19
242.83	79.19
243.064	72.19
243.298	85.19
243.531	82.19
243.765	71.19
243.998	80.19
244.232	80.19
244.465	82.19
244.699	70.19
244.932	77.19
245.166	77.19
245.399	85.19
245.633	78.19
245.866	66.19
246.099	72.19
246.333	62.19
246.566	80.19
246.8	86.19
247.033	66.19
247.266	77.19
247.5	80.19
247.733	86.19
247.966	68.19
248.2	68.19
248.433	75.19
248.666	58.19
248.899	81.19
249.133	93.19
249.366	85.19
249.599	73.19
249.832	68.19
250.066	62.19
250.299	68.19
250.532	65.19
250.765	62.19
250.998	81.19
251.231	82.19
251.465	72.19
251.698	70.19
251.931	64.19
252.164	76.19
252.397	89.19
252.63	84.19
252.863	78.19
253.096	92.19
253.329	84.19
253.562	72.19
253.795	93.19
254.028	93.19
254.261	77.19
254.494	78.19
254.727	65.19
254.96	88.19
255.193	73.19
255.426	62.19
255.659	76.19
255.892	77.19
256.124	57.19
256.357	77.19
256.59	69.19
256.823	90.19
257.056	68.19
257.289	64.19
257.521	73.19
257.754	80.19
257.987	85.19
258.22	78.19
258.452	65.19
258.685	70.19
258.918	80.19
259.151	67.19
259.383	86.19
259.616	75.19
259.849	76.19
260.081	92.19
260.314	81.19
260.547	71.19
260.779	74.19
261.012	77.19
261.244	78.19
261.477	76.19
261.71	84.19
261.942	80.19
262.175	84.19
262.407	81.19
262.64	64.19
262.872	80.19
263.105	81.19
263.337	87.19
263.57	71.19
263.802	72.19
264.035	80.19
264.267	77.19
264.499	66.19
264.732	88.19
264.964	88.19
265.197	92.19
265.429	71.19
265.661	81.19
265.894	89.19
266.126	82.19
266.358	80.19
266.591	72.19
266.823	82.19
267.055	89.19
267.287	82.19
267.52	85.19
267.752	72.19
267.984	98.19
268.216	80.19
268.448	70.19
268.681	85.19
268.913	73.19
269.145	88.19
269.377	79.19
269.609	85.19
269.841	85.19
270.073	74.19
270.306	86.19
270.538	86.19
270.77	73.19
271.002	68.19
271.234	93.19
271.466	82.19
271.698	84.19
271.93	91.19
272.162	84.19
272.394	93.19
272.626	73.19
272.858	87.19
273.09	74.19
273.322	82.19
273.553	84.19
273.785	88.19
274.017	74.19
274.249	89.19
274.481	77.19
274.713	91.19
274.945	94.19
275.176	76.19
275.408	86.19
275.64	64.19
275.872	84.19
276.104	83.19
276.335	81.19
276.567	96.19
276.799	87.19
277.031	77.19
277.262	79.19
277.494	100.19
277.726	87.19
277.957	90.19
278.189	93.19
278.421	87.19
278.652	84.19
278.884	89.19
279.115	96.19
279.347	78.19
279.579	87.19
279.81	74.19
280.042	72.19
280.273	69.19
280.505	92.19
280.736	80.19
280.968	72.19
281.199	77.19
281.431	72.19
281.662	84.19
281.894	79.19
282.125	77.19
282.356	81.19
282.588	68.19
282.819	90.19
283.051	76.19
283.282	78.19
283.513	77.19
283.745	80.19
283.976	86.19
284.207	88.19
284.439	88.19
284.67	91.19
284.901	81.19
285.132	81.19
285.364	76.19
285.595	78.19
285.826	78.19
286.057	87.19
286.288	76.19
286.52	87.19
286.751	83.19
286.982	74.19
287.213	92.19
287.444	68.19
287.675	81.19
287.906	83.19
288.138	101.19
288.369	96.19
288.6	91.19
288.831	92.19
289.062	75.19
289.293	82.19
289.524	70.19
289.755	82.19
289.986	89.19
290.217	85.19
290.448	77.19
290.679	77.19
290.91	78.19
291.141	90.19
291.371	77.19
291.602	94.19
291.833	90.19
292.064	76.19
292.295	92.19
292.526	85.19
292.757	71.19
292.987	79.19
293.218	112.19
293.449	79.19
293.68	88.19
293.91	92.19
294.141	89.19
294.372	86.19
294.603	80.19
294.833	90.19
295.064	82.19
295.295	82.19
295.525	88.19
295.756	81.19
295.987	71.19
296.217	76.19
296.448	78.19
296.679	72.19
296.909	96.19
297.14	95.19
297.37	97.19
297.601	74.19
297.831	82.19
298.062	87.19
298.292	83.19
298.523	107.19
298.753	101.19
298.984	88.19
299.214	83.19
299.445	82.19
299.675	99.19
299.905	83.19
300.136	89.19
300.366	95.19
300.597	75.19
300.827	85.19
301.057	83.19
301.288	79.19
301.518	92.19
301.748	87.19
301.979	71.19
302.209	86.19
302.439	77.19
302.669	90.19
302.9	72.19
303.13	76.19
303.36	94.19
303.59	90.19
303.82	95.19
304.051	85.19
304.281	84.19
304.511	85.19
304.741	82.19
304.971	92.19
305.201	101.19
305.431	88.19
305.661	84.19
305.891	86.19
306.121	76.19
306.352	86.19
306.582	63.19
306.812	91.19
307.042	86.19
307.272	83.19
307.502	89.19
307.731	95.19
307.961	78.19
308.191	88.19
308.421	73.19
308.651	83.19
308.881	91.19
309.111	92.19
309.341	106.19
309.571	87.19
309.8	82.19
310.03	67.19
310.26	90.19
310.49	75.19
310.72	75.19
310.949	86.19
311.179	97.19
311.409	86.19
311.639	81.19
311.868	87.19
312.098	81.19
312.328	88.19
312.557	102.19
312.787	96.19
313.017	87.19
313.246	107.19
313.476	82.19
313.706	84.19
313.935	78.19
314.165	88.19
314.394	82.19
314.624	73.19
314.853	74.19
315.083	89.19
315.312	100.19
315.542	82.19
315.771	86.19
316.001	94.19
316.23	89.19
316.46	82.19
316.689	84.19
316.919	74.19
317.148	83.19
317.377	81.19
317.607	78.19
317.836	76.19
318.065	84.19
318.295	90.19
318.524	92.19
318.753	93.19
318.983	68.19
319.212	87.19
319.441	98.19
319.67	86.19
319.9	103.19
320.129	99.19
320.358	77.19
320.587	82.19
320.816	81.19
321.046	88.19
321.275	99.19
321.504	101.19
321.733	89.19
321.962	85.19
322.191	83.19
322.42	88.19
322.649	82.19
322.878	83.19
323.108	85.19
323.337	81.19
323.566	92.19
323.795	95.19
324.024	103.19
324.253	87.19
324.482	97.19
324.71	89.19
324.939	104.19
325.168	94.19
325.397	97.19
325.626	81.19
325.855	83.19
326.084	77.19
326.313	84.19
326.542	86.19
326.77	86.19
326.999	83.19
327.228	81.19
327.457	85.19
327.686	94.19
327.914	86.19
328.143	62.19
328.372	67.19
328.6	76.19
328.829	66.19
329.058	97.19
329.287	82.19
329.515	88.19
329.744	78.19
329.972	82.19
330.201	88.19
330.43	76.19
330.658	82.19
330.887	86.19
331.115	95.19
331.344	92.19
331.572	96.19
331.801	71.19
332.03	72.19
332.258	74.19
332.486	86.19
332.715	79.19
332.943	94.19
333.172	80.19
333.4	85.19
333.629	92.19
333.857	80.19
334.085	81.19
334.314	68.19
334.542	92.19
334.771	82.19
334.999	90.19
335.227	73.19
335.455	102.19
335.684	82.19
335.912	90.19
336.14	80.19
336.369	96.19
336.597	88.19
336.825	80.19
337.053	89.19
337.281	88.19
337.51	94.19
337.738	81.19
337.966	79.19
338.194	86.19
338.422	78.19
338.65	96.19
338.878	81.19
339.106	82.19
339.334	78.19
339.562	88.19
339.79	81.19
340.018	114.19
340.246	83.19
340.474	82.19
340.702	87.19
340.93	79.19
341.158	80.19
341.386	82.19
341.614	90.19
341.842	92.19
342.07	86.19
342.298	90.19
342.526	79.19
342.754	85.19
342.981	89.19
343.209	69.19
343.437	97.19
343.665	89.19
343.893	86.19
344.12	90.19
344.348	91.19
344.576	96.19
344.804	90.19
345.031	95.19
345.259	74.19
345.487	87.19
345.714	93.19
345.942	81.19
346.17	74.19
346.397	72.19
346.625	90.19
346.853	84.19
347.08	75.19
347.308	84.19
347.535	84.19
347.763	88.19
347.99	96.19
348.218	92.19
348.445	93.19
348.673	93.19
348.9	96.19
349.128	77.19
349.355	92.19
349.583	80.19
349.81	85.19
350.037	89.19
350.265	89.19
350.492	73.19
350.72	72.19
350.947	81.19
351.174	84.19
351.402	89.19
351.629	95.19
351.856	92.19
352.083	76.19
352.311	89.19
352.538	83.19
352.765	72.19
352.992	76.19
353.22	94.19
353.447	78.19
353.674	88.19
353.901	90.19
354.128	93.19
354.355	80.19
354.583	90.19
354.81	94.19
355.037	85.19
355.264	88.19
355.491	86.19
355.718	90.19
355.945	81.19
356.172	90.19
356.399	77.19
356.626	75.19
356.853	96.19
357.08	88.19
357.307	89.19
357.534	85.19
357.761	88.19
357.988	75.19
358.215	76.19
358.441	96.19
358.668	85.19
358.895	79.19
359.122	101.19
359.349	95.19
359.576	96.19
359.802	96.19
360.029	88.19
360.256	65.19
360.483	75.19
360.709	88.19
360.936	102.19
361.163	78.19
361.39	102.19
361.616	82.19
361.843	104.19
362.07	75.19
362.296	92.19
362.523	75.19
362.749	77.19
362.976	75.19
363.203	86.19
363.429	91.19
363.656	70.19
363.882	81.19
364.109	92.19
364.335	89.19
364.562	82.19
364.788	85.19
365.015	87.19
365.241	82.19
365.468	78.19
365.694	83.19
365.92	77.19
366.147	91.19
366.373	91.19
366.599	84.19
366.826	79.19
367.052	79.19
367.278	93.19
367.505	83.19
367.731	83.19
367.957	71.19
368.184	94.19
368.41	74.19
368.636	72.19
368.862	81.19
369.089	88.19
369.315	76.19
369.541	83.19
369.767	88.19
369.993	91.19
370.219	85.19
370.445	84.19
370.672	91.19
370.898	81.19
371.124	86.19
371.35	90.19
371.576	87.19
371.802	83.19
372.028	89.19
372.254	89.19
372.48	86.19
372.706	81.19
372.932	85.19
373.158	94.19
373.384	82.19
373.61	81.19
373.835	81.19
374.061	73.19
374.287	82.19
374.513	97.19
374.739	98.19
374.965	93.19
375.191	81.19
375.416	83.19
375.642	75.19
375.868	83.19
376.094	85.19
376.319	85.19
376.545	88.19
376.771	72.19
376.997	90.19
377.222	80.19
377.448	92.19
377.674	78.19
377.899	82.19
378.125	60.19
378.35	81.19
378.576	89.19
378.802	81.19
379.027	81.19
379.253	84.19
379.478	72.19
379.704	91.19
379.929	88.19
380.155	82.19
380.38	91.19
380.606	78.19
380.831	87.19
381.057	104.19
381.282	87.19
381.507	82.19
381.733	90.19
381.958	93.19
382.184	86.19
382.409	73.19
382.634	89.19
382.86	83.19
383.085	84.19
383.31	79.19
383.535	90.19
383.761	89.19
383.986	80.19
384.211	87.19
384.436	82.19
384.662	95.19
384.887	72.19
385.112	82.19
385.337	93.19
385.562	89.19
385.787	76.19
386.013	76.19
386.238	61.19
386.463	93.19
386.688	85.19
386.913	92.19
387.138	78.19
387.363	72.19
387.588	88.19
387.813	83.19
388.038	92.19
388.263	87.19
388.488	90.19
388.713	84.19
388.938	81.19
389.163	94.19
389.387	82.19
389.612	83.19
389.837	97.19
390.062	70.19
390.287	86.19
390.512	79.19
390.736	89.19
390.961	79.19
391.186	81.19
391.411	96.19
391.636	87.19
391.86	84.19
392.085	74.19
392.31	87.19
392.534	81.19
392.759	92.19
392.984	87.19
393.208	102.19
393.433	93.19
393.658	77.19
393.882	76.19
394.107	88.19
394.331	87.19
394.556	75.19
394.78	76.19
395.005	72.19
395.229	82.19
395.454	82.19
395.678	72.19
395.903	89.19
396.127	94.19
396.352	80.19
396.576	78.19
396.801	94.19
397.025	89.19
397.249	86.19
397.474	100.19
397.698	86.19
397.922	75.19
398.147	91.19
398.371	90.19
398.595	80.19
398.82	67.19
399.044	104.19
399.268	76.19
399.492	80.19
399.717	88.19
399.941	77.19
400.165	82.19
400.389	78.19
400.613	60.19
400.837	78.19
401.062	97.19
401.286	92.19
401.51	97.19
401.734	86.19
401.958	90.19
402.182	90.19
402.406	95.19
402.63	84.19
402.854	72.19
403.078	102.19
403.302	87.19
403.526	90.19
403.75	94.19
403.974	92.19
404.198	92.19
404.422	95.19
404.645	91.19
404.869	91.19
405.093	84.19
405.317	87.19
405.541	79.19
405.765	93.19
405.988	85.19
406.212	75.19
406.436	78.19
406.66	83.19
406.883	84.19
407.107	69.19
407.331	78.19
407.555	98.19
407.778	80.19
408.002	92.19
408.226	85.19
408.449	93.19
408.673	84.19
408.896	96.19
409.12	68.19
409.344	76.19
409.567	62.19
409.791	91.19
410.014	89.19
410.238	79.19
410.461	79.19
410.685	81.19
410.908	77.19
411.132	89.19
411.355	84.19
411.578	84.19
411.802	88.19
412.025	93.19
412.249	102.19
412.472	94.19
412.695	76.19
412.919	88.19
413.142	91.19
413.365	92.19
413.589	84.19
413.812	78.19
414.035	71.19
414.258	89.19
414.482	83.19
414.705	76.19
414.928	101.19
415.151	81.19
415.374	68.19
415.597	69.19
415.821	93.19
416.044	74.19
416.267	81.19
416.49	97.19
416.713	97.19
416.936	93.19
417.159	85.19
417.382	84.19
417.605	85.19
417.828	94.19
418.051	75.19
418.274	75.19
418.497	96.19
418.72	82.19
418.943	87.19
419.166	86.19
419.389	96.19
419.611	83.19
419.834	77.19
420.057	82.19
420.28	84.19
420.503	86.19
420.726	78.19
420.948	79.19
421.171	80.19
421.394	76.19
421.617	89.19
421.839	80.19
422.062	75.19
422.285	89.19
422.507	82.19
422.73	89.19
422.953	74.19
423.175	86.19
423.398	74.19
423.621	99.19
423.843	87.19
424.066	74.19
424.288	79.19
424.511	82.19
424.733	74.19
424.956	87.19
425.178	102.19
425.401	91.19
425.623	100.19
425.846	80.19
426.068	76.19
426.291	74.19
426.513	71.19
426.735	86.19
426.958	80.19
427.18	79.19
427.402	83.19
427.625	81.19
427.847	76.19
428.069	93.19
428.292	91.19
428.514	76.19
428.736	81.19
428.958	74.19
429.181	93.19
429.403	85.19
429.625	80.19
429.847	89.19
430.069	92.19
430.292	84.19
430.514	83.19
430.736	90.19
430.958	91.19
431.18	88.19
431.402	91.19
431.624	75.19
431.846	96.19
432.068	82.19
432.29	85.19
432.512	94.19
432.734	85.19
432.956	75.19
433.178	78.19
433.4	82.19
433.622	91.19
433.844	73.19
434.066	81.19
434.287	64.19
434.509	89.19
434.731	86.19
434.953	77.19
435.175	96.19
435.397	88.19
435.618	81.19
435.84	84.19
436.062	60.19
436.284	89.19
436.505	84.19
436.727	82.19
436.949	90.19
437.17	98.19
437.392	81.19
437.614	92.19
437.835	81.19
438.057	81.19
438.278	84.19
438.5	90.19
438.721	84.19
438.943	86.19
439.165	96.19
439.386	101.19
439.608	84.19
439.829	96.19
440.05	89.19
440.272	79.19
440.493	90.19
440.715	91.19
440.936	85.19
441.158	80.19
441.379	87.19
441.6	91.19
441.822	80.19
442.043	97.19
442.264	103.19
442.486	98.19
442.707	76.19
442.928	85.19
443.149	91.19
443.371	87.19
443.592	82.19
443.813	84.19
444.034	91.19
444.255	80.19
444.476	99.19
444.698	99.19
444.919	86.19
445.14	220.19
445.361	147.19
445.582	93.19
445.803	72.19
446.024	88.19
446.245	65.19
446.466	83.19
446.687	89.19
446.908	95.19
447.129	82.19
447.35	73.19
447.571	72.19
447.792	87.19
448.013	84.19
448.234	88.19
448.455	73.19
448.675	98.19
448.896	89.19
449.117	86.19
449.338	79.19
449.559	82.19
449.779	85.19
450	94.19
450.221	83.19
450.442	80.19
450.662	90.19
450.883	91.19
451.104	94.19
451.324	84.19
451.545	87.19
451.766	80.19
451.986	76.19
452.207	87.19
452.428	87.19
452.648	97.19
452.869	98.19
453.089	92.19
453.31	94.19
453.53	89.19
453.751	78.19
453.971	83.19
454.192	88.19
454.412	86.19
454.633	70.19
454.853	91.19
455.073	80.19
455.294	85.19
455.514	92.19
455.734	82.19
455.955	89.19
456.175	92.19
456.395	87.19
456.616	83.19
456.836	94.19
457.056	82.19
457.276	73.19
457.497	93.19
457.717	78.19
457.937	96.19
458.157	88.19
458.377	98.19
458.598	95.19
458.818	73.19
459.038	84.19
459.258	92.19
459.478	74.19
459.698	84.19
459.918	79.19
460.138	87.19
460.358	86.19
460.578	92.19
460.798	84.19
461.018	70.19
461.238	76.19
461.458	89.19
461.678	86.19
461.898	80.19
462.118	80.19
462.338	100.19
462.558	94.19
462.777	89.19
462.997	84.19
463.217	73.19
463.437	82.19
463.657	85.19
463.876	93.19
464.096	99.19
464.316	90.19
464.536	86.19
464.755	78.19
464.975	96.19
465.195	87.19
465.414	92.19
465.634	81.19
465.854	94.19
466.073	99.19
466.293	81.19
466.512	85.19
466.732	80.19
466.951	81.19
467.171	90.19
467.391	95.19
467.61	78.19
467.829	99.19
468.049	71.19
468.268	79.19
468.488	93.19
468.707	88.19
468.927	98.19
469.146	83.19
469.365	82.19
469.585	86.19
469.804	97.19
470.023	90.19
470.243	88.19
470.462	90.19
470.681	80.19
470.901	77.19
471.12	84.19
471.339	83.19
471.558	72.19
471.777	83.19
471.997	91.19
472.216	75.19
472.435	92.19
472.654	82.19
472.873	72.19
473.092	84.19
473.311	86.19
473.53	76.19
473.749	78.19
473.968	92.19
474.187	77.19
474.406	88.19
474.625	95.19
474.844	89.19
475.063	90.19
475.282	82.19
475.501	80.19
475.72	87.19
475.939	89.19
476.158	96.19
476.377	79.19
476.596	99.19
476.814	94.19
477.033	81.19
477.252	90.19
477.471	98.19
477.69	78.19
477.908	81.19
478.127	83.19
478.346	93.19
478.564	84.19
478.783	82.19
479.002	97.19
479.22	81.19
479.439	75.19
479.658	84.19
479.876	85.19
480.095	91.19
480.313	81.19
480.532	81.19
480.751	98.19
480.969	91.19
481.188	96.19
481.406	89.19
481.624	88.19
481.843	92.19
482.061	78.19
482.28	81.19
482.498	79.19
482.717	88.19
482.935	99.19
483.153	84.19
483.372	69.19
483.59	80.19
483.808	103.19
484.027	100.19
484.245	85.19
484.463	89.19
484.681	88.19
484.9	97.19
485.118	97.19
485.336	98.19
485.554	93.19
485.772	85.19
485.99	94.19
486.209	82.19
486.427	85.19
486.645	93.19
486.863	91.19
487.081	86.19
487.299	94.19
487.517	105.19
487.735	106.19
487.953	89.19
488.171	98.19
488.389	108.19
488.607	92.19
488.825	86.19
489.043	95.19
489.261	92.19
489.479	88.19
489.696	93.19
489.914	101.19
490.132	97.19
490.35	88.19
490.568	105.19
490.786	107.19
491.003	107.19
491.221	85.19
491.439	86.19
491.657	99.19
491.874	84.19
492.092	93.19
492.31	101.19
492.527	102.19
492.745	97.19
492.963	85.19
493.18	88.19
493.398	98.19
493.615	101.19
493.833	100.19
494.05	98.19
494.268	96.19
494.485	93.19
494.703	92.19
494.92	101.19
495.138	107.19
495.355	86.19
495.573	100.19
495.79	113.19
496.008	88.19
496.225	99.19
496.442	101.19
496.66	86.19
496.877	89.19
497.094	103.19
497.312	88.19
497.529	103.19
497.746	104.19
497.963	93.19
498.181	107.19
498.398	102.19
498.615	96.19
498.832	101.19
499.049	103.19
499.267	91.19
499.484	120.19
499.701	95.19
499.918	107.19
500.135	103.19
500.352	102.19
500.569	92.19
500.786	108.19
501.003	106.19
501.22	96.19
501.437	101.19
501.654	109.19
501.871	92.19
502.088	89.19
502.305	89.19
502.522	91.19
502.739	101.19
502.956	97.19
503.172	83.19
503.389	99.19
503.606	103.19
503.823	89.19
504.04	88.19
504.256	92.19
504.473	85.19
504.69	97.19
504.907	97.19
505.123	87.19
505.34	88.19
505.557	105.19
505.773	95.19
505.99	92.19
506.207	96.19
506.423	92.19
506.64	101.19
506.856	80.19
507.073	87.19
507.289	97.19
507.506	91.19
507.722	92.19
507.939	88.19
508.155	82.19
508.372	83.19
508.588	68.19
508.805	97.19
509.021	85.19
509.238	87.19
509.454	91.19
509.67	83.19
509.887	96.19
510.103	93.19
510.319	79.19
510.536	85.19
510.752	87.19
510.968	85.19
511.184	96.19
511.401	83.19
511.617	97.19
511.833	77.19
512.049	89.19
512.265	94.19
512.481	84.19
512.698	91.19
512.914	87.19
513.13	88.19
513.346	84.19
513.562	75.19
513.778	90.19
513.994	93.19
514.21	95.19
514.426	91.19
514.642	91.19
514.858	86.19
515.074	88.19
515.29	90.19
515.506	88.19
515.721	95.19
515.937	106.19
516.153	94.19
516.369	85.19
516.585	81.19
516.801	96.19
517.016	96.19
517.232	100.19
517.448	82.19
517.664	86.19
517.879	115.19
518.095	101.19
518.311	69.19
518.527	88.19
