Data from Ni(NO3)2Standard.Agarose3%.GreenCap.LampEnergy5.5.E.O_HRD10591_14-42-07-188.txt Node
Date: Mon Jul 22 14:42:07 EDT 2019
User: cochatt
Spectrometer: HR+D1059
Trigger mode: 1
Integration Time (sec): 1.000000E-1
Scans to average: 1
Electric dark correction enabled: true
Nonlinearity correction enabled: false
Boxcar width: 0
XAxis mode: Wavelengths
Number of Pixels in Spectrum: 2048
>>>>>Begin Spectral Data<<<<<
223.165	-20.62
223.4	-20.62
223.635	-20.62
223.869	-9.62
224.104	-16.62
224.338	-13.62
224.573	-17.62
224.808	-15.62
225.042	-9.62
225.277	4.38
225.511	0.38
225.746	6.38
225.98	1.38
226.215	18.38
226.449	14.38
226.683	6.38
226.918	21.38
227.152	30.38
227.387	29.38
227.621	35.38
227.856	25.38
228.09	40.38
228.324	45.38
228.559	58.38
228.793	75.38
229.027	52.38
229.262	66.38
229.496	62.38
229.73	74.38
229.964	53.38
230.199	78.38
230.433	72.38
230.667	76.38
230.901	69.38
231.136	90.38
231.37	79.38
231.604	68.38
231.838	91.38
232.072	86.38
232.306	88.38
232.541	79.38
232.775	73.38
233.009	82.38
233.243	92.38
233.477	82.38
233.711	85.38
233.945	92.38
234.179	80.38
234.413	84.38
234.647	87.38
234.881	67.38
235.115	82.38
235.349	87.38
235.583	83.38
235.817	69.38
236.051	69.38
236.285	77.38
236.519	65.38
236.753	78.38
236.987	83.38
237.221	74.38
237.455	75.38
237.689	70.38
237.922	75.38
238.156	72.38
238.39	79.38
238.624	75.38
238.858	72.38
239.091	83.38
239.325	78.38
239.559	88.38
239.793	68.38
240.027	69.38
240.26	78.38
240.494	72.38
240.728	73.38
240.961	87.38
241.195	77.38
241.429	83.38
241.662	74.38
241.896	92.38
242.13	90.38
242.363	85.38
242.597	75.38
242.83	81.38
243.064	91.38
243.298	73.38
243.531	72.38
243.765	93.38
243.998	75.38
244.232	81.38
244.465	69.38
244.699	75.38
244.932	78.38
245.166	68.38
245.399	65.38
245.633	72.38
245.866	93.38
246.099	71.38
246.333	80.38
246.566	77.38
246.8	75.38
247.033	76.38
247.266	87.38
247.5	71.38
247.733	84.38
247.966	82.38
248.2	90.38
248.433	73.38
248.666	75.38
248.899	92.38
249.133	74.38
249.366	79.38
249.599	82.38
249.832	68.38
250.066	92.38
250.299	80.38
250.532	65.38
250.765	82.38
250.998	85.38
251.231	83.38
251.465	90.38
251.698	91.38
251.931	73.38
252.164	84.38
252.397	96.38
252.63	70.38
252.863	93.38
253.096	85.38
253.329	79.38
253.562	86.38
253.795	73.38
254.028	84.38
254.261	73.38
254.494	79.38
254.727	78.38
254.96	81.38
255.193	91.38
255.426	82.38
255.659	88.38
255.892	80.38
256.124	78.38
256.357	89.38
256.59	72.38
256.823	65.38
257.056	77.38
257.289	91.38
257.521	83.38
257.754	88.38
257.987	74.38
258.22	84.38
258.452	71.38
258.685	83.38
258.918	60.38
259.151	87.38
259.383	66.38
259.616	93.38
259.849	86.38
260.081	91.38
260.314	86.38
260.547	84.38
260.779	84.38
261.012	92.38
261.244	94.38
261.477	79.38
261.71	76.38
261.942	68.38
262.175	75.38
262.407	90.38
262.64	84.38
262.872	75.38
263.105	69.38
263.337	84.38
263.57	73.38
263.802	73.38
264.035	94.38
264.267	87.38
264.499	70.38
264.732	79.38
264.964	78.38
265.197	81.38
265.429	79.38
265.661	71.38
265.894	87.38
266.126	86.38
266.358	85.38
266.591	85.38
266.823	87.38
267.055	86.38
267.287	67.38
267.52	70.38
267.752	56.38
267.984	91.38
268.216	85.38
268.448	105.38
268.681	84.38
268.913	78.38
269.145	84.38
269.377	85.38
269.609	83.38
269.841	84.38
270.073	87.38
270.306	82.38
270.538	97.38
270.77	79.38
271.002	90.38
271.234	84.38
271.466	86.38
271.698	93.38
271.93	79.38
272.162	88.38
272.394	86.38
272.626	94.38
272.858	89.38
273.09	81.38
273.322	76.38
273.553	83.38
273.785	90.38
274.017	101.38
274.249	81.38
274.481	84.38
274.713	86.38
274.945	89.38
275.176	74.38
275.408	93.38
275.64	69.38
275.872	83.38
276.104	89.38
276.335	90.38
276.567	91.38
276.799	87.38
277.031	89.38
277.262	84.38
277.494	96.38
277.726	80.38
277.957	75.38
278.189	87.38
278.421	79.38
278.652	74.38
278.884	84.38
279.115	93.38
279.347	75.38
279.579	92.38
279.81	75.38
280.042	80.38
280.273	93.38
280.505	94.38
280.736	88.38
280.968	84.38
281.199	81.38
281.431	89.38
281.662	95.38
281.894	95.38
282.125	88.38
282.356	81.38
282.588	92.38
282.819	83.38
283.051	90.38
283.282	84.38
283.513	78.38
283.745	88.38
283.976	82.38
284.207	68.38
284.439	78.38
284.67	88.38
284.901	98.38
285.132	85.38
285.364	66.38
285.595	82.38
285.826	74.38
286.057	78.38
286.288	84.38
286.52	99.38
286.751	93.38
286.982	84.38
287.213	70.38
287.444	96.38
287.675	92.38
287.906	87.38
288.138	85.38
288.369	84.38
288.6	85.38
288.831	87.38
289.062	80.38
289.293	94.38
289.524	86.38
289.755	80.38
289.986	94.38
290.217	90.38
290.448	76.38
290.679	79.38
290.91	85.38
291.141	85.38
291.371	93.38
291.602	85.38
291.833	94.38
292.064	95.38
292.295	87.38
292.526	87.38
292.757	95.38
292.987	95.38
293.218	80.38
293.449	83.38
293.68	97.38
293.91	90.38
294.141	91.38
294.372	88.38
294.603	96.38
294.833	88.38
295.064	73.38
295.295	80.38
295.525	87.38
295.756	88.38
295.987	86.38
296.217	74.38
296.448	83.38
296.679	95.38
296.909	90.38
297.14	87.38
297.37	88.38
297.601	82.38
297.831	97.38
298.062	80.38
298.292	85.38
298.523	90.38
298.753	84.38
298.984	67.38
299.214	89.38
299.445	88.38
299.675	95.38
299.905	108.38
300.136	78.38
300.366	90.38
300.597	85.38
300.827	88.38
301.057	94.38
301.288	88.38
301.518	97.38
301.748	90.38
301.979	88.38
302.209	87.38
302.439	81.38
302.669	77.38
302.9	80.38
303.13	85.38
303.36	99.38
303.59	97.38
303.82	87.38
304.051	76.38
304.281	101.38
304.511	78.38
304.741	83.38
304.971	92.38
305.201	72.38
305.431	89.38
305.661	88.38
305.891	85.38
306.121	87.38
306.352	96.38
306.582	83.38
306.812	79.38
307.042	98.38
307.272	88.38
307.502	87.38
307.731	100.38
307.961	88.38
308.191	80.38
308.421	93.38
308.651	100.38
308.881	88.38
309.111	84.38
309.341	86.38
309.571	89.38
309.8	101.38
310.03	90.38
310.26	94.38
310.49	91.38
310.72	93.38
310.949	89.38
311.179	107.38
311.409	92.38
311.639	84.38
311.868	94.38
312.098	98.38
312.328	96.38
312.557	91.38
312.787	92.38
313.017	80.38
313.246	88.38
313.476	84.38
313.706	86.38
313.935	86.38
314.165	87.38
314.394	98.38
314.624	83.38
314.853	100.38
315.083	90.38
315.312	100.38
315.542	94.38
315.771	94.38
316.001	84.38
316.23	88.38
316.46	75.38
316.689	83.38
316.919	91.38
317.148	91.38
317.377	85.38
317.607	94.38
317.836	87.38
318.065	99.38
318.295	79.38
318.524	89.38
318.753	97.38
318.983	99.38
319.212	85.38
319.441	79.38
319.67	87.38
319.9	81.38
320.129	83.38
320.358	77.38
320.587	89.38
320.816	94.38
321.046	89.38
321.275	90.38
321.504	85.38
321.733	67.38
321.962	93.38
322.191	81.38
322.42	96.38
322.649	94.38
322.878	95.38
323.108	93.38
323.337	98.38
323.566	85.38
323.795	91.38
324.024	86.38
324.253	84.38
324.482	98.38
324.71	96.38
324.939	98.38
325.168	98.38
325.397	96.38
325.626	83.38
325.855	96.38
326.084	84.38
326.313	93.38
326.542	80.38
326.77	68.38
326.999	75.38
327.228	93.38
327.457	98.38
327.686	86.38
327.914	96.38
328.143	98.38
328.372	93.38
328.6	84.38
328.829	83.38
329.058	74.38
329.287	90.38
329.515	78.38
329.744	83.38
329.972	80.38
330.201	96.38
330.43	88.38
330.658	92.38
330.887	74.38
331.115	82.38
331.344	98.38
331.572	91.38
331.801	89.38
332.03	90.38
332.258	88.38
332.486	85.38
332.715	82.38
332.943	86.38
333.172	91.38
333.4	86.38
333.629	84.38
333.857	85.38
334.085	77.38
334.314	98.38
334.542	95.38
334.771	79.38
334.999	85.38
335.227	87.38
335.455	84.38
335.684	93.38
335.912	93.38
336.14	94.38
336.369	89.38
336.597	99.38
336.825	84.38
337.053	90.38
337.281	74.38
337.51	77.38
337.738	82.38
337.966	107.38
338.194	93.38
338.422	88.38
338.65	94.38
338.878	87.38
339.106	90.38
339.334	97.38
339.562	93.38
339.79	80.38
340.018	74.38
340.246	83.38
340.474	95.38
340.702	87.38
340.93	82.38
341.158	82.38
341.386	96.38
341.614	87.38
341.842	83.38
342.07	92.38
342.298	92.38
342.526	93.38
342.754	85.38
342.981	86.38
343.209	91.38
343.437	102.38
343.665	87.38
343.893	84.38
344.12	87.38
344.348	92.38
344.576	84.38
344.804	85.38
345.031	93.38
345.259	89.38
345.487	77.38
345.714	95.38
345.942	79.38
346.17	90.38
346.397	84.38
346.625	94.38
346.853	91.38
347.08	82.38
347.308	95.38
347.535	86.38
347.763	92.38
347.99	91.38
348.218	91.38
348.445	91.38
348.673	80.38
348.9	90.38
349.128	90.38
349.355	94.38
349.583	98.38
349.81	103.38
350.037	81.38
350.265	89.38
350.492	93.38
350.72	87.38
350.947	83.38
351.174	73.38
351.402	84.38
351.629	99.38
351.856	101.38
352.083	70.38
352.311	97.38
352.538	89.38
352.765	82.38
352.992	94.38
353.22	94.38
353.447	79.38
353.674	90.38
353.901	94.38
354.128	94.38
354.355	89.38
354.583	103.38
354.81	104.38
355.037	95.38
355.264	90.38
355.491	76.38
355.718	90.38
355.945	89.38
356.172	77.38
356.399	91.38
356.626	93.38
356.853	94.38
357.08	92.38
357.307	89.38
357.534	85.38
357.761	90.38
357.988	80.38
358.215	83.38
358.441	86.38
358.668	89.38
358.895	87.38
359.122	79.38
359.349	83.38
359.576	97.38
359.802	87.38
360.029	88.38
360.256	78.38
360.483	90.38
360.709	87.38
360.936	95.38
361.163	95.38
361.39	94.38
361.616	104.38
361.843	97.38
362.07	104.38
362.296	86.38
362.523	98.38
362.749	75.38
362.976	76.38
363.203	82.38
363.429	85.38
363.656	76.38
363.882	78.38
364.109	100.38
364.335	94.38
364.562	95.38
364.788	79.38
365.015	88.38
365.241	88.38
365.468	108.38
365.694	84.38
365.92	100.38
366.147	98.38
366.373	88.38
366.599	93.38
366.826	85.38
367.052	102.38
367.278	93.38
367.505	91.38
367.731	80.38
367.957	94.38
368.184	103.38
368.41	86.38
368.636	93.38
368.862	87.38
369.089	92.38
369.315	98.38
369.541	81.38
369.767	86.38
369.993	85.38
370.219	101.38
370.445	93.38
370.672	86.38
370.898	86.38
371.124	84.38
371.35	79.38
371.576	80.38
371.802	88.38
372.028	88.38
372.254	95.38
372.48	88.38
372.706	99.38
372.932	91.38
373.158	84.38
373.384	92.38
373.61	105.38
373.835	104.38
374.061	82.38
374.287	83.38
374.513	86.38
374.739	76.38
374.965	93.38
375.191	82.38
375.416	94.38
375.642	88.38
375.868	93.38
376.094	87.38
376.319	74.38
376.545	83.38
376.771	80.38
376.997	103.38
377.222	77.38
377.448	86.38
377.674	93.38
377.899	81.38
378.125	66.38
378.35	88.38
378.576	87.38
378.802	88.38
379.027	92.38
379.253	84.38
379.478	73.38
379.704	89.38
379.929	84.38
380.155	73.38
380.38	91.38
380.606	98.38
380.831	84.38
381.057	93.38
381.282	75.38
381.507	82.38
381.733	99.38
381.958	92.38
382.184	77.38
382.409	101.38
382.634	90.38
382.86	85.38
383.085	105.38
383.31	74.38
383.535	85.38
383.761	94.38
383.986	88.38
384.211	93.38
384.436	97.38
384.662	102.38
384.887	103.38
385.112	78.38
385.337	86.38
385.562	79.38
385.787	91.38
386.013	87.38
386.238	92.38
386.463	95.38
386.688	86.38
386.913	82.38
387.138	78.38
387.363	89.38
387.588	79.38
387.813	92.38
388.038	94.38
388.263	96.38
388.488	82.38
388.713	92.38
388.938	90.38
389.163	98.38
389.387	90.38
389.612	86.38
389.837	98.38
390.062	89.38
390.287	82.38
390.512	89.38
390.736	78.38
390.961	86.38
391.186	94.38
391.411	83.38
391.636	96.38
391.86	88.38
392.085	88.38
392.31	92.38
392.534	92.38
392.759	86.38
392.984	84.38
393.208	84.38
393.433	94.38
393.658	94.38
393.882	93.38
394.107	82.38
394.331	65.38
394.556	90.38
394.78	85.38
395.005	85.38
395.229	86.38
395.454	80.38
395.678	103.38
395.903	77.38
396.127	85.38
396.352	87.38
396.576	77.38
396.801	84.38
397.025	64.38
397.249	79.38
397.474	86.38
397.698	81.38
397.922	95.38
398.147	91.38
398.371	82.38
398.595	102.38
398.82	81.38
399.044	92.38
399.268	77.38
399.492	102.38
399.717	96.38
399.941	94.38
400.165	100.38
400.389	76.38
400.613	96.38
400.837	95.38
401.062	81.38
401.286	87.38
401.51	80.38
401.734	84.38
401.958	94.38
402.182	86.38
402.406	73.38
402.63	90.38
402.854	86.38
403.078	81.38
403.302	86.38
403.526	83.38
403.75	72.38
403.974	89.38
404.198	74.38
404.422	87.38
404.645	80.38
404.869	95.38
405.093	86.38
405.317	92.38
405.541	86.38
405.765	87.38
405.988	96.38
406.212	97.38
406.436	95.38
406.66	81.38
406.883	85.38
407.107	85.38
407.331	99.38
407.555	95.38
407.778	89.38
408.002	78.38
408.226	86.38
408.449	88.38
408.673	82.38
408.896	90.38
409.12	86.38
409.344	80.38
409.567	97.38
409.791	87.38
410.014	95.38
410.238	79.38
410.461	82.38
410.685	81.38
410.908	84.38
411.132	69.38
411.355	94.38
411.578	88.38
411.802	75.38
412.025	93.38
412.249	85.38
412.472	85.38
412.695	75.38
412.919	79.38
413.142	87.38
413.365	99.38
413.589	83.38
413.812	108.38
414.035	83.38
414.258	80.38
414.482	95.38
414.705	76.38
414.928	78.38
415.151	89.38
415.374	98.38
415.597	100.38
415.821	75.38
416.044	82.38
416.267	84.38
416.49	82.38
416.713	91.38
416.936	77.38
417.159	91.38
417.382	75.38
417.605	98.38
417.828	94.38
418.051	93.38
418.274	89.38
418.497	79.38
418.72	92.38
418.943	98.38
419.166	94.38
419.389	101.38
419.611	89.38
419.834	80.38
420.057	90.38
420.28	93.38
420.503	79.38
420.726	77.38
420.948	89.38
421.171	96.38
421.394	81.38
421.617	70.38
421.839	95.38
422.062	87.38
422.285	87.38
422.507	85.38
422.73	74.38
422.953	75.38
423.175	75.38
423.398	84.38
423.621	99.38
423.843	81.38
424.066	85.38
424.288	74.38
424.511	93.38
424.733	89.38
424.956	88.38
425.178	85.38
425.401	85.38
425.623	92.38
425.846	91.38
426.068	95.38
426.291	92.38
426.513	97.38
426.735	88.38
426.958	87.38
427.18	93.38
427.402	97.38
427.625	96.38
427.847	85.38
428.069	80.38
428.292	73.38
428.514	90.38
428.736	93.38
428.958	90.38
429.181	95.38
429.403	86.38
429.625	88.38
429.847	100.38
430.069	84.38
430.292	95.38
430.514	94.38
430.736	91.38
430.958	70.38
431.18	80.38
431.402	89.38
431.624	99.38
431.846	98.38
432.068	82.38
432.29	84.38
432.512	87.38
432.734	90.38
432.956	92.38
433.178	93.38
433.4	96.38
433.622	84.38
433.844	83.38
434.066	89.38
434.287	78.38
434.509	71.38
434.731	68.38
434.953	90.38
435.175	99.38
435.397	97.38
435.618	88.38
435.84	98.38
436.062	86.38
436.284	89.38
436.505	92.38
436.727	94.38
436.949	93.38
437.17	98.38
437.392	84.38
437.614	98.38
437.835	87.38
438.057	83.38
438.278	77.38
438.5	84.38
438.721	87.38
438.943	91.38
439.165	93.38
439.386	94.38
439.608	82.38
439.829	84.38
440.05	95.38
440.272	85.38
440.493	102.38
440.715	84.38
440.936	77.38
441.158	81.38
441.379	78.38
441.6	79.38
441.822	90.38
442.043	89.38
442.264	90.38
442.486	86.38
442.707	96.38
442.928	91.38
443.149	86.38
443.371	88.38
443.592	80.38
443.813	88.38
444.034	87.38
444.255	99.38
444.476	76.38
444.698	76.38
444.919	89.38
445.14	225.38
445.361	143.38
445.582	99.38
445.803	81.38
446.024	86.38
446.245	99.38
446.466	87.38
446.687	81.38
446.908	80.38
447.129	84.38
447.35	80.38
447.571	97.38
447.792	68.38
448.013	76.38
448.234	88.38
448.455	78.38
448.675	84.38
448.896	86.38
449.117	97.38
449.338	79.38
449.559	102.38
449.779	91.38
450	82.38
450.221	78.38
450.442	84.38
450.662	86.38
450.883	107.38
451.104	90.38
451.324	85.38
451.545	92.38
451.766	93.38
451.986	79.38
452.207	88.38
452.428	96.38
452.648	88.38
452.869	86.38
453.089	80.38
453.31	87.38
453.53	93.38
453.751	89.38
453.971	86.38
454.192	84.38
454.412	94.38
454.633	94.38
454.853	95.38
455.073	99.38
455.294	101.38
455.514	90.38
455.734	89.38
455.955	94.38
456.175	71.38
456.395	90.38
456.616	84.38
456.836	84.38
457.056	90.38
457.276	100.38
457.497	84.38
457.717	95.38
457.937	100.38
458.157	79.38
458.377	80.38
458.598	91.38
458.818	90.38
459.038	81.38
459.258	82.38
459.478	87.38
459.698	99.38
459.918	74.38
460.138	92.38
460.358	80.38
460.578	71.38
460.798	92.38
461.018	94.38
461.238	91.38
461.458	76.38
461.678	88.38
461.898	96.38
462.118	97.38
462.338	81.38
462.558	85.38
462.777	101.38
462.997	74.38
463.217	90.38
463.437	88.38
463.657	102.38
463.876	79.38
464.096	104.38
464.316	91.38
464.536	91.38
464.755	108.38
464.975	90.38
465.195	90.38
465.414	100.38
465.634	92.38
465.854	82.38
466.073	78.38
466.293	84.38
466.512	96.38
466.732	86.38
466.951	90.38
467.171	87.38
467.391	86.38
467.61	88.38
467.829	84.38
468.049	68.38
468.268	76.38
468.488	77.38
468.707	78.38
468.927	80.38
469.146	83.38
469.365	68.38
469.585	81.38
469.804	87.38
470.023	90.38
470.243	82.38
470.462	86.38
470.681	98.38
470.901	79.38
471.12	91.38
471.339	100.38
471.558	89.38
471.777	102.38
471.997	98.38
472.216	82.38
472.435	83.38
472.654	90.38
472.873	97.38
473.092	95.38
473.311	96.38
473.53	98.38
473.749	84.38
473.968	78.38
474.187	90.38
474.406	88.38
474.625	70.38
474.844	99.38
475.063	85.38
475.282	85.38
475.501	78.38
475.72	84.38
475.939	81.38
476.158	92.38
476.377	92.38
476.596	88.38
476.814	101.38
477.033	104.38
477.252	87.38
477.471	97.38
477.69	87.38
477.908	100.38
478.127	91.38
478.346	99.38
478.564	96.38
478.783	87.38
479.002	102.38
479.22	86.38
479.439	91.38
479.658	92.38
479.876	85.38
480.095	88.38
480.313	96.38
480.532	88.38
480.751	99.38
480.969	82.38
481.188	95.38
481.406	98.38
481.624	94.38
481.843	93.38
482.061	89.38
482.28	107.38
482.498	89.38
482.717	83.38
482.935	84.38
483.153	107.38
483.372	80.38
483.59	92.38
483.808	89.38
484.027	88.38
484.245	85.38
484.463	90.38
484.681	108.38
484.9	104.38
485.118	87.38
485.336	92.38
485.554	99.38
485.772	100.38
485.99	96.38
486.209	92.38
486.427	90.38
486.645	76.38
486.863	99.38
487.081	98.38
487.299	93.38
487.517	94.38
487.735	87.38
487.953	110.38
488.171	93.38
488.389	92.38
488.607	83.38
488.825	100.38
489.043	89.38
489.261	94.38
489.479	89.38
489.696	93.38
489.914	75.38
490.132	85.38
490.35	99.38
490.568	82.38
490.786	98.38
491.003	91.38
491.221	97.38
491.439	92.38
491.657	84.38
491.874	107.38
492.092	103.38
492.31	114.38
492.527	97.38
492.745	95.38
492.963	99.38
493.18	80.38
493.398	95.38
493.615	89.38
493.833	92.38
494.05	89.38
494.268	95.38
494.485	97.38
494.703	90.38
494.92	98.38
495.138	99.38
495.355	88.38
495.573	91.38
495.79	106.38
496.008	96.38
496.225	96.38
496.442	90.38
496.66	100.38
496.877	104.38
497.094	95.38
497.312	96.38
497.529	94.38
497.746	107.38
497.963	97.38
498.181	103.38
498.398	98.38
498.615	94.38
498.832	103.38
499.049	103.38
499.267	108.38
499.484	108.38
499.701	89.38
499.918	107.38
500.135	120.38
500.352	119.38
500.569	107.38
500.786	113.38
501.003	90.38
501.22	108.38
501.437	100.38
501.654	124.38
501.871	93.38
502.088	100.38
502.305	103.38
502.522	105.38
502.739	108.38
502.956	100.38
503.172	99.38
503.389	101.38
503.606	91.38
503.823	92.38
504.04	111.38
504.256	102.38
504.473	100.38
504.69	98.38
504.907	98.38
505.123	103.38
505.34	79.38
505.557	81.38
505.773	102.38
505.99	101.38
506.207	100.38
506.423	108.38
506.64	102.38
506.856	87.38
507.073	93.38
507.289	97.38
507.506	90.38
507.722	86.38
507.939	84.38
508.155	88.38
508.372	97.38
508.588	99.38
508.805	96.38
509.021	89.38
509.238	98.38
509.454	82.38
509.67	90.38
509.887	102.38
510.103	84.38
510.319	96.38
510.536	100.38
510.752	95.38
510.968	94.38
511.184	100.38
511.401	95.38
511.617	102.38
511.833	100.38
512.049	91.38
512.265	101.38
512.481	93.38
512.698	87.38
512.914	99.38
513.13	105.38
513.346	93.38
513.562	92.38
513.778	101.38
513.994	105.38
514.21	96.38
514.426	86.38
514.642	96.38
514.858	93.38
515.074	105.38
515.29	83.38
515.506	88.38
515.721	95.38
515.937	105.38
516.153	94.38
516.369	97.38
516.585	90.38
516.801	92.38
517.016	101.38
517.232	97.38
517.448	90.38
517.664	99.38
517.879	95.38
