Data from Ni(NO3)2@0.125M.TitratingCurve.Agarose3%dH2O.NegLispCup.LampEnergy10.LIBS07252019_HRD10591_18-08-34-567.txt Node
Date: Thu Jul 25 18:08:34 EDT 2019
User: cochatt
Spectrometer: HR+D1059
Trigger mode: 1
Integration Time (sec): 1.000000E-1
Scans to average: 1
Electric dark correction enabled: true
Nonlinearity correction enabled: false
Boxcar width: 0
XAxis mode: Wavelengths
Number of Pixels in Spectrum: 2048
>>>>>Begin Spectral Data<<<<<
223.165	-16.75
223.4	-16.75
223.635	-16.75
223.869	-21.75
224.104	-10.75
224.338	-12.75
224.573	-1.75
224.808	-18.75
225.042	-21.75
225.277	0.25
225.511	-5.75
225.746	6.25
225.98	10.25
226.215	-2.75
226.449	12.25
226.683	26.25
226.918	25.25
227.152	32.25
227.387	38.25
227.621	32.25
227.856	40.25
228.09	46.25
228.324	29.25
228.559	56.25
228.793	74.25
229.027	109.25
229.262	109.25
229.496	129.25
229.73	126.25
229.964	125.25
230.199	135.25
230.433	137.25
230.667	135.25
230.901	134.25
231.136	134.25
231.37	148.25
231.604	159.25
231.838	162.25
232.072	147.25
232.306	154.25
232.541	158.25
232.775	159.25
233.009	159.25
233.243	163.25
233.477	158.25
233.711	168.25
233.945	165.25
234.179	156.25
234.413	160.25
234.647	136.25
234.881	157.25
235.115	157.25
235.349	174.25
235.583	169.25
235.817	154.25
236.051	173.25
236.285	163.25
236.519	155.25
236.753	166.25
236.987	173.25
237.221	161.25
237.455	167.25
237.689	182.25
237.922	190.25
238.156	179.25
238.39	196.25
238.624	198.25
238.858	169.25
239.091	193.25
239.325	197.25
239.559	192.25
239.793	189.25
240.027	183.25
240.26	195.25
240.494	192.25
240.728	192.25
240.961	199.25
241.195	193.25
241.429	198.25
241.662	193.25
241.896	214.25
242.13	219.25
242.363	218.25
242.597	217.25
242.83	223.25
243.064	208.25
243.298	217.25
243.531	243.25
243.765	232.25
243.998	253.25
244.232	216.25
244.465	237.25
244.699	256.25
244.932	259.25
245.166	244.25
245.399	234.25
245.633	223.25
245.866	238.25
246.099	233.25
246.333	243.25
246.566	261.25
246.8	268.25
247.033	270.25
247.266	266.25
247.5	255.25
247.733	239.25
247.966	285.25
248.2	279.25
248.433	264.25
248.666	268.25
248.899	279.25
249.133	287.25
249.366	271.25
249.599	296.25
249.832	299.25
250.066	270.25
250.299	287.25
250.532	285.25
250.765	292.25
250.998	282.25
251.231	289.25
251.465	301.25
251.698	287.25
251.931	307.25
252.164	328.25
252.397	313.25
252.63	326.25
252.863	313.25
253.096	335.25
253.329	334.25
253.562	328.25
253.795	302.25
254.028	315.25
254.261	310.25
254.494	311.25
254.727	315.25
254.96	319.25
255.193	335.25
255.426	347.25
255.659	321.25
255.892	337.25
256.124	326.25
256.357	344.25
256.59	332.25
256.823	345.25
257.056	328.25
257.289	351.25
257.521	344.25
257.754	353.25
257.987	341.25
258.22	337.25
258.452	363.25
258.685	362.25
258.918	367.25
259.151	358.25
259.383	375.25
259.616	349.25
259.849	366.25
260.081	367.25
260.314	379.25
260.547	367.25
260.779	380.25
261.012	390.25
261.244	381.25
261.477	389.25
261.71	402.25
261.942	386.25
262.175	393.25
262.407	401.25
262.64	385.25
262.872	386.25
263.105	387.25
263.337	402.25
263.57	402.25
263.802	399.25
264.035	405.25
264.267	395.25
264.499	396.25
264.732	396.25
264.964	421.25
265.197	418.25
265.429	422.25
265.661	416.25
265.894	420.25
266.126	417.25
266.358	425.25
266.591	430.25
266.823	425.25
267.055	426.25
267.287	421.25
267.52	422.25
267.752	425.25
267.984	421.25
268.216	454.25
268.448	467.25
268.681	454.25
268.913	436.25
269.145	438.25
269.377	451.25
269.609	447.25
269.841	436.25
270.073	452.25
270.306	440.25
270.538	438.25
270.77	450.25
271.002	463.25
271.234	465.25
271.466	467.25
271.698	453.25
271.93	477.25
272.162	461.25
272.394	470.25
272.626	451.25
272.858	446.25
273.09	470.25
273.322	495.25
273.553	482.25
273.785	476.25
274.017	488.25
274.249	495.25
274.481	488.25
274.713	497.25
274.945	503.25
275.176	493.25
275.408	488.25
275.64	496.25
275.872	484.25
276.104	488.25
276.335	511.25
276.567	479.25
276.799	496.25
277.031	509.25
277.262	505.25
277.494	502.25
277.726	486.25
277.957	512.25
278.189	515.25
278.421	509.25
278.652	514.25
278.884	517.25
279.115	525.25
279.347	529.25
279.579	497.25
279.81	542.25
280.042	541.25
280.273	527.25
280.505	537.25
280.736	565.25
280.968	525.25
281.199	541.25
281.431	530.25
281.662	537.25
281.894	534.25
282.125	534.25
282.356	567.25
282.588	572.25
282.819	550.25
283.051	554.25
283.282	553.25
283.513	576.25
283.745	557.25
283.976	560.25
284.207	577.25
284.439	579.25
284.67	557.25
284.901	585.25
285.132	577.25
285.364	569.25
285.595	590.25
285.826	575.25
286.057	588.25
286.288	587.25
286.52	603.25
286.751	592.25
286.982	609.25
287.213	577.25
287.444	615.25
287.675	606.25
287.906	608.25
288.138	604.25
288.369	608.25
288.6	610.25
288.831	621.25
289.062	635.25
289.293	608.25
289.524	626.25
289.755	625.25
289.986	627.25
290.217	616.25
290.448	623.25
290.679	621.25
290.91	599.25
291.141	608.25
291.371	628.25
291.602	615.25
291.833	614.25
292.064	637.25
292.295	621.25
292.526	635.25
292.757	628.25
292.987	647.25
293.218	625.25
293.449	649.25
293.68	617.25
293.91	627.25
294.141	610.25
294.372	607.25
294.603	646.25
294.833	622.25
295.064	635.25
295.295	624.25
295.525	626.25
295.756	647.25
295.987	633.25
296.217	666.25
296.448	657.25
296.679	635.25
296.909	630.25
297.14	659.25
297.37	681.25
297.601	679.25
297.831	659.25
298.062	657.25
298.292	683.25
298.523	667.25
298.753	695.25
298.984	694.25
299.214	677.25
299.445	668.25
299.675	658.25
299.905	696.25
300.136	671.25
300.366	703.25
300.597	698.25
300.827	713.25
301.057	715.25
301.288	712.25
301.518	708.25
301.748	727.25
301.979	723.25
302.209	713.25
302.439	735.25
302.669	727.25
302.9	719.25
303.13	706.25
303.36	723.25
303.59	707.25
303.82	688.25
304.051	721.25
304.281	717.25
304.511	721.25
304.741	709.25
304.971	719.25
305.201	705.25
305.431	691.25
305.661	699.25
305.891	690.25
306.121	730.25
306.352	697.25
306.582	718.25
306.812	680.25
307.042	713.25
307.272	674.25
307.502	663.25
307.731	713.25
307.961	678.25
308.191	676.25
308.421	718.25
308.651	676.25
308.881	670.25
309.111	689.25
309.341	677.25
309.571	718.25
309.8	705.25
310.03	683.25
310.26	694.25
310.49	721.25
310.72	712.25
310.949	692.25
311.179	719.25
311.409	704.25
311.639	731.25
311.868	708.25
312.098	746.25
312.328	732.25
312.557	750.25
312.787	747.25
313.017	731.25
313.246	747.25
313.476	749.25
313.706	769.25
313.935	753.25
314.165	777.25
314.394	787.25
314.624	751.25
314.853	755.25
315.083	756.25
315.312	772.25
315.542	739.25
315.771	768.25
316.001	753.25
316.23	736.25
316.46	752.25
316.689	719.25
316.919	746.25
317.148	751.25
317.377	775.25
317.607	744.25
317.836	733.25
318.065	753.25
318.295	738.25
318.524	721.25
318.753	746.25
318.983	727.25
319.212	755.25
319.441	753.25
319.67	768.25
319.9	737.25
320.129	747.25
320.358	763.25
320.587	735.25
320.816	761.25
321.046	763.25
321.275	735.25
321.504	770.25
321.733	776.25
321.962	770.25
322.191	753.25
322.42	770.25
322.649	772.25
322.878	765.25
323.108	751.25
323.337	786.25
323.566	781.25
323.795	781.25
324.024	787.25
324.253	792.25
324.482	782.25
324.71	784.25
324.939	801.25
325.168	793.25
325.397	815.25
325.626	805.25
325.855	809.25
326.084	814.25
326.313	822.25
326.542	835.25
326.77	843.25
326.999	866.25
327.228	820.25
327.457	817.25
327.686	832.25
327.914	828.25
328.143	855.25
328.372	851.25
328.6	841.25
328.829	835.25
329.058	825.25
329.287	850.25
329.515	867.25
329.744	865.25
329.972	870.25
330.201	857.25
330.43	854.25
330.658	871.25
330.887	875.25
331.115	880.25
331.344	905.25
331.572	896.25
331.801	917.25
332.03	939.25
332.258	969.25
332.486	994.25
332.715	1017.25
332.943	1075.25
333.172	1106.25
333.4	1187.25
333.629	1159.25
333.857	1182.25
334.085	1186.25
334.314	1109.25
334.542	1106.25
334.771	1103.25
334.999	1075.25
335.227	1099.25
335.455	1077.25
335.684	1079.25
335.912	1038.25
336.14	1060.25
336.369	1006.25
336.597	1041.25
336.825	999.25
337.053	1025.25
337.281	996.25
337.51	994.25
337.738	960.25
337.966	971.25
338.194	949.25
338.422	961.25
338.65	936.25
338.878	943.25
339.106	962.25
339.334	933.25
339.562	943.25
339.79	909.25
340.018	873.25
340.246	916.25
340.474	890.25
340.702	883.25
340.93	890.25
341.158	899.25
341.386	925.25
341.614	897.25
341.842	913.25
342.07	888.25
342.298	889.25
342.526	895.25
342.754	900.25
342.981	906.25
343.209	913.25
343.437	989.25
343.665	1022.25
343.893	1107.25
344.12	1163.25
344.348	1088.25
344.576	1002.25
344.804	947.25
345.031	937.25
345.259	908.25
345.487	901.25
345.714	900.25
345.942	887.25
346.17	877.25
346.397	874.25
346.625	860.25
346.853	861.25
347.08	865.25
347.308	840.25
347.535	870.25
347.763	886.25
347.99	888.25
348.218	901.25
348.445	872.25
348.673	886.25
348.9	865.25
349.128	903.25
349.355	851.25
349.583	852.25
349.81	840.25
350.037	839.25
350.265	815.25
350.492	852.25
350.72	836.25
350.947	857.25
351.174	856.25
351.402	829.25
351.629	845.25
351.856	840.25
352.083	840.25
352.311	836.25
352.538	836.25
352.765	816.25
352.992	841.25
353.22	809.25
353.447	790.25
353.674	816.25
353.901	822.25
354.128	847.25
354.355	835.25
354.583	821.25
354.81	837.25
355.037	856.25
355.264	803.25
355.491	842.25
355.718	839.25
355.945	839.25
356.172	851.25
356.399	829.25
356.626	843.25
356.853	867.25
357.08	822.25
357.307	865.25
357.534	831.25
357.761	846.25
357.988	834.25
358.215	831.25
358.441	823.25
358.668	803.25
358.895	821.25
359.122	840.25
359.349	848.25
359.576	855.25
359.802	836.25
360.029	835.25
360.256	826.25
360.483	820.25
360.709	848.25
360.936	858.25
361.163	811.25
361.39	841.25
361.616	873.25
361.843	848.25
362.07	847.25
362.296	832.25
362.523	810.25
362.749	817.25
362.976	841.25
363.203	834.25
363.429	808.25
363.656	805.25
363.882	849.25
364.109	821.25
364.335	829.25
364.562	829.25
364.788	828.25
365.015	805.25
365.241	833.25
365.468	842.25
365.694	854.25
365.92	841.25
366.147	826.25
366.373	837.25
366.599	819.25
366.826	821.25
367.052	830.25
367.278	822.25
367.505	839.25
367.731	819.25
367.957	826.25
368.184	820.25
368.41	811.25
368.636	837.25
368.862	839.25
369.089	851.25
369.315	847.25
369.541	850.25
369.767	880.25
369.993	841.25
370.219	844.25
370.445	843.25
370.672	863.25
370.898	870.25
371.124	896.25
371.35	899.25
371.576	883.25
371.802	896.25
372.028	896.25
372.254	866.25
372.48	911.25
372.706	919.25
372.932	935.25
373.158	922.25
373.384	904.25
373.61	894.25
373.835	890.25
374.061	884.25
374.287	917.25
374.513	918.25
374.739	972.25
374.965	976.25
375.191	1014.25
375.416	1003.25
375.642	976.25
375.868	961.25
376.094	923.25
376.319	924.25
376.545	933.25
376.771	882.25
376.997	913.25
377.222	870.25
377.448	879.25
377.674	893.25
377.899	905.25
378.125	879.25
378.35	887.25
378.576	863.25
378.802	866.25
379.027	855.25
379.253	883.25
379.478	883.25
379.704	870.25
379.929	886.25
380.155	885.25
380.38	888.25
380.606	886.25
380.831	871.25
381.057	873.25
381.282	871.25
381.507	871.25
381.733	914.25
381.958	907.25
382.184	900.25
382.409	934.25
382.634	913.25
382.86	926.25
383.085	948.25
383.31	960.25
383.535	1000.25
383.761	977.25
383.986	1002.25
384.211	1023.25
384.436	1023.25
384.662	1064.25
384.887	1066.25
385.112	1075.25
385.337	1073.25
385.562	1099.25
385.787	1087.25
386.013	1082.25
386.238	1094.25
386.463	1074.25
386.688	1069.25
386.913	1085.25
387.138	1074.25
387.363	1037.25
387.588	1055.25
387.813	1065.25
388.038	1033.25
388.263	1047.25
388.488	1066.25
388.713	1035.25
388.938	1029.25
389.163	1022.25
389.387	1021.25
389.612	1045.25
389.837	1047.25
390.062	1017.25
390.287	1039.25
390.512	1047.25
390.736	1038.25
390.961	1059.25
391.186	1105.25
391.411	1131.25
391.636	1169.25
391.86	1187.25
392.085	1225.25
392.31	1233.25
392.534	1153.25
392.759	1135.25
392.984	1117.25
393.208	1125.25
393.433	1111.25
393.658	1140.25
393.882	1135.25
394.107	1129.25
394.331	1137.25
394.556	1165.25
394.78	1145.25
395.005	1165.25
395.229	1159.25
395.454	1166.25
395.678	1241.25
395.903	1225.25
396.127	1185.25
396.352	1155.25
396.576	1117.25
396.801	1127.25
397.025	1136.25
397.249	1177.25
397.474	1178.25
397.698	1173.25
397.922	1216.25
398.147	1204.25
398.371	1224.25
398.595	1270.25
398.82	1321.25
399.044	1401.25
399.268	1552.25
399.492	1855.25
399.717	2144.25
399.941	2086.25
400.165	1811.25
400.389	1598.25
400.613	1492.25
400.837	1399.25
401.062	1376.25
401.286	1352.25
401.51	1355.25
401.734	1308.25
401.958	1383.25
402.182	1358.25
402.406	1390.25
402.63	1405.25
402.854	1462.25
403.078	1474.25
403.302	1467.25
403.526	1540.25
403.75	1553.25
403.974	1602.25
404.198	1617.25
404.422	1638.25
404.645	1557.25
404.869	1556.25
405.093	1509.25
405.317	1505.25
405.541	1491.25
405.765	1467.25
405.988	1477.25
406.212	1485.25
406.436	1457.25
406.66	1541.25
406.883	1531.25
407.107	1610.25
407.331	1714.25
407.555	1762.25
407.778	1755.25
408.002	1710.25
408.226	1655.25
408.449	1629.25
408.673	1587.25
408.896	1561.25
409.12	1519.25
409.344	1563.25
409.567	1506.25
409.791	1499.25
410.014	1513.25
410.238	1531.25
410.461	1521.25
410.685	1497.25
410.908	1439.25
411.132	1462.25
411.355	1407.25
411.578	1373.25
411.802	1399.25
412.025	1409.25
412.249	1445.25
412.472	1437.25
412.695	1360.25
412.919	1358.25
413.142	1349.25
413.365	1355.25
413.589	1363.25
413.812	1314.25
414.035	1306.25
414.258	1319.25
414.482	1343.25
414.705	1374.25
414.928	1390.25
415.151	1335.25
415.374	1325.25
415.597	1350.25
415.821	1331.25
416.044	1322.25
416.267	1305.25
416.49	1322.25
416.713	1322.25
416.936	1341.25
417.159	1322.25
417.382	1361.25
417.605	1317.25
417.828	1343.25
418.051	1348.25
418.274	1378.25
418.497	1322.25
418.72	1403.25
418.943	1391.25
419.166	1458.25
419.389	1559.25
419.611	1484.25
419.834	1463.25
420.057	1418.25
420.28	1352.25
420.503	1337.25
420.726	1343.25
420.948	1321.25
421.171	1359.25
421.394	1314.25
421.617	1325.25
421.839	1355.25
422.062	1345.25
422.285	1298.25
422.507	1395.25
422.73	1368.25
422.953	1395.25
423.175	1417.25
423.398	1408.25
423.621	1463.25
423.843	1441.25
424.066	1457.25
424.288	1420.25
424.511	1454.25
424.733	1384.25
424.956	1399.25
425.178	1381.25
425.401	1399.25
425.623	1319.25
425.846	1325.25
426.068	1320.25
426.291	1253.25
426.513	1235.25
426.735	1274.25
426.958	1254.25
427.18	1207.25
427.402	1208.25
427.625	1231.25
427.847	1214.25
428.069	1183.25
428.292	1219.25
428.514	1182.25
428.736	1164.25
428.958	1193.25
429.181	1163.25
429.403	1167.25
429.625	1139.25
429.847	1153.25
430.069	1162.25
430.292	1153.25
430.514	1154.25
430.736	1205.25
430.958	1189.25
431.18	1171.25
431.402	1180.25
431.624	1142.25
431.846	1184.25
432.068	1223.25
432.29	1225.25
432.512	1156.25
432.734	1184.25
432.956	1195.25
433.178	1203.25
433.4	1207.25
433.622	1198.25
433.844	1208.25
434.066	1194.25
434.287	1230.25
434.509	1234.25
434.731	1335.25
434.953	1339.25
435.175	1376.25
435.397	1352.25
435.618	1249.25
435.84	1238.25
436.062	1183.25
436.284	1201.25
436.505	1183.25
436.727	1209.25
436.949	1199.25
437.17	1206.25
437.392	1206.25
437.614	1167.25
437.835	1143.25
438.057	1161.25
438.278	1095.25
438.5	1149.25
438.721	1149.25
438.943	1148.25
439.165	1152.25
439.386	1162.25
439.608	1192.25
439.829	1217.25
440.05	1183.25
440.272	1217.25
440.493	1193.25
440.715	1242.25
440.936	1264.25
441.158	1281.25
441.379	1306.25
441.6	1376.25
441.822	1389.25
442.043	1381.25
442.264	1357.25
442.486	1317.25
442.707	1360.25
442.928	1337.25
443.149	1355.25
443.371	1364.25
443.592	1383.25
443.813	1377.25
444.034	1378.25
444.255	1417.25
444.476	1496.25
444.698	1611.25
444.919	1675.25
445.14	1729.25
445.361	1537.25
445.582	1410.25
445.803	1320.25
446.024	1294.25
446.245	1293.25
446.466	1242.25
446.687	1206.25
446.908	1203.25
447.129	1170.25
447.35	1171.25
447.571	1152.25
447.792	1132.25
448.013	1112.25
448.234	1129.25
448.455	1106.25
448.675	1095.25
448.896	1133.25
449.117	1102.25
449.338	1096.25
449.559	1071.25
449.779	1071.25
450	1071.25
450.221	1106.25
450.442	1105.25
450.662	1125.25
450.883	1123.25
451.104	1125.25
451.324	1124.25
451.545	1137.25
451.766	1126.25
451.986	1138.25
452.207	1122.25
452.428	1107.25
452.648	1096.25
452.869	1074.25
453.089	1072.25
453.31	1092.25
453.53	1075.25
453.751	1087.25
453.971	1050.25
454.192	1054.25
454.412	1046.25
454.633	1055.25
454.853	1043.25
455.073	1027.25
455.294	1055.25
455.514	1021.25
455.734	1017.25
455.955	1009.25
456.175	1008.25
456.395	978.25
456.616	1017.25
456.836	1008.25
457.056	1030.25
457.276	1026.25
457.497	1012.25
457.717	985.25
457.937	1021.25
458.157	1029.25
458.377	1066.25
458.598	1048.25
458.818	1092.25
459.038	1121.25
459.258	1155.25
459.478	1218.25
459.698	1234.25
459.918	1289.25
460.138	1313.25
460.358	1409.25
460.578	1421.25
460.798	1437.25
461.018	1458.25
461.238	1425.25
461.458	1403.25
461.678	1412.25
461.898	1396.25
462.118	1455.25
462.338	1546.25
462.558	1560.25
462.777	1604.25
462.997	1786.25
463.217	2022.25
463.437	1960.25
463.657	1807.25
463.876	1661.25
464.096	1676.25
464.316	1636.25
464.536	1689.25
464.755	1620.25
464.975	1540.25
465.195	1483.25
465.414	1398.25
465.634	1280.25
465.854	1257.25
466.073	1225.25
466.293	1240.25
466.512	1160.25
466.732	1164.25
466.951	1176.25
467.171	1154.25
467.391	1159.25
467.61	1175.25
467.829	1163.25
468.049	1150.25
468.268	1097.25
468.488	1076.25
468.707	1090.25
468.927	1078.25
469.146	1118.25
469.365	1135.25
469.585	1101.25
469.804	1155.25
470.023	1195.25
470.243	1198.25
470.462	1191.25
470.681	1173.25
470.901	1240.25
471.12	1180.25
471.339	1156.25
471.558	1122.25
471.777	1106.25
471.997	1113.25
472.216	1106.25
472.435	1097.25
472.654	1081.25
472.873	1057.25
473.092	1055.25
473.311	1081.25
473.53	1041.25
473.749	1053.25
473.968	1066.25
474.187	1077.25
474.406	1051.25
474.625	1083.25
474.844	1049.25
475.063	1063.25
475.282	1081.25
475.501	1082.25
475.72	1112.25
475.939	1098.25
476.158	1115.25
476.377	1133.25
476.596	1122.25
476.814	1107.25
477.033	1129.25
477.252	1151.25
477.471	1177.25
477.69	1188.25
477.908	1225.25
478.127	1309.25
478.346	1297.25
478.564	1321.25
478.783	1348.25
479.002	1367.25
479.22	1348.25
479.439	1333.25
479.658	1309.25
479.876	1365.25
480.095	1333.25
480.313	1383.25
480.532	1490.25
480.751	1461.25
480.969	1367.25
481.188	1330.25
481.406	1293.25
481.624	1250.25
481.843	1248.25
482.061	1212.25
482.28	1228.25
482.498	1202.25
482.717	1210.25
482.935	1200.25
483.153	1201.25
483.372	1219.25
483.59	1212.25
483.808	1242.25
484.027	1231.25
484.245	1242.25
484.463	1242.25
484.681	1226.25
484.9	1240.25
485.118	1237.25
485.336	1241.25
485.554	1300.25
485.772	1279.25
485.99	1271.25
486.209	1286.25
486.427	1277.25
486.645	1303.25
486.863	1265.25
487.081	1315.25
487.299	1277.25
487.517	1283.25
487.735	1272.25
487.953	1270.25
488.171	1271.25
488.389	1262.25
488.607	1239.25
488.825	1261.25
489.043	1235.25
489.261	1249.25
489.479	1256.25
489.696	1314.25
489.914	1295.25
490.132	1325.25
490.35	1269.25
490.568	1315.25
490.786	1314.25
491.003	1292.25
491.221	1323.25
491.439	1272.25
491.657	1301.25
491.874	1310.25
492.092	1327.25
492.31	1375.25
492.527	1336.25
492.745	1305.25
492.963	1338.25
493.18	1342.25
493.398	1327.25
493.615	1342.25
493.833	1362.25
494.05	1339.25
494.268	1382.25
