Data from Ni(NO3)2Standard.Agarose3%.GreenCap.LampEnergy5.5.E.O_HRD10591_14-41-43-188.txt Node
Date: Mon Jul 22 14:41:43 EDT 2019
User: cochatt
Spectrometer: HR+D1059
Trigger mode: 1
Integration Time (sec): 1.000000E-1
Scans to average: 1
Electric dark correction enabled: true
Nonlinearity correction enabled: false
Boxcar width: 0
XAxis mode: Wavelengths
Number of Pixels in Spectrum: 2048
>>>>>Begin Spectral Data<<<<<
223.165	-23.69
223.4	-23.69
223.635	-23.69
223.869	-27.69
224.104	-16.69
224.338	-13.69
224.573	-8.69
224.808	-5.69
225.042	-1.69
225.277	4.31
225.511	-5.69
225.746	5.31
225.98	10.31
226.215	2.31
226.449	6.31
226.683	25.31
226.918	23.31
227.152	26.31
227.387	34.31
227.621	38.31
227.856	46.31
228.09	60.31
228.324	50.31
228.559	63.31
228.793	58.31
229.027	64.31
229.262	53.31
229.496	71.31
229.73	66.31
229.964	70.31
230.199	75.31
230.433	69.31
230.667	75.31
230.901	66.31
231.136	71.31
231.37	77.31
231.604	76.31
231.838	69.31
232.072	75.31
232.306	78.31
232.541	93.31
232.775	93.31
233.009	80.31
233.243	82.31
233.477	68.31
233.711	81.31
233.945	88.31
234.179	80.31
234.413	76.31
234.647	84.31
234.881	65.31
235.115	82.31
235.349	77.31
235.583	84.31
235.817	66.31
236.051	77.31
236.285	82.31
236.519	75.31
236.753	80.31
236.987	78.31
237.221	79.31
237.455	70.31
237.689	74.31
237.922	78.31
238.156	70.31
238.39	94.31
238.624	76.31
238.858	79.31
239.091	85.31
239.325	84.31
239.559	69.31
239.793	76.31
240.027	93.31
240.26	66.31
240.494	73.31
240.728	83.31
240.961	74.31
241.195	75.31
241.429	87.31
241.662	74.31
241.896	73.31
242.13	64.31
242.363	75.31
242.597	68.31
242.83	78.31
243.064	74.31
243.298	72.31
243.531	71.31
243.765	74.31
243.998	73.31
244.232	74.31
244.465	74.31
244.699	76.31
244.932	79.31
245.166	62.31
245.399	73.31
245.633	76.31
245.866	82.31
246.099	75.31
246.333	75.31
246.566	96.31
246.8	69.31
247.033	74.31
247.266	69.31
247.5	77.31
247.733	60.31
247.966	73.31
248.2	77.31
248.433	84.31
248.666	71.31
248.899	78.31
249.133	71.31
249.366	80.31
249.599	70.31
249.832	90.31
250.066	87.31
250.299	65.31
250.532	72.31
250.765	76.31
250.998	69.31
251.231	72.31
251.465	84.31
251.698	56.31
251.931	73.31
252.164	78.31
252.397	78.31
252.63	86.31
252.863	75.31
253.096	74.31
253.329	89.31
253.562	82.31
253.795	74.31
254.028	76.31
254.261	77.31
254.494	82.31
254.727	75.31
254.96	84.31
255.193	78.31
255.426	67.31
255.659	75.31
255.892	74.31
256.124	76.31
256.357	65.31
256.59	82.31
256.823	99.31
257.056	77.31
257.289	79.31
257.521	82.31
257.754	75.31
257.987	66.31
258.22	79.31
258.452	94.31
258.685	86.31
258.918	78.31
259.151	86.31
259.383	75.31
259.616	75.31
259.849	65.31
260.081	77.31
260.314	77.31
260.547	82.31
260.779	78.31
261.012	93.31
261.244	77.31
261.477	95.31
261.71	72.31
261.942	81.31
262.175	83.31
262.407	80.31
262.64	69.31
262.872	100.31
263.105	84.31
263.337	83.31
263.57	59.31
263.802	82.31
264.035	82.31
264.267	83.31
264.499	84.31
264.732	71.31
264.964	87.31
265.197	95.31
265.429	74.31
265.661	80.31
265.894	78.31
266.126	91.31
266.358	85.31
266.591	82.31
266.823	92.31
267.055	89.31
267.287	77.31
267.52	82.31
267.752	86.31
267.984	66.31
268.216	75.31
268.448	81.31
268.681	81.31
268.913	94.31
269.145	80.31
269.377	82.31
269.609	77.31
269.841	83.31
270.073	72.31
270.306	68.31
270.538	85.31
270.77	88.31
271.002	83.31
271.234	92.31
271.466	82.31
271.698	72.31
271.93	92.31
272.162	84.31
272.394	80.31
272.626	81.31
272.858	80.31
273.09	74.31
273.322	74.31
273.553	93.31
273.785	86.31
274.017	68.31
274.249	75.31
274.481	80.31
274.713	74.31
274.945	84.31
275.176	89.31
275.408	87.31
275.64	74.31
275.872	80.31
276.104	70.31
276.335	82.31
276.567	95.31
276.799	78.31
277.031	79.31
277.262	87.31
277.494	91.31
277.726	91.31
277.957	80.31
278.189	73.31
278.421	84.31
278.652	90.31
278.884	79.31
279.115	84.31
279.347	94.31
279.579	82.31
279.81	82.31
280.042	85.31
280.273	89.31
280.505	97.31
280.736	79.31
280.968	76.31
281.199	78.31
281.431	76.31
281.662	68.31
281.894	93.31
282.125	72.31
282.356	83.31
282.588	85.31
282.819	83.31
283.051	76.31
283.282	75.31
283.513	89.31
283.745	81.31
283.976	77.31
284.207	91.31
284.439	85.31
284.67	96.31
284.901	86.31
285.132	87.31
285.364	89.31
285.595	88.31
285.826	79.31
286.057	81.31
286.288	86.31
286.52	88.31
286.751	74.31
286.982	73.31
287.213	83.31
287.444	93.31
287.675	93.31
287.906	70.31
288.138	93.31
288.369	89.31
288.6	76.31
288.831	74.31
289.062	86.31
289.293	80.31
289.524	97.31
289.755	84.31
289.986	82.31
290.217	90.31
290.448	76.31
290.679	91.31
290.91	78.31
291.141	83.31
291.371	88.31
291.602	82.31
291.833	94.31
292.064	78.31
292.295	93.31
292.526	80.31
292.757	82.31
292.987	90.31
293.218	83.31
293.449	76.31
293.68	76.31
293.91	79.31
294.141	83.31
294.372	87.31
294.603	89.31
294.833	71.31
295.064	91.31
295.295	82.31
295.525	90.31
295.756	81.31
295.987	81.31
296.217	84.31
296.448	96.31
296.679	79.31
296.909	76.31
297.14	75.31
297.37	99.31
297.601	96.31
297.831	76.31
298.062	84.31
298.292	84.31
298.523	80.31
298.753	90.31
298.984	92.31
299.214	103.31
299.445	79.31
299.675	80.31
299.905	82.31
300.136	82.31
300.366	95.31
300.597	84.31
300.827	77.31
301.057	81.31
301.288	85.31
301.518	94.31
301.748	73.31
301.979	75.31
302.209	91.31
302.439	88.31
302.669	88.31
302.9	90.31
303.13	107.31
303.36	97.31
303.59	74.31
303.82	95.31
304.051	87.31
304.281	71.31
304.511	90.31
304.741	78.31
304.971	54.31
305.201	80.31
305.431	91.31
305.661	91.31
305.891	90.31
306.121	94.31
306.352	83.31
306.582	91.31
306.812	71.31
307.042	63.31
307.272	81.31
307.502	93.31
307.731	71.31
307.961	101.31
308.191	73.31
308.421	100.31
308.651	92.31
308.881	85.31
309.111	83.31
309.341	100.31
309.571	97.31
309.8	92.31
310.03	85.31
310.26	91.31
310.49	99.31
310.72	92.31
310.949	88.31
311.179	84.31
311.409	75.31
311.639	86.31
311.868	77.31
312.098	97.31
312.328	91.31
312.557	78.31
312.787	96.31
313.017	97.31
313.246	81.31
313.476	82.31
313.706	82.31
313.935	87.31
314.165	92.31
314.394	85.31
314.624	89.31
314.853	103.31
315.083	91.31
315.312	92.31
315.542	78.31
315.771	90.31
316.001	83.31
316.23	84.31
316.46	86.31
316.689	87.31
316.919	86.31
317.148	95.31
317.377	79.31
317.607	76.31
317.836	90.31
318.065	85.31
318.295	90.31
318.524	103.31
318.753	87.31
318.983	84.31
319.212	87.31
319.441	84.31
319.67	97.31
319.9	83.31
320.129	84.31
320.358	73.31
320.587	74.31
320.816	80.31
321.046	88.31
321.275	83.31
321.504	90.31
321.733	77.31
321.962	102.31
322.191	80.31
322.42	93.31
322.649	83.31
322.878	81.31
323.108	88.31
323.337	75.31
323.566	89.31
323.795	82.31
324.024	100.31
324.253	88.31
324.482	82.31
324.71	80.31
324.939	77.31
325.168	95.31
325.397	89.31
325.626	114.31
325.855	86.31
326.084	91.31
326.313	73.31
326.542	82.31
326.77	83.31
326.999	86.31
327.228	85.31
327.457	79.31
327.686	86.31
327.914	90.31
328.143	91.31
328.372	82.31
328.6	81.31
328.829	95.31
329.058	81.31
329.287	82.31
329.515	96.31
329.744	89.31
329.972	78.31
330.201	82.31
330.43	78.31
330.658	99.31
330.887	84.31
331.115	86.31
331.344	71.31
331.572	86.31
331.801	98.31
332.03	89.31
332.258	77.31
332.486	85.31
332.715	91.31
332.943	99.31
333.172	71.31
333.4	90.31
333.629	88.31
333.857	89.31
334.085	90.31
334.314	107.31
334.542	83.31
334.771	80.31
334.999	88.31
335.227	75.31
335.455	72.31
335.684	92.31
335.912	78.31
336.14	80.31
336.369	87.31
336.597	88.31
336.825	86.31
337.053	81.31
337.281	82.31
337.51	90.31
337.738	75.31
337.966	76.31
338.194	78.31
338.422	90.31
338.65	87.31
338.878	81.31
339.106	85.31
339.334	101.31
339.562	89.31
339.79	82.31
340.018	88.31
340.246	81.31
340.474	96.31
340.702	96.31
340.93	91.31
341.158	102.31
341.386	79.31
341.614	72.31
341.842	106.31
342.07	80.31
342.298	84.31
342.526	83.31
342.754	91.31
342.981	82.31
343.209	90.31
343.437	96.31
343.665	87.31
343.893	64.31
344.12	77.31
344.348	79.31
344.576	101.31
344.804	88.31
345.031	81.31
345.259	86.31
345.487	83.31
345.714	90.31
345.942	81.31
346.17	105.31
346.397	98.31
346.625	84.31
346.853	88.31
347.08	79.31
347.308	81.31
347.535	87.31
347.763	73.31
347.99	84.31
348.218	94.31
348.445	79.31
348.673	90.31
348.9	92.31
349.128	90.31
349.355	87.31
349.583	86.31
349.81	79.31
350.037	86.31
350.265	90.31
350.492	75.31
350.72	87.31
350.947	97.31
351.174	77.31
351.402	80.31
351.629	95.31
351.856	88.31
352.083	73.31
352.311	79.31
352.538	98.31
352.765	90.31
352.992	81.31
353.22	75.31
353.447	81.31
353.674	81.31
353.901	86.31
354.128	82.31
354.355	84.31
354.583	81.31
354.81	82.31
355.037	82.31
355.264	74.31
355.491	84.31
355.718	102.31
355.945	90.31
356.172	100.31
356.399	84.31
356.626	77.31
356.853	98.31
357.08	81.31
357.307	70.31
357.534	89.31
357.761	87.31
357.988	88.31
358.215	91.31
358.441	86.31
358.668	78.31
358.895	80.31
359.122	87.31
359.349	87.31
359.576	78.31
359.802	91.31
360.029	84.31
360.256	82.31
360.483	91.31
360.709	76.31
360.936	80.31
361.163	91.31
361.39	98.31
361.616	71.31
361.843	79.31
362.07	75.31
362.296	93.31
362.523	76.31
362.749	92.31
362.976	72.31
363.203	90.31
363.429	80.31
363.656	80.31
363.882	82.31
364.109	91.31
364.335	88.31
364.562	86.31
364.788	74.31
365.015	98.31
365.241	97.31
365.468	94.31
365.694	64.31
365.92	66.31
366.147	74.31
366.373	84.31
366.599	81.31
366.826	66.31
367.052	96.31
367.278	82.31
367.505	87.31
367.731	88.31
367.957	82.31
368.184	82.31
368.41	83.31
368.636	88.31
368.862	84.31
369.089	82.31
369.315	88.31
369.541	88.31
369.767	89.31
369.993	72.31
370.219	81.31
370.445	71.31
370.672	84.31
370.898	95.31
371.124	85.31
371.35	80.31
371.576	86.31
371.802	86.31
372.028	82.31
372.254	87.31
372.48	82.31
372.706	105.31
372.932	79.31
373.158	91.31
373.384	78.31
373.61	87.31
373.835	76.31
374.061	80.31
374.287	87.31
374.513	85.31
374.739	86.31
374.965	96.31
375.191	85.31
375.416	101.31
375.642	80.31
375.868	86.31
376.094	83.31
376.319	88.31
376.545	102.31
376.771	96.31
376.997	82.31
377.222	86.31
377.448	74.31
377.674	84.31
377.899	82.31
378.125	76.31
378.35	87.31
378.576	74.31
378.802	97.31
379.027	83.31
379.253	88.31
379.478	102.31
379.704	90.31
379.929	76.31
380.155	93.31
380.38	75.31
380.606	89.31
380.831	82.31
381.057	83.31
381.282	97.31
381.507	82.31
381.733	91.31
381.958	80.31
382.184	59.31
382.409	78.31
382.634	93.31
382.86	82.31
383.085	83.31
383.31	79.31
383.535	85.31
383.761	81.31
383.986	80.31
384.211	87.31
384.436	81.31
384.662	84.31
384.887	91.31
385.112	75.31
385.337	88.31
385.562	101.31
385.787	94.31
386.013	97.31
386.238	80.31
386.463	79.31
386.688	90.31
386.913	84.31
387.138	76.31
387.363	86.31
387.588	82.31
387.813	86.31
388.038	80.31
388.263	95.31
388.488	86.31
388.713	93.31
388.938	82.31
389.163	86.31
389.387	71.31
389.612	79.31
389.837	83.31
390.062	85.31
390.287	80.31
390.512	82.31
390.736	73.31
390.961	93.31
391.186	85.31
391.411	86.31
391.636	100.31
391.86	81.31
392.085	93.31
392.31	86.31
392.534	94.31
392.759	99.31
392.984	85.31
393.208	92.31
393.433	86.31
393.658	76.31
393.882	90.31
394.107	88.31
394.331	79.31
394.556	82.31
394.78	86.31
395.005	73.31
395.229	83.31
395.454	90.31
395.678	77.31
395.903	95.31
396.127	81.31
396.352	91.31
396.576	83.31
396.801	76.31
397.025	78.31
397.249	88.31
397.474	82.31
397.698	80.31
397.922	91.31
398.147	76.31
398.371	79.31
398.595	73.31
398.82	84.31
399.044	90.31
399.268	94.31
399.492	93.31
399.717	85.31
399.941	91.31
400.165	93.31
400.389	85.31
400.613	73.31
400.837	85.31
401.062	86.31
401.286	87.31
401.51	87.31
401.734	79.31
401.958	77.31
402.182	82.31
402.406	98.31
402.63	95.31
402.854	89.31
403.078	91.31
403.302	88.31
403.526	90.31
403.75	83.31
403.974	90.31
404.198	80.31
404.422	88.31
404.645	91.31
404.869	81.31
405.093	82.31
405.317	80.31
405.541	93.31
405.765	79.31
405.988	83.31
406.212	83.31
406.436	84.31
406.66	96.31
406.883	88.31
407.107	80.31
407.331	93.31
407.555	82.31
407.778	84.31
408.002	79.31
408.226	72.31
408.449	80.31
408.673	75.31
408.896	70.31
409.12	76.31
409.344	81.31
409.567	89.31
409.791	83.31
410.014	85.31
410.238	91.31
410.461	71.31
410.685	84.31
410.908	83.31
411.132	81.31
411.355	77.31
411.578	84.31
411.802	64.31
412.025	94.31
412.249	80.31
412.472	78.31
412.695	75.31
412.919	69.31
413.142	78.31
413.365	76.31
413.589	94.31
413.812	80.31
414.035	83.31
414.258	88.31
414.482	87.31
414.705	84.31
414.928	85.31
415.151	95.31
415.374	88.31
415.597	83.31
415.821	73.31
416.044	67.31
416.267	78.31
416.49	81.31
416.713	86.31
416.936	80.31
417.159	83.31
417.382	84.31
417.605	82.31
417.828	85.31
418.051	83.31
418.274	89.31
418.497	102.31
418.72	84.31
418.943	86.31
419.166	88.31
419.389	89.31
419.611	81.31
419.834	76.31
420.057	82.31
420.28	93.31
420.503	104.31
420.726	103.31
420.948	77.31
421.171	88.31
421.394	86.31
421.617	81.31
421.839	77.31
422.062	80.31
422.285	92.31
422.507	79.31
422.73	73.31
422.953	74.31
423.175	87.31
423.398	81.31
423.621	77.31
423.843	85.31
424.066	80.31
424.288	86.31
424.511	94.31
424.733	84.31
424.956	88.31
425.178	71.31
425.401	78.31
425.623	73.31
425.846	84.31
426.068	76.31
426.291	87.31
426.513	79.31
426.735	73.31
426.958	86.31
427.18	84.31
427.402	85.31
427.625	85.31
427.847	86.31
428.069	85.31
428.292	91.31
428.514	89.31
428.736	76.31
428.958	73.31
429.181	79.31
429.403	78.31
429.625	85.31
429.847	79.31
430.069	96.31
430.292	81.31
430.514	91.31
430.736	88.31
430.958	75.31
431.18	73.31
431.402	81.31
431.624	75.31
431.846	88.31
432.068	88.31
432.29	73.31
432.512	99.31
432.734	86.31
432.956	90.31
433.178	90.31
433.4	87.31
433.622	83.31
433.844	88.31
434.066	92.31
434.287	74.31
434.509	82.31
434.731	90.31
434.953	92.31
435.175	89.31
435.397	79.31
435.618	75.31
435.84	83.31
436.062	72.31
436.284	94.31
436.505	94.31
436.727	73.31
436.949	89.31
437.17	88.31
437.392	88.31
437.614	89.31
437.835	69.31
438.057	86.31
438.278	88.31
438.5	79.31
438.721	69.31
438.943	104.31
439.165	87.31
439.386	87.31
439.608	93.31
439.829	80.31
440.05	81.31
440.272	92.31
440.493	88.31
440.715	92.31
440.936	79.31
441.158	91.31
441.379	76.31
441.6	80.31
441.822	95.31
442.043	95.31
442.264	97.31
442.486	88.31
442.707	86.31
442.928	96.31
443.149	84.31
443.371	88.31
443.592	87.31
443.813	102.31
444.034	98.31
444.255	94.31
444.476	86.31
444.698	79.31
444.919	91.31
445.14	180.31
445.361	117.31
445.582	90.31
445.803	94.31
446.024	78.31
446.245	83.31
446.466	89.31
446.687	74.31
446.908	87.31
447.129	94.31
447.35	87.31
447.571	82.31
447.792	82.31
448.013	81.31
448.234	88.31
448.455	94.31
448.675	93.31
448.896	80.31
449.117	88.31
449.338	93.31
449.559	82.31
449.779	76.31
450	88.31
450.221	77.31
450.442	75.31
450.662	89.31
450.883	89.31
451.104	89.31
451.324	80.31
451.545	76.31
451.766	94.31
451.986	68.31
452.207	79.31
452.428	83.31
452.648	94.31
452.869	85.31
453.089	89.31
453.31	73.31
453.53	95.31
453.751	97.31
453.971	96.31
454.192	82.31
454.412	79.31
454.633	86.31
454.853	89.31
455.073	67.31
455.294	96.31
455.514	92.31
455.734	90.31
455.955	97.31
456.175	79.31
456.395	96.31
456.616	70.31
456.836	77.31
457.056	90.31
457.276	76.31
457.497	87.31
457.717	85.31
457.937	90.31
458.157	82.31
458.377	92.31
458.598	86.31
458.818	82.31
459.038	90.31
459.258	93.31
459.478	84.31
459.698	81.31
459.918	87.31
460.138	72.31
460.358	96.31
460.578	87.31
460.798	85.31
461.018	83.31
461.238	77.31
461.458	91.31
461.678	80.31
461.898	97.31
462.118	97.31
462.338	79.31
462.558	83.31
462.777	82.31
462.997	95.31
463.217	81.31
463.437	80.31
463.657	78.31
463.876	84.31
464.096	87.31
464.316	78.31
464.536	82.31
464.755	84.31
464.975	89.31
465.195	86.31
465.414	70.31
465.634	76.31
465.854	89.31
466.073	93.31
466.293	86.31
466.512	98.31
466.732	88.31
466.951	82.31
467.171	77.31
467.391	98.31
467.61	85.31
467.829	93.31
468.049	87.31
468.268	75.31
468.488	76.31
468.707	82.31
468.927	89.31
469.146	88.31
469.365	81.31
469.585	94.31
469.804	95.31
470.023	79.31
470.243	79.31
470.462	76.31
470.681	100.31
470.901	93.31
471.12	82.31
471.339	71.31
471.558	89.31
471.777	94.31
471.997	96.31
472.216	90.31
472.435	89.31
472.654	76.31
472.873	81.31
473.092	84.31
473.311	98.31
473.53	82.31
473.749	101.31
473.968	101.31
474.187	91.31
474.406	83.31
474.625	80.31
474.844	83.31
475.063	75.31
475.282	88.31
475.501	75.31
475.72	87.31
475.939	79.31
476.158	88.31
476.377	94.31
476.596	82.31
476.814	88.31
477.033	86.31
477.252	80.31
477.471	103.31
477.69	98.31
477.908	97.31
478.127	85.31
478.346	91.31
478.564	82.31
478.783	80.31
479.002	88.31
479.22	85.31
479.439	87.31
479.658	92.31
479.876	89.31
480.095	88.31
480.313	89.31
480.532	86.31
480.751	91.31
480.969	87.31
481.188	76.31
481.406	101.31
481.624	100.31
481.843	90.31
482.061	91.31
482.28	80.31
482.498	93.31
482.717	84.31
482.935	84.31
483.153	101.31
483.372	90.31
483.59	82.31
483.808	74.31
484.027	97.31
484.245	92.31
484.463	97.31
484.681	89.31
484.9	97.31
485.118	93.31
485.336	95.31
485.554	101.31
485.772	88.31
485.99	96.31
486.209	86.31
486.427	77.31
486.645	78.31
486.863	85.31
487.081	83.31
487.299	71.31
487.517	94.31
487.735	70.31
487.953	77.31
488.171	84.31
488.389	91.31
488.607	81.31
488.825	95.31
489.043	83.31
489.261	83.31
489.479	91.31
489.696	94.31
489.914	99.31
490.132	79.31
490.35	91.31
490.568	97.31
490.786	106.31
491.003	86.31
491.221	85.31
491.439	90.31
491.657	100.31
491.874	93.31
492.092	80.31
492.31	100.31
492.527	99.31
492.745	98.31
492.963	103.31
493.18	88.31
493.398	89.31
493.615	79.31
493.833	87.31
494.05	89.31
494.268	98.31
494.485	94.31
494.703	106.31
494.92	90.31
495.138	103.31
495.355	100.31
495.573	92.31
495.79	78.31
496.008	89.31
496.225	98.31
496.442	95.31
496.66	90.31
496.877	108.31
497.094	119.31
497.312	85.31
497.529	90.31
497.746	85.31
497.963	91.31
498.181	94.31
498.398	95.31
498.615	89.31
498.832	91.31
499.049	97.31
499.267	93.31
499.484	95.31
499.701	105.31
499.918	107.31
500.135	116.31
500.352	102.31
500.569	116.31
500.786	120.31
501.003	103.31
501.22	113.31
501.437	104.31
501.654	85.31
501.871	100.31
502.088	106.31
502.305	99.31
502.522	101.31
502.739	101.31
502.956	99.31
503.172	105.31
503.389	98.31
503.606	84.31
503.823	96.31
504.04	114.31
504.256	89.31
504.473	82.31
504.69	85.31
504.907	96.31
505.123	86.31
505.34	81.31
505.557	91.31
505.773	112.31
505.99	78.31
506.207	83.31
506.423	88.31
506.64	82.31
506.856	96.31
507.073	86.31
507.289	89.31
507.506	74.31
507.722	93.31
507.939	83.31
508.155	90.31
508.372	87.31
508.588	83.31
508.805	89.31
509.021	92.31
509.238	88.31
509.454	89.31
509.67	96.31
509.887	84.31
510.103	83.31
510.319	101.31
510.536	102.31
510.752	107.31
510.968	77.31
511.184	92.31
511.401	90.31
511.617	85.31
511.833	95.31
512.049	81.31
512.265	100.31
512.481	93.31
512.698	94.31
512.914	83.31
513.13	98.31
513.346	74.31
513.562	99.31
513.778	76.31
513.994	102.31
514.21	100.31
514.426	98.31
514.642	89.31
514.858	90.31
515.074	90.31
515.29	78.31
515.506	89.31
515.721	92.31
515.937	98.31
516.153	90.31
516.369	73.31
516.585	85.31
516.801	89.31
517.016	103.31
517.232	103.31
517.448	110.31
517.664	99.31
517.879	96.31
518.095	93.31
518.311	103.31
518.527	92.31
