Data from Ni(NO3)2@0.25M.TitratingCurve.Agarose3%dH2O.NegLispCup.LampEnergy10.LIBS07252019_HRD10591_18-05-01-566.txt Node
Date: Thu Jul 25 18:05:01 EDT 2019
User: cochatt
Spectrometer: HR+D1059
Trigger mode: 1
Integration Time (sec): 1.000000E-1
Scans to average: 1
Electric dark correction enabled: true
Nonlinearity correction enabled: false
Boxcar width: 0
XAxis mode: Wavelengths
Number of Pixels in Spectrum: 2048
>>>>>Begin Spectral Data<<<<<
223.165	-13.12
223.4	-13.12
223.635	-13.12
223.869	-5.12
224.104	-27.12
224.338	-12.12
224.573	-6.12
224.808	-5.12
225.042	-14.12
225.277	-22.12
225.511	-14.12
225.746	-4.12
225.98	7.88
226.215	5.88
226.449	9.88
226.683	26.88
226.918	42.88
227.152	29.88
227.387	20.88
227.621	27.88
227.856	40.88
228.09	49.88
228.324	48.88
228.559	61.88
228.793	65.88
229.027	109.88
229.262	112.88
229.496	106.88
229.73	105.88
229.964	106.88
230.199	112.88
230.433	128.88
230.667	128.88
230.901	121.88
231.136	119.88
231.37	131.88
231.604	149.88
231.838	134.88
232.072	147.88
232.306	137.88
232.541	150.88
232.775	145.88
233.009	150.88
233.243	129.88
233.477	135.88
233.711	153.88
233.945	134.88
234.179	161.88
234.413	156.88
234.647	150.88
234.881	158.88
235.115	132.88
235.349	127.88
235.583	153.88
235.817	145.88
236.051	152.88
236.285	161.88
236.519	161.88
236.753	149.88
236.987	164.88
237.221	147.88
237.455	149.88
237.689	154.88
237.922	149.88
238.156	163.88
238.39	167.88
238.624	155.88
238.858	150.88
239.091	178.88
239.325	153.88
239.559	173.88
239.793	162.88
240.027	180.88
240.26	191.88
240.494	178.88
240.728	167.88
240.961	181.88
241.195	183.88
241.429	180.88
241.662	186.88
241.896	167.88
242.13	186.88
242.363	178.88
242.597	171.88
242.83	185.88
243.064	180.88
243.298	188.88
243.531	189.88
243.765	200.88
243.998	202.88
244.232	205.88
244.465	194.88
244.699	198.88
244.932	209.88
245.166	195.88
245.399	208.88
245.633	185.88
245.866	201.88
246.099	219.88
246.333	219.88
246.566	210.88
246.8	197.88
247.033	208.88
247.266	223.88
247.5	223.88
247.733	231.88
247.966	252.88
248.2	248.88
248.433	223.88
248.666	238.88
248.899	221.88
249.133	232.88
249.366	245.88
249.599	245.88
249.832	230.88
250.066	249.88
250.299	249.88
250.532	257.88
250.765	255.88
250.998	260.88
251.231	247.88
251.465	260.88
251.698	268.88
251.931	268.88
252.164	286.88
252.397	272.88
252.63	250.88
252.863	287.88
253.096	289.88
253.329	296.88
253.562	286.88
253.795	301.88
254.028	268.88
254.261	308.88
254.494	302.88
254.727	294.88
254.96	303.88
255.193	297.88
255.426	304.88
255.659	286.88
255.892	310.88
256.124	307.88
256.357	313.88
256.59	305.88
256.823	311.88
257.056	316.88
257.289	336.88
257.521	334.88
257.754	330.88
257.987	328.88
258.22	339.88
258.452	337.88
258.685	342.88
258.918	325.88
259.151	335.88
259.383	336.88
259.616	338.88
259.849	353.88
260.081	370.88
260.314	350.88
260.547	340.88
260.779	342.88
261.012	356.88
261.244	369.88
261.477	372.88
261.71	368.88
261.942	364.88
262.175	360.88
262.407	380.88
262.64	363.88
262.872	370.88
263.105	375.88
263.337	393.88
263.57	382.88
263.802	376.88
264.035	390.88
264.267	359.88
264.499	364.88
264.732	370.88
264.964	370.88
265.197	376.88
265.429	380.88
265.661	383.88
265.894	385.88
266.126	392.88
266.358	390.88
266.591	410.88
266.823	415.88
267.055	378.88
267.287	414.88
267.52	410.88
267.752	385.88
267.984	394.88
268.216	421.88
268.448	398.88
268.681	401.88
268.913	406.88
269.145	418.88
269.377	430.88
269.609	420.88
269.841	418.88
270.073	427.88
270.306	398.88
270.538	418.88
270.77	429.88
271.002	420.88
271.234	429.88
271.466	429.88
271.698	432.88
271.93	412.88
272.162	416.88
272.394	448.88
272.626	431.88
272.858	429.88
273.09	428.88
273.322	427.88
273.553	459.88
273.785	452.88
274.017	449.88
274.249	439.88
274.481	450.88
274.713	445.88
274.945	462.88
275.176	459.88
275.408	442.88
275.64	465.88
275.872	469.88
276.104	456.88
276.335	436.88
276.567	439.88
276.799	450.88
277.031	468.88
277.262	470.88
277.494	471.88
277.726	476.88
277.957	466.88
278.189	477.88
278.421	467.88
278.652	467.88
278.884	486.88
279.115	473.88
279.347	472.88
279.579	469.88
279.81	492.88
280.042	480.88
280.273	500.88
280.505	485.88
280.736	483.88
280.968	474.88
281.199	481.88
281.431	509.88
281.662	514.88
281.894	490.88
282.125	502.88
282.356	515.88
282.588	504.88
282.819	514.88
283.051	510.88
283.282	501.88
283.513	510.88
283.745	517.88
283.976	514.88
284.207	504.88
284.439	507.88
284.67	514.88
284.901	515.88
285.132	544.88
285.364	523.88
285.595	530.88
285.826	526.88
286.057	521.88
286.288	523.88
286.52	524.88
286.751	527.88
286.982	523.88
287.213	524.88
287.444	540.88
287.675	532.88
287.906	554.88
288.138	546.88
288.369	528.88
288.6	533.88
288.831	527.88
289.062	533.88
289.293	544.88
289.524	555.88
289.755	534.88
289.986	536.88
290.217	532.88
290.448	548.88
290.679	554.88
290.91	548.88
291.141	579.88
291.371	552.88
291.602	573.88
291.833	554.88
292.064	585.88
292.295	547.88
292.526	541.88
292.757	561.88
292.987	552.88
293.218	541.88
293.449	552.88
293.68	551.88
293.91	553.88
294.141	539.88
294.372	538.88
294.603	525.88
294.833	546.88
295.064	507.88
295.295	544.88
295.525	540.88
295.756	554.88
295.987	561.88
296.217	573.88
296.448	569.88
296.679	565.88
296.909	572.88
297.14	577.88
297.37	549.88
297.601	590.88
297.831	555.88
298.062	567.88
298.292	598.88
298.523	602.88
298.753	576.88
298.984	587.88
299.214	588.88
299.445	585.88
299.675	595.88
299.905	603.88
300.136	608.88
300.366	588.88
300.597	610.88
300.827	591.88
301.057	588.88
301.288	633.88
301.518	621.88
301.748	587.88
301.979	635.88
302.209	616.88
302.439	628.88
302.669	632.88
302.9	624.88
303.13	621.88
303.36	640.88
303.59	607.88
303.82	628.88
304.051	631.88
304.281	624.88
304.511	609.88
304.741	616.88
304.971	647.88
305.201	618.88
305.431	652.88
305.661	644.88
305.891	624.88
306.121	648.88
306.352	606.88
306.582	610.88
306.812	601.88
307.042	624.88
307.272	602.88
307.502	619.88
307.731	622.88
307.961	634.88
308.191	602.88
308.421	611.88
308.651	618.88
308.881	618.88
309.111	631.88
309.341	634.88
309.571	663.88
309.8	626.88
310.03	646.88
310.26	636.88
310.49	657.88
310.72	650.88
310.949	638.88
311.179	637.88
311.409	655.88
311.639	658.88
311.868	637.88
312.098	654.88
312.328	640.88
312.557	644.88
312.787	662.88
313.017	660.88
313.246	655.88
313.476	678.88
313.706	693.88
313.935	670.88
314.165	690.88
314.394	698.88
314.624	686.88
314.853	704.88
315.083	704.88
315.312	707.88
315.542	713.88
315.771	679.88
316.001	724.88
316.23	671.88
316.46	688.88
316.689	702.88
316.919	696.88
317.148	718.88
317.377	701.88
317.607	707.88
317.836	712.88
318.065	700.88
318.295	701.88
318.524	704.88
318.753	722.88
318.983	718.88
319.212	691.88
319.441	717.88
319.67	708.88
319.9	707.88
320.129	726.88
320.358	749.88
320.587	747.88
320.816	734.88
321.046	736.88
321.275	758.88
321.504	723.88
321.733	722.88
321.962	748.88
322.191	744.88
322.42	747.88
322.649	739.88
322.878	778.88
323.108	744.88
323.337	768.88
323.566	757.88
323.795	783.88
324.024	774.88
324.253	781.88
324.482	786.88
324.71	832.88
324.939	782.88
325.168	809.88
325.397	793.88
325.626	819.88
325.855	790.88
326.084	837.88
326.313	834.88
326.542	835.88
326.77	843.88
326.999	817.88
327.228	833.88
327.457	833.88
327.686	835.88
327.914	853.88
328.143	845.88
328.372	840.88
328.6	846.88
328.829	844.88
329.058	824.88
329.287	838.88
329.515	846.88
329.744	869.88
329.972	850.88
330.201	880.88
330.43	859.88
330.658	874.88
330.887	882.88
331.115	902.88
331.344	907.88
331.572	895.88
331.801	950.88
332.03	928.88
332.258	948.88
332.486	949.88
332.715	970.88
332.943	1021.88
333.172	1002.88
333.4	1010.88
333.629	1076.88
333.857	1088.88
334.085	1074.88
334.314	1091.88
334.542	1117.88
334.771	1093.88
334.999	1088.88
335.227	1091.88
335.455	1097.88
335.684	1120.88
335.912	1086.88
336.14	1073.88
336.369	1090.88
336.597	1127.88
336.825	1061.88
337.053	1085.88
337.281	1082.88
337.51	1039.88
337.738	1042.88
337.966	1032.88
338.194	1009.88
338.422	1038.88
338.65	994.88
338.878	975.88
339.106	995.88
339.334	992.88
339.562	964.88
339.79	974.88
340.018	956.88
340.246	930.88
340.474	936.88
340.702	957.88
340.93	966.88
341.158	949.88
341.386	982.88
341.614	987.88
341.842	1002.88
342.07	949.88
342.298	921.88
342.526	946.88
342.754	949.88
342.981	931.88
343.209	956.88
343.437	986.88
343.665	1025.88
343.893	1062.88
344.12	1062.88
344.348	1069.88
344.576	1060.88
344.804	1042.88
345.031	1001.88
345.259	986.88
345.487	979.88
345.714	969.88
345.942	998.88
346.17	972.88
346.397	972.88
346.625	946.88
346.853	913.88
347.08	911.88
347.308	889.88
347.535	910.88
347.763	922.88
347.99	929.88
348.218	898.88
348.445	917.88
348.673	903.88
348.9	892.88
349.128	906.88
349.355	916.88
349.583	907.88
349.81	886.88
350.037	897.88
350.265	880.88
350.492	894.88
350.72	871.88
350.947	898.88
351.174	898.88
351.402	901.88
351.629	886.88
351.856	909.88
352.083	886.88
352.311	908.88
352.538	907.88
352.765	930.88
352.992	898.88
353.22	850.88
353.447	898.88
353.674	901.88
353.901	865.88
354.128	896.88
354.355	873.88
354.583	881.88
354.81	862.88
355.037	906.88
355.264	887.88
355.491	878.88
355.718	826.88
355.945	862.88
356.172	866.88
356.399	900.88
356.626	881.88
356.853	897.88
357.08	888.88
357.307	871.88
357.534	885.88
357.761	889.88
357.988	882.88
358.215	860.88
358.441	871.88
358.668	900.88
358.895	880.88
359.122	865.88
359.349	859.88
359.576	884.88
359.802	872.88
360.029	901.88
360.256	883.88
360.483	871.88
360.709	858.88
360.936	865.88
361.163	882.88
361.39	884.88
361.616	878.88
361.843	900.88
362.07	908.88
362.296	921.88
362.523	864.88
362.749	876.88
362.976	887.88
363.203	880.88
363.429	877.88
363.656	877.88
363.882	885.88
364.109	861.88
364.335	900.88
364.562	873.88
364.788	896.88
365.015	883.88
365.241	859.88
365.468	852.88
365.694	851.88
365.92	876.88
366.147	857.88
366.373	832.88
366.599	887.88
366.826	853.88
367.052	869.88
367.278	840.88
367.505	851.88
367.731	859.88
367.957	857.88
368.184	898.88
368.41	876.88
368.636	874.88
368.862	873.88
369.089	865.88
369.315	892.88
369.541	892.88
369.767	881.88
369.993	900.88
370.219	898.88
370.445	864.88
370.672	877.88
370.898	886.88
371.124	912.88
371.35	966.88
371.576	951.88
371.802	926.88
372.028	958.88
372.254	943.88
372.48	925.88
372.706	962.88
372.932	938.88
373.158	964.88
373.384	941.88
373.61	944.88
373.835	941.88
374.061	920.88
374.287	980.88
374.513	943.88
374.739	988.88
374.965	988.88
375.191	985.88
375.416	990.88
375.642	973.88
375.868	971.88
376.094	946.88
376.319	900.88
376.545	920.88
376.771	931.88
376.997	927.88
377.222	905.88
377.448	880.88
377.674	904.88
377.899	904.88
378.125	890.88
378.35	939.88
378.576	920.88
378.802	881.88
379.027	904.88
379.253	888.88
379.478	889.88
379.704	864.88
379.929	900.88
380.155	865.88
380.38	896.88
380.606	900.88
380.831	914.88
381.057	887.88
381.282	883.88
381.507	894.88
381.733	899.88
381.958	914.88
382.184	904.88
382.409	925.88
382.634	933.88
382.86	938.88
383.085	927.88
383.31	951.88
383.535	982.88
383.761	981.88
383.986	933.88
384.211	974.88
384.436	992.88
384.662	998.88
384.887	1025.88
385.112	998.88
385.337	1022.88
385.562	1034.88
385.787	1033.88
386.013	1073.88
386.238	1029.88
386.463	1059.88
386.688	1064.88
386.913	1047.88
387.138	1043.88
387.363	1090.88
387.588	1072.88
387.813	1084.88
388.038	1109.88
388.263	1088.88
388.488	1072.88
388.713	1081.88
388.938	1069.88
389.163	1054.88
389.387	1069.88
389.612	1055.88
389.837	1039.88
390.062	1042.88
390.287	1059.88
390.512	1077.88
390.736	1093.88
390.961	1100.88
391.186	1114.88
391.411	1137.88
391.636	1108.88
391.86	1154.88
392.085	1196.88
392.31	1198.88
392.534	1114.88
392.759	1154.88
392.984	1130.88
393.208	1143.88
393.433	1099.88
393.658	1120.88
393.882	1126.88
394.107	1100.88
394.331	1119.88
394.556	1125.88
394.78	1144.88
395.005	1174.88
395.229	1130.88
395.454	1156.88
395.678	1180.88
395.903	1155.88
396.127	1193.88
396.352	1157.88
396.576	1142.88
396.801	1134.88
397.025	1152.88
397.249	1209.88
397.474	1218.88
397.698	1205.88
397.922	1230.88
398.147	1238.88
398.371	1263.88
398.595	1293.88
398.82	1346.88
399.044	1389.88
399.268	1476.88
399.492	1645.88
399.717	1682.88
399.941	1725.88
400.165	1688.88
400.389	1592.88
400.613	1519.88
400.837	1405.88
401.062	1416.88
401.286	1387.88
401.51	1371.88
401.734	1346.88
401.958	1367.88
402.182	1335.88
402.406	1347.88
402.63	1354.88
402.854	1365.88
403.078	1382.88
403.302	1414.88
403.526	1418.88
403.75	1393.88
403.974	1441.88
404.198	1422.88
404.422	1401.88
404.645	1425.88
404.869	1403.88
405.093	1415.88
405.317	1438.88
405.541	1424.88
405.765	1429.88
405.988	1422.88
406.212	1460.88
406.436	1455.88
406.66	1501.88
406.883	1465.88
407.107	1577.88
407.331	1610.88
407.555	1654.88
407.778	1612.88
408.002	1632.88
408.226	1593.88
408.449	1566.88
408.673	1596.88
408.896	1517.88
409.12	1520.88
409.344	1490.88
409.567	1484.88
409.791	1508.88
410.014	1496.88
410.238	1450.88
410.461	1491.88
410.685	1472.88
410.908	1406.88
411.132	1464.88
411.355	1380.88
411.578	1393.88
411.802	1417.88
412.025	1386.88
412.249	1407.88
412.472	1398.88
412.695	1427.88
412.919	1400.88
413.142	1368.88
413.365	1353.88
413.589	1378.88
413.812	1396.88
414.035	1349.88
414.258	1363.88
414.482	1356.88
414.705	1398.88
414.928	1392.88
415.151	1372.88
415.374	1372.88
415.597	1333.88
415.821	1329.88
416.044	1327.88
416.267	1332.88
416.49	1306.88
416.713	1326.88
416.936	1338.88
417.159	1344.88
417.382	1340.88
417.605	1337.88
417.828	1330.88
418.051	1321.88
418.274	1362.88
418.497	1350.88
418.72	1345.88
418.943	1316.88
419.166	1414.88
419.389	1540.88
419.611	1503.88
419.834	1446.88
420.057	1408.88
420.28	1337.88
420.503	1349.88
420.726	1357.88
420.948	1332.88
421.171	1354.88
421.394	1331.88
421.617	1328.88
421.839	1329.88
422.062	1386.88
422.285	1344.88
422.507	1353.88
422.73	1313.88
422.953	1332.88
423.175	1392.88
423.398	1400.88
423.621	1349.88
423.843	1384.88
424.066	1392.88
424.288	1344.88
424.511	1354.88
424.733	1361.88
424.956	1380.88
425.178	1367.88
425.401	1385.88
425.623	1353.88
425.846	1318.88
426.068	1333.88
426.291	1311.88
426.513	1296.88
426.735	1295.88
426.958	1358.88
427.18	1286.88
427.402	1305.88
427.625	1269.88
427.847	1285.88
428.069	1285.88
428.292	1307.88
428.514	1256.88
428.736	1255.88
428.958	1281.88
429.181	1240.88
429.403	1281.88
429.625	1291.88
429.847	1243.88
430.069	1217.88
430.292	1278.88
430.514	1215.88
430.736	1211.88
430.958	1282.88
431.18	1268.88
431.402	1257.88
431.624	1230.88
431.846	1286.88
432.068	1242.88
432.29	1258.88
432.512	1268.88
432.734	1283.88
432.956	1281.88
433.178	1301.88
433.4	1285.88
433.622	1259.88
433.844	1306.88
434.066	1294.88
434.287	1311.88
434.509	1300.88
434.731	1343.88
434.953	1333.88
435.175	1373.88
435.397	1355.88
435.618	1348.88
435.84	1296.88
436.062	1300.88
436.284	1267.88
436.505	1253.88
436.727	1298.88
436.949	1280.88
437.17	1278.88
437.392	1248.88
437.614	1235.88
437.835	1240.88
438.057	1234.88
438.278	1205.88
438.5	1241.88
438.721	1200.88
438.943	1241.88
439.165	1249.88
439.386	1234.88
439.608	1284.88
439.829	1302.88
440.05	1248.88
440.272	1289.88
440.493	1281.88
440.715	1306.88
440.936	1309.88
441.158	1340.88
441.379	1330.88
441.6	1353.88
441.822	1386.88
442.043	1395.88
442.264	1408.88
442.486	1338.88
442.707	1365.88
442.928	1334.88
443.149	1353.88
443.371	1320.88
443.592	1381.88
443.813	1405.88
444.034	1348.88
444.255	1412.88
444.476	1470.88
444.698	1502.88
444.919	1518.88
445.14	1628.88
445.361	1504.88
445.582	1443.88
445.803	1402.88
446.024	1352.88
446.245	1382.88
446.466	1324.88
446.687	1307.88
446.908	1304.88
447.129	1280.88
447.35	1274.88
447.571	1262.88
447.792	1226.88
448.013	1214.88
448.234	1223.88
448.455	1182.88
448.675	1154.88
448.896	1179.88
449.117	1147.88
449.338	1177.88
449.559	1165.88
449.779	1162.88
450	1154.88
450.221	1157.88
450.442	1164.88
450.662	1166.88
450.883	1206.88
451.104	1204.88
451.324	1188.88
451.545	1175.88
451.766	1166.88
451.986	1171.88
452.207	1164.88
452.428	1142.88
452.648	1166.88
452.869	1120.88
453.089	1138.88
453.31	1134.88
453.53	1115.88
453.751	1091.88
453.971	1118.88
454.192	1121.88
454.412	1114.88
454.633	1120.88
454.853	1112.88
455.073	1107.88
455.294	1108.88
455.514	1091.88
455.734	1095.88
455.955	1076.88
456.175	1088.88
456.395	1094.88
456.616	1092.88
456.836	1097.88
457.056	1100.88
457.276	1084.88
457.497	1105.88
457.717	1076.88
457.937	1113.88
458.157	1121.88
458.377	1124.88
458.598	1170.88
458.818	1168.88
459.038	1200.88
459.258	1253.88
459.478	1293.88
459.698	1281.88
459.918	1334.88
460.138	1369.88
460.358	1393.88
460.578	1399.88
460.798	1408.88
461.018	1469.88
461.238	1409.88
461.458	1461.88
461.678	1472.88
461.898	1496.88
462.118	1473.88
462.338	1546.88
462.558	1607.88
462.777	1658.88
462.997	1722.88
463.217	1737.88
463.437	1798.88
463.657	1733.88
463.876	1721.88
464.096	1666.88
464.316	1642.88
464.536	1680.88
464.755	1600.88
464.975	1556.88
465.195	1462.88
465.414	1428.88
465.634	1374.88
465.854	1330.88
466.073	1328.88
466.293	1287.88
466.512	1258.88
466.732	1216.88
466.951	1247.88
467.171	1254.88
467.391	1250.88
467.61	1187.88
467.829	1232.88
468.049	1212.88
468.268	1201.88
468.488	1170.88
468.707	1185.88
468.927	1217.88
469.146	1169.88
469.365	1227.88
469.585	1205.88
469.804	1246.88
470.023	1254.88
470.243	1221.88
470.462	1259.88
470.681	1253.88
470.901	1240.88
471.12	1240.88
471.339	1194.88
471.558	1208.88
471.777	1209.88
471.997	1231.88
472.216	1206.88
472.435	1171.88
472.654	1159.88
472.873	1145.88
473.092	1174.88
473.311	1156.88
473.53	1170.88
473.749	1157.88
473.968	1180.88
474.187	1184.88
474.406	1167.88
474.625	1155.88
474.844	1178.88
475.063	1179.88
475.282	1182.88
475.501	1213.88
475.72	1211.88
475.939	1213.88
476.158	1223.88
476.377	1237.88
476.596	1232.88
476.814	1240.88
477.033	1225.88
477.252	1250.88
477.471	1272.88
477.69	1320.88
477.908	1328.88
478.127	1338.88
478.346	1374.88
478.564	1365.88
478.783	1404.88
479.002	1376.88
479.22	1421.88
479.439	1426.88
479.658	1399.88
479.876	1408.88
480.095	1445.88
480.313	1444.88
480.532	1461.88
480.751	1460.88
480.969	1452.88
481.188	1461.88
481.406	1407.88
481.624	1362.88
481.843	1361.88
482.061	1329.88
482.28	1356.88
482.498	1334.88
482.717	1291.88
482.935	1348.88
483.153	1347.88
483.372	1364.88
483.59	1346.88
483.808	1347.88
484.027	1330.88
484.245	1350.88
484.463	1366.88
484.681	1378.88
484.9	1381.88
485.118	1373.88
485.336	1379.88
485.554	1360.88
485.772	1399.88
485.99	1399.88
486.209	1402.88
486.427	1383.88
486.645	1412.88
486.863	1395.88
487.081	1405.88
487.299	1382.88
487.517	1388.88
487.735	1404.88
487.953	1420.88
488.171	1412.88
488.389	1375.88
488.607	1380.88
488.825	1384.88
489.043	1370.88
489.261	1357.88
489.479	1443.88
489.696	1387.88
489.914	1394.88
490.132	1422.88
490.35	1459.88
490.568	1420.88
490.786	1380.88
491.003	1426.88
491.221	1436.88
491.439	1439.88
491.657	1433.88
491.874	1460.88
492.092	1453.88
492.31	1468.88
492.527	1471.88
492.745	1471.88
492.963	1458.88
493.18	1454.88
493.398	1492.88
493.615	1472.88
493.833	1511.88
494.05	1466.88
494.268	1500.88
