Data from Ni(NO3)2Standard.Agarose3%.GreenCap.LampEnergy5.5.E.O_HRD10591_14-41-34-188.txt Node
Date: Mon Jul 22 14:41:34 EDT 2019
User: cochatt
Spectrometer: HR+D1059
Trigger mode: 1
Integration Time (sec): 1.000000E-1
Scans to average: 1
Electric dark correction enabled: true
Nonlinearity correction enabled: false
Boxcar width: 0
XAxis mode: Wavelengths
Number of Pixels in Spectrum: 2048
>>>>>Begin Spectral Data<<<<<
223.165	-10.56
223.4	-10.56
223.635	-10.56
223.869	-17.56
224.104	-8.56
224.338	-6.56
224.573	-18.56
224.808	-12.56
225.042	-18.56
225.277	-1.56
225.511	4.44
225.746	12.44
225.98	2.44
226.215	-4.56
226.449	14.44
226.683	6.44
226.918	28.44
227.152	30.44
227.387	21.44
227.621	39.44
227.856	38.44
228.09	57.44
228.324	37.44
228.559	53.44
228.793	54.44
229.027	58.44
229.262	60.44
229.496	73.44
229.73	58.44
229.964	61.44
230.199	69.44
230.433	88.44
230.667	68.44
230.901	77.44
231.136	73.44
231.37	71.44
231.604	94.44
231.838	75.44
232.072	78.44
232.306	68.44
232.541	71.44
232.775	79.44
233.009	75.44
233.243	92.44
233.477	83.44
233.711	74.44
233.945	93.44
234.179	64.44
234.413	75.44
234.647	72.44
234.881	78.44
235.115	85.44
235.349	82.44
235.583	85.44
235.817	58.44
236.051	83.44
236.285	82.44
236.519	79.44
236.753	84.44
236.987	84.44
237.221	87.44
237.455	69.44
237.689	74.44
237.922	77.44
238.156	71.44
238.39	76.44
238.624	73.44
238.858	78.44
239.091	77.44
239.325	93.44
239.559	64.44
239.793	56.44
240.027	77.44
240.26	82.44
240.494	79.44
240.728	77.44
240.961	64.44
241.195	90.44
241.429	76.44
241.662	59.44
241.896	70.44
242.13	78.44
242.363	83.44
242.597	74.44
242.83	72.44
243.064	75.44
243.298	77.44
243.531	79.44
243.765	85.44
243.998	84.44
244.232	68.44
244.465	85.44
244.699	86.44
244.932	58.44
245.166	80.44
245.399	84.44
245.633	86.44
245.866	81.44
246.099	80.44
246.333	67.44
246.566	81.44
246.8	84.44
247.033	65.44
247.266	70.44
247.5	68.44
247.733	76.44
247.966	83.44
248.2	82.44
248.433	77.44
248.666	76.44
248.899	93.44
249.133	73.44
249.366	85.44
249.599	87.44
249.832	76.44
250.066	82.44
250.299	63.44
250.532	69.44
250.765	81.44
250.998	88.44
251.231	78.44
251.465	72.44
251.698	63.44
251.931	75.44
252.164	88.44
252.397	93.44
252.63	78.44
252.863	76.44
253.096	83.44
253.329	75.44
253.562	82.44
253.795	74.44
254.028	74.44
254.261	76.44
254.494	65.44
254.727	70.44
254.96	88.44
255.193	79.44
255.426	78.44
255.659	72.44
255.892	75.44
256.124	83.44
256.357	77.44
256.59	67.44
256.823	72.44
257.056	83.44
257.289	60.44
257.521	78.44
257.754	76.44
257.987	85.44
258.22	93.44
258.452	88.44
258.685	78.44
258.918	69.44
259.151	84.44
259.383	87.44
259.616	73.44
259.849	70.44
260.081	83.44
260.314	78.44
260.547	84.44
260.779	80.44
261.012	90.44
261.244	80.44
261.477	80.44
261.71	74.44
261.942	69.44
262.175	75.44
262.407	79.44
262.64	88.44
262.872	70.44
263.105	80.44
263.337	85.44
263.57	62.44
263.802	74.44
264.035	75.44
264.267	86.44
264.499	80.44
264.732	81.44
264.964	91.44
265.197	70.44
265.429	78.44
265.661	76.44
265.894	79.44
266.126	81.44
266.358	86.44
266.591	85.44
266.823	93.44
267.055	73.44
267.287	78.44
267.52	97.44
267.752	96.44
267.984	74.44
268.216	83.44
268.448	94.44
268.681	91.44
268.913	91.44
269.145	83.44
269.377	83.44
269.609	86.44
269.841	79.44
270.073	75.44
270.306	89.44
270.538	74.44
270.77	73.44
271.002	86.44
271.234	77.44
271.466	90.44
271.698	76.44
271.93	67.44
272.162	90.44
272.394	77.44
272.626	86.44
272.858	91.44
273.09	89.44
273.322	81.44
273.553	100.44
273.785	92.44
274.017	88.44
274.249	63.44
274.481	72.44
274.713	71.44
274.945	92.44
275.176	85.44
275.408	94.44
275.64	65.44
275.872	80.44
276.104	85.44
276.335	77.44
276.567	78.44
276.799	90.44
277.031	86.44
277.262	78.44
277.494	74.44
277.726	88.44
277.957	71.44
278.189	87.44
278.421	60.44
278.652	79.44
278.884	75.44
279.115	77.44
279.347	76.44
279.579	76.44
279.81	81.44
280.042	97.44
280.273	97.44
280.505	75.44
280.736	81.44
280.968	77.44
281.199	79.44
281.431	80.44
281.662	94.44
281.894	78.44
282.125	94.44
282.356	65.44
282.588	98.44
282.819	83.44
283.051	79.44
283.282	100.44
283.513	82.44
283.745	88.44
283.976	77.44
284.207	84.44
284.439	83.44
284.67	82.44
284.901	69.44
285.132	72.44
285.364	90.44
285.595	96.44
285.826	83.44
286.057	78.44
286.288	93.44
286.52	86.44
286.751	88.44
286.982	95.44
287.213	69.44
287.444	73.44
287.675	85.44
287.906	78.44
288.138	94.44
288.369	83.44
288.6	84.44
288.831	70.44
289.062	95.44
289.293	82.44
289.524	91.44
289.755	78.44
289.986	100.44
290.217	93.44
290.448	96.44
290.679	94.44
290.91	89.44
291.141	82.44
291.371	77.44
291.602	96.44
291.833	90.44
292.064	96.44
292.295	77.44
292.526	93.44
292.757	91.44
292.987	89.44
293.218	69.44
293.449	84.44
293.68	73.44
293.91	84.44
294.141	85.44
294.372	95.44
294.603	78.44
294.833	101.44
295.064	80.44
295.295	86.44
295.525	92.44
295.756	92.44
295.987	85.44
296.217	90.44
296.448	94.44
296.679	84.44
296.909	87.44
297.14	89.44
297.37	82.44
297.601	76.44
297.831	91.44
298.062	90.44
298.292	92.44
298.523	93.44
298.753	91.44
298.984	89.44
299.214	81.44
299.445	92.44
299.675	73.44
299.905	83.44
300.136	81.44
300.366	97.44
300.597	91.44
300.827	85.44
301.057	83.44
301.288	77.44
301.518	88.44
301.748	105.44
301.979	96.44
302.209	80.44
302.439	79.44
302.669	97.44
302.9	85.44
303.13	82.44
303.36	83.44
303.59	64.44
303.82	100.44
304.051	81.44
304.281	85.44
304.511	87.44
304.741	84.44
304.971	87.44
305.201	93.44
305.431	84.44
305.661	88.44
305.891	81.44
306.121	88.44
306.352	74.44
306.582	86.44
306.812	84.44
307.042	86.44
307.272	85.44
307.502	98.44
307.731	77.44
307.961	89.44
308.191	99.44
308.421	91.44
308.651	80.44
308.881	85.44
309.111	80.44
309.341	92.44
309.571	84.44
309.8	89.44
310.03	75.44
310.26	81.44
310.49	99.44
310.72	86.44
310.949	95.44
311.179	87.44
311.409	81.44
311.639	87.44
311.868	88.44
312.098	83.44
312.328	80.44
312.557	86.44
312.787	84.44
313.017	84.44
313.246	93.44
313.476	99.44
313.706	76.44
313.935	87.44
314.165	90.44
314.394	81.44
314.624	75.44
314.853	90.44
315.083	84.44
315.312	75.44
315.542	78.44
315.771	88.44
316.001	89.44
316.23	82.44
316.46	69.44
316.689	82.44
316.919	93.44
317.148	89.44
317.377	94.44
317.607	79.44
317.836	84.44
318.065	89.44
318.295	90.44
318.524	88.44
318.753	83.44
318.983	92.44
319.212	73.44
319.441	85.44
319.67	89.44
319.9	87.44
320.129	91.44
320.358	77.44
320.587	81.44
320.816	81.44
321.046	86.44
321.275	82.44
321.504	78.44
321.733	76.44
321.962	78.44
322.191	96.44
322.42	80.44
322.649	87.44
322.878	93.44
323.108	95.44
323.337	98.44
323.566	84.44
323.795	86.44
324.024	77.44
324.253	65.44
324.482	72.44
324.71	93.44
324.939	81.44
325.168	76.44
325.397	82.44
325.626	89.44
325.855	92.44
326.084	104.44
326.313	81.44
326.542	89.44
326.77	105.44
326.999	71.44
327.228	80.44
327.457	78.44
327.686	89.44
327.914	85.44
328.143	84.44
328.372	81.44
328.6	81.44
328.829	73.44
329.058	97.44
329.287	76.44
329.515	83.44
329.744	109.44
329.972	89.44
330.201	91.44
330.43	81.44
330.658	89.44
330.887	86.44
331.115	90.44
331.344	92.44
331.572	79.44
331.801	74.44
332.03	95.44
332.258	72.44
332.486	77.44
332.715	97.44
332.943	96.44
333.172	75.44
333.4	74.44
333.629	84.44
333.857	75.44
334.085	75.44
334.314	81.44
334.542	81.44
334.771	89.44
334.999	97.44
335.227	77.44
335.455	84.44
335.684	90.44
335.912	76.44
336.14	87.44
336.369	91.44
336.597	90.44
336.825	70.44
337.053	71.44
337.281	81.44
337.51	88.44
337.738	90.44
337.966	90.44
338.194	94.44
338.422	82.44
338.65	87.44
338.878	88.44
339.106	78.44
339.334	102.44
339.562	89.44
339.79	94.44
340.018	85.44
340.246	82.44
340.474	93.44
340.702	87.44
340.93	82.44
341.158	88.44
341.386	94.44
341.614	87.44
341.842	86.44
342.07	76.44
342.298	89.44
342.526	93.44
342.754	76.44
342.981	91.44
343.209	78.44
343.437	89.44
343.665	68.44
343.893	78.44
344.12	97.44
344.348	83.44
344.576	77.44
344.804	81.44
345.031	87.44
345.259	83.44
345.487	84.44
345.714	76.44
345.942	83.44
346.17	88.44
346.397	89.44
346.625	85.44
346.853	89.44
347.08	87.44
347.308	89.44
347.535	86.44
347.763	72.44
347.99	89.44
348.218	82.44
348.445	82.44
348.673	90.44
348.9	81.44
349.128	102.44
349.355	82.44
349.583	84.44
349.81	78.44
350.037	89.44
350.265	85.44
350.492	81.44
350.72	85.44
350.947	86.44
351.174	79.44
351.402	89.44
351.629	89.44
351.856	83.44
352.083	94.44
352.311	85.44
352.538	93.44
352.765	86.44
352.992	81.44
353.22	75.44
353.447	78.44
353.674	89.44
353.901	94.44
354.128	83.44
354.355	73.44
354.583	85.44
354.81	84.44
355.037	93.44
355.264	93.44
355.491	82.44
355.718	93.44
355.945	78.44
356.172	78.44
356.399	88.44
356.626	93.44
356.853	88.44
357.08	96.44
357.307	82.44
357.534	90.44
357.761	88.44
357.988	87.44
358.215	73.44
358.441	85.44
358.668	73.44
358.895	66.44
359.122	99.44
359.349	84.44
359.576	90.44
359.802	85.44
360.029	75.44
360.256	87.44
360.483	98.44
360.709	80.44
360.936	98.44
361.163	85.44
361.39	75.44
361.616	81.44
361.843	75.44
362.07	87.44
362.296	81.44
362.523	76.44
362.749	85.44
362.976	76.44
363.203	88.44
363.429	75.44
363.656	84.44
363.882	84.44
364.109	89.44
364.335	88.44
364.562	80.44
364.788	79.44
365.015	83.44
365.241	81.44
365.468	77.44
365.694	85.44
365.92	94.44
366.147	85.44
366.373	88.44
366.599	86.44
366.826	84.44
367.052	82.44
367.278	90.44
367.505	95.44
367.731	88.44
367.957	72.44
368.184	89.44
368.41	93.44
368.636	79.44
368.862	84.44
369.089	82.44
369.315	80.44
369.541	84.44
369.767	77.44
369.993	77.44
370.219	71.44
370.445	79.44
370.672	85.44
370.898	77.44
371.124	83.44
371.35	82.44
371.576	91.44
371.802	88.44
372.028	97.44
372.254	87.44
372.48	78.44
372.706	80.44
372.932	88.44
373.158	85.44
373.384	91.44
373.61	86.44
373.835	75.44
374.061	84.44
374.287	99.44
374.513	80.44
374.739	90.44
374.965	84.44
375.191	77.44
375.416	89.44
375.642	95.44
375.868	87.44
376.094	80.44
376.319	95.44
376.545	79.44
376.771	95.44
376.997	81.44
377.222	90.44
377.448	88.44
377.674	69.44
377.899	73.44
378.125	78.44
378.35	90.44
378.576	86.44
378.802	83.44
379.027	82.44
379.253	94.44
379.478	78.44
379.704	77.44
379.929	79.44
380.155	71.44
380.38	90.44
380.606	84.44
380.831	80.44
381.057	95.44
381.282	84.44
381.507	75.44
381.733	86.44
381.958	84.44
382.184	76.44
382.409	86.44
382.634	84.44
382.86	84.44
383.085	94.44
383.31	76.44
383.535	90.44
383.761	82.44
383.986	92.44
384.211	83.44
384.436	83.44
384.662	69.44
384.887	86.44
385.112	88.44
385.337	107.44
385.562	87.44
385.787	69.44
386.013	92.44
386.238	80.44
386.463	82.44
386.688	78.44
386.913	94.44
387.138	77.44
387.363	80.44
387.588	80.44
387.813	67.44
388.038	79.44
388.263	96.44
388.488	87.44
388.713	93.44
388.938	79.44
389.163	89.44
389.387	76.44
389.612	87.44
389.837	84.44
390.062	82.44
390.287	85.44
390.512	95.44
390.736	78.44
390.961	78.44
391.186	89.44
391.411	75.44
391.636	84.44
391.86	78.44
392.085	93.44
392.31	86.44
392.534	89.44
392.759	93.44
392.984	68.44
393.208	77.44
393.433	69.44
393.658	94.44
393.882	87.44
394.107	72.44
394.331	86.44
394.556	90.44
394.78	80.44
395.005	87.44
395.229	101.44
395.454	87.44
395.678	82.44
395.903	82.44
396.127	92.44
396.352	89.44
396.576	86.44
396.801	91.44
397.025	74.44
397.249	81.44
397.474	82.44
397.698	92.44
397.922	91.44
398.147	71.44
398.371	74.44
398.595	92.44
398.82	96.44
399.044	88.44
399.268	86.44
399.492	87.44
399.717	91.44
399.941	102.44
400.165	99.44
400.389	89.44
400.613	79.44
400.837	90.44
401.062	77.44
401.286	89.44
401.51	83.44
401.734	80.44
401.958	82.44
402.182	85.44
402.406	88.44
402.63	60.44
402.854	78.44
403.078	85.44
403.302	88.44
403.526	70.44
403.75	74.44
403.974	94.44
404.198	92.44
404.422	91.44
404.645	97.44
404.869	76.44
405.093	77.44
405.317	85.44
405.541	84.44
405.765	84.44
405.988	92.44
406.212	94.44
406.436	92.44
406.66	81.44
406.883	92.44
407.107	76.44
407.331	80.44
407.555	75.44
407.778	97.44
408.002	97.44
408.226	78.44
408.449	72.44
408.673	85.44
408.896	84.44
409.12	82.44
409.344	85.44
409.567	88.44
409.791	87.44
410.014	80.44
410.238	91.44
410.461	89.44
410.685	79.44
410.908	80.44
411.132	89.44
411.355	103.44
411.578	87.44
411.802	71.44
412.025	90.44
412.249	97.44
412.472	83.44
412.695	90.44
412.919	86.44
413.142	88.44
413.365	92.44
413.589	91.44
413.812	82.44
414.035	76.44
414.258	85.44
414.482	92.44
414.705	87.44
414.928	100.44
415.151	86.44
415.374	80.44
415.597	85.44
415.821	72.44
416.044	82.44
416.267	83.44
416.49	97.44
416.713	77.44
416.936	86.44
417.159	73.44
417.382	83.44
417.605	96.44
417.828	87.44
418.051	86.44
418.274	80.44
418.497	79.44
418.72	77.44
418.943	88.44
419.166	92.44
419.389	73.44
419.611	85.44
419.834	84.44
420.057	93.44
420.28	85.44
420.503	84.44
420.726	80.44
420.948	89.44
421.171	89.44
421.394	78.44
421.617	77.44
421.839	88.44
422.062	96.44
422.285	75.44
422.507	83.44
422.73	83.44
422.953	106.44
423.175	79.44
423.398	96.44
423.621	94.44
423.843	86.44
424.066	90.44
424.288	81.44
424.511	95.44
424.733	78.44
424.956	72.44
425.178	82.44
425.401	84.44
425.623	84.44
425.846	72.44
426.068	75.44
426.291	89.44
426.513	92.44
426.735	81.44
426.958	90.44
427.18	84.44
427.402	95.44
427.625	89.44
427.847	77.44
428.069	79.44
428.292	87.44
428.514	84.44
428.736	83.44
428.958	85.44
429.181	90.44
429.403	75.44
429.625	96.44
429.847	89.44
430.069	86.44
430.292	95.44
430.514	95.44
430.736	79.44
430.958	83.44
431.18	87.44
431.402	85.44
431.624	75.44
431.846	78.44
432.068	87.44
432.29	93.44
432.512	97.44
432.734	86.44
432.956	88.44
433.178	91.44
433.4	89.44
433.622	82.44
433.844	83.44
434.066	100.44
434.287	82.44
434.509	68.44
434.731	85.44
434.953	99.44
435.175	96.44
435.397	75.44
435.618	86.44
435.84	88.44
436.062	80.44
436.284	76.44
436.505	96.44
436.727	96.44
436.949	72.44
437.17	92.44
437.392	84.44
437.614	95.44
437.835	87.44
438.057	80.44
438.278	87.44
438.5	81.44
438.721	92.44
438.943	88.44
439.165	90.44
439.386	80.44
439.608	90.44
439.829	101.44
440.05	91.44
440.272	92.44
440.493	68.44
440.715	91.44
440.936	96.44
441.158	97.44
441.379	92.44
441.6	86.44
441.822	84.44
442.043	86.44
442.264	76.44
442.486	78.44
442.707	69.44
442.928	80.44
443.149	80.44
443.371	80.44
443.592	76.44
443.813	90.44
444.034	82.44
444.255	94.44
444.476	96.44
444.698	88.44
444.919	92.44
445.14	198.44
445.361	115.44
445.582	90.44
445.803	96.44
446.024	99.44
446.245	90.44
446.466	97.44
446.687	87.44
446.908	83.44
447.129	86.44
447.35	94.44
447.571	83.44
447.792	86.44
448.013	99.44
448.234	74.44
448.455	78.44
448.675	95.44
448.896	78.44
449.117	79.44
449.338	85.44
449.559	81.44
449.779	83.44
450	104.44
450.221	88.44
450.442	77.44
450.662	82.44
450.883	85.44
451.104	83.44
451.324	94.44
451.545	98.44
451.766	75.44
451.986	78.44
452.207	90.44
452.428	102.44
452.648	87.44
452.869	93.44
453.089	93.44
453.31	69.44
453.53	77.44
453.751	91.44
453.971	84.44
454.192	92.44
454.412	89.44
454.633	80.44
454.853	78.44
455.073	76.44
455.294	87.44
455.514	82.44
455.734	91.44
455.955	82.44
456.175	90.44
456.395	86.44
456.616	83.44
456.836	75.44
457.056	85.44
457.276	81.44
457.497	86.44
457.717	87.44
457.937	91.44
458.157	76.44
458.377	76.44
458.598	88.44
458.818	89.44
459.038	86.44
459.258	84.44
459.478	76.44
459.698	79.44
459.918	75.44
460.138	80.44
460.358	91.44
460.578	74.44
460.798	74.44
461.018	92.44
461.238	84.44
461.458	75.44
461.678	82.44
461.898	86.44
462.118	80.44
462.338	88.44
462.558	86.44
462.777	76.44
462.997	84.44
463.217	86.44
463.437	85.44
463.657	76.44
463.876	82.44
464.096	88.44
464.316	84.44
464.536	93.44
464.755	100.44
464.975	90.44
465.195	90.44
465.414	87.44
465.634	77.44
465.854	78.44
466.073	80.44
466.293	78.44
466.512	84.44
466.732	84.44
466.951	84.44
467.171	73.44
467.391	78.44
467.61	88.44
467.829	74.44
468.049	77.44
468.268	93.44
468.488	82.44
468.707	100.44
468.927	90.44
469.146	98.44
469.365	90.44
469.585	80.44
469.804	81.44
470.023	82.44
470.243	95.44
470.462	93.44
470.681	82.44
470.901	80.44
471.12	80.44
471.339	92.44
471.558	81.44
471.777	93.44
471.997	88.44
472.216	97.44
472.435	83.44
472.654	92.44
472.873	89.44
473.092	84.44
473.311	82.44
473.53	85.44
473.749	94.44
473.968	78.44
474.187	88.44
474.406	91.44
474.625	87.44
474.844	100.44
475.063	87.44
475.282	95.44
475.501	100.44
475.72	89.44
475.939	91.44
476.158	82.44
476.377	76.44
476.596	95.44
476.814	73.44
477.033	91.44
477.252	88.44
477.471	76.44
477.69	92.44
477.908	71.44
478.127	90.44
478.346	77.44
478.564	67.44
478.783	92.44
479.002	81.44
479.22	85.44
479.439	100.44
479.658	89.44
479.876	84.44
480.095	93.44
480.313	86.44
480.532	84.44
480.751	97.44
480.969	100.44
481.188	88.44
481.406	92.44
481.624	83.44
481.843	94.44
482.061	83.44
482.28	81.44
482.498	80.44
482.717	96.44
482.935	102.44
483.153	97.44
483.372	100.44
483.59	90.44
483.808	96.44
484.027	97.44
484.245	82.44
484.463	87.44
484.681	98.44
484.9	96.44
485.118	94.44
485.336	99.44
485.554	83.44
485.772	85.44
485.99	78.44
486.209	90.44
486.427	73.44
486.645	89.44
486.863	94.44
487.081	102.44
487.299	98.44
487.517	106.44
487.735	83.44
487.953	81.44
488.171	99.44
488.389	91.44
488.607	98.44
488.825	89.44
489.043	81.44
489.261	68.44
489.479	86.44
489.696	92.44
489.914	93.44
490.132	86.44
490.35	85.44
490.568	93.44
490.786	85.44
491.003	88.44
491.221	87.44
491.439	93.44
491.657	99.44
491.874	94.44
492.092	92.44
492.31	100.44
492.527	89.44
492.745	84.44
492.963	93.44
493.18	86.44
493.398	102.44
493.615	88.44
493.833	87.44
494.05	101.44
494.268	84.44
494.485	88.44
494.703	98.44
494.92	90.44
495.138	88.44
495.355	89.44
495.573	96.44
495.79	100.44
496.008	91.44
496.225	85.44
496.442	91.44
496.66	88.44
496.877	98.44
497.094	94.44
497.312	100.44
497.529	100.44
497.746	113.44
497.963	99.44
498.181	74.44
498.398	97.44
498.615	111.44
498.832	97.44
499.049	94.44
499.267	107.44
499.484	99.44
499.701	105.44
499.918	109.44
500.135	125.44
500.352	102.44
500.569	99.44
500.786	102.44
501.003	97.44
501.22	110.44
501.437	86.44
501.654	94.44
501.871	103.44
502.088	96.44
502.305	90.44
502.522	86.44
502.739	105.44
502.956	108.44
503.172	89.44
503.389	100.44
503.606	85.44
503.823	91.44
504.04	97.44
504.256	91.44
504.473	92.44
504.69	90.44
504.907	93.44
505.123	95.44
505.34	91.44
505.557	88.44
505.773	90.44
505.99	89.44
506.207	93.44
506.423	88.44
506.64	100.44
506.856	85.44
507.073	97.44
507.289	87.44
507.506	104.44
507.722	97.44
507.939	84.44
508.155	88.44
508.372	88.44
508.588	85.44
508.805	78.44
509.021	93.44
509.238	98.44
509.454	82.44
509.67	87.44
509.887	82.44
510.103	94.44
510.319	101.44
510.536	88.44
510.752	82.44
510.968	88.44
511.184	109.44
511.401	100.44
511.617	97.44
511.833	92.44
512.049	98.44
512.265	87.44
512.481	88.44
512.698	73.44
512.914	84.44
513.13	88.44
513.346	82.44
513.562	93.44
513.778	98.44
513.994	92.44
514.21	93.44
514.426	93.44
514.642	94.44
514.858	96.44
515.074	92.44
515.29	89.44
515.506	89.44
515.721	103.44
515.937	91.44
516.153	87.44
516.369	98.44
516.585	112.44
516.801	77.44
517.016	97.44
517.232	93.44
517.448	98.44
517.664	98.44
517.879	87.44
518.095	98.44
518.311	90.44
518.527	100.44
518.742	93.44
