Data from Ni(NO3)2@0.5M.TitratingCurve.Agarose3%dH2O.NegLispCup.LampEnergy10.LIBS07252019_HRD10591_17-57-29-564.txt Node
Date: Thu Jul 25 17:57:29 EDT 2019
User: cochatt
Spectrometer: HR+D1059
Trigger mode: 1
Integration Time (sec): 1.000000E-1
Scans to average: 1
Electric dark correction enabled: true
Nonlinearity correction enabled: false
Boxcar width: 0
XAxis mode: Wavelengths
Number of Pixels in Spectrum: 2048
>>>>>Begin Spectral Data<<<<<
223.165	-34.44
223.4	-34.44
223.635	-34.44
223.869	-19.44
224.104	-20.44
224.338	-13.44
224.573	-14.44
224.808	-20.44
225.042	2.56
225.277	-0.44
225.511	3.56
225.746	1.56
225.98	-7.44
226.215	10.56
226.449	18.56
226.683	23.56
226.918	34.56
227.152	35.56
227.387	41.56
227.621	31.56
227.856	42.56
228.09	47.56
228.324	58.56
228.559	62.56
228.793	60.56
229.027	83.56
229.262	96.56
229.496	103.56
229.73	105.56
229.964	101.56
230.199	104.56
230.433	108.56
230.667	118.56
230.901	119.56
231.136	108.56
231.37	129.56
231.604	113.56
231.838	109.56
232.072	110.56
232.306	114.56
232.541	124.56
232.775	125.56
233.009	121.56
233.243	126.56
233.477	122.56
233.711	122.56
233.945	109.56
234.179	127.56
234.413	105.56
234.647	104.56
234.881	122.56
235.115	131.56
235.349	123.56
235.583	112.56
235.817	127.56
236.051	123.56
236.285	114.56
236.519	117.56
236.753	113.56
236.987	135.56
237.221	109.56
237.455	118.56
237.689	115.56
237.922	117.56
238.156	125.56
238.39	133.56
238.624	135.56
238.858	130.56
239.091	139.56
239.325	139.56
239.559	136.56
239.793	153.56
240.027	142.56
240.26	137.56
240.494	121.56
240.728	140.56
240.961	130.56
241.195	141.56
241.429	137.56
241.662	155.56
241.896	130.56
242.13	160.56
242.363	140.56
242.597	135.56
242.83	122.56
243.064	129.56
243.298	153.56
243.531	146.56
243.765	137.56
243.998	165.56
244.232	157.56
244.465	160.56
244.699	153.56
244.932	163.56
245.166	167.56
245.399	185.56
245.633	162.56
245.866	162.56
246.099	149.56
246.333	159.56
246.566	171.56
246.8	151.56
247.033	171.56
247.266	162.56
247.5	168.56
247.733	166.56
247.966	166.56
248.2	166.56
248.433	174.56
248.666	172.56
248.899	162.56
249.133	173.56
249.366	190.56
249.599	176.56
249.832	184.56
250.066	186.56
250.299	191.56
250.532	177.56
250.765	186.56
250.998	187.56
251.231	194.56
251.465	203.56
251.698	198.56
251.931	176.56
252.164	197.56
252.397	197.56
252.63	203.56
252.863	200.56
253.096	201.56
253.329	203.56
253.562	200.56
253.795	215.56
254.028	211.56
254.261	194.56
254.494	208.56
254.727	203.56
254.96	209.56
255.193	207.56
255.426	221.56
255.659	205.56
255.892	218.56
256.124	222.56
256.357	220.56
256.59	223.56
256.823	233.56
257.056	219.56
257.289	229.56
257.521	217.56
257.754	241.56
257.987	228.56
258.22	237.56
258.452	226.56
258.685	238.56
258.918	234.56
259.151	247.56
259.383	236.56
259.616	233.56
259.849	243.56
260.081	235.56
260.314	241.56
260.547	242.56
260.779	248.56
261.012	267.56
261.244	254.56
261.477	242.56
261.71	234.56
261.942	249.56
262.175	267.56
262.407	267.56
262.64	242.56
262.872	250.56
263.105	233.56
263.337	259.56
263.57	261.56
263.802	247.56
264.035	258.56
264.267	265.56
264.499	248.56
264.732	259.56
264.964	264.56
265.197	264.56
265.429	268.56
265.661	273.56
265.894	260.56
266.126	279.56
266.358	276.56
266.591	274.56
266.823	261.56
267.055	268.56
267.287	286.56
267.52	259.56
267.752	285.56
267.984	268.56
268.216	274.56
268.448	285.56
268.681	285.56
268.913	282.56
269.145	268.56
269.377	261.56
269.609	264.56
269.841	294.56
270.073	293.56
270.306	301.56
270.538	300.56
270.77	283.56
271.002	282.56
271.234	287.56
271.466	259.56
271.698	302.56
271.93	299.56
272.162	304.56
272.394	296.56
272.626	300.56
272.858	299.56
273.09	295.56
273.322	288.56
273.553	305.56
273.785	307.56
274.017	322.56
274.249	306.56
274.481	298.56
274.713	301.56
274.945	319.56
275.176	296.56
275.408	292.56
275.64	296.56
275.872	308.56
276.104	315.56
276.335	307.56
276.567	322.56
276.799	320.56
277.031	304.56
277.262	301.56
277.494	319.56
277.726	302.56
277.957	331.56
278.189	314.56
278.421	316.56
278.652	336.56
278.884	312.56
279.115	321.56
279.347	331.56
279.579	309.56
279.81	328.56
280.042	311.56
280.273	313.56
280.505	313.56
280.736	343.56
280.968	329.56
281.199	311.56
281.431	324.56
281.662	327.56
281.894	345.56
282.125	330.56
282.356	338.56
282.588	337.56
282.819	331.56
283.051	328.56
283.282	329.56
283.513	314.56
283.745	323.56
283.976	325.56
284.207	334.56
284.439	327.56
284.67	346.56
284.901	354.56
285.132	335.56
285.364	327.56
285.595	339.56
285.826	317.56
286.057	342.56
286.288	338.56
286.52	360.56
286.751	326.56
286.982	338.56
287.213	350.56
287.444	361.56
287.675	341.56
287.906	352.56
288.138	354.56
288.369	343.56
288.6	349.56
288.831	362.56
289.062	357.56
289.293	360.56
289.524	364.56
289.755	354.56
289.986	360.56
290.217	351.56
290.448	350.56
290.679	360.56
290.91	353.56
291.141	367.56
291.371	362.56
291.602	350.56
291.833	362.56
292.064	349.56
292.295	347.56
292.526	345.56
292.757	349.56
292.987	335.56
293.218	339.56
293.449	351.56
293.68	358.56
293.91	365.56
294.141	367.56
294.372	371.56
294.603	365.56
294.833	371.56
295.064	360.56
295.295	358.56
295.525	367.56
295.756	359.56
295.987	357.56
296.217	370.56
296.448	365.56
296.679	367.56
296.909	367.56
297.14	368.56
297.37	376.56
297.601	374.56
297.831	362.56
298.062	379.56
298.292	371.56
298.523	391.56
298.753	369.56
298.984	376.56
299.214	367.56
299.445	389.56
299.675	386.56
299.905	377.56
300.136	381.56
300.366	406.56
300.597	393.56
300.827	380.56
301.057	403.56
301.288	400.56
301.518	402.56
301.748	411.56
301.979	397.56
302.209	386.56
302.439	389.56
302.669	395.56
302.9	392.56
303.13	403.56
303.36	415.56
303.59	403.56
303.82	404.56
304.051	425.56
304.281	395.56
304.511	401.56
304.741	393.56
304.971	381.56
305.201	447.56
305.431	412.56
305.661	428.56
305.891	416.56
306.121	408.56
306.352	404.56
306.582	417.56
306.812	416.56
307.042	414.56
307.272	405.56
307.502	403.56
307.731	403.56
307.961	413.56
308.191	407.56
308.421	408.56
308.651	411.56
308.881	415.56
309.111	426.56
309.341	382.56
309.571	408.56
309.8	424.56
310.03	426.56
310.26	407.56
310.49	410.56
310.72	417.56
310.949	433.56
311.179	432.56
311.409	429.56
311.639	429.56
311.868	433.56
312.098	440.56
312.328	430.56
312.557	443.56
312.787	443.56
313.017	437.56
313.246	443.56
313.476	425.56
313.706	453.56
313.935	447.56
314.165	447.56
314.394	445.56
314.624	441.56
314.853	450.56
315.083	453.56
315.312	451.56
315.542	460.56
315.771	455.56
316.001	456.56
316.23	446.56
316.46	462.56
316.689	464.56
316.919	477.56
317.148	481.56
317.377	469.56
317.607	464.56
317.836	465.56
318.065	467.56
318.295	457.56
318.524	478.56
318.753	467.56
318.983	461.56
319.212	485.56
319.441	458.56
319.67	499.56
319.9	491.56
320.129	476.56
320.358	496.56
320.587	475.56
320.816	499.56
321.046	476.56
321.275	494.56
321.504	509.56
321.733	485.56
321.962	520.56
322.191	506.56
322.42	487.56
322.649	531.56
322.878	507.56
323.108	509.56
323.337	508.56
323.566	529.56
323.795	519.56
324.024	507.56
324.253	503.56
324.482	502.56
324.71	530.56
324.939	527.56
325.168	532.56
325.397	513.56
325.626	530.56
325.855	545.56
326.084	508.56
326.313	506.56
326.542	517.56
326.77	521.56
326.999	540.56
327.228	496.56
327.457	521.56
327.686	513.56
327.914	526.56
328.143	537.56
328.372	539.56
328.6	530.56
328.829	530.56
329.058	525.56
329.287	549.56
329.515	545.56
329.744	562.56
329.972	533.56
330.201	525.56
330.43	558.56
330.658	532.56
330.887	543.56
331.115	537.56
331.344	561.56
331.572	570.56
331.801	562.56
332.03	552.56
332.258	608.56
332.486	571.56
332.715	576.56
332.943	593.56
333.172	536.56
333.4	589.56
333.629	598.56
333.857	593.56
334.085	605.56
334.314	614.56
334.542	593.56
334.771	601.56
334.999	608.56
335.227	583.56
335.455	601.56
335.684	605.56
335.912	607.56
336.14	619.56
336.369	595.56
336.597	601.56
336.825	595.56
337.053	595.56
337.281	616.56
337.51	614.56
337.738	611.56
337.966	594.56
338.194	586.56
338.422	588.56
338.65	584.56
338.878	598.56
339.106	589.56
339.334	607.56
339.562	562.56
339.79	592.56
340.018	589.56
340.246	579.56
340.474	579.56
340.702	567.56
340.93	578.56
341.158	594.56
341.386	575.56
341.614	592.56
341.842	589.56
342.07	595.56
342.298	591.56
342.526	593.56
342.754	591.56
342.981	590.56
343.209	591.56
343.437	619.56
343.665	605.56
343.893	631.56
344.12	620.56
344.348	583.56
344.576	591.56
344.804	607.56
345.031	568.56
345.259	591.56
345.487	627.56
345.714	597.56
345.942	585.56
346.17	579.56
346.397	588.56
346.625	578.56
346.853	565.56
347.08	565.56
347.308	572.56
347.535	581.56
347.763	594.56
347.99	576.56
348.218	563.56
348.445	565.56
348.673	559.56
348.9	584.56
349.128	573.56
349.355	578.56
349.583	591.56
349.81	587.56
350.037	575.56
350.265	572.56
350.492	557.56
350.72	549.56
350.947	591.56
351.174	601.56
351.402	550.56
351.629	574.56
351.856	588.56
352.083	575.56
352.311	585.56
352.538	595.56
352.765	582.56
352.992	573.56
353.22	566.56
353.447	551.56
353.674	554.56
353.901	577.56
354.128	573.56
354.355	571.56
354.583	546.56
354.81	579.56
355.037	577.56
355.264	542.56
355.491	551.56
355.718	566.56
355.945	551.56
356.172	570.56
356.399	559.56
356.626	573.56
356.853	557.56
357.08	559.56
357.307	555.56
357.534	566.56
357.761	571.56
357.988	560.56
358.215	565.56
358.441	549.56
358.668	549.56
358.895	586.56
359.122	557.56
359.349	551.56
359.576	545.56
359.802	549.56
360.029	549.56
360.256	552.56
360.483	550.56
360.709	566.56
360.936	549.56
361.163	574.56
361.39	588.56
361.616	575.56
361.843	573.56
362.07	573.56
362.296	563.56
362.523	576.56
362.749	574.56
362.976	556.56
363.203	544.56
363.429	550.56
363.656	541.56
363.882	558.56
364.109	561.56
364.335	567.56
364.562	589.56
364.788	561.56
365.015	571.56
365.241	551.56
365.468	554.56
365.694	570.56
365.92	562.56
366.147	567.56
366.373	559.56
366.599	567.56
366.826	570.56
367.052	561.56
367.278	584.56
367.505	562.56
367.731	545.56
367.957	571.56
368.184	566.56
368.41	572.56
368.636	595.56
368.862	576.56
369.089	573.56
369.315	580.56
369.541	578.56
369.767	578.56
369.993	573.56
370.219	561.56
370.445	580.56
370.672	578.56
370.898	591.56
371.124	577.56
371.35	589.56
371.576	585.56
371.802	587.56
372.028	609.56
372.254	573.56
372.48	598.56
372.706	603.56
372.932	584.56
373.158	583.56
373.384	585.56
373.61	579.56
373.835	571.56
374.061	590.56
374.287	593.56
374.513	593.56
374.739	625.56
374.965	579.56
375.191	585.56
375.416	583.56
375.642	564.56
375.868	587.56
376.094	596.56
376.319	571.56
376.545	580.56
376.771	569.56
376.997	569.56
377.222	577.56
377.448	557.56
377.674	590.56
377.899	558.56
378.125	582.56
378.35	570.56
378.576	559.56
378.802	583.56
379.027	574.56
379.253	543.56
379.478	580.56
379.704	553.56
379.929	558.56
380.155	568.56
380.38	581.56
380.606	592.56
380.831	587.56
381.057	585.56
381.282	562.56
381.507	553.56
381.733	583.56
381.958	570.56
382.184	547.56
382.409	591.56
382.634	567.56
382.86	559.56
383.085	562.56
383.31	573.56
383.535	569.56
383.761	579.56
383.986	574.56
384.211	590.56
384.436	607.56
384.662	575.56
384.887	591.56
385.112	606.56
385.337	598.56
385.562	617.56
385.787	587.56
386.013	593.56
386.238	610.56
386.463	599.56
386.688	595.56
386.913	599.56
387.138	607.56
387.363	606.56
387.588	624.56
387.813	617.56
388.038	576.56
388.263	607.56
388.488	618.56
388.713	613.56
388.938	609.56
389.163	615.56
389.387	621.56
389.612	629.56
389.837	607.56
390.062	615.56
390.287	611.56
390.512	603.56
390.736	631.56
390.961	622.56
391.186	624.56
391.411	620.56
391.636	601.56
391.86	627.56
392.085	629.56
392.31	639.56
392.534	600.56
392.759	609.56
392.984	631.56
393.208	629.56
393.433	636.56
393.658	621.56
393.882	629.56
394.107	645.56
394.331	614.56
394.556	607.56
394.78	638.56
395.005	631.56
395.229	622.56
395.454	629.56
395.678	641.56
395.903	633.56
396.127	641.56
396.352	641.56
396.576	638.56
396.801	614.56
397.025	623.56
397.249	651.56
397.474	649.56
397.698	642.56
397.922	633.56
398.147	617.56
398.371	670.56
398.595	677.56
398.82	641.56
399.044	661.56
399.268	687.56
399.492	706.56
399.717	725.56
399.941	738.56
400.165	711.56
400.389	713.56
400.613	696.56
400.837	663.56
401.062	667.56
401.286	683.56
401.51	676.56
401.734	687.56
401.958	689.56
402.182	673.56
402.406	706.56
402.63	667.56
402.854	687.56
403.078	642.56
403.302	681.56
403.526	713.56
403.75	683.56
403.974	694.56
404.198	681.56
404.422	703.56
404.645	698.56
404.869	681.56
405.093	691.56
405.317	698.56
405.541	696.56
405.765	711.56
405.988	687.56
406.212	701.56
406.436	706.56
406.66	713.56
406.883	717.56
407.107	713.56
407.331	741.56
407.555	741.56
407.778	734.56
408.002	753.56
408.226	727.56
408.449	708.56
408.673	750.56
408.896	707.56
409.12	749.56
409.344	730.56
409.567	731.56
409.791	720.56
410.014	732.56
410.238	732.56
410.461	730.56
410.685	714.56
410.908	705.56
411.132	712.56
411.355	699.56
411.578	713.56
411.802	704.56
412.025	689.56
412.249	710.56
412.472	693.56
412.695	688.56
412.919	681.56
413.142	683.56
413.365	701.56
413.589	693.56
413.812	694.56
414.035	685.56
414.258	709.56
414.482	696.56
414.705	691.56
414.928	689.56
415.151	694.56
415.374	679.56
415.597	705.56
415.821	695.56
416.044	674.56
416.267	693.56
416.49	670.56
416.713	679.56
416.936	677.56
417.159	690.56
417.382	680.56
417.605	674.56
417.828	679.56
418.051	668.56
418.274	684.56
418.497	651.56
418.72	689.56
418.943	696.56
419.166	715.56
419.389	743.56
419.611	749.56
419.834	722.56
420.057	672.56
420.28	695.56
420.503	670.56
420.726	649.56
420.948	667.56
421.171	650.56
421.394	679.56
421.617	661.56
421.839	653.56
422.062	670.56
422.285	654.56
422.507	672.56
422.73	658.56
422.953	651.56
423.175	666.56
423.398	659.56
423.621	679.56
423.843	683.56
424.066	667.56
424.288	683.56
424.511	679.56
424.733	665.56
424.956	661.56
425.178	689.56
425.401	685.56
425.623	695.56
425.846	682.56
426.068	671.56
426.291	655.56
426.513	682.56
426.735	659.56
426.958	658.56
427.18	642.56
427.402	669.56
427.625	663.56
427.847	656.56
428.069	671.56
428.292	677.56
428.514	641.56
428.736	661.56
428.958	682.56
429.181	627.56
429.403	649.56
429.625	653.56
429.847	669.56
430.069	668.56
430.292	686.56
430.514	672.56
430.736	642.56
430.958	659.56
431.18	643.56
431.402	668.56
431.624	657.56
431.846	636.56
432.068	636.56
432.29	659.56
432.512	653.56
432.734	662.56
432.956	659.56
433.178	675.56
433.4	663.56
433.622	671.56
433.844	671.56
434.066	652.56
434.287	662.56
434.509	663.56
434.731	654.56
434.953	679.56
435.175	698.56
435.397	664.56
435.618	660.56
435.84	658.56
436.062	669.56
436.284	671.56
436.505	672.56
436.727	677.56
436.949	685.56
437.17	671.56
437.392	669.56
437.614	655.56
437.835	627.56
438.057	618.56
438.278	651.56
438.5	651.56
438.721	661.56
438.943	663.56
439.165	650.56
439.386	661.56
439.608	684.56
439.829	682.56
440.05	668.56
440.272	698.56
440.493	706.56
440.715	661.56
440.936	673.56
441.158	687.56
441.379	666.56
441.6	713.56
441.822	708.56
442.043	708.56
442.264	710.56
442.486	678.56
442.707	687.56
442.928	682.56
443.149	665.56
443.371	699.56
443.592	718.56
443.813	702.56
444.034	704.56
444.255	699.56
444.476	692.56
444.698	693.56
444.919	718.56
445.14	835.56
445.361	767.56
445.582	714.56
445.803	678.56
446.024	706.56
446.245	704.56
446.466	687.56
446.687	691.56
446.908	669.56
447.129	660.56
447.35	664.56
447.571	659.56
447.792	641.56
448.013	662.56
448.234	641.56
448.455	644.56
448.675	648.56
448.896	633.56
449.117	624.56
449.338	633.56
449.559	637.56
449.779	664.56
450	652.56
450.221	618.56
450.442	643.56
450.662	624.56
450.883	635.56
451.104	619.56
451.324	635.56
451.545	605.56
451.766	637.56
451.986	600.56
452.207	607.56
452.428	642.56
452.648	610.56
452.869	632.56
453.089	613.56
453.31	622.56
453.53	609.56
453.751	599.56
453.971	623.56
454.192	601.56
454.412	619.56
454.633	599.56
454.853	623.56
455.073	594.56
455.294	637.56
455.514	607.56
455.734	617.56
455.955	602.56
456.175	591.56
456.395	593.56
456.616	595.56
456.836	607.56
457.056	590.56
457.276	606.56
457.497	598.56
457.717	595.56
457.937	593.56
458.157	600.56
458.377	615.56
458.598	610.56
458.818	626.56
459.038	630.56
459.258	634.56
459.478	648.56
459.698	651.56
459.918	646.56
460.138	655.56
460.358	663.56
460.578	669.56
460.798	669.56
461.018	698.56
461.238	665.56
461.458	667.56
461.678	665.56
461.898	659.56
462.118	691.56
462.338	687.56
462.558	721.56
462.777	706.56
462.997	732.56
463.217	709.56
463.437	738.56
463.657	733.56
463.876	703.56
464.096	695.56
464.316	716.56
464.536	706.56
464.755	681.56
464.975	704.56
465.195	666.56
465.414	674.56
465.634	675.56
465.854	655.56
466.073	659.56
466.293	647.56
466.512	654.56
466.732	649.56
466.951	661.56
467.171	645.56
467.391	659.56
467.61	640.56
467.829	639.56
468.049	642.56
468.268	630.56
468.488	636.56
468.707	653.56
468.927	654.56
469.146	635.56
469.365	674.56
469.585	643.56
469.804	642.56
470.023	660.56
470.243	646.56
470.462	657.56
470.681	671.56
470.901	664.56
471.12	651.56
471.339	672.56
471.558	677.56
471.777	679.56
471.997	642.56
472.216	679.56
472.435	622.56
472.654	629.56
472.873	651.56
473.092	662.56
473.311	645.56
473.53	675.56
473.749	653.56
473.968	675.56
474.187	658.56
474.406	665.56
474.625	664.56
474.844	655.56
475.063	673.56
475.282	683.56
475.501	657.56
475.72	646.56
475.939	663.56
476.158	668.56
476.377	683.56
476.596	678.56
476.814	667.56
477.033	699.56
477.252	677.56
477.471	695.56
477.69	718.56
477.908	691.56
478.127	735.56
478.346	722.56
478.564	726.56
478.783	735.56
479.002	748.56
479.22	764.56
479.439	753.56
479.658	732.56
479.876	742.56
480.095	723.56
480.313	743.56
480.532	750.56
480.751	729.56
480.969	749.56
481.188	748.56
481.406	755.56
481.624	719.56
481.843	734.56
482.061	734.56
482.28	722.56
482.498	769.56
482.717	743.56
482.935	763.56
483.153	778.56
483.372	763.56
483.59	783.56
483.808	752.56
484.027	748.56
484.245	763.56
484.463	781.56
484.681	785.56
484.9	769.56
485.118	776.56
485.336	773.56
485.554	747.56
485.772	745.56
485.99	774.56
486.209	779.56
486.427	753.56
486.645	761.56
486.863	772.56
487.081	775.56
487.299	812.56
487.517	779.56
487.735	794.56
487.953	815.56
488.171	799.56
488.389	831.56
488.607	812.56
488.825	793.56
489.043	757.56
489.261	764.56
489.479	793.56
489.696	770.56
489.914	775.56
490.132	781.56
490.35	770.56
490.568	815.56
490.786	793.56
491.003	826.56
491.221	808.56
491.439	829.56
491.657	825.56
491.874	841.56
492.092	866.56
492.31	843.56
492.527	845.56
492.745	854.56
492.963	860.56
493.18	818.56
493.398	832.56
493.615	822.56
493.833	827.56
494.05	834.56
494.268	818.56
494.485	823.56
494.703	833.56
494.92	843.56
495.138	843.56
495.355	841.56
495.573	861.56
495.79	834.56
496.008	854.56
496.225	838.56
496.442	842.56
496.66	874.56
496.877	890.56
497.094	868.56
497.312	838.56
497.529	871.56
497.746	882.56
497.963	870.56
498.181	876.56
498.398	880.56
498.615	912.56
498.832	949.56
499.049	912.56
499.267	937.56
499.484	963.56
499.701	1013.56
499.918	1023.56
500.135	1071.56
500.352	1103.56
500.569	1127.56
500.786	1116.56
501.003	1103.56
501.22	1077.56
501.437	1047.56
