Data from Ni(NO3)2@0.5M.TitratingCurve.Agarose3%dH2O.NegLispCup.LampEnergy10.LIBS07252019_HRD10591_18-00-18-564.txt Node
Date: Thu Jul 25 18:00:18 EDT 2019
User: cochatt
Spectrometer: HR+D1059
Trigger mode: 1
Integration Time (sec): 1.000000E-1
Scans to average: 1
Electric dark correction enabled: true
Nonlinearity correction enabled: false
Boxcar width: 0
XAxis mode: Wavelengths
Number of Pixels in Spectrum: 2048
>>>>>Begin Spectral Data<<<<<
223.165	2.5
223.4	2.5
223.635	2.5
223.869	-1.5
224.104	-18.5
224.338	-15.5
224.573	-23.5
224.808	-20.5
225.042	-9.5
225.277	-5.5
225.511	-2.5
225.746	-4.5
225.98	13.5
226.215	-4.5
226.449	25.5
226.683	13.5
226.918	17.5
227.152	33.5
227.387	34.5
227.621	43.5
227.856	47.5
228.09	41.5
228.324	42.5
228.559	39.5
228.793	97.5
229.027	143.5
229.262	148.5
229.496	178.5
229.73	186.5
229.964	213.5
230.199	226.5
230.433	234.5
230.667	227.5
230.901	217.5
231.136	202.5
231.37	207.5
231.604	198.5
231.838	234.5
232.072	231.5
232.306	241.5
232.541	226.5
232.775	219.5
233.009	198.5
233.243	212.5
233.477	204.5
233.711	219.5
233.945	212.5
234.179	210.5
234.413	217.5
234.647	228.5
234.881	229.5
235.115	235.5
235.349	211.5
235.583	219.5
235.817	223.5
236.051	211.5
236.285	214.5
236.519	206.5
236.753	222.5
236.987	209.5
237.221	224.5
237.455	246.5
237.689	220.5
237.922	239.5
238.156	234.5
238.39	230.5
238.624	235.5
238.858	246.5
239.091	250.5
239.325	255.5
239.559	260.5
239.793	288.5
240.027	312.5
240.26	280.5
240.494	264.5
240.728	281.5
240.961	256.5
241.195	270.5
241.429	270.5
241.662	286.5
241.896	300.5
242.13	317.5
242.363	282.5
242.597	280.5
242.83	276.5
243.064	295.5
243.298	294.5
243.531	308.5
243.765	306.5
243.998	308.5
244.232	323.5
244.465	318.5
244.699	323.5
244.932	298.5
245.166	299.5
245.399	330.5
245.633	324.5
245.866	324.5
246.099	336.5
246.333	340.5
246.566	342.5
246.8	334.5
247.033	326.5
247.266	330.5
247.5	344.5
247.733	359.5
247.966	352.5
248.2	355.5
248.433	366.5
248.666	374.5
248.899	375.5
249.133	354.5
249.366	386.5
249.599	355.5
249.832	375.5
250.066	354.5
250.299	370.5
250.532	374.5
250.765	382.5
250.998	386.5
251.231	411.5
251.465	422.5
251.698	427.5
251.931	412.5
252.164	419.5
252.397	412.5
252.63	414.5
252.863	423.5
253.096	414.5
253.329	405.5
253.562	412.5
253.795	405.5
254.028	418.5
254.261	438.5
254.494	429.5
254.727	428.5
254.96	449.5
255.193	428.5
255.426	443.5
255.659	455.5
255.892	432.5
256.124	454.5
256.357	468.5
256.59	454.5
256.823	484.5
257.056	467.5
257.289	478.5
257.521	475.5
257.754	474.5
257.987	487.5
258.22	479.5
258.452	480.5
258.685	498.5
258.918	532.5
259.151	506.5
259.383	491.5
259.616	490.5
259.849	521.5
260.081	501.5
260.314	517.5
260.547	514.5
260.779	495.5
261.012	500.5
261.244	530.5
261.477	500.5
261.71	520.5
261.942	506.5
262.175	534.5
262.407	531.5
262.64	522.5
262.872	538.5
263.105	570.5
263.337	555.5
263.57	531.5
263.802	546.5
264.035	539.5
264.267	546.5
264.499	545.5
264.732	553.5
264.964	565.5
265.197	564.5
265.429	560.5
265.661	583.5
265.894	588.5
266.126	586.5
266.358	585.5
266.591	566.5
266.823	589.5
267.055	570.5
267.287	570.5
267.52	555.5
267.752	576.5
267.984	583.5
268.216	586.5
268.448	616.5
268.681	622.5
268.913	582.5
269.145	610.5
269.377	593.5
269.609	598.5
269.841	630.5
270.073	632.5
270.306	610.5
270.538	599.5
270.77	605.5
271.002	630.5
271.234	630.5
271.466	632.5
271.698	650.5
271.93	661.5
272.162	645.5
272.394	638.5
272.626	672.5
272.858	645.5
273.09	660.5
273.322	666.5
273.553	670.5
273.785	657.5
274.017	676.5
274.249	697.5
274.481	664.5
274.713	677.5
274.945	680.5
275.176	663.5
275.408	682.5
275.64	662.5
275.872	687.5
276.104	690.5
276.335	702.5
276.567	696.5
276.799	707.5
277.031	716.5
277.262	732.5
277.494	709.5
277.726	744.5
277.957	708.5
278.189	733.5
278.421	716.5
278.652	734.5
278.884	731.5
279.115	712.5
279.347	731.5
279.579	738.5
279.81	721.5
280.042	722.5
280.273	748.5
280.505	750.5
280.736	772.5
280.968	765.5
281.199	739.5
281.431	742.5
281.662	768.5
281.894	767.5
282.125	742.5
282.356	778.5
282.588	770.5
282.819	776.5
283.051	794.5
283.282	776.5
283.513	794.5
283.745	789.5
283.976	762.5
284.207	794.5
284.439	820.5
284.67	808.5
284.901	805.5
285.132	795.5
285.364	794.5
285.595	806.5
285.826	812.5
286.057	823.5
286.288	802.5
286.52	828.5
286.751	856.5
286.982	840.5
287.213	830.5
287.444	820.5
287.675	848.5
287.906	835.5
288.138	853.5
288.369	834.5
288.6	862.5
288.831	862.5
289.062	854.5
289.293	829.5
289.524	840.5
289.755	843.5
289.986	880.5
290.217	869.5
290.448	848.5
290.679	853.5
290.91	857.5
291.141	862.5
291.371	877.5
291.602	854.5
291.833	888.5
292.064	889.5
292.295	855.5
292.526	874.5
292.757	845.5
292.987	838.5
293.218	836.5
293.449	868.5
293.68	882.5
293.91	875.5
294.141	866.5
294.372	860.5
294.603	874.5
294.833	870.5
295.064	891.5
295.295	879.5
295.525	886.5
295.756	878.5
295.987	883.5
296.217	882.5
296.448	873.5
296.679	898.5
296.909	871.5
297.14	926.5
297.37	934.5
297.601	919.5
297.831	908.5
298.062	919.5
298.292	916.5
298.523	953.5
298.753	920.5
298.984	939.5
299.214	939.5
299.445	977.5
299.675	935.5
299.905	943.5
300.136	932.5
300.366	980.5
300.597	1015.5
300.827	983.5
301.057	973.5
301.288	1003.5
301.518	1011.5
301.748	978.5
301.979	1012.5
302.209	973.5
302.439	1005.5
302.669	989.5
302.9	1001.5
303.13	1015.5
303.36	996.5
303.59	993.5
303.82	1039.5
304.051	994.5
304.281	1015.5
304.511	1004.5
304.741	1032.5
304.971	1010.5
305.201	1021.5
305.431	1055.5
305.661	1065.5
305.891	1055.5
306.121	1013.5
306.352	996.5
306.582	992.5
306.812	1014.5
307.042	1001.5
307.272	981.5
307.502	983.5
307.731	980.5
307.961	1006.5
308.191	1021.5
308.421	999.5
308.651	1004.5
308.881	1000.5
309.111	995.5
309.341	989.5
309.571	1015.5
309.8	1017.5
310.03	1045.5
310.26	1060.5
310.49	1074.5
310.72	1049.5
310.949	1037.5
311.179	1043.5
311.409	1014.5
311.639	1059.5
311.868	1046.5
312.098	1059.5
312.328	1013.5
312.557	1079.5
312.787	1060.5
313.017	1070.5
313.246	1075.5
313.476	1098.5
313.706	1097.5
313.935	1096.5
314.165	1109.5
314.394	1097.5
314.624	1098.5
314.853	1082.5
315.083	1083.5
315.312	1109.5
315.542	1088.5
315.771	1091.5
316.001	1095.5
316.23	1111.5
316.46	1102.5
316.689	1118.5
316.919	1123.5
317.148	1124.5
317.377	1099.5
317.607	1110.5
317.836	1092.5
318.065	1119.5
318.295	1120.5
318.524	1124.5
318.753	1105.5
318.983	1127.5
319.212	1087.5
319.441	1118.5
319.67	1100.5
319.9	1122.5
320.129	1127.5
320.358	1109.5
320.587	1106.5
320.816	1135.5
321.046	1138.5
321.275	1120.5
321.504	1143.5
321.733	1146.5
321.962	1158.5
322.191	1143.5
322.42	1156.5
322.649	1158.5
322.878	1141.5
323.108	1182.5
323.337	1153.5
323.566	1195.5
323.795	1213.5
324.024	1168.5
324.253	1192.5
324.482	1195.5
324.71	1210.5
324.939	1180.5
325.168	1213.5
325.397	1194.5
325.626	1164.5
325.855	1210.5
326.084	1220.5
326.313	1215.5
326.542	1216.5
326.77	1235.5
326.999	1232.5
327.228	1228.5
327.457	1195.5
327.686	1225.5
327.914	1267.5
328.143	1271.5
328.372	1218.5
328.6	1212.5
328.829	1244.5
329.058	1221.5
329.287	1237.5
329.515	1221.5
329.744	1235.5
329.972	1247.5
330.201	1232.5
330.43	1276.5
330.658	1260.5
330.887	1273.5
331.115	1266.5
331.344	1280.5
331.572	1295.5
331.801	1331.5
332.03	1340.5
332.258	1365.5
332.486	1355.5
332.715	1351.5
332.943	1379.5
333.172	1398.5
333.4	1440.5
333.629	1445.5
333.857	1472.5
334.085	1492.5
334.314	1494.5
334.542	1487.5
334.771	1469.5
334.999	1479.5
335.227	1523.5
335.455	1524.5
335.684	1540.5
335.912	1490.5
336.14	1493.5
336.369	1487.5
336.597	1479.5
336.825	1495.5
337.053	1540.5
337.281	1471.5
337.51	1442.5
337.738	1484.5
337.966	1433.5
338.194	1458.5
338.422	1424.5
338.65	1392.5
338.878	1426.5
339.106	1416.5
339.334	1416.5
339.562	1422.5
339.79	1403.5
340.018	1364.5
340.246	1345.5
340.474	1363.5
340.702	1374.5
340.93	1318.5
341.158	1370.5
341.386	1364.5
341.614	1490.5
341.842	1416.5
342.07	1341.5
342.298	1354.5
342.526	1372.5
342.754	1371.5
342.981	1365.5
343.209	1369.5
343.437	1397.5
343.665	1476.5
343.893	1427.5
344.12	1487.5
344.348	1462.5
344.576	1465.5
344.804	1484.5
345.031	1419.5
345.259	1419.5
345.487	1352.5
345.714	1368.5
345.942	1406.5
346.17	1367.5
346.397	1360.5
346.625	1319.5
346.853	1316.5
347.08	1284.5
347.308	1279.5
347.535	1295.5
347.763	1281.5
347.99	1279.5
348.218	1269.5
348.445	1274.5
348.673	1271.5
348.9	1290.5
349.128	1294.5
349.355	1317.5
349.583	1326.5
349.81	1268.5
350.037	1284.5
350.265	1244.5
350.492	1263.5
350.72	1280.5
350.947	1287.5
351.174	1328.5
351.402	1337.5
351.629	1342.5
351.856	1296.5
352.083	1300.5
352.311	1318.5
352.538	1328.5
352.765	1340.5
352.992	1265.5
353.22	1199.5
353.447	1213.5
353.674	1237.5
353.901	1230.5
354.128	1207.5
354.355	1254.5
354.583	1212.5
354.81	1232.5
355.037	1228.5
355.264	1221.5
355.491	1194.5
355.718	1203.5
355.945	1259.5
356.172	1257.5
356.399	1243.5
356.626	1304.5
356.853	1276.5
357.08	1274.5
357.307	1256.5
357.534	1258.5
357.761	1234.5
357.988	1259.5
358.215	1247.5
358.441	1256.5
358.668	1232.5
358.895	1240.5
359.122	1269.5
359.349	1227.5
359.576	1216.5
359.802	1260.5
360.029	1271.5
360.256	1269.5
360.483	1245.5
360.709	1270.5
360.936	1253.5
361.163	1259.5
361.39	1267.5
361.616	1266.5
361.843	1256.5
362.07	1336.5
362.296	1347.5
362.523	1235.5
362.749	1226.5
362.976	1278.5
363.203	1261.5
363.429	1198.5
363.656	1226.5
363.882	1243.5
364.109	1236.5
364.335	1259.5
364.562	1267.5
364.788	1258.5
365.015	1243.5
365.241	1237.5
365.468	1251.5
365.694	1274.5
365.92	1245.5
366.147	1255.5
366.373	1263.5
366.599	1280.5
366.826	1271.5
367.052	1231.5
367.278	1282.5
367.505	1274.5
367.731	1272.5
367.957	1287.5
368.184	1294.5
368.41	1249.5
368.636	1252.5
368.862	1302.5
369.089	1332.5
369.315	1316.5
369.541	1305.5
369.767	1317.5
369.993	1301.5
370.219	1276.5
370.445	1282.5
370.672	1310.5
370.898	1327.5
371.124	1345.5
371.35	1352.5
371.576	1340.5
371.802	1359.5
372.028	1344.5
372.254	1353.5
372.48	1362.5
372.706	1370.5
372.932	1381.5
373.158	1359.5
373.384	1387.5
373.61	1329.5
373.835	1367.5
374.061	1343.5
374.287	1377.5
374.513	1363.5
374.739	1406.5
374.965	1396.5
375.191	1438.5
375.416	1406.5
375.642	1408.5
375.868	1407.5
376.094	1402.5
376.319	1386.5
376.545	1396.5
376.771	1310.5
376.997	1339.5
377.222	1356.5
377.448	1333.5
377.674	1366.5
377.899	1355.5
378.125	1334.5
378.35	1324.5
378.576	1346.5
378.802	1335.5
379.027	1316.5
379.253	1325.5
379.478	1340.5
379.704	1352.5
379.929	1305.5
380.155	1340.5
380.38	1340.5
380.606	1318.5
380.831	1336.5
381.057	1358.5
381.282	1342.5
381.507	1316.5
381.733	1351.5
381.958	1362.5
382.184	1359.5
382.409	1388.5
382.634	1359.5
382.86	1408.5
383.085	1407.5
383.31	1423.5
383.535	1438.5
383.761	1406.5
383.986	1408.5
384.211	1478.5
384.436	1490.5
384.662	1463.5
384.887	1437.5
385.112	1520.5
385.337	1513.5
385.562	1510.5
385.787	1512.5
386.013	1569.5
386.238	1569.5
386.463	1531.5
386.688	1546.5
386.913	1503.5
387.138	1546.5
387.363	1562.5
387.588	1557.5
387.813	1596.5
388.038	1624.5
388.263	1582.5
388.488	1582.5
388.713	1580.5
388.938	1566.5
389.163	1552.5
389.387	1559.5
389.612	1562.5
389.837	1572.5
390.062	1551.5
390.287	1592.5
390.512	1568.5
390.736	1586.5
390.961	1597.5
391.186	1568.5
391.411	1645.5
391.636	1659.5
391.86	1679.5
392.085	1700.5
392.31	1681.5
392.534	1706.5
392.759	1691.5
392.984	1658.5
393.208	1660.5
393.433	1653.5
393.658	1673.5
393.882	1680.5
394.107	1654.5
394.331	1659.5
394.556	1668.5
394.78	1676.5
395.005	1681.5
395.229	1653.5
395.454	1680.5
395.678	1734.5
395.903	1701.5
396.127	1705.5
396.352	1694.5
396.576	1690.5
396.801	1683.5
397.025	1763.5
397.249	1734.5
397.474	1778.5
397.698	1781.5
397.922	1812.5
398.147	1791.5
398.371	1824.5
398.595	1859.5
398.82	1915.5
399.044	1980.5
399.268	2062.5
399.492	2206.5
399.717	2267.5
399.941	2282.5
400.165	2250.5
400.389	2174.5
400.613	2070.5
400.837	2064.5
401.062	1981.5
401.286	1946.5
401.51	1901.5
401.734	1910.5
401.958	1932.5
402.182	1905.5
402.406	1900.5
402.63	1942.5
402.854	1944.5
403.078	1927.5
403.302	1945.5
403.526	1929.5
403.75	1916.5
403.974	1989.5
404.198	1903.5
404.422	1924.5
404.645	1970.5
404.869	1933.5
405.093	1978.5
405.317	1955.5
405.541	1980.5
405.765	2009.5
405.988	1987.5
406.212	2023.5
406.436	2042.5
406.66	2140.5
406.883	2078.5
407.107	2161.5
407.331	2180.5
407.555	2279.5
407.778	2277.5
408.002	2219.5
408.226	2178.5
408.449	2201.5
408.673	2166.5
408.896	2125.5
409.12	2098.5
409.344	2120.5
409.567	2059.5
409.791	2085.5
410.014	2026.5
410.238	2050.5
410.461	2068.5
410.685	2048.5
410.908	2032.5
411.132	2030.5
411.355	2020.5
411.578	1986.5
411.802	2003.5
412.025	1944.5
412.249	1976.5
412.472	1998.5
412.695	1974.5
412.919	1934.5
413.142	1949.5
413.365	1960.5
413.589	1923.5
413.812	1922.5
414.035	1926.5
414.258	1882.5
414.482	1918.5
414.705	1951.5
414.928	1890.5
415.151	1962.5
415.374	1928.5
415.597	1893.5
415.821	1888.5
416.044	1878.5
416.267	1850.5
416.49	1828.5
416.713	1858.5
416.936	1855.5
417.159	1823.5
417.382	1794.5
417.605	1819.5
417.828	1811.5
418.051	1847.5
418.274	1854.5
418.497	1795.5
418.72	1851.5
418.943	1796.5
419.166	1933.5
419.389	2040.5
419.611	1998.5
419.834	1885.5
420.057	1902.5
420.28	1858.5
420.503	1798.5
420.726	1799.5
420.948	1783.5
421.171	1799.5
421.394	1804.5
421.617	1806.5
421.839	1830.5
422.062	1791.5
422.285	1767.5
422.507	1845.5
422.73	1817.5
422.953	1773.5
423.175	1784.5
423.398	1831.5
423.621	1802.5
423.843	1826.5
424.066	1823.5
424.288	1812.5
424.511	1792.5
424.733	1781.5
424.956	1748.5
425.178	1776.5
425.401	1772.5
425.623	1819.5
425.846	1797.5
426.068	1770.5
426.291	1779.5
426.513	1741.5
426.735	1768.5
426.958	1760.5
427.18	1690.5
427.402	1792.5
427.625	1747.5
427.847	1742.5
428.069	1722.5
428.292	1716.5
428.514	1722.5
428.736	1728.5
428.958	1740.5
429.181	1699.5
429.403	1692.5
429.625	1720.5
429.847	1684.5
430.069	1678.5
430.292	1700.5
430.514	1663.5
430.736	1704.5
430.958	1724.5
431.18	1707.5
431.402	1721.5
431.624	1698.5
431.846	1719.5
432.068	1719.5
432.29	1711.5
432.512	1753.5
432.734	1707.5
432.956	1726.5
433.178	1752.5
433.4	1829.5
433.622	1806.5
433.844	1787.5
434.066	1767.5
434.287	1815.5
434.509	1786.5
434.731	1786.5
434.953	1846.5
435.175	1851.5
435.397	1879.5
435.618	1807.5
435.84	1765.5
436.062	1721.5
436.284	1720.5
436.505	1677.5
436.727	1728.5
436.949	1673.5
437.17	1687.5
437.392	1703.5
437.614	1667.5
437.835	1626.5
438.057	1652.5
438.278	1639.5
438.5	1660.5
438.721	1613.5
438.943	1680.5
439.165	1625.5
439.386	1659.5
439.608	1670.5
439.829	1694.5
440.05	1662.5
440.272	1688.5
440.493	1709.5
440.715	1735.5
440.936	1736.5
441.158	1736.5
441.379	1797.5
441.6	1832.5
441.822	1783.5
442.043	1818.5
442.264	1783.5
442.486	1786.5
442.707	1757.5
442.928	1789.5
443.149	1764.5
443.371	1808.5
443.592	1887.5
443.813	1834.5
444.034	1800.5
444.255	1871.5
444.476	1883.5
444.698	1940.5
444.919	1940.5
445.14	2063.5
445.361	1973.5
445.582	1871.5
445.803	1785.5
446.024	1757.5
446.245	1732.5
446.466	1747.5
446.687	1693.5
446.908	1679.5
447.129	1623.5
447.35	1670.5
447.571	1592.5
447.792	1590.5
448.013	1602.5
448.234	1597.5
448.455	1544.5
448.675	1546.5
448.896	1503.5
449.117	1527.5
449.338	1527.5
449.559	1533.5
449.779	1579.5
450	1531.5
450.221	1555.5
450.442	1511.5
450.662	1524.5
450.883	1551.5
451.104	1569.5
451.324	1559.5
451.545	1507.5
451.766	1526.5
451.986	1490.5
452.207	1513.5
452.428	1503.5
452.648	1505.5
452.869	1448.5
453.089	1491.5
453.31	1511.5
453.53	1520.5
453.751	1462.5
453.971	1468.5
454.192	1464.5
454.412	1510.5
454.633	1492.5
454.853	1480.5
455.073	1465.5
455.294	1469.5
455.514	1500.5
455.734	1489.5
455.955	1502.5
456.175	1498.5
456.395	1462.5
456.616	1449.5
456.836	1501.5
457.056	1460.5
457.276	1452.5
457.497	1514.5
457.717	1504.5
457.937	1524.5
458.157	1486.5
458.377	1519.5
458.598	1550.5
458.818	1568.5
459.038	1583.5
459.258	1637.5
459.478	1692.5
459.698	1839.5
459.918	1859.5
460.138	1818.5
460.358	1873.5
460.578	1841.5
460.798	1922.5
461.018	1944.5
461.238	1881.5
461.458	1841.5
461.678	1829.5
461.898	1917.5
462.118	1933.5
462.338	1973.5
462.558	1971.5
462.777	2050.5
462.997	2089.5
463.217	2196.5
463.437	2218.5
463.657	2178.5
463.876	2108.5
464.096	2065.5
464.316	2082.5
464.536	2034.5
464.755	2012.5
464.975	1979.5
465.195	1899.5
465.414	1826.5
465.634	1778.5
465.854	1730.5
466.073	1731.5
466.293	1686.5
466.512	1676.5
466.732	1646.5
466.951	1659.5
467.171	1637.5
467.391	1688.5
467.61	1620.5
467.829	1624.5
468.049	1602.5
468.268	1563.5
468.488	1607.5
468.707	1561.5
468.927	1632.5
469.146	1610.5
469.365	1606.5
469.585	1594.5
469.804	1601.5
470.023	1624.5
470.243	1597.5
470.462	1620.5
470.681	1603.5
470.901	1631.5
471.12	1640.5
471.339	1651.5
471.558	1628.5
471.777	1639.5
471.997	1617.5
472.216	1615.5
472.435	1581.5
472.654	1577.5
472.873	1569.5
473.092	1576.5
473.311	1579.5
473.53	1604.5
473.749	1583.5
473.968	1570.5
474.187	1578.5
474.406	1572.5
474.625	1584.5
474.844	1586.5
475.063	1597.5
475.282	1621.5
475.501	1665.5
475.72	1647.5
475.939	1653.5
476.158	1634.5
476.377	1671.5
476.596	1668.5
476.814	1687.5
477.033	1679.5
477.252	1698.5
477.471	1727.5
477.69	1780.5
477.908	1809.5
478.127	1804.5
478.346	1798.5
478.564	1843.5
478.783	1850.5
479.002	1907.5
479.22	1976.5
479.439	1950.5
479.658	1935.5
479.876	1935.5
480.095	1898.5
480.313	1886.5
480.532	2006.5
480.751	1964.5
480.969	1960.5
481.188	1953.5
481.406	1934.5
481.624	1913.5
481.843	1928.5
482.061	1915.5
482.28	1916.5
482.498	1867.5
482.717	1910.5
482.935	1918.5
483.153	1886.5
483.372	1897.5
483.59	1996.5
483.808	1942.5
484.027	1901.5
484.245	1919.5
484.463	1898.5
484.681	1942.5
484.9	1940.5
485.118	1932.5
485.336	1961.5
485.554	1944.5
485.772	1954.5
485.99	1965.5
486.209	1978.5
486.427	1974.5
486.645	2019.5
486.863	1988.5
487.081	1926.5
487.299	1957.5
487.517	1935.5
487.735	2002.5
487.953	1977.5
488.171	1986.5
488.389	1977.5
488.607	1942.5
488.825	1974.5
489.043	1951.5
489.261	1967.5
489.479	1939.5
489.696	1945.5
489.914	1937.5
490.132	1950.5
490.35	1998.5
490.568	1922.5
490.786	1978.5
491.003	1980.5
491.221	1957.5
491.439	1985.5
491.657	1995.5
491.874	1975.5
492.092	1914.5
492.31	2031.5
492.527	2021.5
492.745	2015.5
492.963	1985.5
493.18	2002.5
493.398	2026.5
493.615	1987.5
493.833	2054.5
494.05	2018.5
494.268	2035.5
494.485	1999.5
494.703	2015.5
494.92	2032.5
495.138	2092.5
495.355	2064.5
495.573	2058.5
495.79	2051.5
496.008	2086.5
496.225	2085.5
496.442	2158.5
496.66	2118.5
496.877	2205.5
497.094	2255.5
497.312	2189.5
497.529	2223.5
497.746	2321.5
497.963	2340.5
498.181	2443.5
498.398	2543.5
498.615	2624.5
498.832	2732.5
499.049	2842.5
499.267	2944.5
499.484	3095.5
499.701	3279.5
499.918	3416.5
500.135	3623.5
500.352	3819.5
500.569	3848.5
500.786	3813.5
501.003	3737.5
501.22	3589.5
501.437	3355.5
501.654	3192.5
501.871	3099.5
502.088	2968.5
502.305	2816.5
502.522	2686.5
502.739	2671.5
502.956	2502.5
503.172	2431.5
503.389	2394.5
503.606	2342.5
503.823	2321.5
504.04	2261.5
504.256	2259.5
504.473	2215.5
504.69	2173.5
504.907	2146.5
505.123	2084.5
505.34	2011.5
505.557	1958.5
505.773	1942.5
505.99	1913.5
506.207	1902.5
506.423	1863.5
