Data from Ni(NO3)2@0.125M.TitratingCurve.Agarose3%dH2O.NegLispCup.LampEnergy10.LIBS07252019_HRD10591_18-09-50-568.txt Node
Date: Thu Jul 25 18:09:50 EDT 2019
User: cochatt
Spectrometer: HR+D1059
Trigger mode: 1
Integration Time (sec): 1.000000E-1
Scans to average: 1
Electric dark correction enabled: true
Nonlinearity correction enabled: false
Boxcar width: 0
XAxis mode: Wavelengths
Number of Pixels in Spectrum: 2048
>>>>>Begin Spectral Data<<<<<
223.165	-35.88
223.4	-35.88
223.635	-35.88
223.869	-27.88
224.104	-28.88
224.338	-3.88
224.573	-8.88
224.808	-19.88
225.042	4.12
225.277	-6.88
225.511	3.12
225.746	-2.88
225.98	-0.88
226.215	7.12
226.449	23.12
226.683	40.12
226.918	15.12
227.152	43.12
227.387	33.12
227.621	57.12
227.856	44.12
228.09	43.12
228.324	41.12
228.559	59.12
228.793	76.12
229.027	95.12
229.262	113.12
229.496	116.12
229.73	115.12
229.964	119.12
230.199	115.12
230.433	129.12
230.667	108.12
230.901	122.12
231.136	111.12
231.37	124.12
231.604	131.12
231.838	131.12
232.072	132.12
232.306	127.12
232.541	129.12
232.775	131.12
233.009	123.12
233.243	133.12
233.477	125.12
233.711	145.12
233.945	137.12
234.179	135.12
234.413	161.12
234.647	142.12
234.881	146.12
235.115	144.12
235.349	140.12
235.583	145.12
235.817	153.12
236.051	134.12
236.285	145.12
236.519	141.12
236.753	149.12
236.987	163.12
237.221	163.12
237.455	156.12
237.689	151.12
237.922	148.12
238.156	155.12
238.39	154.12
238.624	151.12
238.858	149.12
239.091	171.12
239.325	163.12
239.559	169.12
239.793	153.12
240.027	156.12
240.26	162.12
240.494	159.12
240.728	162.12
240.961	161.12
241.195	165.12
241.429	183.12
241.662	175.12
241.896	170.12
242.13	183.12
242.363	179.12
242.597	177.12
242.83	201.12
243.064	185.12
243.298	184.12
243.531	195.12
243.765	195.12
243.998	196.12
244.232	191.12
244.465	208.12
244.699	189.12
244.932	206.12
245.166	200.12
245.399	205.12
245.633	204.12
245.866	213.12
246.099	196.12
246.333	200.12
246.566	196.12
246.8	212.12
247.033	200.12
247.266	209.12
247.5	216.12
247.733	214.12
247.966	228.12
248.2	218.12
248.433	229.12
248.666	216.12
248.899	220.12
249.133	219.12
249.366	231.12
249.599	243.12
249.832	221.12
250.066	240.12
250.299	236.12
250.532	247.12
250.765	230.12
250.998	244.12
251.231	242.12
251.465	243.12
251.698	224.12
251.931	245.12
252.164	263.12
252.397	255.12
252.63	241.12
252.863	255.12
253.096	262.12
253.329	243.12
253.562	265.12
253.795	262.12
254.028	272.12
254.261	259.12
254.494	261.12
254.727	267.12
254.96	266.12
255.193	260.12
255.426	277.12
255.659	259.12
255.892	263.12
256.124	261.12
256.357	289.12
256.59	284.12
256.823	269.12
257.056	282.12
257.289	283.12
257.521	273.12
257.754	274.12
257.987	283.12
258.22	271.12
258.452	278.12
258.685	274.12
258.918	297.12
259.151	296.12
259.383	312.12
259.616	290.12
259.849	303.12
260.081	288.12
260.314	291.12
260.547	294.12
260.779	295.12
261.012	309.12
261.244	302.12
261.477	331.12
261.71	311.12
261.942	315.12
262.175	328.12
262.407	319.12
262.64	305.12
262.872	320.12
263.105	295.12
263.337	319.12
263.57	317.12
263.802	336.12
264.035	332.12
264.267	318.12
264.499	328.12
264.732	324.12
264.964	324.12
265.197	333.12
265.429	334.12
265.661	326.12
265.894	327.12
266.126	344.12
266.358	332.12
266.591	337.12
266.823	333.12
267.055	329.12
267.287	310.12
267.52	339.12
267.752	357.12
267.984	355.12
268.216	362.12
268.448	338.12
268.681	364.12
268.913	322.12
269.145	371.12
269.377	339.12
269.609	347.12
269.841	352.12
270.073	359.12
270.306	348.12
270.538	355.12
270.77	399.12
271.002	349.12
271.234	357.12
271.466	361.12
271.698	358.12
271.93	358.12
272.162	369.12
272.394	355.12
272.626	379.12
272.858	366.12
273.09	384.12
273.322	397.12
273.553	368.12
273.785	385.12
274.017	379.12
274.249	377.12
274.481	381.12
274.713	374.12
274.945	379.12
275.176	390.12
275.408	392.12
275.64	389.12
275.872	380.12
276.104	390.12
276.335	377.12
276.567	409.12
276.799	404.12
277.031	413.12
277.262	406.12
277.494	404.12
277.726	400.12
277.957	412.12
278.189	402.12
278.421	415.12
278.652	411.12
278.884	418.12
279.115	389.12
279.347	432.12
279.579	419.12
279.81	420.12
280.042	437.12
280.273	416.12
280.505	419.12
280.736	427.12
280.968	426.12
281.199	412.12
281.431	440.12
281.662	437.12
281.894	451.12
282.125	437.12
282.356	454.12
282.588	454.12
282.819	429.12
283.051	447.12
283.282	447.12
283.513	472.12
283.745	459.12
283.976	453.12
284.207	452.12
284.439	465.12
284.67	464.12
284.901	447.12
285.132	462.12
285.364	442.12
285.595	449.12
285.826	463.12
286.057	460.12
286.288	470.12
286.52	465.12
286.751	473.12
286.982	472.12
287.213	483.12
287.444	491.12
287.675	486.12
287.906	501.12
288.138	479.12
288.369	479.12
288.6	485.12
288.831	478.12
289.062	479.12
289.293	482.12
289.524	490.12
289.755	472.12
289.986	489.12
290.217	493.12
290.448	487.12
290.679	502.12
290.91	497.12
291.141	493.12
291.371	484.12
291.602	495.12
291.833	492.12
292.064	497.12
292.295	503.12
292.526	519.12
292.757	517.12
292.987	490.12
293.218	488.12
293.449	495.12
293.68	497.12
293.91	477.12
294.141	494.12
294.372	465.12
294.603	501.12
294.833	499.12
295.064	524.12
295.295	511.12
295.525	499.12
295.756	514.12
295.987	517.12
296.217	508.12
296.448	527.12
296.679	517.12
296.909	504.12
297.14	521.12
297.37	536.12
297.601	535.12
297.831	518.12
298.062	536.12
298.292	539.12
298.523	562.12
298.753	543.12
298.984	548.12
299.214	563.12
299.445	531.12
299.675	533.12
299.905	545.12
300.136	556.12
300.366	521.12
300.597	544.12
300.827	563.12
301.057	567.12
301.288	557.12
301.518	573.12
301.748	575.12
301.979	569.12
302.209	562.12
302.439	574.12
302.669	568.12
302.9	556.12
303.13	568.12
303.36	563.12
303.59	580.12
303.82	551.12
304.051	570.12
304.281	564.12
304.511	549.12
304.741	566.12
304.971	588.12
305.201	551.12
305.431	563.12
305.661	559.12
305.891	536.12
306.121	563.12
306.352	552.12
306.582	546.12
306.812	558.12
307.042	561.12
307.272	573.12
307.502	570.12
307.731	557.12
307.961	574.12
308.191	527.12
308.421	563.12
308.651	570.12
308.881	555.12
309.111	550.12
309.341	567.12
309.571	559.12
309.8	536.12
310.03	557.12
310.26	556.12
310.49	560.12
310.72	539.12
310.949	553.12
311.179	549.12
311.409	568.12
311.639	568.12
311.868	587.12
312.098	577.12
312.328	581.12
312.557	583.12
312.787	571.12
313.017	580.12
313.246	613.12
313.476	585.12
313.706	595.12
313.935	600.12
314.165	629.12
314.394	607.12
314.624	627.12
314.853	591.12
315.083	613.12
315.312	604.12
315.542	588.12
315.771	601.12
316.001	594.12
316.23	581.12
316.46	603.12
316.689	593.12
316.919	569.12
317.148	584.12
317.377	579.12
317.607	595.12
317.836	580.12
318.065	587.12
318.295	577.12
318.524	586.12
318.753	600.12
318.983	593.12
319.212	571.12
319.441	616.12
319.67	631.12
319.9	607.12
320.129	575.12
320.358	592.12
320.587	584.12
320.816	614.12
321.046	605.12
321.275	620.12
321.504	620.12
321.733	580.12
321.962	599.12
322.191	584.12
322.42	601.12
322.649	603.12
322.878	611.12
323.108	592.12
323.337	624.12
323.566	608.12
323.795	593.12
324.024	614.12
324.253	615.12
324.482	641.12
324.71	625.12
324.939	636.12
325.168	635.12
325.397	627.12
325.626	634.12
325.855	659.12
326.084	637.12
326.313	646.12
326.542	645.12
326.77	666.12
326.999	647.12
327.228	637.12
327.457	636.12
327.686	636.12
327.914	644.12
328.143	673.12
328.372	658.12
328.6	665.12
328.829	655.12
329.058	653.12
329.287	673.12
329.515	684.12
329.744	677.12
329.972	672.12
330.201	675.12
330.43	669.12
330.658	656.12
330.887	670.12
331.115	685.12
331.344	707.12
331.572	695.12
331.801	711.12
332.03	722.12
332.258	761.12
332.486	773.12
332.715	815.12
332.943	851.12
333.172	861.12
333.4	876.12
333.629	912.12
333.857	931.12
334.085	906.12
334.314	888.12
334.542	869.12
334.771	864.12
334.999	847.12
335.227	831.12
335.455	835.12
335.684	834.12
335.912	809.12
336.14	783.12
336.369	803.12
336.597	833.12
336.825	812.12
337.053	785.12
337.281	779.12
337.51	773.12
337.738	733.12
337.966	742.12
338.194	753.12
338.422	725.12
338.65	727.12
338.878	727.12
339.106	714.12
339.334	712.12
339.562	709.12
339.79	708.12
340.018	708.12
340.246	695.12
340.474	694.12
340.702	701.12
340.93	683.12
341.158	707.12
341.386	709.12
341.614	714.12
341.842	698.12
342.07	684.12
342.298	697.12
342.526	700.12
342.754	695.12
342.981	698.12
343.209	731.12
343.437	744.12
343.665	795.12
343.893	876.12
344.12	901.12
344.348	839.12
344.576	791.12
344.804	741.12
345.031	744.12
345.259	723.12
345.487	707.12
345.714	680.12
345.942	695.12
346.17	703.12
346.397	692.12
346.625	680.12
346.853	663.12
347.08	679.12
347.308	657.12
347.535	674.12
347.763	695.12
347.99	685.12
348.218	662.12
348.445	680.12
348.673	664.12
348.9	683.12
349.128	658.12
349.355	660.12
349.583	660.12
349.81	662.12
350.037	662.12
350.265	639.12
350.492	656.12
350.72	647.12
350.947	658.12
351.174	657.12
351.402	668.12
351.629	645.12
351.856	677.12
352.083	657.12
352.311	632.12
352.538	638.12
352.765	636.12
352.992	643.12
353.22	652.12
353.447	645.12
353.674	642.12
353.901	666.12
354.128	644.12
354.355	641.12
354.583	657.12
354.81	656.12
355.037	659.12
355.264	689.12
355.491	667.12
355.718	627.12
355.945	677.12
356.172	659.12
356.399	663.12
356.626	671.12
356.853	656.12
357.08	651.12
357.307	657.12
357.534	636.12
357.761	629.12
357.988	668.12
358.215	646.12
358.441	656.12
358.668	645.12
358.895	651.12
359.122	643.12
359.349	649.12
359.576	637.12
359.802	667.12
360.029	652.12
360.256	654.12
360.483	628.12
360.709	634.12
360.936	627.12
361.163	660.12
361.39	659.12
361.616	665.12
361.843	642.12
362.07	647.12
362.296	657.12
362.523	650.12
362.749	641.12
362.976	637.12
363.203	632.12
363.429	651.12
363.656	665.12
363.882	639.12
364.109	635.12
364.335	649.12
364.562	643.12
364.788	634.12
365.015	652.12
365.241	661.12
365.468	635.12
365.694	651.12
365.92	640.12
366.147	646.12
366.373	648.12
366.599	635.12
366.826	649.12
367.052	643.12
367.278	625.12
367.505	681.12
367.731	671.12
367.957	646.12
368.184	642.12
368.41	670.12
368.636	680.12
368.862	664.12
369.089	678.12
369.315	675.12
369.541	677.12
369.767	665.12
369.993	653.12
370.219	692.12
370.445	682.12
370.672	666.12
370.898	684.12
371.124	698.12
371.35	712.12
371.576	697.12
371.802	691.12
372.028	716.12
372.254	705.12
372.48	715.12
372.706	713.12
372.932	747.12
373.158	726.12
373.384	711.12
373.61	694.12
373.835	716.12
374.061	692.12
374.287	711.12
374.513	712.12
374.739	753.12
374.965	763.12
375.191	804.12
375.416	811.12
375.642	763.12
375.868	757.12
376.094	736.12
376.319	743.12
376.545	717.12
376.771	717.12
376.997	718.12
377.222	738.12
377.448	713.12
377.674	732.12
377.899	701.12
378.125	697.12
378.35	714.12
378.576	684.12
378.802	689.12
379.027	669.12
379.253	696.12
379.478	676.12
379.704	682.12
379.929	692.12
380.155	717.12
380.38	687.12
380.606	695.12
380.831	669.12
381.057	709.12
381.282	710.12
381.507	708.12
381.733	707.12
381.958	716.12
382.184	712.12
382.409	722.12
382.634	730.12
382.86	739.12
383.085	739.12
383.31	764.12
383.535	762.12
383.761	798.12
383.986	795.12
384.211	823.12
384.436	863.12
384.662	820.12
384.887	839.12
385.112	852.12
385.337	840.12
385.562	851.12
385.787	867.12
386.013	885.12
386.238	860.12
386.463	831.12
386.688	855.12
386.913	849.12
387.138	828.12
387.363	810.12
387.588	842.12
387.813	840.12
388.038	851.12
388.263	869.12
388.488	845.12
388.713	835.12
388.938	829.12
389.163	808.12
389.387	836.12
389.612	825.12
389.837	825.12
390.062	840.12
390.287	821.12
390.512	839.12
390.736	824.12
390.961	865.12
391.186	874.12
391.411	879.12
391.636	897.12
391.86	940.12
392.085	970.12
392.31	988.12
392.534	898.12
392.759	919.12
392.984	856.12
393.208	899.12
393.433	905.12
393.658	879.12
393.882	887.12
394.107	902.12
394.331	930.12
394.556	879.12
394.78	920.12
395.005	914.12
395.229	915.12
395.454	950.12
395.678	947.12
395.903	965.12
396.127	949.12
396.352	926.12
396.576	873.12
396.801	891.12
397.025	899.12
397.249	875.12
397.474	913.12
397.698	939.12
397.922	940.12
398.147	938.12
398.371	974.12
398.595	1003.12
398.82	1035.12
399.044	1141.12
399.268	1228.12
399.492	1471.12
399.717	1655.12
399.941	1613.12
400.165	1427.12
400.389	1233.12
400.613	1159.12
400.837	1106.12
401.062	1077.12
401.286	1058.12
401.51	1060.12
401.734	1043.12
401.958	1077.12
402.182	1075.12
402.406	1117.12
402.63	1112.12
402.854	1143.12
403.078	1168.12
403.302	1180.12
403.526	1205.12
403.75	1240.12
403.974	1259.12
404.198	1228.12
404.422	1279.12
404.645	1234.12
404.869	1226.12
405.093	1199.12
405.317	1230.12
405.541	1141.12
405.765	1191.12
405.988	1137.12
406.212	1173.12
406.436	1195.12
406.66	1201.12
406.883	1204.12
407.107	1268.12
407.331	1360.12
407.555	1402.12
407.778	1378.12
408.002	1342.12
408.226	1298.12
408.449	1265.12
408.673	1239.12
408.896	1209.12
409.12	1227.12
409.344	1214.12
409.567	1208.12
409.791	1247.12
410.014	1199.12
410.238	1192.12
410.461	1199.12
410.685	1170.12
410.908	1157.12
411.132	1167.12
411.355	1119.12
411.578	1069.12
411.802	1093.12
412.025	1116.12
412.249	1173.12
412.472	1115.12
412.695	1085.12
412.919	1061.12
413.142	1069.12
413.365	1069.12
413.589	1066.12
413.812	1089.12
414.035	1050.12
414.258	1045.12
414.482	1075.12
414.705	1101.12
414.928	1048.12
415.151	1089.12
415.374	1078.12
415.597	1075.12
415.821	1065.12
416.044	1035.12
416.267	1014.12
416.49	1042.12
416.713	1041.12
416.936	1059.12
417.159	1059.12
417.382	1050.12
417.605	1030.12
417.828	1060.12
418.051	1072.12
418.274	1075.12
418.497	1091.12
418.72	1092.12
418.943	1075.12
419.166	1132.12
419.389	1203.12
419.611	1169.12
419.834	1129.12
420.057	1119.12
420.28	1059.12
420.503	1048.12
420.726	1029.12
420.948	1046.12
421.171	1059.12
421.394	1081.12
421.617	1057.12
421.839	1031.12
422.062	1058.12
422.285	1057.12
422.507	1097.12
422.73	1079.12
422.953	1071.12
423.175	1120.12
423.398	1132.12
423.621	1132.12
423.843	1144.12
424.066	1159.12
424.288	1122.12
424.511	1120.12
424.733	1099.12
424.956	1086.12
425.178	1075.12
425.401	1066.12
425.623	1049.12
425.846	1031.12
426.068	1015.12
426.291	1009.12
426.513	1000.12
426.735	1007.12
426.958	973.12
427.18	956.12
427.402	948.12
427.625	976.12
427.847	956.12
428.069	940.12
428.292	939.12
428.514	946.12
428.736	953.12
428.958	935.12
429.181	889.12
429.403	909.12
429.625	915.12
429.847	928.12
430.069	915.12
430.292	939.12
430.514	901.12
430.736	908.12
430.958	925.12
431.18	918.12
431.402	914.12
431.624	929.12
431.846	934.12
432.068	969.12
432.29	955.12
432.512	918.12
432.734	953.12
432.956	912.12
433.178	934.12
433.4	936.12
433.622	988.12
433.844	953.12
434.066	943.12
434.287	994.12
434.509	990.12
434.731	1016.12
434.953	1027.12
435.175	1064.12
435.397	1065.12
435.618	1004.12
435.84	985.12
436.062	956.12
436.284	946.12
436.505	921.12
436.727	964.12
436.949	960.12
437.17	939.12
437.392	902.12
437.614	897.12
437.835	877.12
438.057	921.12
438.278	879.12
438.5	895.12
438.721	904.12
438.943	918.12
439.165	884.12
439.386	905.12
439.608	947.12
439.829	931.12
440.05	953.12
440.272	959.12
440.493	922.12
440.715	980.12
440.936	994.12
441.158	989.12
441.379	1043.12
441.6	1075.12
441.822	1060.12
442.043	1065.12
442.264	1045.12
442.486	1025.12
442.707	1066.12
442.928	1040.12
443.149	1041.12
443.371	1069.12
443.592	1090.12
443.813	1068.12
444.034	1077.12
444.255	1124.12
444.476	1155.12
444.698	1232.12
444.919	1306.12
445.14	1330.12
445.361	1140.12
445.582	1093.12
445.803	1036.12
446.024	988.12
446.245	986.12
446.466	979.12
446.687	963.12
446.908	951.12
447.129	935.12
447.35	917.12
447.571	949.12
447.792	875.12
448.013	917.12
448.234	903.12
448.455	882.12
448.675	868.12
448.896	901.12
449.117	858.12
449.338	850.12
449.559	880.12
449.779	852.12
450	858.12
450.221	881.12
450.442	860.12
450.662	863.12
450.883	876.12
451.104	898.12
451.324	899.12
451.545	886.12
451.766	864.12
451.986	865.12
452.207	898.12
452.428	869.12
452.648	853.12
452.869	864.12
453.089	821.12
453.31	839.12
453.53	835.12
453.751	835.12
453.971	837.12
454.192	822.12
454.412	816.12
454.633	824.12
454.853	827.12
455.073	807.12
455.294	832.12
455.514	797.12
455.734	815.12
455.955	789.12
456.175	778.12
456.395	815.12
456.616	800.12
456.836	813.12
457.056	817.12
457.276	778.12
457.497	827.12
457.717	803.12
457.937	838.12
458.157	795.12
458.377	850.12
458.598	850.12
458.818	881.12
459.038	869.12
459.258	915.12
459.478	941.12
459.698	979.12
459.918	987.12
460.138	1057.12
460.358	1117.12
460.578	1096.12
460.798	1125.12
461.018	1147.12
461.238	1119.12
461.458	1131.12
461.678	1088.12
461.898	1130.12
462.118	1120.12
462.338	1191.12
462.558	1217.12
462.777	1254.12
462.997	1389.12
463.217	1525.12
463.437	1529.12
463.657	1393.12
463.876	1318.12
464.096	1300.12
464.316	1299.12
464.536	1337.12
464.755	1255.12
464.975	1194.12
465.195	1163.12
465.414	1090.12
465.634	1023.12
465.854	984.12
466.073	964.12
466.293	960.12
466.512	937.12
466.732	917.12
466.951	920.12
467.171	920.12
467.391	902.12
467.61	896.12
467.829	901.12
468.049	897.12
468.268	858.12
468.488	864.12
468.707	869.12
468.927	873.12
469.146	868.12
469.365	870.12
469.585	879.12
469.804	893.12
470.023	914.12
470.243	931.12
470.462	938.12
470.681	953.12
470.901	951.12
471.12	931.12
471.339	920.12
471.558	887.12
471.777	895.12
471.997	859.12
472.216	859.12
472.435	852.12
472.654	845.12
472.873	838.12
473.092	847.12
473.311	847.12
473.53	818.12
473.749	840.12
473.968	836.12
474.187	836.12
474.406	825.12
474.625	825.12
474.844	838.12
475.063	844.12
475.282	861.12
475.501	872.12
475.72	838.12
475.939	854.12
476.158	856.12
476.377	877.12
476.596	874.12
476.814	867.12
477.033	873.12
477.252	880.12
477.471	922.12
477.69	937.12
477.908	971.12
478.127	977.12
478.346	1011.12
478.564	1036.12
478.783	1026.12
479.002	1062.12
479.22	1073.12
479.439	1043.12
479.658	1043.12
479.876	1038.12
480.095	1061.12
480.313	1097.12
480.532	1149.12
480.751	1164.12
480.969	1087.12
481.188	1021.12
481.406	1021.12
481.624	985.12
481.843	971.12
482.061	936.12
482.28	977.12
482.498	928.12
482.717	928.12
482.935	961.12
483.153	959.12
483.372	945.12
483.59	945.12
483.808	987.12
484.027	964.12
484.245	955.12
484.463	974.12
484.681	968.12
484.9	972.12
485.118	1004.12
485.336	1029.12
485.554	1009.12
485.772	1025.12
485.99	1034.12
486.209	1025.12
486.427	1049.12
486.645	1035.12
486.863	985.12
487.081	999.12
487.299	1021.12
487.517	975.12
487.735	971.12
487.953	996.12
488.171	977.12
488.389	1022.12
488.607	982.12
488.825	981.12
489.043	986.12
489.261	966.12
489.479	1007.12
489.696	992.12
489.914	995.12
490.132	1023.12
490.35	977.12
490.568	998.12
490.786	1020.12
491.003	995.12
491.221	1022.12
491.439	1005.12
491.657	1015.12
491.874	1030.12
492.092	1051.12
492.31	1017.12
492.527	1065.12
492.745	1052.12
492.963	1043.12
493.18	1035.12
493.398	1044.12
493.615	1073.12
493.833	1061.12
494.05	1053.12
494.268	1075.12
494.485	1040.12
494.703	1058.12
494.92	1071.12
495.138	1083.12
495.355	1066.12
495.573	1059.12
495.79	1059.12
496.008	1060.12
496.225	1056.12
496.442	1093.12
496.66	1091.12
496.877	1123.12
497.094	1132.12
497.312	1159.12
497.529	1168.12
497.746	1213.12
497.963	1196.12
498.181	1293.12
498.398	1321.12
