Data from Ni(NO3)2@0.0625M.TitratingCurve.Agarose3%dH2O.NegLispCup.LampEnergy10.LIBS07252019_HRD10591_18-13-14-569.txt Node
Date: Thu Jul 25 18:13:14 EDT 2019
User: cochatt
Spectrometer: HR+D1059
Trigger mode: 1
Integration Time (sec): 1.000000E-1
Scans to average: 1
Electric dark correction enabled: true
Nonlinearity correction enabled: false
Boxcar width: 0
XAxis mode: Wavelengths
Number of Pixels in Spectrum: 2048
>>>>>Begin Spectral Data<<<<<
223.165	-23.62
223.4	-23.62
223.635	-23.62
223.869	-17.62
224.104	-1.62
224.338	-14.62
224.573	-5.62
224.808	-12.62
225.042	-7.62
225.277	-8.62
225.511	1.38
225.746	2.38
225.98	4.38
226.215	15.38
226.449	14.38
226.683	12.38
226.918	16.38
227.152	25.38
227.387	41.38
227.621	28.38
227.856	47.38
228.09	45.38
228.324	63.38
228.559	49.38
228.793	57.38
229.027	82.38
229.262	90.38
229.496	89.38
229.73	98.38
229.964	103.38
230.199	109.38
230.433	111.38
230.667	106.38
230.901	111.38
231.136	106.38
231.37	110.38
231.604	117.38
231.838	116.38
232.072	117.38
232.306	113.38
232.541	134.38
232.775	112.38
233.009	121.38
233.243	117.38
233.477	114.38
233.711	114.38
233.945	114.38
234.179	115.38
234.413	121.38
234.647	136.38
234.881	119.38
235.115	125.38
235.349	134.38
235.583	134.38
235.817	117.38
236.051	126.38
236.285	127.38
236.519	136.38
236.753	125.38
236.987	133.38
237.221	140.38
237.455	135.38
237.689	119.38
237.922	139.38
238.156	138.38
238.39	124.38
238.624	145.38
238.858	121.38
239.091	126.38
239.325	129.38
239.559	142.38
239.793	122.38
240.027	143.38
240.26	130.38
240.494	131.38
240.728	153.38
240.961	130.38
241.195	153.38
241.429	144.38
241.662	155.38
241.896	150.38
242.13	149.38
242.363	146.38
242.597	153.38
242.83	149.38
243.064	142.38
243.298	154.38
243.531	147.38
243.765	149.38
243.998	155.38
244.232	153.38
244.465	176.38
244.699	165.38
244.932	162.38
245.166	168.38
245.399	184.38
245.633	163.38
245.866	186.38
246.099	165.38
246.333	154.38
246.566	179.38
246.8	177.38
247.033	177.38
247.266	167.38
247.5	160.38
247.733	165.38
247.966	183.38
248.2	182.38
248.433	176.38
248.666	175.38
248.899	178.38
249.133	165.38
249.366	170.38
249.599	183.38
249.832	185.38
250.066	186.38
250.299	171.38
250.532	193.38
250.765	184.38
250.998	193.38
251.231	183.38
251.465	187.38
251.698	210.38
251.931	183.38
252.164	191.38
252.397	206.38
252.63	208.38
252.863	203.38
253.096	207.38
253.329	198.38
253.562	207.38
253.795	200.38
254.028	187.38
254.261	193.38
254.494	213.38
254.727	202.38
254.96	182.38
255.193	189.38
255.426	196.38
255.659	215.38
255.892	197.38
256.124	203.38
256.357	208.38
256.59	200.38
256.823	206.38
257.056	202.38
257.289	211.38
257.521	226.38
257.754	238.38
257.987	230.38
258.22	230.38
258.452	221.38
258.685	212.38
258.918	218.38
259.151	207.38
259.383	229.38
259.616	232.38
259.849	241.38
260.081	224.38
260.314	215.38
260.547	221.38
260.779	222.38
261.012	227.38
261.244	232.38
261.477	234.38
261.71	241.38
261.942	236.38
262.175	239.38
262.407	233.38
262.64	212.38
262.872	243.38
263.105	234.38
263.337	253.38
263.57	235.38
263.802	239.38
264.035	249.38
264.267	258.38
264.499	242.38
264.732	231.38
264.964	246.38
265.197	249.38
265.429	246.38
265.661	239.38
265.894	260.38
266.126	250.38
266.358	251.38
266.591	257.38
266.823	261.38
267.055	256.38
267.287	261.38
267.52	263.38
267.752	267.38
267.984	263.38
268.216	249.38
268.448	269.38
268.681	257.38
268.913	259.38
269.145	265.38
269.377	269.38
269.609	269.38
269.841	270.38
270.073	241.38
270.306	277.38
270.538	272.38
270.77	258.38
271.002	274.38
271.234	266.38
271.466	264.38
271.698	286.38
271.93	274.38
272.162	285.38
272.394	267.38
272.626	278.38
272.858	294.38
273.09	282.38
273.322	280.38
273.553	280.38
273.785	290.38
274.017	281.38
274.249	290.38
274.481	277.38
274.713	295.38
274.945	295.38
275.176	282.38
275.408	286.38
275.64	311.38
275.872	291.38
276.104	305.38
276.335	310.38
276.567	309.38
276.799	298.38
277.031	293.38
277.262	317.38
277.494	299.38
277.726	315.38
277.957	328.38
278.189	313.38
278.421	317.38
278.652	282.38
278.884	303.38
279.115	302.38
279.347	299.38
279.579	308.38
279.81	324.38
280.042	310.38
280.273	312.38
280.505	313.38
280.736	320.38
280.968	338.38
281.199	340.38
281.431	301.38
281.662	325.38
281.894	338.38
282.125	313.38
282.356	336.38
282.588	328.38
282.819	337.38
283.051	340.38
283.282	319.38
283.513	355.38
283.745	321.38
283.976	349.38
284.207	330.38
284.439	329.38
284.67	356.38
284.901	338.38
285.132	350.38
285.364	358.38
285.595	366.38
285.826	338.38
286.057	343.38
286.288	335.38
286.52	350.38
286.751	374.38
286.982	344.38
287.213	333.38
287.444	350.38
287.675	369.38
287.906	369.38
288.138	366.38
288.369	332.38
288.6	383.38
288.831	371.38
289.062	372.38
289.293	366.38
289.524	356.38
289.755	365.38
289.986	362.38
290.217	381.38
290.448	377.38
290.679	357.38
290.91	374.38
291.141	372.38
291.371	379.38
291.602	388.38
291.833	362.38
292.064	381.38
292.295	368.38
292.526	379.38
292.757	389.38
292.987	363.38
293.218	377.38
293.449	383.38
293.68	392.38
293.91	375.38
294.141	363.38
294.372	380.38
294.603	376.38
294.833	381.38
295.064	392.38
295.295	360.38
295.525	370.38
295.756	393.38
295.987	377.38
296.217	388.38
296.448	392.38
296.679	402.38
296.909	391.38
297.14	405.38
297.37	401.38
297.601	412.38
297.831	384.38
298.062	413.38
298.292	394.38
298.523	433.38
298.753	415.38
298.984	406.38
299.214	423.38
299.445	413.38
299.675	415.38
299.905	395.38
300.136	417.38
300.366	425.38
300.597	417.38
300.827	425.38
301.057	415.38
301.288	429.38
301.518	397.38
301.748	422.38
301.979	433.38
302.209	423.38
302.439	409.38
302.669	434.38
302.9	409.38
303.13	429.38
303.36	409.38
303.59	413.38
303.82	406.38
304.051	416.38
304.281	433.38
304.511	419.38
304.741	424.38
304.971	445.38
305.201	436.38
305.431	419.38
305.661	407.38
305.891	399.38
306.121	423.38
306.352	384.38
306.582	393.38
306.812	419.38
307.042	402.38
307.272	414.38
307.502	415.38
307.731	424.38
307.961	421.38
308.191	414.38
308.421	424.38
308.651	415.38
308.881	418.38
309.111	394.38
309.341	408.38
309.571	413.38
309.8	427.38
310.03	407.38
310.26	414.38
310.49	416.38
310.72	414.38
310.949	419.38
311.179	418.38
311.409	442.38
311.639	425.38
311.868	428.38
312.098	425.38
312.328	427.38
312.557	423.38
312.787	430.38
313.017	425.38
313.246	449.38
313.476	428.38
313.706	441.38
313.935	449.38
314.165	465.38
314.394	463.38
314.624	458.38
314.853	413.38
315.083	423.38
315.312	437.38
315.542	445.38
315.771	441.38
316.001	439.38
316.23	446.38
316.46	453.38
316.689	424.38
316.919	417.38
317.148	424.38
317.377	445.38
317.607	442.38
317.836	425.38
318.065	434.38
318.295	437.38
318.524	446.38
318.753	442.38
318.983	433.38
319.212	424.38
319.441	419.38
319.67	422.38
319.9	437.38
320.129	452.38
320.358	447.38
320.587	421.38
320.816	433.38
321.046	452.38
321.275	454.38
321.504	449.38
321.733	439.38
321.962	453.38
322.191	431.38
322.42	439.38
322.649	461.38
322.878	440.38
323.108	463.38
323.337	448.38
323.566	431.38
323.795	463.38
324.024	465.38
324.253	458.38
324.482	445.38
324.71	450.38
324.939	454.38
325.168	477.38
325.397	456.38
325.626	467.38
325.855	488.38
326.084	473.38
326.313	473.38
326.542	506.38
326.77	479.38
326.999	477.38
327.228	469.38
327.457	481.38
327.686	478.38
327.914	481.38
328.143	486.38
328.372	487.38
328.6	486.38
328.829	458.38
329.058	497.38
329.287	505.38
329.515	487.38
329.744	497.38
329.972	503.38
330.201	455.38
330.43	477.38
330.658	497.38
330.887	511.38
331.115	506.38
331.344	479.38
331.572	513.38
331.801	531.38
332.03	557.38
332.258	535.38
332.486	551.38
332.715	569.38
332.943	610.38
333.172	629.38
333.4	641.38
333.629	668.38
333.857	642.38
334.085	629.38
334.314	630.38
334.542	631.38
334.771	596.38
334.999	602.38
335.227	610.38
335.455	626.38
335.684	574.38
335.912	609.38
336.14	581.38
336.369	597.38
336.597	589.38
336.825	609.38
337.053	584.38
337.281	603.38
337.51	559.38
337.738	569.38
337.966	550.38
338.194	543.38
338.422	538.38
338.65	527.38
338.878	517.38
339.106	543.38
339.334	552.38
339.562	528.38
339.79	508.38
340.018	513.38
340.246	481.38
340.474	517.38
340.702	507.38
340.93	516.38
341.158	494.38
341.386	513.38
341.614	517.38
341.842	519.38
342.07	522.38
342.298	520.38
342.526	519.38
342.754	518.38
342.981	510.38
343.209	534.38
343.437	537.38
343.665	575.38
343.893	622.38
344.12	641.38
344.348	592.38
344.576	572.38
344.804	562.38
345.031	526.38
345.259	568.38
345.487	537.38
345.714	509.38
345.942	529.38
346.17	509.38
346.397	536.38
346.625	505.38
346.853	498.38
347.08	508.38
347.308	507.38
347.535	531.38
347.763	519.38
347.99	507.38
348.218	539.38
348.445	486.38
348.673	513.38
348.9	485.38
349.128	487.38
349.355	511.38
349.583	503.38
349.81	502.38
350.037	467.38
350.265	478.38
350.492	502.38
350.72	488.38
350.947	466.38
351.174	468.38
351.402	478.38
351.629	485.38
351.856	471.38
352.083	464.38
352.311	478.38
352.538	464.38
352.765	490.38
352.992	479.38
353.22	481.38
353.447	471.38
353.674	468.38
353.901	497.38
354.128	487.38
354.355	487.38
354.583	475.38
354.81	471.38
355.037	483.38
355.264	484.38
355.491	479.38
355.718	483.38
355.945	502.38
356.172	480.38
356.399	497.38
356.626	500.38
356.853	493.38
357.08	478.38
357.307	495.38
357.534	471.38
357.761	471.38
357.988	462.38
358.215	482.38
358.441	474.38
358.668	454.38
358.895	494.38
359.122	480.38
359.349	483.38
359.576	482.38
359.802	466.38
360.029	473.38
360.256	488.38
360.483	484.38
360.709	495.38
360.936	471.38
361.163	478.38
361.39	479.38
361.616	483.38
361.843	479.38
362.07	470.38
362.296	496.38
362.523	504.38
362.749	497.38
362.976	494.38
363.203	499.38
363.429	473.38
363.656	464.38
363.882	493.38
364.109	488.38
364.335	450.38
364.562	458.38
364.788	469.38
365.015	490.38
365.241	465.38
365.468	478.38
365.694	494.38
365.92	505.38
366.147	482.38
366.373	480.38
366.599	488.38
366.826	468.38
367.052	481.38
367.278	479.38
367.505	490.38
367.731	478.38
367.957	468.38
368.184	486.38
368.41	475.38
368.636	470.38
368.862	488.38
369.089	490.38
369.315	488.38
369.541	499.38
369.767	505.38
369.993	495.38
370.219	502.38
370.445	510.38
370.672	484.38
370.898	516.38
371.124	520.38
371.35	522.38
371.576	519.38
371.802	515.38
372.028	531.38
372.254	534.38
372.48	524.38
372.706	555.38
372.932	544.38
373.158	562.38
373.384	531.38
373.61	521.38
373.835	525.38
374.061	537.38
374.287	537.38
374.513	546.38
374.739	551.38
374.965	573.38
375.191	594.38
375.416	585.38
375.642	550.38
375.868	575.38
376.094	550.38
376.319	530.38
376.545	523.38
376.771	533.38
376.997	537.38
377.222	528.38
377.448	512.38
377.674	543.38
377.899	514.38
378.125	531.38
378.35	510.38
378.576	515.38
378.802	513.38
379.027	518.38
379.253	529.38
379.478	539.38
379.704	517.38
379.929	547.38
380.155	509.38
380.38	528.38
380.606	525.38
380.831	512.38
381.057	534.38
381.282	532.38
381.507	554.38
381.733	527.38
381.958	529.38
382.184	530.38
382.409	552.38
382.634	524.38
382.86	552.38
383.085	553.38
383.31	564.38
383.535	601.38
383.761	575.38
383.986	604.38
384.211	573.38
384.436	623.38
384.662	629.38
384.887	659.38
385.112	631.38
385.337	618.38
385.562	649.38
385.787	637.38
386.013	608.38
386.238	616.38
386.463	626.38
386.688	622.38
386.913	618.38
387.138	639.38
387.363	608.38
387.588	619.38
387.813	611.38
388.038	618.38
388.263	621.38
388.488	629.38
388.713	634.38
388.938	631.38
389.163	624.38
389.387	605.38
389.612	610.38
389.837	603.38
390.062	604.38
390.287	607.38
390.512	616.38
390.736	612.38
390.961	610.38
391.186	643.38
391.411	687.38
391.636	669.38
391.86	705.38
392.085	704.38
392.31	719.38
392.534	676.38
392.759	673.38
392.984	674.38
393.208	665.38
393.433	636.38
393.658	678.38
393.882	682.38
394.107	677.38
394.331	701.38
394.556	689.38
394.78	674.38
395.005	668.38
395.229	642.38
395.454	703.38
395.678	722.38
395.903	696.38
396.127	705.38
396.352	679.38
396.576	664.38
396.801	651.38
397.025	667.38
397.249	664.38
397.474	687.38
397.698	705.38
397.922	697.38
398.147	704.38
398.371	715.38
398.595	716.38
398.82	749.38
399.044	818.38
399.268	888.38
399.492	1054.38
399.717	1201.38
399.941	1171.38
400.165	1043.38
400.389	915.38
400.613	868.38
400.837	787.38
401.062	784.38
401.286	746.38
401.51	774.38
401.734	794.38
401.958	792.38
402.182	803.38
402.406	823.38
402.63	833.38
402.854	829.38
403.078	843.38
403.302	878.38
403.526	879.38
403.75	909.38
403.974	925.38
404.198	928.38
404.422	922.38
404.645	918.38
404.869	877.38
405.093	894.38
405.317	860.38
405.541	879.38
405.765	869.38
405.988	871.38
406.212	847.38
406.436	878.38
406.66	873.38
406.883	864.38
407.107	949.38
407.331	981.38
407.555	1021.38
407.778	995.38
408.002	942.38
408.226	947.38
408.449	952.38
408.673	917.38
408.896	897.38
409.12	885.38
409.344	901.38
409.567	885.38
409.791	922.38
410.014	917.38
410.238	885.38
410.461	913.38
410.685	883.38
410.908	857.38
411.132	825.38
411.355	802.38
411.578	832.38
411.802	831.38
412.025	829.38
412.249	862.38
412.472	817.38
412.695	779.38
412.919	776.38
413.142	766.38
413.365	785.38
413.589	805.38
413.812	782.38
414.035	789.38
414.258	776.38
414.482	790.38
414.705	810.38
414.928	805.38
415.151	789.38
415.374	775.38
415.597	759.38
415.821	776.38
416.044	751.38
416.267	740.38
416.49	758.38
416.713	754.38
416.936	783.38
417.159	738.38
417.382	757.38
417.605	761.38
417.828	776.38
418.051	771.38
418.274	775.38
418.497	744.38
418.72	807.38
418.943	779.38
419.166	826.38
419.389	905.38
419.611	849.38
419.834	841.38
420.057	835.38
420.28	797.38
420.503	776.38
420.726	784.38
420.948	768.38
421.171	763.38
421.394	776.38
421.617	764.38
421.839	760.38
422.062	754.38
422.285	774.38
422.507	797.38
422.73	802.38
422.953	808.38
423.175	825.38
423.398	833.38
423.621	838.38
423.843	858.38
424.066	833.38
424.288	822.38
424.511	826.38
424.733	820.38
424.956	811.38
425.178	797.38
425.401	773.38
425.623	778.38
425.846	735.38
426.068	749.38
426.291	741.38
426.513	708.38
426.735	736.38
426.958	720.38
427.18	724.38
427.402	705.38
427.625	692.38
427.847	709.38
428.069	703.38
428.292	710.38
428.514	689.38
428.736	715.38
428.958	689.38
429.181	675.38
429.403	680.38
429.625	696.38
429.847	702.38
430.069	647.38
430.292	679.38
430.514	661.38
430.736	688.38
430.958	682.38
431.18	663.38
431.402	681.38
431.624	713.38
431.846	682.38
432.068	707.38
432.29	737.38
432.512	714.38
432.734	685.38
432.956	709.38
433.178	690.38
433.4	665.38
433.622	699.38
433.844	710.38
434.066	703.38
434.287	705.38
434.509	730.38
434.731	777.38
434.953	797.38
435.175	757.38
435.397	779.38
435.618	736.38
435.84	722.38
436.062	701.38
436.284	718.38
436.505	710.38
436.727	718.38
436.949	704.38
437.17	695.38
437.392	694.38
437.614	674.38
437.835	664.38
438.057	656.38
438.278	665.38
438.5	661.38
438.721	672.38
438.943	674.38
439.165	665.38
439.386	674.38
439.608	689.38
439.829	696.38
440.05	711.38
440.272	699.38
440.493	680.38
440.715	711.38
440.936	730.38
441.158	741.38
441.379	733.38
441.6	756.38
441.822	817.38
442.043	793.38
442.264	755.38
442.486	745.38
442.707	779.38
442.928	793.38
443.149	760.38
443.371	769.38
443.592	781.38
443.813	804.38
444.034	798.38
444.255	809.38
444.476	888.38
444.698	923.38
444.919	956.38
445.14	992.38
445.361	871.38
445.582	804.38
445.803	736.38
446.024	745.38
446.245	728.38
446.466	682.38
446.687	722.38
446.908	729.38
447.129	692.38
447.35	686.38
447.571	696.38
447.792	659.38
448.013	671.38
448.234	649.38
448.455	650.38
448.675	648.38
448.896	663.38
449.117	647.38
449.338	643.38
449.559	618.38
449.779	637.38
450	637.38
450.221	659.38
450.442	646.38
450.662	657.38
450.883	663.38
451.104	657.38
451.324	661.38
451.545	656.38
451.766	661.38
451.986	669.38
452.207	652.38
452.428	644.38
452.648	632.38
452.869	634.38
453.089	635.38
453.31	663.38
453.53	637.38
453.751	630.38
453.971	625.38
454.192	629.38
454.412	601.38
454.633	617.38
454.853	608.38
455.073	587.38
455.294	600.38
455.514	623.38
455.734	616.38
455.955	607.38
456.175	587.38
456.395	609.38
456.616	606.38
456.836	607.38
457.056	598.38
457.276	609.38
457.497	607.38
457.717	597.38
457.937	612.38
458.157	604.38
458.377	616.38
458.598	646.38
458.818	643.38
459.038	680.38
459.258	690.38
459.478	705.38
459.698	720.38
459.918	738.38
460.138	795.38
460.358	827.38
460.578	830.38
460.798	840.38
461.018	852.38
461.238	834.38
461.458	845.38
461.678	823.38
461.898	823.38
462.118	857.38
462.338	891.38
462.558	903.38
462.777	913.38
462.997	995.38
463.217	1138.38
463.437	1147.38
463.657	989.38
463.876	1003.38
464.096	994.38
464.316	970.38
464.536	984.38
464.755	941.38
464.975	906.38
465.195	855.38
465.414	792.38
465.634	765.38
465.854	726.38
466.073	729.38
466.293	731.38
466.512	693.38
466.732	690.38
466.951	697.38
467.171	665.38
467.391	648.38
467.61	673.38
467.829	669.38
468.049	689.38
468.268	622.38
468.488	631.38
468.707	633.38
468.927	632.38
469.146	638.38
469.365	650.38
469.585	675.38
469.804	678.38
470.023	696.38
470.243	710.38
470.462	716.38
470.681	699.38
470.901	674.38
471.12	703.38
471.339	685.38
471.558	655.38
471.777	665.38
471.997	637.38
472.216	639.38
472.435	624.38
472.654	629.38
472.873	631.38
473.092	635.38
473.311	630.38
473.53	621.38
473.749	618.38
473.968	619.38
474.187	618.38
474.406	616.38
474.625	622.38
474.844	637.38
475.063	635.38
475.282	632.38
475.501	629.38
475.72	646.38
475.939	629.38
476.158	660.38
476.377	668.38
476.596	645.38
476.814	644.38
477.033	642.38
477.252	702.38
477.471	709.38
477.69	705.38
477.908	731.38
478.127	720.38
478.346	745.38
478.564	758.38
478.783	762.38
479.002	776.38
479.22	813.38
479.439	773.38
479.658	768.38
479.876	789.38
480.095	807.38
480.313	842.38
480.532	854.38
480.751	838.38
480.969	798.38
481.188	749.38
481.406	740.38
481.624	731.38
481.843	689.38
482.061	701.38
482.28	723.38
482.498	698.38
482.717	700.38
482.935	712.38
483.153	737.38
483.372	689.38
483.59	706.38
483.808	715.38
484.027	722.38
484.245	714.38
484.463	741.38
484.681	743.38
484.9	764.38
485.118	724.38
485.336	738.38
485.554	759.38
485.772	755.38
485.99	729.38
486.209	776.38
486.427	753.38
486.645	765.38
486.863	778.38
487.081	757.38
487.299	736.38
487.517	753.38
487.735	746.38
487.953	757.38
488.171	743.38
488.389	733.38
488.607	743.38
488.825	731.38
489.043	757.38
489.261	733.38
489.479	749.38
489.696	758.38
489.914	779.38
490.132	750.38
490.35	761.38
490.568	723.38
490.786	751.38
491.003	705.38
491.221	772.38
491.439	779.38
491.657	760.38
491.874	751.38
492.092	745.38
492.31	731.38
492.527	765.38
492.745	773.38
492.963	777.38
493.18	776.38
493.398	750.38
493.615	789.38
493.833	779.38
494.05	765.38
494.268	783.38
494.485	785.38
494.703	817.38
494.92	794.38
495.138	776.38
495.355	800.38
495.573	772.38
495.79	790.38
496.008	817.38
496.225	787.38
496.442	811.38
496.66	826.38
496.877	822.38
497.094	853.38
497.312	842.38
497.529	887.38
497.746	893.38
497.963	888.38
498.181	957.38
498.398	1003.38
498.615	1052.38
498.832	1109.38
499.049	1175.38
499.267	1291.38
499.484	1411.38
499.701	1617.38
499.918	1757.38
500.135	2042.38
500.352	2408.38
500.569	2487.38
500.786	2469.38
501.003	2221.38
501.22	1949.38
