Data from Ni(NO3)2@0.5M.TitratingCurve.Agarose3%dH2O.NegLispCup.LampEnergy10.LIBS07252019_HRD10591_17-57-33-564.txt Node
Date: Thu Jul 25 17:57:33 EDT 2019
User: cochatt
Spectrometer: HR+D1059
Trigger mode: 1
Integration Time (sec): 1.000000E-1
Scans to average: 1
Electric dark correction enabled: true
Nonlinearity correction enabled: false
Boxcar width: 0
XAxis mode: Wavelengths
Number of Pixels in Spectrum: 2048
>>>>>Begin Spectral Data<<<<<
223.165	4.5
223.4	4.5
223.635	4.5
223.869	-12.5
224.104	-20.5
224.338	-18.5
224.573	-26.5
224.808	-10.5
225.042	-17.5
225.277	-9.5
225.511	-1.5
225.746	10.5
225.98	-5.5
226.215	-1.5
226.449	13.5
226.683	30.5
226.918	28.5
227.152	36.5
227.387	39.5
227.621	31.5
227.856	29.5
228.09	36.5
228.324	40.5
228.559	51.5
228.793	80.5
229.027	140.5
229.262	122.5
229.496	137.5
229.73	147.5
229.964	169.5
230.199	196.5
230.433	186.5
230.667	186.5
230.901	193.5
231.136	176.5
231.37	162.5
231.604	172.5
231.838	183.5
232.072	212.5
232.306	199.5
232.541	210.5
232.775	186.5
233.009	191.5
233.243	184.5
233.477	173.5
233.711	192.5
233.945	198.5
234.179	172.5
234.413	199.5
234.647	204.5
234.881	198.5
235.115	194.5
235.349	174.5
235.583	195.5
235.817	194.5
236.051	192.5
236.285	199.5
236.519	207.5
236.753	211.5
236.987	201.5
237.221	207.5
237.455	184.5
237.689	222.5
237.922	207.5
238.156	206.5
238.39	201.5
238.624	208.5
238.858	208.5
239.091	220.5
239.325	224.5
239.559	235.5
239.793	256.5
240.027	233.5
240.26	220.5
240.494	228.5
240.728	220.5
240.961	230.5
241.195	223.5
241.429	251.5
241.662	253.5
241.896	274.5
242.13	285.5
242.363	239.5
242.597	257.5
242.83	278.5
243.064	250.5
243.298	244.5
243.531	261.5
243.765	287.5
243.998	288.5
244.232	259.5
244.465	269.5
244.699	262.5
244.932	279.5
245.166	268.5
245.399	268.5
245.633	292.5
245.866	290.5
246.099	280.5
246.333	280.5
246.566	280.5
246.8	292.5
247.033	302.5
247.266	307.5
247.5	295.5
247.733	291.5
247.966	307.5
248.2	321.5
248.433	312.5
248.666	316.5
248.899	333.5
249.133	319.5
249.366	341.5
249.599	342.5
249.832	337.5
250.066	343.5
250.299	350.5
250.532	351.5
250.765	366.5
250.998	375.5
251.231	376.5
251.465	406.5
251.698	378.5
251.931	393.5
252.164	375.5
252.397	380.5
252.63	383.5
252.863	370.5
253.096	370.5
253.329	389.5
253.562	398.5
253.795	392.5
254.028	380.5
254.261	382.5
254.494	396.5
254.727	415.5
254.96	414.5
255.193	422.5
255.426	392.5
255.659	404.5
255.892	410.5
256.124	407.5
256.357	425.5
256.59	439.5
256.823	438.5
257.056	438.5
257.289	447.5
257.521	421.5
257.754	452.5
257.987	444.5
258.22	460.5
258.452	456.5
258.685	466.5
258.918	459.5
259.151	478.5
259.383	486.5
259.616	482.5
259.849	478.5
260.081	466.5
260.314	446.5
260.547	492.5
260.779	483.5
261.012	504.5
261.244	490.5
261.477	508.5
261.71	514.5
261.942	495.5
262.175	506.5
262.407	508.5
262.64	505.5
262.872	503.5
263.105	507.5
263.337	524.5
263.57	525.5
263.802	525.5
264.035	534.5
264.267	538.5
264.499	533.5
264.732	527.5
264.964	526.5
265.197	530.5
265.429	535.5
265.661	546.5
265.894	521.5
266.126	552.5
266.358	555.5
266.591	564.5
266.823	538.5
267.055	565.5
267.287	576.5
267.52	540.5
267.752	575.5
267.984	571.5
268.216	577.5
268.448	575.5
268.681	592.5
268.913	574.5
269.145	603.5
269.377	571.5
269.609	587.5
269.841	605.5
270.073	602.5
270.306	580.5
270.538	577.5
270.77	604.5
271.002	592.5
271.234	590.5
271.466	573.5
271.698	576.5
271.93	604.5
272.162	612.5
272.394	611.5
272.626	619.5
272.858	615.5
273.09	600.5
273.322	603.5
273.553	621.5
273.785	634.5
274.017	601.5
274.249	622.5
274.481	632.5
274.713	645.5
274.945	619.5
275.176	652.5
275.408	639.5
275.64	639.5
275.872	631.5
276.104	639.5
276.335	649.5
276.567	639.5
276.799	633.5
277.031	643.5
277.262	653.5
277.494	660.5
277.726	656.5
277.957	661.5
278.189	652.5
278.421	664.5
278.652	669.5
278.884	642.5
279.115	678.5
279.347	684.5
279.579	684.5
279.81	672.5
280.042	664.5
280.273	704.5
280.505	687.5
280.736	685.5
280.968	676.5
281.199	683.5
281.431	670.5
281.662	698.5
281.894	709.5
282.125	692.5
282.356	688.5
282.588	706.5
282.819	679.5
283.051	710.5
283.282	691.5
283.513	721.5
283.745	700.5
283.976	718.5
284.207	710.5
284.439	706.5
284.67	711.5
284.901	724.5
285.132	724.5
285.364	762.5
285.595	727.5
285.826	720.5
286.057	741.5
286.288	730.5
286.52	730.5
286.751	729.5
286.982	719.5
287.213	713.5
287.444	744.5
287.675	744.5
287.906	738.5
288.138	746.5
288.369	733.5
288.6	728.5
288.831	748.5
289.062	722.5
289.293	763.5
289.524	735.5
289.755	751.5
289.986	764.5
290.217	760.5
290.448	762.5
290.679	752.5
290.91	770.5
291.141	759.5
291.371	749.5
291.602	756.5
291.833	766.5
292.064	758.5
292.295	782.5
292.526	765.5
292.757	754.5
292.987	772.5
293.218	757.5
293.449	762.5
293.68	756.5
293.91	791.5
294.141	780.5
294.372	749.5
294.603	794.5
294.833	769.5
295.064	778.5
295.295	796.5
295.525	788.5
295.756	767.5
295.987	752.5
296.217	788.5
296.448	798.5
296.679	804.5
296.909	755.5
297.14	802.5
297.37	797.5
297.601	792.5
297.831	795.5
298.062	806.5
298.292	778.5
298.523	823.5
298.753	820.5
298.984	805.5
299.214	808.5
299.445	843.5
299.675	847.5
299.905	830.5
300.136	828.5
300.366	846.5
300.597	864.5
300.827	832.5
301.057	837.5
301.288	846.5
301.518	864.5
301.748	846.5
301.979	831.5
302.209	861.5
302.439	858.5
302.669	854.5
302.9	850.5
303.13	832.5
303.36	842.5
303.59	865.5
303.82	878.5
304.051	874.5
304.281	883.5
304.511	864.5
304.741	862.5
304.971	894.5
305.201	894.5
305.431	901.5
305.661	919.5
305.891	911.5
306.121	890.5
306.352	880.5
306.582	892.5
306.812	866.5
307.042	866.5
307.272	886.5
307.502	904.5
307.731	902.5
307.961	900.5
308.191	904.5
308.421	887.5
308.651	883.5
308.881	915.5
309.111	925.5
309.341	917.5
309.571	928.5
309.8	925.5
310.03	947.5
310.26	957.5
310.49	943.5
310.72	976.5
310.949	937.5
311.179	934.5
311.409	936.5
311.639	946.5
311.868	956.5
312.098	936.5
312.328	974.5
312.557	996.5
312.787	955.5
313.017	947.5
313.246	992.5
313.476	970.5
313.706	989.5
313.935	985.5
314.165	991.5
314.394	965.5
314.624	954.5
314.853	955.5
315.083	980.5
315.312	988.5
315.542	988.5
315.771	988.5
316.001	993.5
316.23	1010.5
316.46	1007.5
316.689	1018.5
316.919	1014.5
317.148	1038.5
317.377	996.5
317.607	1001.5
317.836	1018.5
318.065	1025.5
318.295	1075.5
318.524	1045.5
318.753	1043.5
318.983	1052.5
319.212	1058.5
319.441	1062.5
319.67	1069.5
319.9	1047.5
320.129	1059.5
320.358	1082.5
320.587	1065.5
320.816	1080.5
321.046	1090.5
321.275	1092.5
321.504	1082.5
321.733	1095.5
321.962	1090.5
322.191	1090.5
322.42	1103.5
322.649	1099.5
322.878	1116.5
323.108	1102.5
323.337	1124.5
323.566	1135.5
323.795	1117.5
324.024	1140.5
324.253	1146.5
324.482	1138.5
324.71	1132.5
324.939	1122.5
325.168	1142.5
325.397	1140.5
325.626	1154.5
325.855	1161.5
326.084	1191.5
326.313	1192.5
326.542	1167.5
326.77	1188.5
326.999	1161.5
327.228	1178.5
327.457	1194.5
327.686	1177.5
327.914	1168.5
328.143	1168.5
328.372	1222.5
328.6	1206.5
328.829	1175.5
329.058	1177.5
329.287	1187.5
329.515	1213.5
329.744	1194.5
329.972	1221.5
330.201	1186.5
330.43	1189.5
330.658	1201.5
330.887	1221.5
331.115	1229.5
331.344	1232.5
331.572	1210.5
331.801	1252.5
332.03	1240.5
332.258	1249.5
332.486	1238.5
332.715	1258.5
332.943	1245.5
333.172	1282.5
333.4	1263.5
333.629	1268.5
333.857	1249.5
334.085	1272.5
334.314	1262.5
334.542	1283.5
334.771	1292.5
334.999	1285.5
335.227	1280.5
335.455	1292.5
335.684	1322.5
335.912	1317.5
336.14	1307.5
336.369	1302.5
336.597	1342.5
336.825	1355.5
337.053	1342.5
337.281	1344.5
337.51	1325.5
337.738	1350.5
337.966	1325.5
338.194	1352.5
338.422	1307.5
338.65	1307.5
338.878	1323.5
339.106	1309.5
339.334	1340.5
339.562	1312.5
339.79	1262.5
340.018	1303.5
340.246	1287.5
340.474	1292.5
340.702	1276.5
340.93	1320.5
341.158	1334.5
341.386	1332.5
341.614	1346.5
341.842	1331.5
342.07	1315.5
342.298	1282.5
342.526	1302.5
342.754	1309.5
342.981	1287.5
343.209	1301.5
343.437	1311.5
343.665	1318.5
343.893	1306.5
344.12	1311.5
344.348	1330.5
344.576	1307.5
344.804	1357.5
345.031	1317.5
345.259	1289.5
345.487	1291.5
345.714	1336.5
345.942	1317.5
346.17	1339.5
346.397	1310.5
346.625	1258.5
346.853	1242.5
347.08	1257.5
347.308	1271.5
347.535	1284.5
347.763	1263.5
347.99	1238.5
348.218	1247.5
348.445	1295.5
348.673	1259.5
348.9	1259.5
349.128	1271.5
349.355	1249.5
349.583	1308.5
349.81	1273.5
350.037	1232.5
350.265	1279.5
350.492	1248.5
350.72	1259.5
350.947	1250.5
351.174	1301.5
351.402	1260.5
351.629	1304.5
351.856	1274.5
352.083	1277.5
352.311	1271.5
352.538	1276.5
352.765	1314.5
352.992	1266.5
353.22	1213.5
353.447	1212.5
353.674	1231.5
353.901	1219.5
354.128	1243.5
354.355	1243.5
354.583	1237.5
354.81	1230.5
355.037	1202.5
355.264	1208.5
355.491	1229.5
355.718	1207.5
355.945	1223.5
356.172	1210.5
356.399	1228.5
356.626	1286.5
356.853	1273.5
357.08	1258.5
357.307	1237.5
357.534	1226.5
357.761	1251.5
357.988	1215.5
358.215	1215.5
358.441	1242.5
358.668	1241.5
358.895	1204.5
359.122	1183.5
359.349	1230.5
359.576	1232.5
359.802	1219.5
360.029	1237.5
360.256	1247.5
360.483	1234.5
360.709	1234.5
360.936	1248.5
361.163	1265.5
361.39	1232.5
361.616	1242.5
361.843	1256.5
362.07	1310.5
362.296	1250.5
362.523	1244.5
362.749	1242.5
362.976	1238.5
363.203	1253.5
363.429	1197.5
363.656	1213.5
363.882	1253.5
364.109	1224.5
364.335	1236.5
364.562	1230.5
364.788	1227.5
365.015	1247.5
365.241	1234.5
365.468	1246.5
365.694	1226.5
365.92	1218.5
366.147	1237.5
366.373	1210.5
366.599	1202.5
366.826	1220.5
367.052	1222.5
367.278	1232.5
367.505	1257.5
367.731	1250.5
367.957	1227.5
368.184	1261.5
368.41	1255.5
368.636	1232.5
368.862	1259.5
369.089	1239.5
369.315	1251.5
369.541	1231.5
369.767	1239.5
369.993	1266.5
370.219	1244.5
370.445	1237.5
370.672	1230.5
370.898	1261.5
371.124	1254.5
371.35	1275.5
371.576	1286.5
371.802	1257.5
372.028	1237.5
372.254	1254.5
372.48	1304.5
372.706	1250.5
372.932	1294.5
373.158	1284.5
373.384	1254.5
373.61	1282.5
373.835	1285.5
374.061	1250.5
374.287	1302.5
374.513	1262.5
374.739	1274.5
374.965	1284.5
375.191	1252.5
375.416	1275.5
375.642	1271.5
375.868	1274.5
376.094	1235.5
376.319	1259.5
376.545	1260.5
376.771	1246.5
376.997	1233.5
377.222	1248.5
377.448	1256.5
377.674	1263.5
377.899	1268.5
378.125	1227.5
378.35	1242.5
378.576	1223.5
378.802	1231.5
379.027	1248.5
379.253	1226.5
379.478	1186.5
379.704	1197.5
379.929	1248.5
380.155	1211.5
380.38	1250.5
380.606	1234.5
380.831	1277.5
381.057	1253.5
381.282	1259.5
381.507	1246.5
381.733	1248.5
381.958	1237.5
382.184	1231.5
382.409	1239.5
382.634	1224.5
382.86	1227.5
383.085	1259.5
383.31	1268.5
383.535	1262.5
383.761	1239.5
383.986	1240.5
384.211	1297.5
384.436	1225.5
384.662	1254.5
384.887	1279.5
385.112	1247.5
385.337	1271.5
385.562	1260.5
385.787	1314.5
386.013	1294.5
386.238	1281.5
386.463	1298.5
386.688	1295.5
386.913	1296.5
387.138	1315.5
387.363	1294.5
387.588	1309.5
387.813	1292.5
388.038	1314.5
388.263	1290.5
388.488	1293.5
388.713	1351.5
388.938	1294.5
389.163	1276.5
389.387	1330.5
389.612	1276.5
389.837	1292.5
390.062	1315.5
390.287	1272.5
390.512	1264.5
390.736	1315.5
390.961	1291.5
391.186	1331.5
391.411	1313.5
391.636	1352.5
391.86	1336.5
392.085	1343.5
392.31	1330.5
392.534	1316.5
392.759	1311.5
392.984	1324.5
393.208	1291.5
393.433	1341.5
393.658	1350.5
393.882	1325.5
394.107	1360.5
394.331	1266.5
394.556	1309.5
394.78	1302.5
395.005	1298.5
395.229	1296.5
395.454	1342.5
395.678	1326.5
395.903	1326.5
396.127	1320.5
396.352	1344.5
396.576	1323.5
396.801	1316.5
397.025	1351.5
397.249	1349.5
397.474	1366.5
397.698	1332.5
397.922	1360.5
398.147	1385.5
398.371	1377.5
398.595	1381.5
398.82	1406.5
399.044	1414.5
399.268	1430.5
399.492	1374.5
399.717	1410.5
399.941	1430.5
400.165	1446.5
400.389	1461.5
400.613	1443.5
400.837	1442.5
401.062	1442.5
401.286	1396.5
401.51	1416.5
401.734	1427.5
401.958	1432.5
402.182	1423.5
402.406	1400.5
402.63	1415.5
402.854	1396.5
403.078	1433.5
403.302	1406.5
403.526	1405.5
403.75	1374.5
403.974	1434.5
404.198	1372.5
404.422	1410.5
404.645	1412.5
404.869	1416.5
405.093	1427.5
405.317	1404.5
405.541	1432.5
405.765	1434.5
405.988	1440.5
406.212	1420.5
406.436	1456.5
406.66	1481.5
406.883	1458.5
407.107	1487.5
407.331	1489.5
407.555	1481.5
407.778	1491.5
408.002	1480.5
408.226	1505.5
408.449	1499.5
408.673	1500.5
408.896	1465.5
409.12	1494.5
409.344	1505.5
409.567	1494.5
409.791	1471.5
410.014	1484.5
410.238	1448.5
410.461	1495.5
410.685	1467.5
410.908	1461.5
411.132	1468.5
411.355	1395.5
411.578	1444.5
411.802	1426.5
412.025	1423.5
412.249	1458.5
412.472	1422.5
412.695	1427.5
412.919	1415.5
413.142	1387.5
413.365	1424.5
413.589	1425.5
413.812	1432.5
414.035	1403.5
414.258	1426.5
414.482	1432.5
414.705	1434.5
414.928	1409.5
415.151	1403.5
415.374	1431.5
415.597	1374.5
415.821	1422.5
416.044	1387.5
416.267	1340.5
416.49	1389.5
416.713	1398.5
416.936	1422.5
417.159	1382.5
417.382	1387.5
417.605	1354.5
417.828	1381.5
418.051	1363.5
418.274	1366.5
418.497	1355.5
418.72	1344.5
418.943	1346.5
419.166	1418.5
419.389	1462.5
419.611	1421.5
419.834	1415.5
420.057	1404.5
420.28	1392.5
420.503	1338.5
420.726	1356.5
420.948	1351.5
421.171	1369.5
421.394	1348.5
421.617	1346.5
421.839	1353.5
422.062	1339.5
422.285	1355.5
422.507	1382.5
422.73	1344.5
422.953	1347.5
423.175	1342.5
423.398	1360.5
423.621	1330.5
423.843	1344.5
424.066	1337.5
424.288	1357.5
424.511	1380.5
424.733	1340.5
424.956	1382.5
425.178	1358.5
425.401	1357.5
425.623	1369.5
425.846	1356.5
426.068	1378.5
426.291	1354.5
426.513	1336.5
426.735	1366.5
426.958	1374.5
427.18	1348.5
427.402	1355.5
427.625	1368.5
427.847	1338.5
428.069	1348.5
428.292	1383.5
428.514	1356.5
428.736	1353.5
428.958	1370.5
429.181	1336.5
429.403	1355.5
429.625	1351.5
429.847	1356.5
430.069	1349.5
430.292	1390.5
430.514	1345.5
430.736	1356.5
430.958	1383.5
431.18	1338.5
431.402	1367.5
431.624	1340.5
431.846	1356.5
432.068	1320.5
432.29	1352.5
432.512	1320.5
432.734	1382.5
432.956	1380.5
433.178	1394.5
433.4	1407.5
433.622	1387.5
433.844	1348.5
434.066	1366.5
434.287	1372.5
434.509	1348.5
434.731	1369.5
434.953	1405.5
435.175	1375.5
435.397	1414.5
435.618	1379.5
435.84	1348.5
436.062	1375.5
436.284	1371.5
436.505	1403.5
436.727	1387.5
436.949	1363.5
437.17	1369.5
437.392	1372.5
437.614	1338.5
437.835	1297.5
438.057	1334.5
438.278	1339.5
438.5	1318.5
438.721	1339.5
438.943	1300.5
439.165	1319.5
439.386	1343.5
439.608	1354.5
439.829	1330.5
440.05	1306.5
440.272	1339.5
440.493	1372.5
440.715	1354.5
440.936	1332.5
441.158	1330.5
441.379	1373.5
441.6	1391.5
441.822	1405.5
442.043	1359.5
442.264	1355.5
442.486	1349.5
442.707	1402.5
442.928	1356.5
443.149	1356.5
443.371	1380.5
443.592	1422.5
443.813	1412.5
444.034	1377.5
444.255	1388.5
444.476	1350.5
444.698	1374.5
444.919	1403.5
445.14	1502.5
445.361	1468.5
445.582	1353.5
445.803	1375.5
446.024	1352.5
446.245	1378.5
446.466	1357.5
446.687	1330.5
446.908	1319.5
447.129	1306.5
447.35	1320.5
447.571	1339.5
447.792	1261.5
448.013	1280.5
448.234	1277.5
448.455	1255.5
448.675	1283.5
448.896	1268.5
449.117	1259.5
449.338	1289.5
449.559	1250.5
449.779	1244.5
450	1221.5
450.221	1255.5
450.442	1300.5
450.662	1238.5
450.883	1252.5
451.104	1283.5
451.324	1246.5
451.545	1261.5
451.766	1241.5
451.986	1255.5
452.207	1220.5
452.428	1217.5
452.648	1224.5
452.869	1213.5
453.089	1215.5
453.31	1280.5
453.53	1234.5
453.751	1221.5
453.971	1225.5
454.192	1245.5
454.412	1256.5
454.633	1236.5
454.853	1220.5
455.073	1222.5
455.294	1224.5
455.514	1234.5
455.734	1240.5
455.955	1222.5
456.175	1246.5
456.395	1206.5
456.616	1182.5
456.836	1208.5
457.056	1222.5
457.276	1158.5
457.497	1225.5
457.717	1235.5
457.937	1237.5
458.157	1226.5
458.377	1195.5
458.598	1245.5
458.818	1240.5
459.038	1224.5
459.258	1255.5
459.478	1320.5
459.698	1360.5
459.918	1342.5
460.138	1317.5
460.358	1324.5
460.578	1330.5
460.798	1378.5
461.018	1375.5
461.238	1335.5
461.458	1350.5
461.678	1314.5
461.898	1340.5
462.118	1296.5
462.338	1346.5
462.558	1348.5
462.777	1372.5
462.997	1387.5
463.217	1419.5
463.437	1448.5
463.657	1432.5
463.876	1423.5
464.096	1394.5
464.316	1400.5
464.536	1387.5
464.755	1406.5
464.975	1391.5
465.195	1343.5
465.414	1342.5
465.634	1335.5
465.854	1344.5
466.073	1310.5
466.293	1302.5
466.512	1286.5
466.732	1274.5
466.951	1308.5
467.171	1334.5
467.391	1359.5
467.61	1301.5
467.829	1290.5
468.049	1296.5
468.268	1282.5
468.488	1325.5
468.707	1298.5
468.927	1308.5
469.146	1314.5
469.365	1343.5
469.585	1318.5
469.804	1312.5
470.023	1305.5
470.243	1299.5
470.462	1324.5
470.681	1283.5
470.901	1322.5
471.12	1317.5
471.339	1340.5
471.558	1310.5
471.777	1335.5
471.997	1314.5
472.216	1343.5
472.435	1302.5
472.654	1315.5
472.873	1332.5
473.092	1306.5
473.311	1310.5
473.53	1341.5
473.749	1359.5
473.968	1356.5
474.187	1323.5
474.406	1334.5
474.625	1337.5
474.844	1342.5
475.063	1389.5
475.282	1389.5
475.501	1374.5
475.72	1400.5
475.939	1410.5
476.158	1398.5
476.377	1430.5
476.596	1404.5
476.814	1418.5
477.033	1417.5
477.252	1432.5
477.471	1489.5
477.69	1460.5
477.908	1481.5
478.127	1479.5
478.346	1479.5
478.564	1543.5
478.783	1481.5
479.002	1595.5
479.22	1557.5
479.439	1556.5
479.658	1536.5
479.876	1529.5
480.095	1515.5
480.313	1534.5
480.532	1558.5
480.751	1565.5
480.969	1572.5
481.188	1548.5
481.406	1562.5
481.624	1557.5
481.843	1554.5
482.061	1528.5
482.28	1566.5
482.498	1581.5
482.717	1566.5
482.935	1653.5
483.153	1634.5
483.372	1682.5
483.59	1670.5
483.808	1622.5
484.027	1607.5
484.245	1600.5
484.463	1646.5
484.681	1666.5
484.9	1636.5
485.118	1628.5
485.336	1629.5
485.554	1625.5
485.772	1646.5
485.99	1632.5
486.209	1628.5
486.427	1631.5
486.645	1634.5
486.863	1660.5
487.081	1658.5
487.299	1681.5
487.517	1670.5
487.735	1699.5
487.953	1731.5
488.171	1724.5
488.389	1675.5
488.607	1674.5
488.825	1702.5
489.043	1652.5
489.261	1643.5
489.479	1667.5
489.696	1642.5
489.914	1658.5
490.132	1672.5
490.35	1638.5
490.568	1664.5
490.786	1699.5
491.003	1674.5
491.221	1703.5
491.439	1662.5
491.657	1712.5
491.874	1679.5
492.092	1702.5
492.31	1739.5
492.527	1718.5
492.745	1724.5
492.963	1700.5
493.18	1728.5
493.398	1752.5
493.615	1706.5
493.833	1703.5
494.05	1706.5
494.268	1712.5
494.485	1702.5
494.703	1704.5
494.92	1738.5
495.138	1715.5
495.355	1737.5
495.573	1774.5
495.79	1749.5
496.008	1726.5
496.225	1725.5
496.442	1704.5
496.66	1734.5
496.877	1723.5
497.094	1748.5
497.312	1746.5
497.529	1774.5
497.746	1772.5
497.963	1795.5
498.181	1841.5
498.398	1878.5
498.615	1856.5
498.832	1858.5
499.049	1888.5
499.267	1889.5
499.484	1892.5
499.701	1916.5
499.918	1950.5
500.135	1964.5
500.352	2032.5
500.569	1974.5
500.786	1962.5
501.003	1970.5
501.22	1968.5
501.437	1949.5
501.654	1900.5
501.871	1916.5
502.088	1883.5
502.305	1898.5
502.522	1852.5
502.739	1848.5
502.956	1773.5
503.172	1763.5
503.389	1774.5
503.606	1741.5
503.823	1738.5
504.04	1696.5
504.256	1708.5
504.473	1688.5
504.69	1640.5
504.907	1624.5
505.123	1631.5
505.34	1620.5
505.557	1624.5
505.773	1615.5
505.99	1590.5
506.207	1601.5
506.423	1555.5
506.64	1528.5
506.856	1509.5
507.073	1532.5
