Data from Ni(NO3)2@0.25M.TitratingCurve.Agarose3%dH2O.NegLispCup.LampEnergy10.LIBS07252019_HRD10591_18-04-24-566.txt Node
Date: Thu Jul 25 18:04:24 EDT 2019
User: cochatt
Spectrometer: HR+D1059
Trigger mode: 1
Integration Time (sec): 1.000000E-1
Scans to average: 1
Electric dark correction enabled: true
Nonlinearity correction enabled: false
Boxcar width: 0
XAxis mode: Wavelengths
Number of Pixels in Spectrum: 2048
>>>>>Begin Spectral Data<<<<<
223.165	-16.69
223.4	-16.69
223.635	-16.69
223.869	-18.69
224.104	-25.69
224.338	-10.69
224.573	-16.69
224.808	-7.69
225.042	-12.69
225.277	0.31
225.511	0.31
225.746	12.31
225.98	4.31
226.215	10.31
226.449	12.31
226.683	11.31
226.918	24.31
227.152	33.31
227.387	32.31
227.621	49.31
227.856	46.31
228.09	41.31
228.324	58.31
228.559	57.31
228.793	72.31
229.027	99.31
229.262	104.31
229.496	121.31
229.73	131.31
229.964	129.31
230.199	134.31
230.433	137.31
230.667	146.31
230.901	140.31
231.136	141.31
231.37	149.31
231.604	146.31
231.838	148.31
232.072	157.31
232.306	149.31
232.541	167.31
232.775	157.31
233.009	162.31
233.243	154.31
233.477	151.31
233.711	148.31
233.945	162.31
234.179	155.31
234.413	162.31
234.647	161.31
234.881	140.31
235.115	141.31
235.349	157.31
235.583	139.31
235.817	149.31
236.051	160.31
236.285	157.31
236.519	151.31
236.753	167.31
236.987	172.31
237.221	163.31
237.455	164.31
237.689	185.31
237.922	171.31
238.156	163.31
238.39	169.31
238.624	171.31
238.858	181.31
239.091	169.31
239.325	167.31
239.559	186.31
239.793	194.31
240.027	191.31
240.26	170.31
240.494	185.31
240.728	198.31
240.961	181.31
241.195	187.31
241.429	189.31
241.662	197.31
241.896	198.31
242.13	206.31
242.363	209.31
242.597	204.31
242.83	203.31
243.064	203.31
243.298	216.31
243.531	206.31
243.765	223.31
243.998	224.31
244.232	209.31
244.465	215.31
244.699	209.31
244.932	220.31
245.166	235.31
245.399	225.31
245.633	224.31
245.866	233.31
246.099	217.31
246.333	240.31
246.566	229.31
246.8	233.31
247.033	223.31
247.266	233.31
247.5	231.31
247.733	240.31
247.966	237.31
248.2	259.31
248.433	260.31
248.666	263.31
248.899	240.31
249.133	244.31
249.366	251.31
249.599	256.31
249.832	273.31
250.066	275.31
250.299	262.31
250.532	269.31
250.765	265.31
250.998	275.31
251.231	276.31
251.465	284.31
251.698	292.31
251.931	285.31
252.164	287.31
252.397	295.31
252.63	329.31
252.863	291.31
253.096	305.31
253.329	305.31
253.562	316.31
253.795	293.31
254.028	305.31
254.261	313.31
254.494	323.31
254.727	291.31
254.96	310.31
255.193	323.31
255.426	321.31
255.659	317.31
255.892	321.31
256.124	317.31
256.357	348.31
256.59	320.31
256.823	333.31
257.056	310.31
257.289	329.31
257.521	318.31
257.754	329.31
257.987	343.31
258.22	347.31
258.452	347.31
258.685	353.31
258.918	362.31
259.151	346.31
259.383	354.31
259.616	342.31
259.849	350.31
260.081	346.31
260.314	363.31
260.547	355.31
260.779	367.31
261.012	370.31
261.244	378.31
261.477	376.31
261.71	371.31
261.942	371.31
262.175	372.31
262.407	351.31
262.64	380.31
262.872	368.31
263.105	384.31
263.337	377.31
263.57	369.31
263.802	375.31
264.035	384.31
264.267	382.31
264.499	377.31
264.732	382.31
264.964	395.31
265.197	382.31
265.429	405.31
265.661	396.31
265.894	427.31
266.126	406.31
266.358	407.31
266.591	403.31
266.823	403.31
267.055	404.31
267.287	407.31
267.52	411.31
267.752	412.31
267.984	419.31
268.216	409.31
268.448	435.31
268.681	419.31
268.913	419.31
269.145	417.31
269.377	410.31
269.609	409.31
269.841	432.31
270.073	413.31
270.306	433.31
270.538	418.31
270.77	425.31
271.002	429.31
271.234	452.31
271.466	427.31
271.698	441.31
271.93	462.31
272.162	447.31
272.394	461.31
272.626	435.31
272.858	439.31
273.09	458.31
273.322	467.31
273.553	446.31
273.785	451.31
274.017	444.31
274.249	449.31
274.481	453.31
274.713	449.31
274.945	488.31
275.176	480.31
275.408	477.31
275.64	477.31
275.872	451.31
276.104	484.31
276.335	477.31
276.567	476.31
276.799	474.31
277.031	473.31
277.262	468.31
277.494	470.31
277.726	487.31
277.957	512.31
278.189	493.31
278.421	485.31
278.652	477.31
278.884	500.31
279.115	477.31
279.347	490.31
279.579	503.31
279.81	506.31
280.042	486.31
280.273	508.31
280.505	503.31
280.736	513.31
280.968	523.31
281.199	521.31
281.431	520.31
281.662	517.31
281.894	522.31
282.125	526.31
282.356	535.31
282.588	539.31
282.819	501.31
283.051	527.31
283.282	530.31
283.513	552.31
283.745	538.31
283.976	525.31
284.207	535.31
284.439	555.31
284.67	559.31
284.901	556.31
285.132	575.31
285.364	548.31
285.595	531.31
285.826	547.31
286.057	570.31
286.288	561.31
286.52	557.31
286.751	550.31
286.982	555.31
287.213	541.31
287.444	551.31
287.675	549.31
287.906	537.31
288.138	571.31
288.369	571.31
288.6	569.31
288.831	588.31
289.062	569.31
289.293	604.31
289.524	577.31
289.755	586.31
289.986	564.31
290.217	589.31
290.448	569.31
290.679	573.31
290.91	586.31
291.141	594.31
291.371	599.31
291.602	593.31
291.833	581.31
292.064	592.31
292.295	585.31
292.526	590.31
292.757	589.31
292.987	564.31
293.218	595.31
293.449	594.31
293.68	624.31
293.91	601.31
294.141	583.31
294.372	605.31
294.603	608.31
294.833	597.31
295.064	594.31
295.295	595.31
295.525	587.31
295.756	593.31
295.987	606.31
296.217	613.31
296.448	634.31
296.679	597.31
296.909	608.31
297.14	614.31
297.37	589.31
297.601	634.31
297.831	621.31
298.062	612.31
298.292	643.31
298.523	652.31
298.753	649.31
298.984	643.31
299.214	641.31
299.445	633.31
299.675	630.31
299.905	653.31
300.136	650.31
300.366	648.31
300.597	656.31
300.827	657.31
301.057	664.31
301.288	678.31
301.518	669.31
301.748	678.31
301.979	684.31
302.209	682.31
302.439	681.31
302.669	679.31
302.9	654.31
303.13	672.31
303.36	680.31
303.59	666.31
303.82	685.31
304.051	700.31
304.281	673.31
304.511	654.31
304.741	678.31
304.971	685.31
305.201	683.31
305.431	692.31
305.661	691.31
305.891	676.31
306.121	675.31
306.352	684.31
306.582	651.31
306.812	664.31
307.042	654.31
307.272	677.31
307.502	658.31
307.731	683.31
307.961	651.31
308.191	664.31
308.421	663.31
308.651	654.31
308.881	659.31
309.111	669.31
309.341	672.31
309.571	704.31
309.8	661.31
310.03	676.31
310.26	701.31
310.49	716.31
310.72	681.31
310.949	663.31
311.179	681.31
311.409	691.31
311.639	690.31
311.868	673.31
312.098	692.31
312.328	708.31
312.557	726.31
312.787	701.31
313.017	678.31
313.246	721.31
313.476	734.31
313.706	741.31
313.935	737.31
314.165	732.31
314.394	727.31
314.624	727.31
314.853	732.31
315.083	729.31
315.312	737.31
315.542	737.31
315.771	717.31
316.001	738.31
316.23	717.31
316.46	719.31
316.689	716.31
316.919	728.31
317.148	727.31
317.377	735.31
317.607	718.31
317.836	738.31
318.065	732.31
318.295	746.31
318.524	741.31
318.753	741.31
318.983	744.31
319.212	731.31
319.441	756.31
319.67	739.31
319.9	735.31
320.129	737.31
320.358	731.31
320.587	727.31
320.816	732.31
321.046	772.31
321.275	751.31
321.504	760.31
321.733	773.31
321.962	746.31
322.191	782.31
322.42	754.31
322.649	748.31
322.878	783.31
323.108	763.31
323.337	772.31
323.566	796.31
323.795	779.31
324.024	816.31
324.253	785.31
324.482	801.31
324.71	807.31
324.939	829.31
325.168	815.31
325.397	817.31
325.626	837.31
325.855	802.31
326.084	820.31
326.313	836.31
326.542	832.31
326.77	855.31
326.999	860.31
327.228	827.31
327.457	848.31
327.686	829.31
327.914	856.31
328.143	847.31
328.372	829.31
328.6	841.31
328.829	843.31
329.058	871.31
329.287	835.31
329.515	869.31
329.744	872.31
329.972	888.31
330.201	879.31
330.43	876.31
330.658	874.31
330.887	885.31
331.115	905.31
331.344	911.31
331.572	947.31
331.801	931.31
332.03	943.31
332.258	985.31
332.486	1018.31
332.715	1051.31
332.943	1046.31
333.172	1089.31
333.4	1135.31
333.629	1153.31
333.857	1150.31
334.085	1147.31
334.314	1150.31
334.542	1125.31
334.771	1141.31
334.999	1106.31
335.227	1105.31
335.455	1092.31
335.684	1111.31
335.912	1112.31
336.14	1078.31
336.369	1095.31
336.597	1052.31
336.825	1071.31
337.053	1060.31
337.281	1051.31
337.51	1015.31
337.738	1028.31
337.966	1013.31
338.194	1001.31
338.422	1017.31
338.65	967.31
338.878	963.31
339.106	982.31
339.334	999.31
339.562	966.31
339.79	945.31
340.018	939.31
340.246	933.31
340.474	924.31
340.702	952.31
340.93	932.31
341.158	953.31
341.386	940.31
341.614	984.31
341.842	962.31
342.07	915.31
342.298	931.31
342.526	924.31
342.754	937.31
342.981	957.31
343.209	939.31
343.437	1027.31
343.665	1017.31
343.893	1081.31
344.12	1122.31
344.348	1091.31
344.576	1061.31
344.804	975.31
345.031	981.31
345.259	982.31
345.487	961.31
345.714	934.31
345.942	938.31
346.17	965.31
346.397	915.31
346.625	913.31
346.853	894.31
347.08	889.31
347.308	898.31
347.535	918.31
347.763	875.31
347.99	865.31
348.218	889.31
348.445	891.31
348.673	890.31
348.9	912.31
349.128	883.31
349.355	892.31
349.583	927.31
349.81	899.31
350.037	854.31
350.265	874.31
350.492	851.31
350.72	860.31
350.947	870.31
351.174	863.31
351.402	891.31
351.629	921.31
351.856	881.31
352.083	871.31
352.311	876.31
352.538	893.31
352.765	887.31
352.992	864.31
353.22	877.31
353.447	864.31
353.674	850.31
353.901	873.31
354.128	853.31
354.355	849.31
354.583	853.31
354.81	864.31
355.037	876.31
355.264	855.31
355.491	829.31
355.718	855.31
355.945	856.31
356.172	852.31
356.399	861.31
356.626	864.31
356.853	913.31
357.08	892.31
357.307	887.31
357.534	874.31
357.761	889.31
357.988	870.31
358.215	855.31
358.441	865.31
358.668	851.31
358.895	871.31
359.122	868.31
359.349	889.31
359.576	873.31
359.802	864.31
360.029	863.31
360.256	890.31
360.483	869.31
360.709	858.31
360.936	889.31
361.163	887.31
361.39	881.31
361.616	858.31
361.843	872.31
362.07	893.31
362.296	897.31
362.523	882.31
362.749	841.31
362.976	853.31
363.203	881.31
363.429	842.31
363.656	857.31
363.882	857.31
364.109	857.31
364.335	867.31
364.562	860.31
364.788	861.31
365.015	851.31
365.241	866.31
365.468	839.31
365.694	852.31
365.92	843.31
366.147	866.31
366.373	864.31
366.599	858.31
366.826	847.31
367.052	847.31
367.278	851.31
367.505	883.31
367.731	889.31
367.957	883.31
368.184	858.31
368.41	861.31
368.636	871.31
368.862	875.31
369.089	854.31
369.315	879.31
369.541	863.31
369.767	883.31
369.993	903.31
370.219	909.31
370.445	897.31
370.672	888.31
370.898	927.31
371.124	920.31
371.35	932.31
371.576	915.31
371.802	918.31
372.028	908.31
372.254	913.31
372.48	908.31
372.706	942.31
372.932	963.31
373.158	953.31
373.384	934.31
373.61	930.31
373.835	948.31
374.061	927.31
374.287	938.31
374.513	927.31
374.739	963.31
374.965	977.31
375.191	970.31
375.416	996.31
375.642	955.31
375.868	974.31
376.094	927.31
376.319	944.31
376.545	921.31
376.771	923.31
376.997	942.31
377.222	917.31
377.448	913.31
377.674	937.31
377.899	925.31
378.125	897.31
378.35	916.31
378.576	924.31
378.802	896.31
379.027	903.31
379.253	889.31
379.478	858.31
379.704	907.31
379.929	907.31
380.155	905.31
380.38	919.31
380.606	894.31
380.831	892.31
381.057	927.31
381.282	915.31
381.507	909.31
381.733	911.31
381.958	915.31
382.184	943.31
382.409	929.31
382.634	937.31
382.86	933.31
383.085	970.31
383.31	976.31
383.535	991.31
383.761	999.31
383.986	982.31
384.211	1005.31
384.436	1018.31
384.662	1095.31
384.887	1039.31
385.112	1079.31
385.337	1096.31
385.562	1069.31
385.787	1070.31
386.013	1111.31
386.238	1115.31
386.463	1092.31
386.688	1103.31
386.913	1088.31
387.138	1094.31
387.363	1059.31
387.588	1072.31
387.813	1091.31
388.038	1073.31
388.263	1065.31
388.488	1083.31
388.713	1071.31
388.938	1081.31
389.163	1041.31
389.387	1065.31
389.612	1074.31
389.837	1067.31
390.062	1076.31
390.287	1086.31
390.512	1064.31
390.736	1103.31
390.961	1131.31
391.186	1132.31
391.411	1185.31
391.636	1190.31
391.86	1179.31
392.085	1234.31
392.31	1214.31
392.534	1187.31
392.759	1162.31
392.984	1150.31
393.208	1151.31
393.433	1145.31
393.658	1106.31
393.882	1169.31
394.107	1168.31
394.331	1145.31
394.556	1172.31
394.78	1161.31
395.005	1178.31
395.229	1171.31
395.454	1226.31
395.678	1234.31
395.903	1201.31
396.127	1183.31
396.352	1178.31
396.576	1179.31
396.801	1179.31
397.025	1212.31
397.249	1226.31
397.474	1223.31
397.698	1229.31
397.922	1271.31
398.147	1260.31
398.371	1317.31
398.595	1332.31
398.82	1405.31
399.044	1465.31
399.268	1638.31
399.492	1778.31
399.717	1933.31
399.941	1932.31
400.165	1818.31
400.389	1663.31
400.613	1550.31
400.837	1485.31
401.062	1450.31
401.286	1403.31
401.51	1395.31
401.734	1397.31
401.958	1392.31
402.182	1424.31
402.406	1419.31
402.63	1445.31
402.854	1454.31
403.078	1447.31
403.302	1477.31
403.526	1516.31
403.75	1503.31
403.974	1530.31
404.198	1516.31
404.422	1503.31
404.645	1516.31
404.869	1520.31
405.093	1520.31
405.317	1514.31
405.541	1466.31
405.765	1472.31
405.988	1508.31
406.212	1538.31
406.436	1516.31
406.66	1567.31
406.883	1586.31
407.107	1625.31
407.331	1698.31
407.555	1775.31
407.778	1735.31
408.002	1700.31
408.226	1688.31
408.449	1645.31
408.673	1589.31
408.896	1564.31
409.12	1559.31
409.344	1538.31
409.567	1541.31
409.791	1524.31
410.014	1521.31
410.238	1545.31
410.461	1504.31
410.685	1513.31
410.908	1464.31
411.132	1458.31
411.355	1415.31
411.578	1446.31
411.802	1436.31
412.025	1446.31
412.249	1442.31
412.472	1410.31
412.695	1403.31
412.919	1414.31
413.142	1385.31
413.365	1396.31
413.589	1382.31
413.812	1417.31
414.035	1377.31
414.258	1373.31
414.482	1389.31
414.705	1432.31
414.928	1391.31
415.151	1405.31
415.374	1399.31
415.597	1404.31
415.821	1379.31
416.044	1331.31
416.267	1344.31
416.49	1348.31
416.713	1352.31
416.936	1369.31
417.159	1360.31
417.382	1341.31
417.605	1327.31
417.828	1370.31
418.051	1368.31
418.274	1370.31
418.497	1377.31
418.72	1404.31
418.943	1425.31
419.166	1508.31
419.389	1585.31
419.611	1526.31
419.834	1493.31
420.057	1423.31
420.28	1365.31
420.503	1367.31
420.726	1348.31
420.948	1337.31
421.171	1385.31
421.394	1371.31
421.617	1324.31
421.839	1361.31
422.062	1412.31
422.285	1345.31
422.507	1399.31
422.73	1399.31
422.953	1425.31
423.175	1411.31
423.398	1453.31
423.621	1407.31
423.843	1429.31
424.066	1440.31
424.288	1422.31
424.511	1404.31
424.733	1426.31
424.956	1398.31
425.178	1392.31
425.401	1393.31
425.623	1377.31
425.846	1361.31
426.068	1361.31
426.291	1314.31
426.513	1311.31
426.735	1295.31
426.958	1315.31
427.18	1306.31
427.402	1325.31
427.625	1304.31
427.847	1219.31
428.069	1245.31
428.292	1260.31
428.514	1241.31
428.736	1221.31
428.958	1271.31
429.181	1199.31
429.403	1242.31
429.625	1228.31
429.847	1216.31
430.069	1240.31
430.292	1233.31
430.514	1245.31
430.736	1237.31
430.958	1227.31
431.18	1243.31
431.402	1216.31
431.624	1230.31
431.846	1249.31
432.068	1251.31
432.29	1295.31
432.512	1228.31
432.734	1243.31
432.956	1256.31
433.178	1285.31
433.4	1281.31
433.622	1302.31
433.844	1309.31
434.066	1285.31
434.287	1284.31
434.509	1303.31
434.731	1352.31
434.953	1372.31
435.175	1372.31
435.397	1364.31
435.618	1316.31
435.84	1275.31
436.062	1238.31
436.284	1268.31
436.505	1247.31
436.727	1259.31
436.949	1245.31
437.17	1239.31
437.392	1269.31
437.614	1250.31
437.835	1236.31
438.057	1173.31
438.278	1174.31
438.5	1214.31
438.721	1206.31
438.943	1227.31
439.165	1244.31
439.386	1245.31
439.608	1247.31
439.829	1247.31
440.05	1237.31
440.272	1298.31
440.493	1260.31
440.715	1265.31
440.936	1297.31
441.158	1348.31
441.379	1339.31
441.6	1408.31
441.822	1407.31
442.043	1372.31
442.264	1354.31
442.486	1354.31
442.707	1379.31
442.928	1363.31
443.149	1360.31
443.371	1372.31
443.592	1421.31
443.813	1419.31
444.034	1431.31
444.255	1473.31
444.476	1523.31
444.698	1573.31
444.919	1618.31
445.14	1691.31
445.361	1562.31
445.582	1470.31
445.803	1365.31
446.024	1345.31
446.245	1301.31
446.466	1338.31
446.687	1287.31
446.908	1293.31
447.129	1237.31
447.35	1210.31
447.571	1226.31
447.792	1172.31
448.013	1173.31
448.234	1162.31
448.455	1192.31
448.675	1170.31
448.896	1150.31
449.117	1123.31
449.338	1150.31
449.559	1128.31
449.779	1135.31
450	1132.31
450.221	1185.31
450.442	1128.31
450.662	1147.31
450.883	1131.31
451.104	1151.31
451.324	1177.31
451.545	1175.31
451.766	1131.31
451.986	1144.31
452.207	1116.31
452.428	1127.31
452.648	1148.31
452.869	1121.31
453.089	1109.31
453.31	1115.31
453.53	1085.31
453.751	1097.31
453.971	1078.31
454.192	1076.31
454.412	1088.31
454.633	1079.31
454.853	1097.31
455.073	1096.31
455.294	1063.31
455.514	1080.31
455.734	1109.31
455.955	1056.31
456.175	1047.31
456.395	1060.31
456.616	1029.31
456.836	1061.31
457.056	1099.31
457.276	1043.31
457.497	1083.31
457.717	1060.31
457.937	1075.31
458.157	1122.31
458.377	1124.31
458.598	1112.31
458.818	1147.31
459.038	1207.31
459.258	1188.31
459.478	1273.31
459.698	1325.31
459.918	1344.31
460.138	1364.31
460.358	1423.31
460.578	1419.31
460.798	1499.31
461.018	1490.31
461.238	1432.31
461.458	1448.31
461.678	1451.31
461.898	1487.31
462.118	1475.31
462.338	1557.31
462.558	1601.31
462.777	1647.31
462.997	1737.31
463.217	1866.31
463.437	1900.31
463.657	1793.31
463.876	1719.31
464.096	1707.31
464.316	1683.31
464.536	1649.31
464.755	1623.31
464.975	1585.31
465.195	1473.31
465.414	1425.31
465.634	1362.31
465.854	1327.31
466.073	1291.31
466.293	1285.31
466.512	1259.31
466.732	1261.31
466.951	1202.31
467.171	1217.31
467.391	1225.31
467.61	1187.31
467.829	1169.31
468.049	1185.31
468.268	1183.31
468.488	1165.31
468.707	1177.31
468.927	1195.31
469.146	1170.31
469.365	1181.31
469.585	1189.31
469.804	1219.31
470.023	1202.31
470.243	1204.31
470.462	1255.31
470.681	1228.31
470.901	1211.31
471.12	1214.31
471.339	1199.31
471.558	1187.31
471.777	1184.31
471.997	1157.31
472.216	1132.31
472.435	1151.31
472.654	1125.31
472.873	1132.31
473.092	1117.31
473.311	1151.31
473.53	1165.31
473.749	1146.31
473.968	1091.31
474.187	1105.31
474.406	1119.31
474.625	1131.31
474.844	1115.31
475.063	1143.31
475.282	1151.31
475.501	1137.31
475.72	1172.31
475.939	1128.31
476.158	1167.31
476.377	1178.31
476.596	1173.31
476.814	1195.31
477.033	1224.31
477.252	1219.31
477.471	1228.31
477.69	1266.31
477.908	1280.31
478.127	1347.31
478.346	1353.31
478.564	1366.31
478.783	1389.31
479.002	1381.31
479.22	1428.31
479.439	1419.31
479.658	1397.31
479.876	1385.31
480.095	1413.31
480.313	1464.31
480.532	1480.31
480.751	1489.31
480.969	1424.31
481.188	1414.31
481.406	1350.31
481.624	1315.31
481.843	1289.31
482.061	1327.31
482.28	1309.31
482.498	1288.31
482.717	1259.31
482.935	1305.31
483.153	1302.31
483.372	1317.31
483.59	1310.31
483.808	1312.31
484.027	1316.31
484.245	1292.31
484.463	1272.31
484.681	1321.31
484.9	1316.31
485.118	1340.31
485.336	1307.31
485.554	1285.31
485.772	1303.31
485.99	1333.31
486.209	1329.31
486.427	1348.31
486.645	1384.31
486.863	1329.31
487.081	1346.31
487.299	1324.31
487.517	1336.31
487.735	1349.31
487.953	1333.31
488.171	1378.31
488.389	1345.31
488.607	1315.31
488.825	1351.31
489.043	1305.31
489.261	1345.31
489.479	1328.31
489.696	1324.31
489.914	1363.31
490.132	1340.31
490.35	1347.31
490.568	1376.31
490.786	1359.31
491.003	1365.31
491.221	1402.31
491.439	1381.31
491.657	1396.31
491.874	1376.31
492.092	1394.31
492.31	1427.31
492.527	1398.31
492.745	1446.31
492.963	1436.31
493.18	1429.31
493.398	1463.31
493.615	1438.31
493.833	1433.31
494.05	1425.31
494.268	1462.31
