Data from Ni(NO3)2Standard.Agarose3%.GreenCap.LampEnergy5.5.E.O_HRD10591_14-40-48-188.txt Node
Date: Mon Jul 22 14:40:48 EDT 2019
User: cochatt
Spectrometer: HR+D1059
Trigger mode: 1
Integration Time (sec): 1.000000E-1
Scans to average: 1
Electric dark correction enabled: true
Nonlinearity correction enabled: false
Boxcar width: 0
XAxis mode: Wavelengths
Number of Pixels in Spectrum: 2048
>>>>>Begin Spectral Data<<<<<
223.165	-32.75
223.4	-32.75
223.635	-32.75
223.869	-19.75
224.104	-13.75
224.338	-9.75
224.573	-5.75
224.808	-12.75
225.042	-14.75
225.277	-4.75
225.511	11.25
225.746	-2.75
225.98	20.25
226.215	-0.75
226.449	21.25
226.683	13.25
226.918	19.25
227.152	32.25
227.387	39.25
227.621	37.25
227.856	34.25
228.09	43.25
228.324	48.25
228.559	59.25
228.793	57.25
229.027	58.25
229.262	66.25
229.496	74.25
229.73	63.25
229.964	74.25
230.199	82.25
230.433	61.25
230.667	70.25
230.901	81.25
231.136	67.25
231.37	81.25
231.604	75.25
231.838	82.25
232.072	90.25
232.306	85.25
232.541	94.25
232.775	78.25
233.009	77.25
233.243	87.25
233.477	89.25
233.711	72.25
233.945	79.25
234.179	70.25
234.413	80.25
234.647	84.25
234.881	76.25
235.115	75.25
235.349	95.25
235.583	94.25
235.817	65.25
236.051	79.25
236.285	84.25
236.519	73.25
236.753	84.25
236.987	86.25
237.221	88.25
237.455	75.25
237.689	82.25
237.922	71.25
238.156	83.25
238.39	83.25
238.624	76.25
238.858	81.25
239.091	79.25
239.325	73.25
239.559	71.25
239.793	81.25
240.027	79.25
240.26	83.25
240.494	77.25
240.728	61.25
240.961	56.25
241.195	69.25
241.429	78.25
241.662	69.25
241.896	88.25
242.13	87.25
242.363	76.25
242.597	88.25
242.83	85.25
243.064	74.25
243.298	78.25
243.531	74.25
243.765	68.25
243.998	87.25
244.232	69.25
244.465	81.25
244.699	63.25
244.932	89.25
245.166	74.25
245.399	63.25
245.633	91.25
245.866	87.25
246.099	80.25
246.333	59.25
246.566	77.25
246.8	82.25
247.033	77.25
247.266	59.25
247.5	71.25
247.733	72.25
247.966	75.25
248.2	71.25
248.433	75.25
248.666	71.25
248.899	83.25
249.133	82.25
249.366	77.25
249.599	80.25
249.832	91.25
250.066	89.25
250.299	97.25
250.532	85.25
250.765	70.25
250.998	70.25
251.231	71.25
251.465	80.25
251.698	83.25
251.931	64.25
252.164	71.25
252.397	72.25
252.63	77.25
252.863	77.25
253.096	74.25
253.329	81.25
253.562	82.25
253.795	77.25
254.028	81.25
254.261	76.25
254.494	83.25
254.727	74.25
254.96	77.25
255.193	79.25
255.426	83.25
255.659	65.25
255.892	85.25
256.124	78.25
256.357	76.25
256.59	85.25
256.823	98.25
257.056	79.25
257.289	63.25
257.521	80.25
257.754	85.25
257.987	81.25
258.22	83.25
258.452	80.25
258.685	77.25
258.918	73.25
259.151	81.25
259.383	71.25
259.616	80.25
259.849	82.25
260.081	96.25
260.314	86.25
260.547	89.25
260.779	71.25
261.012	71.25
261.244	79.25
261.477	92.25
261.71	83.25
261.942	81.25
262.175	72.25
262.407	78.25
262.64	65.25
262.872	76.25
263.105	77.25
263.337	60.25
263.57	63.25
263.802	76.25
264.035	91.25
264.267	75.25
264.499	76.25
264.732	89.25
264.964	88.25
265.197	83.25
265.429	89.25
265.661	78.25
265.894	80.25
266.126	73.25
266.358	81.25
266.591	89.25
266.823	74.25
267.055	83.25
267.287	74.25
267.52	72.25
267.752	82.25
267.984	79.25
268.216	72.25
268.448	88.25
268.681	87.25
268.913	77.25
269.145	81.25
269.377	80.25
269.609	84.25
269.841	92.25
270.073	78.25
270.306	87.25
270.538	96.25
270.77	80.25
271.002	80.25
271.234	95.25
271.466	83.25
271.698	84.25
271.93	67.25
272.162	73.25
272.394	96.25
272.626	72.25
272.858	84.25
273.09	71.25
273.322	83.25
273.553	66.25
273.785	85.25
274.017	86.25
274.249	83.25
274.481	87.25
274.713	93.25
274.945	83.25
275.176	79.25
275.408	73.25
275.64	98.25
275.872	72.25
276.104	78.25
276.335	84.25
276.567	82.25
276.799	85.25
277.031	77.25
277.262	80.25
277.494	73.25
277.726	88.25
277.957	83.25
278.189	79.25
278.421	85.25
278.652	84.25
278.884	85.25
279.115	94.25
279.347	92.25
279.579	82.25
279.81	87.25
280.042	92.25
280.273	81.25
280.505	79.25
280.736	84.25
280.968	82.25
281.199	84.25
281.431	79.25
281.662	80.25
281.894	78.25
282.125	73.25
282.356	75.25
282.588	98.25
282.819	88.25
283.051	92.25
283.282	90.25
283.513	94.25
283.745	86.25
283.976	89.25
284.207	83.25
284.439	79.25
284.67	77.25
284.901	96.25
285.132	80.25
285.364	77.25
285.595	91.25
285.826	73.25
286.057	76.25
286.288	72.25
286.52	78.25
286.751	89.25
286.982	79.25
287.213	67.25
287.444	73.25
287.675	86.25
287.906	87.25
288.138	85.25
288.369	79.25
288.6	95.25
288.831	67.25
289.062	83.25
289.293	88.25
289.524	77.25
289.755	75.25
289.986	73.25
290.217	84.25
290.448	87.25
290.679	96.25
290.91	79.25
291.141	93.25
291.371	81.25
291.602	92.25
291.833	83.25
292.064	83.25
292.295	100.25
292.526	70.25
292.757	91.25
292.987	89.25
293.218	76.25
293.449	91.25
293.68	77.25
293.91	83.25
294.141	80.25
294.372	65.25
294.603	77.25
294.833	84.25
295.064	92.25
295.295	77.25
295.525	86.25
295.756	83.25
295.987	94.25
296.217	85.25
296.448	97.25
296.679	93.25
296.909	88.25
297.14	83.25
297.37	84.25
297.601	84.25
297.831	82.25
298.062	79.25
298.292	92.25
298.523	72.25
298.753	82.25
298.984	94.25
299.214	88.25
299.445	70.25
299.675	86.25
299.905	82.25
300.136	96.25
300.366	84.25
300.597	84.25
300.827	76.25
301.057	92.25
301.288	84.25
301.518	86.25
301.748	83.25
301.979	85.25
302.209	72.25
302.439	79.25
302.669	88.25
302.9	81.25
303.13	89.25
303.36	74.25
303.59	91.25
303.82	80.25
304.051	84.25
304.281	85.25
304.511	101.25
304.741	81.25
304.971	97.25
305.201	83.25
305.431	99.25
305.661	94.25
305.891	89.25
306.121	87.25
306.352	79.25
306.582	73.25
306.812	72.25
307.042	84.25
307.272	98.25
307.502	99.25
307.731	106.25
307.961	94.25
308.191	75.25
308.421	66.25
308.651	98.25
308.881	78.25
309.111	83.25
309.341	79.25
309.571	90.25
309.8	85.25
310.03	70.25
310.26	95.25
310.49	87.25
310.72	93.25
310.949	82.25
311.179	99.25
311.409	91.25
311.639	88.25
311.868	83.25
312.098	84.25
312.328	74.25
312.557	93.25
312.787	68.25
313.017	84.25
313.246	82.25
313.476	89.25
313.706	92.25
313.935	88.25
314.165	92.25
314.394	82.25
314.624	83.25
314.853	87.25
315.083	88.25
315.312	84.25
315.542	101.25
315.771	81.25
316.001	74.25
316.23	76.25
316.46	90.25
316.689	75.25
316.919	87.25
317.148	83.25
317.377	83.25
317.607	85.25
317.836	81.25
318.065	75.25
318.295	84.25
318.524	75.25
318.753	85.25
318.983	75.25
319.212	93.25
319.441	92.25
319.67	95.25
319.9	83.25
320.129	87.25
320.358	88.25
320.587	86.25
320.816	78.25
321.046	91.25
321.275	79.25
321.504	74.25
321.733	97.25
321.962	83.25
322.191	88.25
322.42	94.25
322.649	94.25
322.878	104.25
323.108	98.25
323.337	82.25
323.566	72.25
323.795	88.25
324.024	83.25
324.253	84.25
324.482	77.25
324.71	83.25
324.939	86.25
325.168	95.25
325.397	87.25
325.626	87.25
325.855	87.25
326.084	87.25
326.313	87.25
326.542	71.25
326.77	71.25
326.999	93.25
327.228	80.25
327.457	96.25
327.686	97.25
327.914	83.25
328.143	83.25
328.372	88.25
328.6	91.25
328.829	85.25
329.058	97.25
329.287	81.25
329.515	75.25
329.744	95.25
329.972	83.25
330.201	96.25
330.43	88.25
330.658	89.25
330.887	80.25
331.115	93.25
331.344	91.25
331.572	84.25
331.801	83.25
332.03	74.25
332.258	87.25
332.486	88.25
332.715	70.25
332.943	83.25
333.172	82.25
333.4	86.25
333.629	76.25
333.857	79.25
334.085	86.25
334.314	97.25
334.542	71.25
334.771	85.25
334.999	97.25
335.227	99.25
335.455	103.25
335.684	89.25
335.912	71.25
336.14	80.25
336.369	93.25
336.597	90.25
336.825	83.25
337.053	84.25
337.281	76.25
337.51	90.25
337.738	93.25
337.966	89.25
338.194	91.25
338.422	83.25
338.65	85.25
338.878	81.25
339.106	84.25
339.334	97.25
339.562	78.25
339.79	87.25
340.018	86.25
340.246	89.25
340.474	77.25
340.702	105.25
340.93	84.25
341.158	78.25
341.386	88.25
341.614	84.25
341.842	80.25
342.07	86.25
342.298	100.25
342.526	79.25
342.754	85.25
342.981	83.25
343.209	78.25
343.437	80.25
343.665	88.25
343.893	83.25
344.12	88.25
344.348	95.25
344.576	99.25
344.804	92.25
345.031	85.25
345.259	87.25
345.487	92.25
345.714	92.25
345.942	93.25
346.17	89.25
346.397	90.25
346.625	92.25
346.853	85.25
347.08	84.25
347.308	92.25
347.535	81.25
347.763	85.25
347.99	78.25
348.218	86.25
348.445	94.25
348.673	96.25
348.9	75.25
349.128	76.25
349.355	91.25
349.583	90.25
349.81	90.25
350.037	92.25
350.265	92.25
350.492	81.25
350.72	70.25
350.947	93.25
351.174	73.25
351.402	84.25
351.629	69.25
351.856	90.25
352.083	80.25
352.311	95.25
352.538	82.25
352.765	84.25
352.992	80.25
353.22	100.25
353.447	93.25
353.674	79.25
353.901	93.25
354.128	106.25
354.355	107.25
354.583	99.25
354.81	78.25
355.037	95.25
355.264	95.25
355.491	76.25
355.718	83.25
355.945	89.25
356.172	79.25
356.399	83.25
356.626	80.25
356.853	100.25
357.08	100.25
357.307	86.25
357.534	83.25
357.761	88.25
357.988	81.25
358.215	85.25
358.441	86.25
358.668	78.25
358.895	73.25
359.122	86.25
359.349	92.25
359.576	79.25
359.802	87.25
360.029	99.25
360.256	91.25
360.483	80.25
360.709	81.25
360.936	99.25
361.163	79.25
361.39	88.25
361.616	82.25
361.843	97.25
362.07	96.25
362.296	91.25
362.523	84.25
362.749	89.25
362.976	77.25
363.203	92.25
363.429	84.25
363.656	80.25
363.882	87.25
364.109	92.25
364.335	87.25
364.562	85.25
364.788	72.25
365.015	70.25
365.241	85.25
365.468	80.25
365.694	84.25
365.92	84.25
366.147	88.25
366.373	81.25
366.599	86.25
366.826	91.25
367.052	74.25
367.278	90.25
367.505	90.25
367.731	77.25
367.957	89.25
368.184	84.25
368.41	75.25
368.636	83.25
368.862	91.25
369.089	81.25
369.315	86.25
369.541	101.25
369.767	87.25
369.993	88.25
370.219	83.25
370.445	96.25
370.672	79.25
370.898	80.25
371.124	63.25
371.35	74.25
371.576	94.25
371.802	74.25
372.028	74.25
372.254	73.25
372.48	83.25
372.706	87.25
372.932	86.25
373.158	84.25
373.384	91.25
373.61	88.25
373.835	86.25
374.061	92.25
374.287	70.25
374.513	85.25
374.739	86.25
374.965	88.25
375.191	73.25
375.416	89.25
375.642	83.25
375.868	80.25
376.094	85.25
376.319	95.25
376.545	81.25
376.771	86.25
376.997	78.25
377.222	76.25
377.448	74.25
377.674	75.25
377.899	89.25
378.125	75.25
378.35	85.25
378.576	62.25
378.802	76.25
379.027	82.25
379.253	87.25
379.478	77.25
379.704	72.25
379.929	77.25
380.155	76.25
380.38	90.25
380.606	83.25
380.831	98.25
381.057	96.25
381.282	74.25
381.507	100.25
381.733	90.25
381.958	85.25
382.184	85.25
382.409	73.25
382.634	86.25
382.86	78.25
383.085	74.25
383.31	82.25
383.535	84.25
383.761	80.25
383.986	82.25
384.211	91.25
384.436	76.25
384.662	85.25
384.887	93.25
385.112	92.25
385.337	106.25
385.562	91.25
385.787	92.25
386.013	83.25
386.238	95.25
386.463	77.25
386.688	85.25
386.913	84.25
387.138	78.25
387.363	94.25
387.588	87.25
387.813	95.25
388.038	85.25
388.263	74.25
388.488	93.25
388.713	88.25
388.938	81.25
389.163	81.25
389.387	85.25
389.612	89.25
389.837	89.25
390.062	82.25
390.287	83.25
390.512	82.25
390.736	95.25
390.961	106.25
391.186	85.25
391.411	84.25
391.636	78.25
391.86	87.25
392.085	72.25
392.31	83.25
392.534	101.25
392.759	76.25
392.984	80.25
393.208	81.25
393.433	93.25
393.658	90.25
393.882	87.25
394.107	89.25
394.331	83.25
394.556	87.25
394.78	85.25
395.005	89.25
395.229	73.25
395.454	89.25
395.678	76.25
395.903	85.25
396.127	97.25
396.352	81.25
396.576	85.25
396.801	79.25
397.025	85.25
397.249	86.25
397.474	95.25
397.698	91.25
397.922	87.25
398.147	91.25
398.371	84.25
398.595	87.25
398.82	82.25
399.044	89.25
399.268	82.25
399.492	89.25
399.717	91.25
399.941	87.25
400.165	93.25
400.389	85.25
400.613	92.25
400.837	88.25
401.062	74.25
401.286	82.25
401.51	69.25
401.734	87.25
401.958	82.25
402.182	85.25
402.406	86.25
402.63	88.25
402.854	84.25
403.078	80.25
403.302	82.25
403.526	87.25
403.75	75.25
403.974	86.25
404.198	83.25
404.422	98.25
404.645	76.25
404.869	97.25
405.093	77.25
405.317	87.25
405.541	78.25
405.765	82.25
405.988	100.25
406.212	96.25
406.436	92.25
406.66	82.25
406.883	88.25
407.107	89.25
407.331	85.25
407.555	86.25
407.778	89.25
408.002	95.25
408.226	97.25
408.449	94.25
408.673	94.25
408.896	86.25
409.12	66.25
409.344	93.25
409.567	86.25
409.791	81.25
410.014	83.25
410.238	75.25
410.461	88.25
410.685	70.25
410.908	91.25
411.132	89.25
411.355	99.25
411.578	100.25
411.802	86.25
412.025	80.25
412.249	98.25
412.472	90.25
412.695	80.25
412.919	83.25
413.142	80.25
413.365	92.25
413.589	83.25
413.812	82.25
414.035	84.25
414.258	83.25
414.482	81.25
414.705	83.25
414.928	86.25
415.151	85.25
415.374	78.25
415.597	88.25
415.821	87.25
416.044	90.25
416.267	89.25
416.49	94.25
416.713	89.25
416.936	103.25
417.159	83.25
417.382	81.25
417.605	92.25
417.828	72.25
418.051	91.25
418.274	98.25
418.497	79.25
418.72	97.25
418.943	91.25
419.166	78.25
419.389	83.25
419.611	93.25
419.834	81.25
420.057	75.25
420.28	73.25
420.503	82.25
420.726	81.25
420.948	88.25
421.171	90.25
421.394	78.25
421.617	79.25
421.839	78.25
422.062	80.25
422.285	86.25
422.507	89.25
422.73	81.25
422.953	82.25
423.175	80.25
423.398	88.25
423.621	91.25
423.843	94.25
424.066	85.25
424.288	85.25
424.511	98.25
424.733	93.25
424.956	95.25
425.178	82.25
425.401	92.25
425.623	76.25
425.846	86.25
426.068	89.25
426.291	88.25
426.513	81.25
426.735	75.25
426.958	77.25
427.18	85.25
427.402	70.25
427.625	85.25
427.847	86.25
428.069	92.25
428.292	87.25
428.514	88.25
428.736	81.25
428.958	83.25
429.181	73.25
429.403	81.25
429.625	87.25
429.847	88.25
430.069	68.25
430.292	102.25
430.514	91.25
430.736	78.25
430.958	76.25
431.18	88.25
431.402	69.25
431.624	72.25
431.846	87.25
432.068	99.25
432.29	84.25
432.512	85.25
432.734	80.25
432.956	88.25
433.178	89.25
433.4	77.25
433.622	74.25
433.844	90.25
434.066	84.25
434.287	88.25
434.509	77.25
434.731	89.25
434.953	86.25
435.175	94.25
435.397	83.25
435.618	86.25
435.84	95.25
436.062	82.25
436.284	84.25
436.505	95.25
436.727	87.25
436.949	85.25
437.17	92.25
437.392	85.25
437.614	85.25
437.835	82.25
438.057	92.25
438.278	76.25
438.5	106.25
438.721	94.25
438.943	79.25
439.165	83.25
439.386	90.25
439.608	78.25
439.829	83.25
440.05	68.25
440.272	95.25
440.493	94.25
440.715	98.25
440.936	89.25
441.158	88.25
441.379	63.25
441.6	90.25
441.822	84.25
442.043	82.25
442.264	87.25
442.486	78.25
442.707	81.25
442.928	86.25
443.149	77.25
443.371	83.25
443.592	76.25
443.813	82.25
444.034	89.25
444.255	88.25
444.476	86.25
444.698	98.25
444.919	91.25
445.14	196.25
445.361	138.25
445.582	100.25
445.803	84.25
446.024	85.25
446.245	80.25
446.466	89.25
446.687	61.25
446.908	76.25
447.129	87.25
447.35	84.25
447.571	83.25
447.792	73.25
448.013	73.25
448.234	75.25
448.455	89.25
448.675	84.25
448.896	96.25
449.117	81.25
449.338	87.25
449.559	80.25
449.779	79.25
450	80.25
450.221	80.25
450.442	89.25
450.662	62.25
450.883	84.25
451.104	74.25
451.324	74.25
451.545	94.25
451.766	94.25
451.986	76.25
452.207	75.25
452.428	83.25
452.648	88.25
452.869	92.25
453.089	84.25
453.31	73.25
453.53	91.25
453.751	74.25
453.971	82.25
454.192	95.25
454.412	77.25
454.633	83.25
454.853	93.25
455.073	82.25
455.294	76.25
455.514	94.25
455.734	83.25
455.955	77.25
456.175	85.25
456.395	88.25
456.616	86.25
456.836	71.25
457.056	85.25
457.276	85.25
457.497	97.25
457.717	75.25
457.937	101.25
458.157	95.25
458.377	83.25
458.598	75.25
458.818	88.25
459.038	88.25
459.258	84.25
459.478	73.25
459.698	75.25
459.918	80.25
460.138	80.25
460.358	71.25
460.578	84.25
460.798	87.25
461.018	103.25
461.238	87.25
461.458	79.25
461.678	78.25
461.898	91.25
462.118	87.25
462.338	100.25
462.558	87.25
462.777	77.25
462.997	88.25
463.217	88.25
463.437	77.25
463.657	92.25
463.876	88.25
464.096	92.25
464.316	82.25
464.536	78.25
464.755	80.25
464.975	91.25
465.195	102.25
465.414	74.25
465.634	88.25
465.854	92.25
466.073	88.25
466.293	82.25
466.512	74.25
466.732	89.25
466.951	81.25
467.171	85.25
467.391	88.25
467.61	76.25
467.829	88.25
468.049	76.25
468.268	77.25
468.488	83.25
468.707	83.25
468.927	64.25
469.146	71.25
469.365	77.25
469.585	99.25
469.804	84.25
470.023	81.25
470.243	70.25
470.462	91.25
470.681	81.25
470.901	96.25
471.12	86.25
471.339	83.25
471.558	85.25
471.777	80.25
471.997	71.25
472.216	93.25
472.435	80.25
472.654	91.25
472.873	98.25
473.092	88.25
473.311	85.25
473.53	85.25
473.749	98.25
473.968	87.25
474.187	86.25
474.406	77.25
474.625	91.25
474.844	106.25
475.063	86.25
475.282	89.25
475.501	74.25
475.72	91.25
475.939	70.25
476.158	76.25
476.377	87.25
476.596	95.25
476.814	89.25
477.033	75.25
477.252	85.25
477.471	95.25
477.69	89.25
477.908	81.25
478.127	108.25
478.346	85.25
478.564	81.25
478.783	89.25
479.002	88.25
479.22	80.25
479.439	91.25
479.658	90.25
479.876	78.25
480.095	88.25
480.313	97.25
480.532	88.25
480.751	99.25
480.969	82.25
481.188	88.25
481.406	88.25
481.624	91.25
481.843	77.25
482.061	87.25
482.28	85.25
482.498	81.25
482.717	77.25
482.935	86.25
483.153	93.25
483.372	83.25
483.59	104.25
483.808	89.25
484.027	100.25
484.245	90.25
484.463	89.25
484.681	97.25
484.9	97.25
485.118	87.25
485.336	88.25
485.554	93.25
485.772	84.25
485.99	79.25
486.209	85.25
486.427	99.25
486.645	99.25
486.863	87.25
487.081	114.25
487.299	100.25
487.517	91.25
487.735	84.25
487.953	105.25
488.171	103.25
488.389	89.25
488.607	98.25
488.825	92.25
489.043	95.25
489.261	109.25
489.479	104.25
489.696	101.25
489.914	90.25
490.132	97.25
490.35	101.25
490.568	100.25
490.786	92.25
491.003	72.25
491.221	92.25
491.439	90.25
491.657	92.25
491.874	100.25
492.092	99.25
492.31	105.25
492.527	103.25
492.745	106.25
492.963	89.25
493.18	98.25
493.398	113.25
493.615	89.25
493.833	92.25
494.05	93.25
494.268	91.25
494.485	96.25
494.703	92.25
494.92	96.25
495.138	96.25
495.355	102.25
495.573	101.25
495.79	93.25
496.008	70.25
496.225	77.25
496.442	92.25
496.66	90.25
496.877	104.25
497.094	86.25
497.312	101.25
497.529	87.25
497.746	100.25
497.963	92.25
498.181	93.25
498.398	103.25
498.615	103.25
498.832	90.25
499.049	91.25
499.267	93.25
499.484	88.25
499.701	99.25
499.918	107.25
500.135	96.25
500.352	113.25
500.569	100.25
500.786	108.25
501.003	112.25
501.22	93.25
501.437	115.25
501.654	99.25
501.871	103.25
502.088	103.25
502.305	97.25
502.522	101.25
502.739	105.25
502.956	90.25
503.172	98.25
503.389	86.25
503.606	87.25
503.823	95.25
504.04	85.25
504.256	103.25
504.473	104.25
504.69	95.25
504.907	91.25
505.123	98.25
505.34	95.25
505.557	103.25
505.773	88.25
505.99	89.25
506.207	93.25
506.423	98.25
506.64	93.25
506.856	87.25
507.073	84.25
507.289	89.25
507.506	89.25
507.722	93.25
507.939	95.25
508.155	92.25
508.372	91.25
508.588	78.25
508.805	85.25
509.021	92.25
509.238	103.25
509.454	93.25
509.67	88.25
509.887	90.25
510.103	84.25
510.319	93.25
510.536	83.25
510.752	85.25
510.968	84.25
511.184	85.25
511.401	87.25
511.617	104.25
511.833	96.25
512.049	95.25
512.265	86.25
512.481	85.25
512.698	99.25
512.914	105.25
513.13	91.25
513.346	93.25
513.562	91.25
513.778	96.25
513.994	92.25
514.21	98.25
514.426	104.25
514.642	91.25
514.858	90.25
515.074	90.25
515.29	87.25
515.506	104.25
515.721	96.25
515.937	82.25
516.153	82.25
516.369	90.25
516.585	103.25
516.801	75.25
517.016	96.25
517.232	95.25
517.448	92.25
517.664	90.25
517.879	89.25
518.095	114.25
518.311	101.25
