Data from Ni(NO3)2@0.5M.TitratingCurve.Agarose3%dH2O.NegLispCup.LampEnergy10.LIBS07252019_HRD10591_17-58-11-565.txt Node
Date: Thu Jul 25 17:58:11 EDT 2019
User: cochatt
Spectrometer: HR+D1059
Trigger mode: 1
Integration Time (sec): 1.000000E-1
Scans to average: 1
Electric dark correction enabled: true
Nonlinearity correction enabled: false
Boxcar width: 0
XAxis mode: Wavelengths
Number of Pixels in Spectrum: 2048
>>>>>Begin Spectral Data<<<<<
223.165	-25.81
223.4	-25.81
223.635	-25.81
223.869	-29.81
224.104	-7.81
224.338	-9.81
224.573	-9.81
224.808	-8.81
225.042	0.19
225.277	0.19
225.511	-11.81
225.746	5.19
225.98	11.19
226.215	-2.81
226.449	10.19
226.683	27.19
226.918	15.19
227.152	37.19
227.387	33.19
227.621	30.19
227.856	42.19
228.09	56.19
228.324	53.19
228.559	68.19
228.793	81.19
229.027	127.19
229.262	151.19
229.496	138.19
229.73	151.19
229.964	180.19
230.199	206.19
230.433	208.19
230.667	192.19
230.901	180.19
231.136	169.19
231.37	172.19
231.604	188.19
231.838	203.19
232.072	221.19
232.306	210.19
232.541	197.19
232.775	173.19
233.009	178.19
233.243	162.19
233.477	170.19
233.711	174.19
233.945	177.19
234.179	182.19
234.413	172.19
234.647	186.19
234.881	191.19
235.115	187.19
235.349	179.19
235.583	169.19
235.817	188.19
236.051	169.19
236.285	180.19
236.519	200.19
236.753	176.19
236.987	184.19
237.221	179.19
237.455	191.19
237.689	208.19
237.922	197.19
238.156	191.19
238.39	175.19
238.624	196.19
238.858	204.19
239.091	194.19
239.325	219.19
239.559	215.19
239.793	229.19
240.027	240.19
240.26	191.19
240.494	190.19
240.728	198.19
240.961	217.19
241.195	198.19
241.429	230.19
241.662	230.19
241.896	233.19
242.13	231.19
242.363	239.19
242.597	236.19
242.83	218.19
243.064	213.19
243.298	218.19
243.531	230.19
243.765	227.19
243.998	244.19
244.232	268.19
244.465	246.19
244.699	234.19
244.932	260.19
245.166	254.19
245.399	266.19
245.633	250.19
245.866	269.19
246.099	270.19
246.333	264.19
246.566	269.19
246.8	252.19
247.033	251.19
247.266	267.19
247.5	280.19
247.733	285.19
247.966	293.19
248.2	302.19
248.433	286.19
248.666	279.19
248.899	277.19
249.133	298.19
249.366	306.19
249.599	304.19
249.832	324.19
250.066	314.19
250.299	325.19
250.532	302.19
250.765	327.19
250.998	337.19
251.231	337.19
251.465	344.19
251.698	329.19
251.931	340.19
252.164	344.19
252.397	322.19
252.63	317.19
252.863	336.19
253.096	342.19
253.329	341.19
253.562	373.19
253.795	351.19
254.028	358.19
254.261	358.19
254.494	379.19
254.727	365.19
254.96	370.19
255.193	394.19
255.426	376.19
255.659	384.19
255.892	390.19
256.124	367.19
256.357	380.19
256.59	396.19
256.823	397.19
257.056	410.19
257.289	399.19
257.521	408.19
257.754	420.19
257.987	416.19
258.22	419.19
258.452	418.19
258.685	410.19
258.918	386.19
259.151	418.19
259.383	414.19
259.616	420.19
259.849	440.19
260.081	437.19
260.314	429.19
260.547	424.19
260.779	431.19
261.012	434.19
261.244	426.19
261.477	441.19
261.71	440.19
261.942	447.19
262.175	452.19
262.407	451.19
262.64	443.19
262.872	474.19
263.105	447.19
263.337	467.19
263.57	467.19
263.802	473.19
264.035	477.19
264.267	477.19
264.499	471.19
264.732	470.19
264.964	478.19
265.197	475.19
265.429	478.19
265.661	479.19
265.894	492.19
266.126	478.19
266.358	505.19
266.591	498.19
266.823	499.19
267.055	478.19
267.287	494.19
267.52	500.19
267.752	477.19
267.984	505.19
268.216	511.19
268.448	523.19
268.681	516.19
268.913	522.19
269.145	514.19
269.377	526.19
269.609	535.19
269.841	547.19
270.073	517.19
270.306	537.19
270.538	535.19
270.77	533.19
271.002	509.19
271.234	528.19
271.466	540.19
271.698	518.19
271.93	556.19
272.162	556.19
272.394	551.19
272.626	524.19
272.858	527.19
273.09	554.19
273.322	575.19
273.553	541.19
273.785	557.19
274.017	566.19
274.249	576.19
274.481	576.19
274.713	581.19
274.945	578.19
275.176	572.19
275.408	573.19
275.64	570.19
275.872	576.19
276.104	591.19
276.335	577.19
276.567	593.19
276.799	595.19
277.031	597.19
277.262	586.19
277.494	587.19
277.726	603.19
277.957	596.19
278.189	592.19
278.421	570.19
278.652	603.19
278.884	619.19
279.115	584.19
279.347	637.19
279.579	618.19
279.81	610.19
280.042	634.19
280.273	636.19
280.505	621.19
280.736	617.19
280.968	631.19
281.199	642.19
281.431	591.19
281.662	638.19
281.894	638.19
282.125	644.19
282.356	653.19
282.588	644.19
282.819	646.19
283.051	628.19
283.282	631.19
283.513	638.19
283.745	636.19
283.976	632.19
284.207	655.19
284.439	646.19
284.67	664.19
284.901	671.19
285.132	640.19
285.364	655.19
285.595	661.19
285.826	639.19
286.057	675.19
286.288	671.19
286.52	669.19
286.751	666.19
286.982	668.19
287.213	675.19
287.444	671.19
287.675	671.19
287.906	685.19
288.138	707.19
288.369	686.19
288.6	659.19
288.831	690.19
289.062	676.19
289.293	688.19
289.524	699.19
289.755	696.19
289.986	700.19
290.217	698.19
290.448	692.19
290.679	690.19
290.91	685.19
291.141	702.19
291.371	692.19
291.602	707.19
291.833	690.19
292.064	706.19
292.295	676.19
292.526	691.19
292.757	671.19
292.987	696.19
293.218	696.19
293.449	683.19
293.68	714.19
293.91	708.19
294.141	700.19
294.372	696.19
294.603	687.19
294.833	677.19
295.064	717.19
295.295	702.19
295.525	674.19
295.756	710.19
295.987	692.19
296.217	719.19
296.448	712.19
296.679	712.19
296.909	725.19
297.14	718.19
297.37	739.19
297.601	731.19
297.831	725.19
298.062	716.19
298.292	747.19
298.523	748.19
298.753	750.19
298.984	741.19
299.214	720.19
299.445	751.19
299.675	747.19
299.905	767.19
300.136	753.19
300.366	756.19
300.597	779.19
300.827	780.19
301.057	787.19
301.288	798.19
301.518	789.19
301.748	781.19
301.979	772.19
302.209	796.19
302.439	762.19
302.669	794.19
302.9	774.19
303.13	790.19
303.36	795.19
303.59	787.19
303.82	783.19
304.051	807.19
304.281	796.19
304.511	797.19
304.741	805.19
304.971	795.19
305.201	836.19
305.431	824.19
305.661	829.19
305.891	815.19
306.121	822.19
306.352	820.19
306.582	813.19
306.812	822.19
307.042	803.19
307.272	814.19
307.502	788.19
307.731	793.19
307.961	799.19
308.191	790.19
308.421	808.19
308.651	785.19
308.881	824.19
309.111	820.19
309.341	836.19
309.571	824.19
309.8	841.19
310.03	854.19
310.26	859.19
310.49	867.19
310.72	852.19
310.949	846.19
311.179	853.19
311.409	852.19
311.639	845.19
311.868	841.19
312.098	847.19
312.328	847.19
312.557	855.19
312.787	868.19
313.017	888.19
313.246	872.19
313.476	892.19
313.706	886.19
313.935	868.19
314.165	894.19
314.394	884.19
314.624	902.19
314.853	895.19
315.083	876.19
315.312	920.19
315.542	890.19
315.771	882.19
316.001	896.19
316.23	930.19
316.46	919.19
316.689	930.19
316.919	944.19
317.148	940.19
317.377	927.19
317.607	934.19
317.836	915.19
318.065	926.19
318.295	945.19
318.524	959.19
318.753	945.19
318.983	999.19
319.212	967.19
319.441	946.19
319.67	948.19
319.9	942.19
320.129	962.19
320.358	954.19
320.587	987.19
320.816	975.19
321.046	971.19
321.275	984.19
321.504	987.19
321.733	972.19
321.962	998.19
322.191	976.19
322.42	972.19
322.649	1011.19
322.878	1006.19
323.108	993.19
323.337	998.19
323.566	1012.19
323.795	1025.19
324.024	1038.19
324.253	1037.19
324.482	1019.19
324.71	1054.19
324.939	1048.19
325.168	1022.19
325.397	1076.19
325.626	1045.19
325.855	1055.19
326.084	1060.19
326.313	1037.19
326.542	1039.19
326.77	1055.19
326.999	1058.19
327.228	1086.19
327.457	1079.19
327.686	1079.19
327.914	1089.19
328.143	1100.19
328.372	1085.19
328.6	1086.19
328.829	1089.19
329.058	1098.19
329.287	1086.19
329.515	1084.19
329.744	1106.19
329.972	1141.19
330.201	1107.19
330.43	1105.19
330.658	1106.19
330.887	1134.19
331.115	1094.19
331.344	1130.19
331.572	1151.19
331.801	1145.19
332.03	1144.19
332.258	1132.19
332.486	1168.19
332.715	1137.19
332.943	1139.19
333.172	1152.19
333.4	1146.19
333.629	1155.19
333.857	1174.19
334.085	1180.19
334.314	1202.19
334.542	1207.19
334.771	1199.19
334.999	1200.19
335.227	1212.19
335.455	1209.19
335.684	1214.19
335.912	1228.19
336.14	1222.19
336.369	1190.19
336.597	1230.19
336.825	1210.19
337.053	1250.19
337.281	1199.19
337.51	1194.19
337.738	1236.19
337.966	1227.19
338.194	1257.19
338.422	1245.19
338.65	1178.19
338.878	1180.19
339.106	1191.19
339.334	1213.19
339.562	1213.19
339.79	1199.19
340.018	1171.19
340.246	1200.19
340.474	1198.19
340.702	1160.19
340.93	1204.19
341.158	1226.19
341.386	1231.19
341.614	1267.19
341.842	1230.19
342.07	1184.19
342.298	1174.19
342.526	1213.19
342.754	1175.19
342.981	1162.19
343.209	1176.19
343.437	1218.19
343.665	1198.19
343.893	1218.19
344.12	1226.19
344.348	1213.19
344.576	1206.19
344.804	1220.19
345.031	1214.19
345.259	1191.19
345.487	1237.19
345.714	1186.19
345.942	1230.19
346.17	1232.19
346.397	1194.19
346.625	1170.19
346.853	1139.19
347.08	1180.19
347.308	1184.19
347.535	1194.19
347.763	1182.19
347.99	1138.19
348.218	1163.19
348.445	1156.19
348.673	1144.19
348.9	1140.19
349.128	1173.19
349.355	1174.19
349.583	1163.19
349.81	1156.19
350.037	1169.19
350.265	1174.19
350.492	1133.19
350.72	1115.19
350.947	1159.19
351.174	1175.19
351.402	1180.19
351.629	1179.19
351.856	1150.19
352.083	1163.19
352.311	1159.19
352.538	1204.19
352.765	1195.19
352.992	1125.19
353.22	1133.19
353.447	1151.19
353.674	1115.19
353.901	1098.19
354.128	1123.19
354.355	1126.19
354.583	1134.19
354.81	1119.19
355.037	1143.19
355.264	1124.19
355.491	1138.19
355.718	1152.19
355.945	1112.19
356.172	1130.19
356.399	1127.19
356.626	1174.19
356.853	1176.19
357.08	1152.19
357.307	1119.19
357.534	1147.19
357.761	1139.19
357.988	1135.19
358.215	1128.19
358.441	1117.19
358.668	1102.19
358.895	1097.19
359.122	1139.19
359.349	1123.19
359.576	1162.19
359.802	1119.19
360.029	1156.19
360.256	1132.19
360.483	1135.19
360.709	1144.19
360.936	1145.19
361.163	1181.19
361.39	1129.19
361.616	1150.19
361.843	1152.19
362.07	1196.19
362.296	1210.19
362.523	1158.19
362.749	1144.19
362.976	1107.19
363.203	1126.19
363.429	1150.19
363.656	1134.19
363.882	1136.19
364.109	1163.19
364.335	1115.19
364.562	1124.19
364.788	1158.19
365.015	1154.19
365.241	1114.19
365.468	1144.19
365.694	1151.19
365.92	1161.19
366.147	1159.19
366.373	1155.19
366.599	1166.19
366.826	1186.19
367.052	1123.19
367.278	1156.19
367.505	1167.19
367.731	1184.19
367.957	1175.19
368.184	1153.19
368.41	1158.19
368.636	1188.19
368.862	1184.19
369.089	1160.19
369.315	1165.19
369.541	1182.19
369.767	1164.19
369.993	1171.19
370.219	1145.19
370.445	1175.19
370.672	1183.19
370.898	1183.19
371.124	1175.19
371.35	1176.19
371.576	1184.19
371.802	1186.19
372.028	1195.19
372.254	1195.19
372.48	1197.19
372.706	1196.19
372.932	1185.19
373.158	1213.19
373.384	1196.19
373.61	1184.19
373.835	1211.19
374.061	1184.19
374.287	1180.19
374.513	1197.19
374.739	1199.19
374.965	1198.19
375.191	1183.19
375.416	1200.19
375.642	1189.19
375.868	1202.19
376.094	1172.19
376.319	1180.19
376.545	1180.19
376.771	1178.19
376.997	1192.19
377.222	1186.19
377.448	1186.19
377.674	1191.19
377.899	1188.19
378.125	1153.19
378.35	1160.19
378.576	1199.19
378.802	1162.19
379.027	1172.19
379.253	1179.19
379.478	1151.19
379.704	1147.19
379.929	1203.19
380.155	1160.19
380.38	1168.19
380.606	1168.19
380.831	1206.19
381.057	1146.19
381.282	1140.19
381.507	1168.19
381.733	1182.19
381.958	1188.19
382.184	1196.19
382.409	1159.19
382.634	1178.19
382.86	1183.19
383.085	1200.19
383.31	1227.19
383.535	1208.19
383.761	1193.19
383.986	1204.19
384.211	1174.19
384.436	1185.19
384.662	1195.19
384.887	1203.19
385.112	1210.19
385.337	1226.19
385.562	1210.19
385.787	1234.19
386.013	1263.19
386.238	1263.19
386.463	1231.19
386.688	1238.19
386.913	1223.19
387.138	1244.19
387.363	1263.19
387.588	1221.19
387.813	1255.19
388.038	1260.19
388.263	1258.19
388.488	1272.19
388.713	1254.19
388.938	1269.19
389.163	1239.19
389.387	1273.19
389.612	1207.19
389.837	1284.19
390.062	1266.19
390.287	1256.19
390.512	1255.19
390.736	1241.19
390.961	1261.19
391.186	1260.19
391.411	1264.19
391.636	1264.19
391.86	1294.19
392.085	1303.19
392.31	1310.19
392.534	1291.19
392.759	1310.19
392.984	1282.19
393.208	1261.19
393.433	1342.19
393.658	1294.19
393.882	1293.19
394.107	1269.19
394.331	1267.19
394.556	1257.19
394.78	1260.19
395.005	1284.19
395.229	1299.19
395.454	1287.19
395.678	1280.19
395.903	1298.19
396.127	1317.19
396.352	1292.19
396.576	1294.19
396.801	1303.19
397.025	1311.19
397.249	1293.19
397.474	1322.19
397.698	1316.19
397.922	1361.19
398.147	1316.19
398.371	1389.19
398.595	1351.19
398.82	1408.19
399.044	1398.19
399.268	1442.19
399.492	1479.19
399.717	1439.19
399.941	1457.19
400.165	1454.19
400.389	1493.19
400.613	1414.19
400.837	1414.19
401.062	1437.19
401.286	1392.19
401.51	1404.19
401.734	1396.19
401.958	1401.19
402.182	1387.19
402.406	1346.19
402.63	1362.19
402.854	1394.19
403.078	1417.19
403.302	1398.19
403.526	1375.19
403.75	1382.19
403.974	1403.19
404.198	1389.19
404.422	1380.19
404.645	1396.19
404.869	1404.19
405.093	1415.19
405.317	1413.19
405.541	1407.19
405.765	1423.19
405.988	1460.19
406.212	1430.19
406.436	1425.19
406.66	1488.19
406.883	1462.19
407.107	1506.19
407.331	1453.19
407.555	1500.19
407.778	1492.19
408.002	1496.19
408.226	1492.19
408.449	1500.19
408.673	1493.19
408.896	1494.19
409.12	1442.19
409.344	1475.19
409.567	1417.19
409.791	1458.19
410.014	1459.19
410.238	1431.19
410.461	1447.19
410.685	1491.19
410.908	1445.19
411.132	1438.19
411.355	1408.19
411.578	1451.19
411.802	1410.19
412.025	1409.19
412.249	1418.19
412.472	1438.19
412.695	1399.19
412.919	1384.19
413.142	1410.19
413.365	1416.19
413.589	1419.19
413.812	1366.19
414.035	1375.19
414.258	1410.19
414.482	1360.19
414.705	1418.19
414.928	1372.19
415.151	1368.19
415.374	1351.19
415.597	1394.19
415.821	1376.19
416.044	1378.19
416.267	1359.19
416.49	1373.19
416.713	1348.19
416.936	1328.19
417.159	1346.19
417.382	1370.19
417.605	1348.19
417.828	1349.19
418.051	1319.19
418.274	1318.19
418.497	1326.19
418.72	1352.19
418.943	1296.19
419.166	1395.19
419.389	1470.19
419.611	1440.19
419.834	1420.19
420.057	1375.19
420.28	1360.19
420.503	1285.19
420.726	1288.19
420.948	1293.19
421.171	1372.19
421.394	1306.19
421.617	1347.19
421.839	1292.19
422.062	1349.19
422.285	1295.19
422.507	1313.19
422.73	1323.19
422.953	1316.19
423.175	1366.19
423.398	1356.19
423.621	1300.19
423.843	1313.19
424.066	1357.19
424.288	1330.19
424.511	1338.19
424.733	1325.19
424.956	1323.19
425.178	1354.19
425.401	1344.19
425.623	1324.19
425.846	1289.19
426.068	1344.19
426.291	1336.19
426.513	1341.19
426.735	1322.19
426.958	1358.19
427.18	1294.19
427.402	1324.19
427.625	1340.19
427.847	1304.19
428.069	1346.19
428.292	1372.19
428.514	1346.19
428.736	1324.19
428.958	1332.19
429.181	1320.19
429.403	1295.19
429.625	1354.19
429.847	1330.19
430.069	1288.19
430.292	1322.19
430.514	1286.19
430.736	1324.19
430.958	1306.19
431.18	1287.19
431.402	1359.19
431.624	1317.19
431.846	1302.19
432.068	1296.19
432.29	1341.19
432.512	1354.19
432.734	1353.19
432.956	1381.19
433.178	1346.19
433.4	1358.19
433.622	1341.19
433.844	1378.19
434.066	1351.19
434.287	1346.19
434.509	1356.19
434.731	1342.19
434.953	1361.19
435.175	1380.19
435.397	1381.19
435.618	1353.19
435.84	1351.19
436.062	1354.19
436.284	1347.19
436.505	1318.19
436.727	1338.19
436.949	1353.19
437.17	1327.19
437.392	1304.19
437.614	1303.19
437.835	1282.19
438.057	1290.19
438.278	1274.19
438.5	1301.19
438.721	1308.19
438.943	1299.19
439.165	1290.19
439.386	1302.19
439.608	1297.19
439.829	1303.19
440.05	1334.19
440.272	1332.19
440.493	1351.19
440.715	1295.19
440.936	1318.19
441.158	1338.19
441.379	1324.19
441.6	1366.19
441.822	1352.19
442.043	1371.19
442.264	1314.19
442.486	1338.19
442.707	1362.19
442.928	1340.19
443.149	1357.19
443.371	1392.19
443.592	1410.19
443.813	1405.19
444.034	1356.19
444.255	1378.19
444.476	1398.19
444.698	1386.19
444.919	1430.19
445.14	1501.19
445.361	1412.19
445.582	1358.19
445.803	1358.19
446.024	1351.19
446.245	1303.19
446.466	1347.19
446.687	1293.19
446.908	1340.19
447.129	1300.19
447.35	1271.19
447.571	1275.19
447.792	1244.19
448.013	1250.19
448.234	1229.19
448.455	1222.19
448.675	1223.19
448.896	1236.19
449.117	1230.19
449.338	1254.19
449.559	1254.19
449.779	1220.19
450	1214.19
450.221	1233.19
450.442	1255.19
450.662	1247.19
450.883	1266.19
451.104	1253.19
451.324	1222.19
451.545	1235.19
451.766	1242.19
451.986	1224.19
452.207	1223.19
452.428	1224.19
452.648	1227.19
452.869	1214.19
453.089	1218.19
453.31	1211.19
453.53	1184.19
453.751	1180.19
453.971	1214.19
454.192	1214.19
454.412	1250.19
454.633	1207.19
454.853	1199.19
455.073	1193.19
455.294	1221.19
455.514	1221.19
455.734	1233.19
455.955	1202.19
456.175	1215.19
456.395	1206.19
456.616	1176.19
456.836	1175.19
457.056	1193.19
457.276	1174.19
457.497	1201.19
457.717	1222.19
457.937	1219.19
458.157	1215.19
458.377	1208.19
458.598	1236.19
458.818	1215.19
459.038	1224.19
459.258	1286.19
459.478	1312.19
459.698	1343.19
459.918	1381.19
460.138	1326.19
460.358	1410.19
460.578	1340.19
460.798	1350.19
461.018	1398.19
461.238	1369.19
461.458	1342.19
461.678	1333.19
461.898	1362.19
462.118	1354.19
462.338	1376.19
462.558	1424.19
462.777	1432.19
462.997	1458.19
463.217	1469.19
463.437	1515.19
463.657	1484.19
463.876	1442.19
464.096	1422.19
464.316	1420.19
464.536	1385.19
464.755	1368.19
464.975	1378.19
465.195	1354.19
465.414	1350.19
465.634	1318.19
465.854	1305.19
466.073	1290.19
466.293	1283.19
466.512	1296.19
466.732	1276.19
466.951	1310.19
467.171	1278.19
467.391	1319.19
467.61	1241.19
467.829	1273.19
468.049	1289.19
468.268	1255.19
468.488	1281.19
468.707	1266.19
468.927	1274.19
469.146	1258.19
469.365	1291.19
469.585	1264.19
469.804	1296.19
470.023	1289.19
470.243	1306.19
470.462	1288.19
470.681	1282.19
470.901	1266.19
471.12	1251.19
471.339	1290.19
471.558	1309.19
471.777	1288.19
471.997	1316.19
472.216	1307.19
472.435	1275.19
472.654	1297.19
472.873	1263.19
473.092	1299.19
473.311	1304.19
473.53	1330.19
473.749	1244.19
473.968	1347.19
474.187	1314.19
474.406	1303.19
474.625	1317.19
474.844	1325.19
475.063	1334.19
475.282	1332.19
475.501	1356.19
475.72	1357.19
475.939	1354.19
476.158	1343.19
476.377	1368.19
476.596	1343.19
476.814	1359.19
477.033	1392.19
477.252	1378.19
477.471	1415.19
477.69	1430.19
477.908	1414.19
478.127	1438.19
478.346	1440.19
478.564	1447.19
478.783	1497.19
479.002	1500.19
479.22	1550.19
479.439	1526.19
479.658	1494.19
479.876	1516.19
480.095	1513.19
480.313	1537.19
480.532	1523.19
480.751	1493.19
480.969	1536.19
481.188	1500.19
481.406	1531.19
481.624	1507.19
481.843	1478.19
482.061	1500.19
482.28	1530.19
482.498	1562.19
482.717	1559.19
482.935	1548.19
483.153	1557.19
483.372	1571.19
483.59	1581.19
483.808	1560.19
484.027	1538.19
484.245	1578.19
484.463	1579.19
484.681	1574.19
484.9	1563.19
485.118	1549.19
485.336	1593.19
485.554	1564.19
485.772	1531.19
485.99	1552.19
486.209	1534.19
486.427	1562.19
486.645	1551.19
486.863	1590.19
487.081	1612.19
487.299	1593.19
487.517	1559.19
487.735	1610.19
487.953	1633.19
488.171	1614.19
488.389	1576.19
488.607	1632.19
488.825	1571.19
489.043	1557.19
489.261	1600.19
489.479	1598.19
489.696	1591.19
489.914	1578.19
490.132	1597.19
490.35	1595.19
490.568	1612.19
490.786	1627.19
491.003	1616.19
491.221	1622.19
