Data from Ni(NO3)2@0.25M.TitratingCurve.Agarose3%dH2O.NegLispCup.LampEnergy10.LIBS07252019_HRD10591_18-03-56-566.txt Node
Date: Thu Jul 25 18:03:56 EDT 2019
User: cochatt
Spectrometer: HR+D1059
Trigger mode: 1
Integration Time (sec): 1.000000E-1
Scans to average: 1
Electric dark correction enabled: true
Nonlinearity correction enabled: false
Boxcar width: 0
XAxis mode: Wavelengths
Number of Pixels in Spectrum: 2048
>>>>>Begin Spectral Data<<<<<
223.165	-20.06
223.4	-20.06
223.635	-20.06
223.869	-22.06
224.104	-21.06
224.338	-18.06
224.573	-9.06
224.808	-15.06
225.042	-0.06
225.277	-6.06
225.511	-6.06
225.746	7.94
225.98	0.94
226.215	12.94
226.449	16.94
226.683	24.94
226.918	23.94
227.152	29.94
227.387	31.94
227.621	40.94
227.856	50.94
228.09	50.94
228.324	58.94
228.559	55.94
228.793	59.94
229.027	79.94
229.262	88.94
229.496	86.94
229.73	97.94
229.964	89.94
230.199	101.94
230.433	90.94
230.667	99.94
230.901	109.94
231.136	110.94
231.37	87.94
231.604	97.94
231.838	89.94
232.072	106.94
232.306	103.94
232.541	115.94
232.775	114.94
233.009	115.94
233.243	111.94
233.477	102.94
233.711	126.94
233.945	103.94
234.179	108.94
234.413	109.94
234.647	109.94
234.881	118.94
235.115	100.94
235.349	106.94
235.583	99.94
235.817	109.94
236.051	108.94
236.285	121.94
236.519	108.94
236.753	127.94
236.987	100.94
237.221	119.94
237.455	99.94
237.689	115.94
237.922	109.94
238.156	125.94
238.39	111.94
238.624	107.94
238.858	135.94
239.091	107.94
239.325	105.94
239.559	126.94
239.793	125.94
240.027	131.94
240.26	124.94
240.494	131.94
240.728	124.94
240.961	123.94
241.195	127.94
241.429	116.94
241.662	115.94
241.896	122.94
242.13	137.94
242.363	142.94
242.597	125.94
242.83	135.94
243.064	134.94
243.298	128.94
243.531	134.94
243.765	138.94
243.998	123.94
244.232	132.94
244.465	147.94
244.699	131.94
244.932	138.94
245.166	140.94
245.399	144.94
245.633	130.94
245.866	138.94
246.099	147.94
246.333	148.94
246.566	138.94
246.8	137.94
247.033	136.94
247.266	123.94
247.5	146.94
247.733	155.94
247.966	147.94
248.2	143.94
248.433	150.94
248.666	141.94
248.899	156.94
249.133	150.94
249.366	144.94
249.599	171.94
249.832	143.94
250.066	180.94
250.299	157.94
250.532	154.94
250.765	156.94
250.998	152.94
251.231	165.94
251.465	154.94
251.698	145.94
251.931	165.94
252.164	180.94
252.397	169.94
252.63	170.94
252.863	171.94
253.096	196.94
253.329	159.94
253.562	172.94
253.795	179.94
254.028	185.94
254.261	177.94
254.494	183.94
254.727	181.94
254.96	185.94
255.193	200.94
255.426	158.94
255.659	198.94
255.892	159.94
256.124	171.94
256.357	187.94
256.59	205.94
256.823	189.94
257.056	185.94
257.289	186.94
257.521	178.94
257.754	182.94
257.987	186.94
258.22	186.94
258.452	192.94
258.685	190.94
258.918	185.94
259.151	176.94
259.383	195.94
259.616	199.94
259.849	174.94
260.081	200.94
260.314	192.94
260.547	206.94
260.779	201.94
261.012	189.94
261.244	206.94
261.477	209.94
261.71	208.94
261.942	204.94
262.175	215.94
262.407	199.94
262.64	196.94
262.872	195.94
263.105	209.94
263.337	213.94
263.57	217.94
263.802	200.94
264.035	221.94
264.267	207.94
264.499	210.94
264.732	223.94
264.964	240.94
265.197	223.94
265.429	223.94
265.661	213.94
265.894	229.94
266.126	222.94
266.358	222.94
266.591	219.94
266.823	228.94
267.055	222.94
267.287	240.94
267.52	222.94
267.752	222.94
267.984	231.94
268.216	230.94
268.448	249.94
268.681	245.94
268.913	226.94
269.145	239.94
269.377	237.94
269.609	228.94
269.841	240.94
270.073	234.94
270.306	235.94
270.538	240.94
270.77	216.94
271.002	238.94
271.234	242.94
271.466	257.94
271.698	239.94
271.93	252.94
272.162	232.94
272.394	237.94
272.626	238.94
272.858	237.94
273.09	243.94
273.322	221.94
273.553	240.94
273.785	228.94
274.017	221.94
274.249	242.94
274.481	249.94
274.713	262.94
274.945	256.94
275.176	257.94
275.408	258.94
275.64	241.94
275.872	262.94
276.104	252.94
276.335	233.94
276.567	258.94
276.799	249.94
277.031	248.94
277.262	256.94
277.494	259.94
277.726	248.94
277.957	252.94
278.189	259.94
278.421	259.94
278.652	246.94
278.884	262.94
279.115	264.94
279.347	281.94
279.579	257.94
279.81	257.94
280.042	268.94
280.273	266.94
280.505	270.94
280.736	283.94
280.968	280.94
281.199	266.94
281.431	270.94
281.662	278.94
281.894	279.94
282.125	278.94
282.356	264.94
282.588	277.94
282.819	284.94
283.051	267.94
283.282	271.94
283.513	268.94
283.745	284.94
283.976	268.94
284.207	283.94
284.439	274.94
284.67	284.94
284.901	294.94
285.132	294.94
285.364	272.94
285.595	266.94
285.826	297.94
286.057	276.94
286.288	287.94
286.52	283.94
286.751	280.94
286.982	287.94
287.213	281.94
287.444	313.94
287.675	301.94
287.906	300.94
288.138	293.94
288.369	280.94
288.6	277.94
288.831	295.94
289.062	291.94
289.293	282.94
289.524	287.94
289.755	306.94
289.986	299.94
290.217	288.94
290.448	291.94
290.679	297.94
290.91	306.94
291.141	307.94
291.371	301.94
291.602	311.94
291.833	303.94
292.064	286.94
292.295	300.94
292.526	294.94
292.757	300.94
292.987	287.94
293.218	284.94
293.449	272.94
293.68	294.94
293.91	301.94
294.141	299.94
294.372	297.94
294.603	314.94
294.833	314.94
295.064	302.94
295.295	307.94
295.525	312.94
295.756	307.94
295.987	293.94
296.217	298.94
296.448	315.94
296.679	296.94
296.909	298.94
297.14	311.94
297.37	320.94
297.601	323.94
297.831	324.94
298.062	320.94
298.292	319.94
298.523	334.94
298.753	303.94
298.984	323.94
299.214	322.94
299.445	322.94
299.675	319.94
299.905	322.94
300.136	319.94
300.366	328.94
300.597	338.94
300.827	332.94
301.057	329.94
301.288	340.94
301.518	347.94
301.748	331.94
301.979	336.94
302.209	347.94
302.439	342.94
302.669	348.94
302.9	333.94
303.13	330.94
303.36	334.94
303.59	361.94
303.82	346.94
304.051	343.94
304.281	340.94
304.511	332.94
304.741	339.94
304.971	342.94
305.201	349.94
305.431	355.94
305.661	349.94
305.891	360.94
306.121	332.94
306.352	326.94
306.582	342.94
306.812	333.94
307.042	341.94
307.272	326.94
307.502	300.94
307.731	335.94
307.961	327.94
308.191	335.94
308.421	325.94
308.651	331.94
308.881	348.94
309.111	343.94
309.341	329.94
309.571	338.94
309.8	354.94
310.03	348.94
310.26	347.94
310.49	344.94
310.72	343.94
310.949	353.94
311.179	348.94
311.409	336.94
311.639	346.94
311.868	354.94
312.098	365.94
312.328	359.94
312.557	360.94
312.787	369.94
313.017	380.94
313.246	381.94
313.476	364.94
313.706	374.94
313.935	383.94
314.165	370.94
314.394	371.94
314.624	382.94
314.853	370.94
315.083	365.94
315.312	378.94
315.542	363.94
315.771	375.94
316.001	363.94
316.23	363.94
316.46	361.94
316.689	367.94
316.919	357.94
317.148	366.94
317.377	372.94
317.607	378.94
317.836	366.94
318.065	357.94
318.295	370.94
318.524	387.94
318.753	366.94
318.983	370.94
319.212	364.94
319.441	382.94
319.67	382.94
319.9	383.94
320.129	387.94
320.358	382.94
320.587	397.94
320.816	402.94
321.046	376.94
321.275	385.94
321.504	383.94
321.733	397.94
321.962	394.94
322.191	404.94
322.42	382.94
322.649	386.94
322.878	405.94
323.108	426.94
323.337	416.94
323.566	414.94
323.795	412.94
324.024	424.94
324.253	415.94
324.482	421.94
324.71	422.94
324.939	422.94
325.168	419.94
325.397	399.94
325.626	426.94
325.855	437.94
326.084	427.94
326.313	438.94
326.542	442.94
326.77	439.94
326.999	430.94
327.228	428.94
327.457	428.94
327.686	440.94
327.914	450.94
328.143	451.94
328.372	452.94
328.6	423.94
328.829	426.94
329.058	445.94
329.287	439.94
329.515	451.94
329.744	452.94
329.972	463.94
330.201	453.94
330.43	463.94
330.658	476.94
330.887	450.94
331.115	462.94
331.344	474.94
331.572	475.94
331.801	512.94
332.03	504.94
332.258	507.94
332.486	507.94
332.715	523.94
332.943	537.94
333.172	553.94
333.4	578.94
333.629	576.94
333.857	598.94
334.085	589.94
334.314	569.94
334.542	571.94
334.771	590.94
334.999	556.94
335.227	562.94
335.455	561.94
335.684	565.94
335.912	570.94
336.14	559.94
336.369	575.94
336.597	566.94
336.825	566.94
337.053	570.94
337.281	539.94
337.51	529.94
337.738	554.94
337.966	512.94
338.194	545.94
338.422	512.94
338.65	532.94
338.878	525.94
339.106	503.94
339.334	520.94
339.562	495.94
339.79	516.94
340.018	504.94
340.246	492.94
340.474	510.94
340.702	503.94
340.93	499.94
341.158	515.94
341.386	511.94
341.614	535.94
341.842	524.94
342.07	487.94
342.298	500.94
342.526	498.94
342.754	485.94
342.981	501.94
343.209	500.94
343.437	536.94
343.665	560.94
343.893	570.94
344.12	605.94
344.348	581.94
344.576	548.94
344.804	545.94
345.031	534.94
345.259	529.94
345.487	518.94
345.714	485.94
345.942	522.94
346.17	528.94
346.397	498.94
346.625	479.94
346.853	487.94
347.08	464.94
347.308	484.94
347.535	462.94
347.763	476.94
347.99	473.94
348.218	482.94
348.445	480.94
348.673	483.94
348.9	481.94
349.128	486.94
349.355	482.94
349.583	474.94
349.81	473.94
350.037	456.94
350.265	482.94
350.492	462.94
350.72	475.94
350.947	468.94
351.174	468.94
351.402	473.94
351.629	488.94
351.856	493.94
352.083	461.94
352.311	483.94
352.538	496.94
352.765	467.94
352.992	486.94
353.22	469.94
353.447	443.94
353.674	462.94
353.901	436.94
354.128	462.94
354.355	472.94
354.583	465.94
354.81	459.94
355.037	472.94
355.264	466.94
355.491	483.94
355.718	464.94
355.945	462.94
356.172	463.94
356.399	468.94
356.626	483.94
356.853	480.94
357.08	462.94
357.307	461.94
357.534	466.94
357.761	454.94
357.988	479.94
358.215	464.94
358.441	481.94
358.668	462.94
358.895	448.94
359.122	459.94
359.349	483.94
359.576	442.94
359.802	457.94
360.029	467.94
360.256	465.94
360.483	455.94
360.709	453.94
360.936	446.94
361.163	447.94
361.39	475.94
361.616	472.94
361.843	475.94
362.07	495.94
362.296	513.94
362.523	466.94
362.749	461.94
362.976	455.94
363.203	456.94
363.429	458.94
363.656	455.94
363.882	469.94
364.109	468.94
364.335	455.94
364.562	486.94
364.788	453.94
365.015	442.94
365.241	460.94
365.468	464.94
365.694	450.94
365.92	468.94
366.147	476.94
366.373	473.94
366.599	448.94
366.826	445.94
367.052	452.94
367.278	450.94
367.505	465.94
367.731	462.94
367.957	454.94
368.184	446.94
368.41	451.94
368.636	455.94
368.862	470.94
369.089	471.94
369.315	467.94
369.541	480.94
369.767	486.94
369.993	474.94
370.219	474.94
370.445	491.94
370.672	472.94
370.898	485.94
371.124	499.94
371.35	503.94
371.576	492.94
371.802	480.94
372.028	475.94
372.254	480.94
372.48	496.94
372.706	485.94
372.932	487.94
373.158	498.94
373.384	489.94
373.61	479.94
373.835	487.94
374.061	471.94
374.287	516.94
374.513	482.94
374.739	511.94
374.965	516.94
375.191	528.94
375.416	538.94
375.642	499.94
375.868	500.94
376.094	487.94
376.319	498.94
376.545	485.94
376.771	499.94
376.997	480.94
377.222	474.94
377.448	486.94
377.674	498.94
377.899	468.94
378.125	495.94
378.35	481.94
378.576	482.94
378.802	491.94
379.027	478.94
379.253	484.94
379.478	466.94
379.704	465.94
379.929	478.94
380.155	471.94
380.38	482.94
380.606	480.94
380.831	477.94
381.057	486.94
381.282	459.94
381.507	497.94
381.733	482.94
381.958	494.94
382.184	479.94
382.409	490.94
382.634	499.94
382.86	494.94
383.085	493.94
383.31	506.94
383.535	514.94
383.761	498.94
383.986	520.94
384.211	527.94
384.436	537.94
384.662	554.94
384.887	554.94
385.112	543.94
385.337	563.94
385.562	562.94
385.787	566.94
386.013	562.94
386.238	572.94
386.463	571.94
386.688	558.94
386.913	542.94
387.138	559.94
387.363	546.94
387.588	543.94
387.813	566.94
388.038	550.94
388.263	568.94
388.488	589.94
388.713	539.94
388.938	539.94
389.163	536.94
389.387	547.94
389.612	564.94
389.837	550.94
390.062	538.94
390.287	555.94
390.512	545.94
390.736	558.94
390.961	588.94
391.186	567.94
391.411	601.94
391.636	613.94
391.86	608.94
392.085	633.94
392.31	605.94
392.534	605.94
392.759	595.94
392.984	591.94
393.208	598.94
393.433	590.94
393.658	591.94
393.882	590.94
394.107	597.94
394.331	603.94
394.556	589.94
394.78	598.94
395.005	592.94
395.229	605.94
395.454	616.94
395.678	656.94
395.903	622.94
396.127	619.94
396.352	613.94
396.576	587.94
396.801	592.94
397.025	610.94
397.249	619.94
397.474	616.94
397.698	599.94
397.922	632.94
398.147	647.94
398.371	652.94
398.595	677.94
398.82	690.94
399.044	709.94
399.268	819.94
399.492	920.94
399.717	979.94
399.941	988.94
400.165	896.94
400.389	796.94
400.613	779.94
400.837	722.94
401.062	715.94
401.286	719.94
401.51	692.94
401.734	660.94
401.958	710.94
402.182	718.94
402.406	709.94
402.63	732.94
402.854	752.94
403.078	745.94
403.302	733.94
403.526	767.94
403.75	789.94
403.974	775.94
404.198	774.94
404.422	781.94
404.645	783.94
404.869	767.94
405.093	777.94
405.317	758.94
405.541	778.94
405.765	760.94
405.988	742.94
406.212	753.94
406.436	760.94
406.66	777.94
406.883	800.94
407.107	831.94
407.331	844.94
407.555	865.94
407.778	856.94
408.002	845.94
408.226	822.94
408.449	829.94
408.673	812.94
408.896	799.94
409.12	804.94
409.344	791.94
409.567	788.94
409.791	756.94
410.014	767.94
410.238	754.94
410.461	772.94
410.685	746.94
410.908	765.94
411.132	747.94
411.355	729.94
411.578	729.94
411.802	712.94
412.025	735.94
412.249	749.94
412.472	713.94
412.695	734.94
412.919	710.94
413.142	735.94
413.365	722.94
413.589	701.94
413.812	711.94
414.035	713.94
414.258	704.94
414.482	699.94
414.705	734.94
414.928	712.94
415.151	728.94
415.374	731.94
415.597	704.94
415.821	721.94
416.044	724.94
416.267	694.94
416.49	712.94
416.713	704.94
416.936	699.94
417.159	695.94
417.382	695.94
417.605	715.94
417.828	712.94
418.051	715.94
418.274	716.94
418.497	695.94
418.72	698.94
418.943	732.94
419.166	767.94
419.389	788.94
419.611	786.94
419.834	741.94
420.057	763.94
420.28	733.94
420.503	711.94
420.726	682.94
420.948	710.94
421.171	714.94
421.394	703.94
421.617	729.94
421.839	721.94
422.062	742.94
422.285	726.94
422.507	730.94
422.73	742.94
422.953	725.94
423.175	781.94
423.398	756.94
423.621	739.94
423.843	723.94
424.066	765.94
424.288	765.94
424.511	759.94
424.733	750.94
424.956	733.94
425.178	727.94
425.401	739.94
425.623	750.94
425.846	696.94
426.068	723.94
426.291	699.94
426.513	699.94
426.735	680.94
426.958	698.94
427.18	683.94
427.402	681.94
427.625	680.94
427.847	677.94
428.069	679.94
428.292	679.94
428.514	651.94
428.736	654.94
428.958	676.94
429.181	663.94
429.403	666.94
429.625	650.94
429.847	651.94
430.069	650.94
430.292	655.94
430.514	626.94
430.736	657.94
430.958	634.94
431.18	650.94
431.402	656.94
431.624	657.94
431.846	654.94
432.068	672.94
432.29	676.94
432.512	680.94
432.734	677.94
432.956	679.94
433.178	679.94
433.4	671.94
433.622	686.94
433.844	681.94
434.066	685.94
434.287	683.94
434.509	700.94
434.731	731.94
434.953	727.94
435.175	742.94
435.397	757.94
435.618	698.94
435.84	685.94
436.062	665.94
436.284	690.94
436.505	688.94
436.727	671.94
436.949	675.94
437.17	682.94
437.392	640.94
437.614	670.94
437.835	646.94
438.057	651.94
438.278	666.94
438.5	650.94
438.721	669.94
438.943	662.94
439.165	678.94
439.386	702.94
439.608	681.94
439.829	673.94
440.05	694.94
440.272	699.94
440.493	718.94
440.715	683.94
440.936	716.94
441.158	730.94
441.379	747.94
441.6	771.94
441.822	742.94
442.043	747.94
442.264	738.94
442.486	751.94
442.707	732.94
442.928	733.94
443.149	751.94
443.371	751.94
443.592	770.94
443.813	736.94
444.034	784.94
444.255	802.94
444.476	812.94
444.698	847.94
444.919	870.94
445.14	967.94
445.361	858.94
445.582	764.94
445.803	772.94
446.024	752.94
446.245	725.94
446.466	721.94
446.687	702.94
446.908	698.94
447.129	662.94
447.35	688.94
447.571	681.94
447.792	650.94
448.013	684.94
448.234	633.94
448.455	640.94
448.675	642.94
448.896	654.94
449.117	628.94
449.338	646.94
449.559	660.94
449.779	621.94
450	648.94
450.221	635.94
450.442	622.94
450.662	620.94
450.883	638.94
451.104	666.94
451.324	648.94
451.545	647.94
451.766	648.94
451.986	630.94
452.207	626.94
452.428	616.94
452.648	634.94
452.869	636.94
453.089	606.94
453.31	604.94
453.53	622.94
453.751	586.94
453.971	578.94
454.192	586.94
454.412	596.94
454.633	591.94
454.853	597.94
455.073	590.94
455.294	586.94
455.514	599.94
455.734	630.94
455.955	588.94
456.175	605.94
456.395	595.94
456.616	581.94
456.836	590.94
457.056	586.94
457.276	567.94
457.497	604.94
457.717	577.94
457.937	595.94
458.157	580.94
458.377	606.94
458.598	611.94
458.818	614.94
459.038	668.94
459.258	677.94
459.478	684.94
459.698	709.94
459.918	733.94
460.138	739.94
460.358	774.94
460.578	776.94
460.798	800.94
461.018	784.94
461.238	799.94
461.458	781.94
461.678	777.94
461.898	780.94
462.118	807.94
462.338	830.94
462.558	848.94
462.777	871.94
462.997	951.94
463.217	981.94
463.437	1003.94
463.657	928.94
463.876	890.94
464.096	932.94
464.316	892.94
464.536	892.94
464.755	864.94
464.975	830.94
465.195	795.94
465.414	757.94
465.634	731.94
465.854	722.94
466.073	710.94
466.293	685.94
466.512	683.94
466.732	668.94
466.951	667.94
467.171	663.94
467.391	678.94
467.61	658.94
467.829	640.94
468.049	670.94
468.268	612.94
468.488	640.94
468.707	646.94
468.927	653.94
469.146	664.94
469.365	645.94
469.585	632.94
469.804	668.94
470.023	679.94
470.243	664.94
470.462	700.94
470.681	696.94
470.901	694.94
471.12	671.94
471.339	666.94
471.558	642.94
471.777	684.94
471.997	649.94
472.216	663.94
472.435	644.94
472.654	621.94
472.873	623.94
473.092	614.94
473.311	617.94
473.53	626.94
473.749	625.94
473.968	628.94
474.187	610.94
474.406	590.94
474.625	624.94
474.844	627.94
475.063	623.94
475.282	632.94
475.501	634.94
475.72	646.94
475.939	636.94
476.158	642.94
476.377	663.94
476.596	658.94
476.814	636.94
477.033	649.94
477.252	657.94
477.471	649.94
477.69	692.94
477.908	729.94
478.127	716.94
478.346	733.94
478.564	730.94
478.783	734.94
479.002	780.94
479.22	766.94
479.439	774.94
479.658	744.94
479.876	770.94
480.095	740.94
480.313	770.94
480.532	793.94
480.751	798.94
480.969	746.94
481.188	751.94
481.406	733.94
481.624	720.94
481.843	699.94
482.061	698.94
482.28	711.94
482.498	716.94
482.717	701.94
482.935	692.94
483.153	715.94
483.372	698.94
483.59	725.94
483.808	718.94
484.027	700.94
484.245	716.94
484.463	702.94
484.681	735.94
484.9	725.94
485.118	738.94
485.336	702.94
485.554	736.94
485.772	705.94
485.99	718.94
486.209	723.94
486.427	734.94
486.645	705.94
486.863	733.94
487.081	760.94
487.299	723.94
487.517	724.94
487.735	734.94
487.953	744.94
488.171	774.94
488.389	728.94
488.607	739.94
488.825	734.94
489.043	719.94
489.261	700.94
489.479	713.94
489.696	744.94
489.914	763.94
490.132	735.94
490.35	735.94
490.568	734.94
490.786	718.94
491.003	756.94
491.221	766.94
491.439	743.94
491.657	760.94
491.874	771.94
492.092	807.94
492.31	816.94
492.527	806.94
492.745	795.94
492.963	771.94
493.18	789.94
493.398	796.94
493.615	794.94
493.833	749.94
494.05	791.94
494.268	812.94
494.485	790.94
494.703	788.94
494.92	822.94
495.138	812.94
495.355	798.94
495.573	833.94
495.79	828.94
496.008	850.94
496.225	847.94
496.442	851.94
496.66	843.94
496.877	838.94
497.094	854.94
497.312	884.94
497.529	872.94
497.746	914.94
497.963	902.94
498.181	979.94
498.398	981.94
498.615	1067.94
498.832	1104.94
499.049	1203.94
499.267	1247.94
499.484	1357.94
499.701	1501.94
499.918	1589.94
500.135	1819.94
500.352	1988.94
500.569	2050.94
500.786	2011.94
501.003	1915.94
501.22	1747.94
501.437	1551.94
