Data from Ni(NO3)2@0.5M.TitratingCurve.Agarose3%dH2O.NegLispCup.LampEnergy10.LIBS07252019_HRD10591_18-00-22-564.txt Node
Date: Thu Jul 25 18:00:22 EDT 2019
User: cochatt
Spectrometer: HR+D1059
Trigger mode: 1
Integration Time (sec): 1.000000E-1
Scans to average: 1
Electric dark correction enabled: true
Nonlinearity correction enabled: false
Boxcar width: 0
XAxis mode: Wavelengths
Number of Pixels in Spectrum: 2048
>>>>>Begin Spectral Data<<<<<
223.165	-27.88
223.4	-27.88
223.635	-27.88
223.869	-14.88
224.104	-14.88
224.338	-13.88
224.573	-19.88
224.808	-16.88
225.042	-10.88
225.277	-10.88
225.511	2.12
225.746	4.12
225.98	4.12
226.215	22.12
226.449	17.12
226.683	17.12
226.918	25.12
227.152	38.12
227.387	36.12
227.621	42.12
227.856	40.12
228.09	44.12
228.324	60.12
228.559	50.12
228.793	77.12
229.027	122.12
229.262	149.12
229.496	137.12
229.73	145.12
229.964	154.12
230.199	182.12
230.433	170.12
230.667	185.12
230.901	191.12
231.136	163.12
231.37	158.12
231.604	154.12
231.838	179.12
232.072	189.12
232.306	195.12
232.541	199.12
232.775	171.12
233.009	180.12
233.243	162.12
233.477	193.12
233.711	167.12
233.945	162.12
234.179	169.12
234.413	187.12
234.647	173.12
234.881	183.12
235.115	172.12
235.349	178.12
235.583	168.12
235.817	179.12
236.051	179.12
236.285	179.12
236.519	170.12
236.753	166.12
236.987	193.12
237.221	170.12
237.455	181.12
237.689	179.12
237.922	189.12
238.156	179.12
238.39	187.12
238.624	182.12
238.858	196.12
239.091	201.12
239.325	202.12
239.559	215.12
239.793	211.12
240.027	211.12
240.26	201.12
240.494	197.12
240.728	209.12
240.961	196.12
241.195	198.12
241.429	215.12
241.662	202.12
241.896	221.12
242.13	246.12
242.363	237.12
242.597	213.12
242.83	218.12
243.064	248.12
243.298	258.12
243.531	234.12
243.765	236.12
243.998	247.12
244.232	255.12
244.465	237.12
244.699	234.12
244.932	239.12
245.166	244.12
245.399	241.12
245.633	239.12
245.866	253.12
246.099	257.12
246.333	273.12
246.566	248.12
246.8	255.12
247.033	257.12
247.266	255.12
247.5	269.12
247.733	272.12
247.966	274.12
248.2	266.12
248.433	277.12
248.666	295.12
248.899	278.12
249.133	277.12
249.366	266.12
249.599	271.12
249.832	276.12
250.066	288.12
250.299	280.12
250.532	281.12
250.765	310.12
250.998	293.12
251.231	320.12
251.465	341.12
251.698	313.12
251.931	313.12
252.164	310.12
252.397	314.12
252.63	324.12
252.863	300.12
253.096	310.12
253.329	323.12
253.562	292.12
253.795	315.12
254.028	336.12
254.261	337.12
254.494	319.12
254.727	339.12
254.96	331.12
255.193	334.12
255.426	330.12
255.659	338.12
255.892	326.12
256.124	346.12
256.357	360.12
256.59	342.12
256.823	349.12
257.056	341.12
257.289	339.12
257.521	346.12
257.754	362.12
257.987	363.12
258.22	358.12
258.452	363.12
258.685	374.12
258.918	373.12
259.151	370.12
259.383	391.12
259.616	393.12
259.849	371.12
260.081	396.12
260.314	357.12
260.547	377.12
260.779	377.12
261.012	395.12
261.244	393.12
261.477	414.12
261.71	386.12
261.942	364.12
262.175	387.12
262.407	396.12
262.64	410.12
262.872	403.12
263.105	387.12
263.337	411.12
263.57	413.12
263.802	411.12
264.035	418.12
264.267	400.12
264.499	424.12
264.732	407.12
264.964	417.12
265.197	417.12
265.429	424.12
265.661	436.12
265.894	421.12
266.126	410.12
266.358	433.12
266.591	439.12
266.823	441.12
267.055	412.12
267.287	427.12
267.52	445.12
267.752	451.12
267.984	428.12
268.216	448.12
268.448	429.12
268.681	447.12
268.913	452.12
269.145	451.12
269.377	434.12
269.609	466.12
269.841	453.12
270.073	459.12
270.306	460.12
270.538	451.12
270.77	468.12
271.002	452.12
271.234	477.12
271.466	450.12
271.698	466.12
271.93	483.12
272.162	462.12
272.394	470.12
272.626	469.12
272.858	484.12
273.09	484.12
273.322	494.12
273.553	483.12
273.785	494.12
274.017	484.12
274.249	524.12
274.481	513.12
274.713	513.12
274.945	490.12
275.176	490.12
275.408	484.12
275.64	507.12
275.872	518.12
276.104	517.12
276.335	518.12
276.567	518.12
276.799	528.12
277.031	521.12
277.262	525.12
277.494	541.12
277.726	531.12
277.957	522.12
278.189	527.12
278.421	519.12
278.652	522.12
278.884	534.12
279.115	526.12
279.347	549.12
279.579	558.12
279.81	540.12
280.042	536.12
280.273	564.12
280.505	563.12
280.736	543.12
280.968	535.12
281.199	570.12
281.431	536.12
281.662	557.12
281.894	571.12
282.125	577.12
282.356	563.12
282.588	574.12
282.819	578.12
283.051	581.12
283.282	557.12
283.513	580.12
283.745	606.12
283.976	577.12
284.207	587.12
284.439	590.12
284.67	590.12
284.901	602.12
285.132	592.12
285.364	594.12
285.595	587.12
285.826	585.12
286.057	605.12
286.288	591.12
286.52	595.12
286.751	623.12
286.982	605.12
287.213	594.12
287.444	606.12
287.675	612.12
287.906	606.12
288.138	600.12
288.369	606.12
288.6	607.12
288.831	612.12
289.062	628.12
289.293	610.12
289.524	616.12
289.755	604.12
289.986	609.12
290.217	626.12
290.448	625.12
290.679	621.12
290.91	639.12
291.141	626.12
291.371	624.12
291.602	635.12
291.833	631.12
292.064	650.12
292.295	598.12
292.526	619.12
292.757	621.12
292.987	610.12
293.218	617.12
293.449	637.12
293.68	611.12
293.91	633.12
294.141	639.12
294.372	614.12
294.603	629.12
294.833	647.12
295.064	638.12
295.295	643.12
295.525	642.12
295.756	637.12
295.987	641.12
296.217	627.12
296.448	652.12
296.679	653.12
296.909	659.12
297.14	679.12
297.37	675.12
297.601	682.12
297.831	664.12
298.062	660.12
298.292	684.12
298.523	696.12
298.753	700.12
298.984	662.12
299.214	693.12
299.445	683.12
299.675	682.12
299.905	678.12
300.136	696.12
300.366	707.12
300.597	729.12
300.827	727.12
301.057	709.12
301.288	724.12
301.518	735.12
301.748	706.12
301.979	745.12
302.209	723.12
302.439	690.12
302.669	714.12
302.9	714.12
303.13	733.12
303.36	719.12
303.59	746.12
303.82	738.12
304.051	740.12
304.281	749.12
304.511	749.12
304.741	718.12
304.971	744.12
305.201	747.12
305.431	745.12
305.661	750.12
305.891	748.12
306.121	724.12
306.352	706.12
306.582	714.12
306.812	711.12
307.042	715.12
307.272	727.12
307.502	718.12
307.731	695.12
307.961	704.12
308.191	711.12
308.421	718.12
308.651	714.12
308.881	717.12
309.111	719.12
309.341	735.12
309.571	720.12
309.8	723.12
310.03	750.12
310.26	767.12
310.49	761.12
310.72	743.12
310.949	712.12
311.179	732.12
311.409	745.12
311.639	753.12
311.868	757.12
312.098	750.12
312.328	765.12
312.557	739.12
312.787	753.12
313.017	754.12
313.246	753.12
313.476	783.12
313.706	795.12
313.935	794.12
314.165	802.12
314.394	777.12
314.624	765.12
314.853	800.12
315.083	772.12
315.312	778.12
315.542	801.12
315.771	776.12
316.001	793.12
316.23	780.12
316.46	790.12
316.689	783.12
316.919	794.12
317.148	793.12
317.377	774.12
317.607	783.12
317.836	789.12
318.065	789.12
318.295	790.12
318.524	796.12
318.753	791.12
318.983	783.12
319.212	796.12
319.441	791.12
319.67	789.12
319.9	802.12
320.129	798.12
320.358	796.12
320.587	822.12
320.816	780.12
321.046	816.12
321.275	808.12
321.504	811.12
321.733	813.12
321.962	817.12
322.191	828.12
322.42	801.12
322.649	839.12
322.878	815.12
323.108	796.12
323.337	807.12
323.566	847.12
323.795	861.12
324.024	827.12
324.253	823.12
324.482	849.12
324.71	833.12
324.939	846.12
325.168	875.12
325.397	831.12
325.626	861.12
325.855	847.12
326.084	873.12
326.313	880.12
326.542	856.12
326.77	852.12
326.999	868.12
327.228	843.12
327.457	876.12
327.686	847.12
327.914	880.12
328.143	893.12
328.372	857.12
328.6	884.12
328.829	876.12
329.058	883.12
329.287	897.12
329.515	893.12
329.744	904.12
329.972	872.12
330.201	899.12
330.43	917.12
330.658	908.12
330.887	898.12
331.115	903.12
331.344	934.12
331.572	909.12
331.801	931.12
332.03	951.12
332.258	928.12
332.486	979.12
332.715	965.12
332.943	987.12
333.172	1031.12
333.4	1025.12
333.629	1055.12
333.857	1053.12
334.085	1060.12
334.314	1062.12
334.542	1048.12
334.771	1104.12
334.999	1055.12
335.227	1045.12
335.455	1052.12
335.684	1039.12
335.912	1050.12
336.14	1039.12
336.369	1046.12
336.597	1033.12
336.825	1037.12
337.053	1039.12
337.281	1044.12
337.51	1004.12
337.738	1022.12
337.966	1034.12
338.194	1022.12
338.422	1025.12
338.65	971.12
338.878	972.12
339.106	983.12
339.334	973.12
339.562	983.12
339.79	946.12
340.018	929.12
340.246	930.12
340.474	929.12
340.702	927.12
340.93	956.12
341.158	950.12
341.386	995.12
341.614	1024.12
341.842	997.12
342.07	957.12
342.298	959.12
342.526	952.12
342.754	945.12
342.981	912.12
343.209	955.12
343.437	1002.12
343.665	1006.12
343.893	1066.12
344.12	1063.12
344.348	1032.12
344.576	1055.12
344.804	1039.12
345.031	1001.12
345.259	991.12
345.487	998.12
345.714	958.12
345.942	963.12
346.17	976.12
346.397	968.12
346.625	936.12
346.853	904.12
347.08	930.12
347.308	907.12
347.535	926.12
347.763	883.12
347.99	892.12
348.218	899.12
348.445	917.12
348.673	915.12
348.9	914.12
349.128	930.12
349.355	931.12
349.583	929.12
349.81	893.12
350.037	895.12
350.265	899.12
350.492	888.12
350.72	881.12
350.947	894.12
351.174	927.12
351.402	921.12
351.629	892.12
351.856	895.12
352.083	896.12
352.311	910.12
352.538	922.12
352.765	934.12
352.992	885.12
353.22	877.12
353.447	855.12
353.674	841.12
353.901	854.12
354.128	861.12
354.355	852.12
354.583	865.12
354.81	867.12
355.037	868.12
355.264	888.12
355.491	885.12
355.718	879.12
355.945	899.12
356.172	873.12
356.399	861.12
356.626	909.12
356.853	896.12
357.08	896.12
357.307	892.12
357.534	886.12
357.761	874.12
357.988	872.12
358.215	872.12
358.441	859.12
358.668	862.12
358.895	874.12
359.122	870.12
359.349	904.12
359.576	899.12
359.802	883.12
360.029	873.12
360.256	866.12
360.483	875.12
360.709	865.12
360.936	922.12
361.163	899.12
361.39	898.12
361.616	893.12
361.843	899.12
362.07	929.12
362.296	910.12
362.523	876.12
362.749	902.12
362.976	891.12
363.203	879.12
363.429	869.12
363.656	907.12
363.882	893.12
364.109	908.12
364.335	887.12
364.562	886.12
364.788	888.12
365.015	896.12
365.241	878.12
365.468	868.12
365.694	879.12
365.92	886.12
366.147	852.12
366.373	892.12
366.599	868.12
366.826	869.12
367.052	870.12
367.278	892.12
367.505	917.12
367.731	925.12
367.957	898.12
368.184	909.12
368.41	890.12
368.636	900.12
368.862	914.12
369.089	903.12
369.315	886.12
369.541	913.12
369.767	913.12
369.993	927.12
370.219	936.12
370.445	949.12
370.672	915.12
370.898	905.12
371.124	928.12
371.35	946.12
371.576	959.12
371.802	938.12
372.028	933.12
372.254	931.12
372.48	971.12
372.706	999.12
372.932	956.12
373.158	988.12
373.384	962.12
373.61	954.12
373.835	964.12
374.061	951.12
374.287	980.12
374.513	983.12
374.739	987.12
374.965	989.12
375.191	1004.12
375.416	978.12
375.642	981.12
375.868	997.12
376.094	980.12
376.319	961.12
376.545	949.12
376.771	962.12
376.997	941.12
377.222	936.12
377.448	934.12
377.674	932.12
377.899	923.12
378.125	956.12
378.35	932.12
378.576	944.12
378.802	921.12
379.027	938.12
379.253	936.12
379.478	930.12
379.704	957.12
379.929	961.12
380.155	973.12
380.38	932.12
380.606	918.12
380.831	936.12
381.057	959.12
381.282	953.12
381.507	977.12
381.733	934.12
381.958	958.12
382.184	973.12
382.409	974.12
382.634	981.12
382.86	981.12
383.085	994.12
383.31	984.12
383.535	983.12
383.761	973.12
383.986	995.12
384.211	1034.12
384.436	1032.12
384.662	1049.12
384.887	1047.12
385.112	1053.12
385.337	1080.12
385.562	1091.12
385.787	1076.12
386.013	1111.12
386.238	1089.12
386.463	1077.12
386.688	1087.12
386.913	1071.12
387.138	1084.12
387.363	1095.12
387.588	1086.12
387.813	1079.12
388.038	1089.12
388.263	1096.12
388.488	1105.12
388.713	1092.12
388.938	1079.12
389.163	1087.12
389.387	1092.12
389.612	1072.12
389.837	1083.12
390.062	1093.12
390.287	1073.12
390.512	1098.12
390.736	1080.12
390.961	1118.12
391.186	1149.12
391.411	1150.12
391.636	1147.12
391.86	1157.12
392.085	1179.12
392.31	1163.12
392.534	1181.12
392.759	1173.12
392.984	1132.12
393.208	1147.12
393.433	1165.12
393.658	1159.12
393.882	1120.12
394.107	1149.12
394.331	1169.12
394.556	1173.12
394.78	1132.12
395.005	1151.12
395.229	1177.12
395.454	1168.12
395.678	1175.12
395.903	1195.12
396.127	1189.12
396.352	1181.12
396.576	1177.12
396.801	1177.12
397.025	1173.12
397.249	1197.12
397.474	1197.12
397.698	1216.12
397.922	1211.12
398.147	1237.12
398.371	1241.12
398.595	1290.12
398.82	1332.12
399.044	1403.12
399.268	1481.12
399.492	1521.12
399.717	1607.12
399.941	1620.12
400.165	1569.12
400.389	1513.12
400.613	1458.12
400.837	1437.12
401.062	1395.12
401.286	1349.12
401.51	1361.12
401.734	1318.12
401.958	1295.12
402.182	1331.12
402.406	1321.12
402.63	1343.12
402.854	1346.12
403.078	1319.12
403.302	1365.12
403.526	1336.12
403.75	1353.12
403.974	1381.12
404.198	1396.12
404.422	1403.12
404.645	1379.12
404.869	1385.12
405.093	1385.12
405.317	1365.12
405.541	1411.12
405.765	1392.12
405.988	1403.12
406.212	1384.12
406.436	1441.12
406.66	1481.12
406.883	1487.12
407.107	1494.12
407.331	1537.12
407.555	1568.12
407.778	1591.12
408.002	1583.12
408.226	1523.12
408.449	1582.12
408.673	1501.12
408.896	1482.12
409.12	1460.12
409.344	1494.12
409.567	1424.12
409.791	1450.12
410.014	1441.12
410.238	1404.12
410.461	1406.12
410.685	1410.12
410.908	1443.12
411.132	1406.12
411.355	1375.12
411.578	1382.12
411.802	1357.12
412.025	1371.12
412.249	1360.12
412.472	1394.12
412.695	1351.12
412.919	1345.12
413.142	1345.12
413.365	1362.12
413.589	1331.12
413.812	1334.12
414.035	1327.12
414.258	1365.12
414.482	1325.12
414.705	1331.12
414.928	1321.12
415.151	1342.12
415.374	1311.12
415.597	1340.12
415.821	1287.12
416.044	1329.12
416.267	1279.12
416.49	1271.12
416.713	1313.12
416.936	1307.12
417.159	1291.12
417.382	1256.12
417.605	1245.12
417.828	1249.12
418.051	1272.12
418.274	1288.12
418.497	1284.12
418.72	1275.12
418.943	1287.12
419.166	1387.12
419.389	1442.12
419.611	1417.12
419.834	1380.12
420.057	1351.12
420.28	1285.12
420.503	1271.12
420.726	1274.12
420.948	1244.12
421.171	1294.12
421.394	1277.12
421.617	1271.12
421.839	1260.12
422.062	1301.12
422.285	1249.12
422.507	1274.12
422.73	1233.12
422.953	1281.12
423.175	1282.12
423.398	1259.12
423.621	1252.12
423.843	1263.12
424.066	1266.12
424.288	1256.12
424.511	1259.12
424.733	1261.12
424.956	1285.12
425.178	1244.12
425.401	1305.12
425.623	1257.12
425.846	1243.12
426.068	1262.12
426.291	1218.12
426.513	1216.12
426.735	1231.12
426.958	1233.12
427.18	1205.12
427.402	1219.12
427.625	1231.12
427.847	1189.12
428.069	1210.12
428.292	1190.12
428.514	1194.12
428.736	1226.12
428.958	1190.12
429.181	1177.12
429.403	1163.12
429.625	1184.12
429.847	1173.12
430.069	1151.12
430.292	1158.12
430.514	1203.12
430.736	1196.12
430.958	1211.12
431.18	1169.12
431.402	1178.12
431.624	1201.12
431.846	1181.12
432.068	1221.12
432.29	1196.12
432.512	1193.12
432.734	1210.12
432.956	1196.12
433.178	1223.12
433.4	1244.12
433.622	1262.12
433.844	1256.12
434.066	1238.12
434.287	1270.12
434.509	1266.12
434.731	1298.12
434.953	1316.12
435.175	1320.12
435.397	1323.12
435.618	1268.12
435.84	1237.12
436.062	1222.12
436.284	1222.12
436.505	1197.12
436.727	1192.12
436.949	1173.12
437.17	1213.12
437.392	1188.12
437.614	1195.12
437.835	1165.12
438.057	1143.12
438.278	1142.12
438.5	1177.12
438.721	1149.12
438.943	1146.12
439.165	1141.12
439.386	1172.12
439.608	1175.12
439.829	1178.12
440.05	1146.12
440.272	1183.12
440.493	1205.12
440.715	1209.12
440.936	1229.12
441.158	1198.12
441.379	1217.12
441.6	1279.12
441.822	1273.12
442.043	1256.12
442.264	1276.12
442.486	1219.12
442.707	1230.12
442.928	1237.12
443.149	1237.12
443.371	1249.12
443.592	1326.12
443.813	1311.12
444.034	1274.12
444.255	1293.12
444.476	1341.12
444.698	1358.12
444.919	1363.12
445.14	1471.12
445.361	1395.12
445.582	1327.12
445.803	1270.12
446.024	1252.12
446.245	1236.12
446.466	1218.12
446.687	1172.12
446.908	1181.12
447.129	1158.12
447.35	1162.12
447.571	1119.12
447.792	1092.12
448.013	1127.12
448.234	1121.12
448.455	1102.12
448.675	1093.12
448.896	1075.12
449.117	1079.12
449.338	1108.12
449.559	1079.12
449.779	1083.12
450	1063.12
450.221	1078.12
450.442	1085.12
450.662	1093.12
450.883	1080.12
451.104	1122.12
451.324	1092.12
451.545	1086.12
451.766	1058.12
451.986	1062.12
452.207	1066.12
452.428	1064.12
452.648	1074.12
452.869	1071.12
453.089	1054.12
453.31	1074.12
453.53	1051.12
453.751	1036.12
453.971	1052.12
454.192	1070.12
454.412	1046.12
454.633	1054.12
454.853	1030.12
455.073	1039.12
455.294	1030.12
455.514	1034.12
455.734	1040.12
455.955	1042.12
456.175	1059.12
456.395	1010.12
456.616	1029.12
456.836	1007.12
457.056	1024.12
457.276	1023.12
457.497	1033.12
457.717	1048.12
457.937	1055.12
458.157	1072.12
458.377	1050.12
458.598	1068.12
458.818	1100.12
459.038	1106.12
459.258	1117.12
459.478	1229.12
459.698	1298.12
459.918	1242.12
460.138	1277.12
460.358	1297.12
460.578	1335.12
460.798	1338.12
461.018	1362.12
461.238	1308.12
461.458	1257.12
461.678	1293.12
461.898	1343.12
462.118	1321.12
462.338	1356.12
462.558	1401.12
462.777	1452.12
462.997	1524.12
463.217	1554.12
463.437	1604.12
463.657	1557.12
463.876	1497.12
464.096	1471.12
464.316	1444.12
464.536	1467.12
464.755	1431.12
464.975	1413.12
465.195	1323.12
465.414	1294.12
465.634	1246.12
465.854	1235.12
466.073	1177.12
466.293	1167.12
466.512	1133.12
466.732	1122.12
466.951	1119.12
467.171	1157.12
467.391	1155.12
467.61	1137.12
467.829	1121.12
468.049	1123.12
468.268	1096.12
468.488	1112.12
468.707	1117.12
468.927	1091.12
469.146	1099.12
469.365	1113.12
469.585	1086.12
469.804	1118.12
470.023	1171.12
470.243	1135.12
470.462	1176.12
470.681	1137.12
470.901	1163.12
471.12	1168.12
471.339	1131.12
471.558	1119.12
471.777	1145.12
471.997	1115.12
472.216	1080.12
472.435	1110.12
472.654	1095.12
472.873	1093.12
473.092	1083.12
473.311	1118.12
473.53	1097.12
473.749	1130.12
473.968	1097.12
474.187	1092.12
474.406	1113.12
474.625	1104.12
474.844	1110.12
475.063	1095.12
475.282	1136.12
475.501	1106.12
475.72	1126.12
475.939	1126.12
476.158	1153.12
476.377	1166.12
476.596	1161.12
476.814	1180.12
477.033	1164.12
477.252	1175.12
477.471	1207.12
477.69	1257.12
477.908	1257.12
478.127	1294.12
478.346	1260.12
478.564	1337.12
478.783	1354.12
479.002	1359.12
479.22	1373.12
479.439	1335.12
479.658	1387.12
479.876	1331.12
480.095	1340.12
480.313	1375.12
480.532	1390.12
480.751	1355.12
480.969	1358.12
481.188	1335.12
481.406	1319.12
481.624	1325.12
481.843	1283.12
482.061	1292.12
482.28	1273.12
482.498	1285.12
482.717	1249.12
482.935	1320.12
483.153	1313.12
483.372	1341.12
483.59	1372.12
483.808	1362.12
484.027	1345.12
484.245	1343.12
484.463	1338.12
484.681	1333.12
484.9	1315.12
485.118	1371.12
485.336	1331.12
485.554	1350.12
485.772	1384.12
485.99	1350.12
486.209	1340.12
486.427	1399.12
486.645	1357.12
486.863	1362.12
487.081	1382.12
487.299	1357.12
487.517	1357.12
487.735	1375.12
487.953	1413.12
488.171	1357.12
488.389	1358.12
488.607	1382.12
488.825	1335.12
489.043	1374.12
489.261	1366.12
489.479	1337.12
489.696	1342.12
489.914	1356.12
490.132	1370.12
490.35	1363.12
490.568	1344.12
490.786	1367.12
491.003	1384.12
491.221	1399.12
491.439	1365.12
491.657	1351.12
491.874	1401.12
492.092	1395.12
492.31	1396.12
492.527	1384.12
492.745	1394.12
492.963	1377.12
493.18	1384.12
493.398	1376.12
493.615	1406.12
493.833	1416.12
494.05	1384.12
494.268	1409.12
