Data from Ni(NO3)2@0.125M.TitratingCurve.Agarose3%dH2O.NegLispCup.LampEnergy10.LIBS07252019_HRD10591_18-09-39-567.txt Node
Date: Thu Jul 25 18:09:39 EDT 2019
User: cochatt
Spectrometer: HR+D1059
Trigger mode: 1
Integration Time (sec): 1.000000E-1
Scans to average: 1
Electric dark correction enabled: true
Nonlinearity correction enabled: false
Boxcar width: 0
XAxis mode: Wavelengths
Number of Pixels in Spectrum: 2048
>>>>>Begin Spectral Data<<<<<
223.165	-7.06
223.4	-7.06
223.635	-7.06
223.869	-21.06
224.104	-17.06
224.338	-23.06
224.573	-15.06
224.808	-13.06
225.042	-7.06
225.277	-17.06
225.511	-13.06
225.746	-10.06
225.98	14.94
226.215	15.94
226.449	24.94
226.683	26.94
226.918	34.94
227.152	25.94
227.387	38.94
227.621	28.94
227.856	59.94
228.09	45.94
228.324	51.94
228.559	68.94
228.793	74.94
229.027	107.94
229.262	112.94
229.496	130.94
229.73	124.94
229.964	124.94
230.199	127.94
230.433	141.94
230.667	132.94
230.901	157.94
231.136	149.94
231.37	136.94
231.604	143.94
231.838	154.94
232.072	142.94
232.306	148.94
232.541	154.94
232.775	161.94
233.009	167.94
233.243	156.94
233.477	150.94
233.711	152.94
233.945	162.94
234.179	161.94
234.413	163.94
234.647	175.94
234.881	159.94
235.115	163.94
235.349	160.94
235.583	157.94
235.817	160.94
236.051	151.94
236.285	148.94
236.519	172.94
236.753	164.94
236.987	169.94
237.221	164.94
237.455	164.94
237.689	180.94
237.922	172.94
238.156	162.94
238.39	181.94
238.624	186.94
238.858	184.94
239.091	181.94
239.325	185.94
239.559	182.94
239.793	182.94
240.027	185.94
240.26	193.94
240.494	192.94
240.728	185.94
240.961	200.94
241.195	195.94
241.429	197.94
241.662	178.94
241.896	192.94
242.13	202.94
242.363	208.94
242.597	216.94
242.83	222.94
243.064	208.94
243.298	206.94
243.531	213.94
243.765	228.94
243.998	215.94
244.232	227.94
244.465	210.94
244.699	243.94
244.932	236.94
245.166	230.94
245.399	220.94
245.633	220.94
245.866	212.94
246.099	245.94
246.333	267.94
246.566	242.94
246.8	249.94
247.033	250.94
247.266	238.94
247.5	244.94
247.733	245.94
247.966	251.94
248.2	243.94
248.433	257.94
248.666	230.94
248.899	247.94
249.133	238.94
249.366	247.94
249.599	232.94
249.832	258.94
250.066	275.94
250.299	262.94
250.532	266.94
250.765	269.94
250.998	264.94
251.231	295.94
251.465	279.94
251.698	290.94
251.931	293.94
252.164	282.94
252.397	289.94
252.63	275.94
252.863	286.94
253.096	305.94
253.329	295.94
253.562	300.94
253.795	297.94
254.028	297.94
254.261	310.94
254.494	294.94
254.727	299.94
254.96	315.94
255.193	318.94
255.426	300.94
255.659	301.94
255.892	318.94
256.124	301.94
256.357	293.94
256.59	314.94
256.823	309.94
257.056	310.94
257.289	317.94
257.521	323.94
257.754	340.94
257.987	316.94
258.22	312.94
258.452	339.94
258.685	337.94
258.918	333.94
259.151	316.94
259.383	329.94
259.616	326.94
259.849	330.94
260.081	343.94
260.314	351.94
260.547	343.94
260.779	343.94
261.012	343.94
261.244	342.94
261.477	359.94
261.71	364.94
261.942	339.94
262.175	348.94
262.407	356.94
262.64	345.94
262.872	362.94
263.105	346.94
263.337	353.94
263.57	354.94
263.802	361.94
264.035	391.94
264.267	374.94
264.499	358.94
264.732	396.94
264.964	378.94
265.197	364.94
265.429	367.94
265.661	379.94
265.894	380.94
266.126	392.94
266.358	387.94
266.591	364.94
266.823	380.94
267.055	376.94
267.287	401.94
267.52	382.94
267.752	386.94
267.984	399.94
268.216	412.94
268.448	402.94
268.681	400.94
268.913	428.94
269.145	403.94
269.377	399.94
269.609	407.94
269.841	412.94
270.073	398.94
270.306	434.94
270.538	403.94
270.77	404.94
271.002	393.94
271.234	424.94
271.466	402.94
271.698	404.94
271.93	411.94
272.162	418.94
272.394	418.94
272.626	415.94
272.858	414.94
273.09	445.94
273.322	434.94
273.553	430.94
273.785	420.94
274.017	439.94
274.249	429.94
274.481	426.94
274.713	440.94
274.945	423.94
275.176	443.94
275.408	446.94
275.64	447.94
275.872	446.94
276.104	448.94
276.335	448.94
276.567	454.94
276.799	457.94
277.031	444.94
277.262	460.94
277.494	462.94
277.726	454.94
277.957	454.94
278.189	452.94
278.421	471.94
278.652	472.94
278.884	482.94
279.115	461.94
279.347	470.94
279.579	472.94
279.81	469.94
280.042	474.94
280.273	475.94
280.505	514.94
280.736	492.94
280.968	489.94
281.199	496.94
281.431	494.94
281.662	484.94
281.894	498.94
282.125	490.94
282.356	516.94
282.588	501.94
282.819	506.94
283.051	502.94
283.282	503.94
283.513	489.94
283.745	523.94
283.976	503.94
284.207	517.94
284.439	528.94
284.67	515.94
284.901	517.94
285.132	536.94
285.364	530.94
285.595	540.94
285.826	540.94
286.057	523.94
286.288	555.94
286.52	542.94
286.751	550.94
286.982	538.94
287.213	552.94
287.444	529.94
287.675	532.94
287.906	534.94
288.138	556.94
288.369	546.94
288.6	567.94
288.831	547.94
289.062	542.94
289.293	553.94
289.524	565.94
289.755	562.94
289.986	557.94
290.217	588.94
290.448	562.94
290.679	549.94
290.91	556.94
291.141	548.94
291.371	559.94
291.602	557.94
291.833	554.94
292.064	561.94
292.295	560.94
292.526	540.94
292.757	562.94
292.987	586.94
293.218	566.94
293.449	578.94
293.68	551.94
293.91	570.94
294.141	578.94
294.372	560.94
294.603	583.94
294.833	582.94
295.064	545.94
295.295	552.94
295.525	575.94
295.756	558.94
295.987	562.94
296.217	568.94
296.448	585.94
296.679	579.94
296.909	596.94
297.14	584.94
297.37	622.94
297.601	592.94
297.831	606.94
298.062	619.94
298.292	626.94
298.523	640.94
298.753	637.94
298.984	614.94
299.214	640.94
299.445	610.94
299.675	620.94
299.905	628.94
300.136	596.94
300.366	620.94
300.597	633.94
300.827	652.94
301.057	671.94
301.288	650.94
301.518	678.94
301.748	667.94
301.979	662.94
302.209	652.94
302.439	655.94
302.669	647.94
302.9	643.94
303.13	667.94
303.36	648.94
303.59	630.94
303.82	657.94
304.051	644.94
304.281	609.94
304.511	628.94
304.741	620.94
304.971	654.94
305.201	660.94
305.431	637.94
305.661	647.94
305.891	634.94
306.121	638.94
306.352	638.94
306.582	640.94
306.812	643.94
307.042	615.94
307.272	616.94
307.502	631.94
307.731	615.94
307.961	644.94
308.191	630.94
308.421	590.94
308.651	631.94
308.881	617.94
309.111	615.94
309.341	638.94
309.571	638.94
309.8	614.94
310.03	622.94
310.26	604.94
310.49	636.94
310.72	626.94
310.949	634.94
311.179	624.94
311.409	634.94
311.639	638.94
311.868	643.94
312.098	650.94
312.328	669.94
312.557	649.94
312.787	686.94
313.017	654.94
313.246	675.94
313.476	659.94
313.706	681.94
313.935	697.94
314.165	698.94
314.394	688.94
314.624	692.94
314.853	647.94
315.083	682.94
315.312	678.94
315.542	649.94
315.771	668.94
316.001	651.94
316.23	662.94
316.46	650.94
316.689	660.94
316.919	682.94
317.148	658.94
317.377	667.94
317.607	645.94
317.836	649.94
318.065	640.94
318.295	642.94
318.524	654.94
318.753	653.94
318.983	651.94
319.212	658.94
319.441	683.94
319.67	640.94
319.9	660.94
320.129	645.94
320.358	648.94
320.587	643.94
320.816	678.94
321.046	692.94
321.275	664.94
321.504	676.94
321.733	671.94
321.962	670.94
322.191	666.94
322.42	709.94
322.649	686.94
322.878	663.94
323.108	681.94
323.337	709.94
323.566	692.94
323.795	672.94
324.024	682.94
324.253	676.94
324.482	701.94
324.71	694.94
324.939	690.94
325.168	700.94
325.397	684.94
325.626	704.94
325.855	696.94
326.084	738.94
326.313	752.94
326.542	741.94
326.77	747.94
326.999	723.94
327.228	712.94
327.457	727.94
327.686	736.94
327.914	738.94
328.143	753.94
328.372	762.94
328.6	742.94
328.829	738.94
329.058	709.94
329.287	741.94
329.515	744.94
329.744	736.94
329.972	733.94
330.201	759.94
330.43	766.94
330.658	764.94
330.887	731.94
331.115	769.94
331.344	790.94
331.572	788.94
331.801	788.94
332.03	813.94
332.258	834.94
332.486	863.94
332.715	876.94
332.943	900.94
333.172	966.94
333.4	996.94
333.629	1030.94
333.857	1030.94
334.085	1021.94
334.314	969.94
334.542	996.94
334.771	939.94
334.999	927.94
335.227	936.94
335.455	949.94
335.684	931.94
335.912	921.94
336.14	907.94
336.369	902.94
336.597	910.94
336.825	904.94
337.053	889.94
337.281	867.94
337.51	866.94
337.738	867.94
337.966	824.94
338.194	830.94
338.422	813.94
338.65	798.94
338.878	812.94
339.106	801.94
339.334	815.94
339.562	812.94
339.79	773.94
340.018	772.94
340.246	785.94
340.474	805.94
340.702	789.94
340.93	793.94
341.158	807.94
341.386	772.94
341.614	781.94
341.842	775.94
342.07	795.94
342.298	800.94
342.526	768.94
342.754	762.94
342.981	788.94
343.209	785.94
343.437	824.94
343.665	874.94
343.893	952.94
344.12	987.94
344.348	944.94
344.576	875.94
344.804	826.94
345.031	822.94
345.259	811.94
345.487	788.94
345.714	763.94
345.942	760.94
346.17	775.94
346.397	780.94
346.625	754.94
346.853	764.94
347.08	762.94
347.308	733.94
347.535	760.94
347.763	739.94
347.99	768.94
348.218	750.94
348.445	786.94
348.673	754.94
348.9	734.94
349.128	759.94
349.355	729.94
349.583	738.94
349.81	730.94
350.037	724.94
350.265	715.94
350.492	729.94
350.72	728.94
350.947	723.94
351.174	732.94
351.402	725.94
351.629	715.94
351.856	742.94
352.083	728.94
352.311	727.94
352.538	737.94
352.765	728.94
352.992	708.94
353.22	726.94
353.447	708.94
353.674	754.94
353.901	737.94
354.128	724.94
354.355	707.94
354.583	724.94
354.81	720.94
355.037	718.94
355.264	718.94
355.491	719.94
355.718	734.94
355.945	742.94
356.172	743.94
356.399	740.94
356.626	719.94
356.853	747.94
357.08	729.94
357.307	718.94
357.534	714.94
357.761	736.94
357.988	715.94
358.215	730.94
358.441	698.94
358.668	708.94
358.895	711.94
359.122	711.94
359.349	734.94
359.576	747.94
359.802	732.94
360.029	719.94
360.256	730.94
360.483	716.94
360.709	710.94
360.936	711.94
361.163	747.94
361.39	740.94
361.616	716.94
361.843	724.94
362.07	701.94
362.296	701.94
362.523	702.94
362.749	715.94
362.976	730.94
363.203	715.94
363.429	701.94
363.656	730.94
363.882	713.94
364.109	709.94
364.335	698.94
364.562	724.94
364.788	728.94
365.015	704.94
365.241	713.94
365.468	723.94
365.694	702.94
365.92	703.94
366.147	714.94
366.373	729.94
366.599	725.94
366.826	724.94
367.052	731.94
367.278	721.94
367.505	717.94
367.731	722.94
367.957	723.94
368.184	733.94
368.41	719.94
368.636	741.94
368.862	746.94
369.089	727.94
369.315	735.94
369.541	740.94
369.767	750.94
369.993	732.94
370.219	763.94
370.445	754.94
370.672	774.94
370.898	796.94
371.124	754.94
371.35	790.94
371.576	781.94
371.802	773.94
372.028	758.94
372.254	783.94
372.48	772.94
372.706	819.94
372.932	805.94
373.158	816.94
373.384	796.94
373.61	764.94
373.835	799.94
374.061	771.94
374.287	812.94
374.513	802.94
374.739	834.94
374.965	839.94
375.191	879.94
375.416	853.94
375.642	852.94
375.868	828.94
376.094	805.94
376.319	834.94
376.545	788.94
376.771	811.94
376.997	799.94
377.222	767.94
377.448	790.94
377.674	804.94
377.899	763.94
378.125	798.94
378.35	756.94
378.576	760.94
378.802	774.94
379.027	772.94
379.253	774.94
379.478	787.94
379.704	780.94
379.929	798.94
380.155	779.94
380.38	762.94
380.606	783.94
380.831	776.94
381.057	794.94
381.282	777.94
381.507	794.94
381.733	774.94
381.958	778.94
382.184	792.94
382.409	802.94
382.634	862.94
382.86	807.94
383.085	852.94
383.31	842.94
383.535	870.94
383.761	865.94
383.986	877.94
384.211	894.94
384.436	925.94
384.662	936.94
384.887	924.94
385.112	945.94
385.337	960.94
385.562	955.94
385.787	976.94
386.013	951.94
386.238	962.94
386.463	959.94
386.688	950.94
386.913	923.94
387.138	933.94
387.363	930.94
387.588	926.94
387.813	932.94
388.038	913.94
388.263	903.94
388.488	922.94
388.713	922.94
388.938	909.94
389.163	906.94
389.387	898.94
389.612	910.94
389.837	915.94
390.062	924.94
390.287	896.94
390.512	924.94
390.736	949.94
390.961	944.94
391.186	940.94
391.411	1003.94
391.636	1014.94
391.86	1047.94
392.085	1081.94
392.31	1069.94
392.534	1010.94
392.759	1017.94
392.984	998.94
393.208	1000.94
393.433	988.94
393.658	1018.94
393.882	1008.94
394.107	992.94
394.331	1018.94
394.556	994.94
394.78	1026.94
395.005	1013.94
395.229	999.94
395.454	1053.94
395.678	1072.94
395.903	1083.94
396.127	1053.94
396.352	1024.94
396.576	1003.94
396.801	968.94
397.025	1014.94
397.249	1030.94
397.474	1055.94
397.698	1058.94
397.922	1061.94
398.147	1031.94
398.371	1071.94
398.595	1111.94
398.82	1162.94
399.044	1247.94
399.268	1342.94
399.492	1638.94
399.717	1874.94
399.941	1855.94
400.165	1575.94
400.389	1422.94
400.613	1286.94
400.837	1250.94
401.062	1211.94
401.286	1168.94
401.51	1156.94
401.734	1190.94
401.958	1195.94
402.182	1247.94
402.406	1210.94
402.63	1250.94
402.854	1282.94
403.078	1291.94
403.302	1350.94
403.526	1350.94
403.75	1364.94
403.974	1380.94
404.198	1397.94
404.422	1406.94
404.645	1428.94
404.869	1373.94
405.093	1365.94
405.317	1366.94
405.541	1347.94
405.765	1300.94
405.988	1278.94
406.212	1306.94
406.436	1291.94
406.66	1334.94
406.883	1331.94
407.107	1430.94
407.331	1485.94
407.555	1556.94
407.778	1551.94
408.002	1506.94
408.226	1439.94
408.449	1400.94
408.673	1367.94
408.896	1364.94
409.12	1339.94
409.344	1367.94
409.567	1400.94
409.791	1371.94
410.014	1357.94
410.238	1356.94
410.461	1335.94
410.685	1321.94
410.908	1304.94
411.132	1255.94
411.355	1217.94
411.578	1246.94
411.802	1208.94
412.025	1256.94
412.249	1256.94
412.472	1237.94
412.695	1233.94
412.919	1211.94
413.142	1200.94
413.365	1167.94
413.589	1192.94
413.812	1182.94
414.035	1182.94
414.258	1154.94
414.482	1156.94
414.705	1212.94
414.928	1205.94
415.151	1208.94
415.374	1220.94
415.597	1205.94
415.821	1150.94
416.044	1147.94
416.267	1135.94
416.49	1150.94
416.713	1154.94
416.936	1169.94
417.159	1133.94
417.382	1176.94
417.605	1168.94
417.828	1161.94
418.051	1202.94
418.274	1215.94
418.497	1186.94
418.72	1199.94
418.943	1178.94
419.166	1304.94
419.389	1339.94
419.611	1355.94
419.834	1262.94
420.057	1218.94
420.28	1251.94
420.503	1178.94
420.726	1169.94
420.948	1151.94
421.171	1158.94
421.394	1176.94
421.617	1168.94
421.839	1170.94
422.062	1174.94
422.285	1168.94
422.507	1205.94
422.73	1234.94
422.953	1250.94
423.175	1238.94
423.398	1250.94
423.621	1251.94
423.843	1279.94
424.066	1252.94
424.288	1247.94
424.511	1270.94
424.733	1256.94
424.956	1213.94
425.178	1186.94
425.401	1185.94
425.623	1204.94
425.846	1146.94
426.068	1148.94
426.291	1135.94
426.513	1117.94
426.735	1117.94
426.958	1108.94
427.18	1084.94
427.402	1062.94
427.625	1084.94
427.847	1026.94
428.069	1042.94
428.292	1047.94
428.514	1043.94
428.736	1043.94
428.958	1061.94
429.181	1037.94
429.403	1031.94
429.625	1032.94
429.847	995.94
430.069	1038.94
430.292	1045.94
430.514	997.94
430.736	1005.94
430.958	1035.94
431.18	1039.94
431.402	1015.94
431.624	1012.94
431.846	1039.94
432.068	1052.94
432.29	1066.94
432.512	1019.94
432.734	1042.94
432.956	1055.94
433.178	1070.94
433.4	1045.94
433.622	1061.94
433.844	1061.94
434.066	1069.94
434.287	1076.94
434.509	1125.94
434.731	1152.94
434.953	1199.94
435.175	1196.94
435.397	1193.94
435.618	1134.94
435.84	1086.94
436.062	1058.94
436.284	1044.94
436.505	1055.94
436.727	1058.94
436.949	1055.94
437.17	1060.94
437.392	1040.94
437.614	1040.94
437.835	1029.94
438.057	1012.94
438.278	995.94
438.5	981.94
438.721	981.94
438.943	1031.94
439.165	1015.94
439.386	1036.94
439.608	1038.94
439.829	1069.94
440.05	1026.94
440.272	1027.94
440.493	1039.94
440.715	1070.94
440.936	1090.94
441.158	1112.94
441.379	1173.94
441.6	1198.94
441.822	1180.94
442.043	1212.94
442.264	1151.94
442.486	1142.94
442.707	1203.94
442.928	1154.94
443.149	1168.94
443.371	1187.94
443.592	1203.94
443.813	1198.94
444.034	1200.94
444.255	1273.94
444.476	1296.94
444.698	1396.94
444.919	1459.94
445.14	1510.94
445.361	1316.94
445.582	1230.94
445.803	1142.94
446.024	1130.94
446.245	1086.94
446.466	1096.94
446.687	1062.94
446.908	1082.94
447.129	1019.94
447.35	1038.94
447.571	1022.94
447.792	1013.94
448.013	1012.94
448.234	1011.94
448.455	1003.94
448.675	989.94
448.896	977.94
449.117	959.94
449.338	957.94
449.559	962.94
449.779	952.94
450	943.94
450.221	998.94
450.442	973.94
450.662	986.94
450.883	1024.94
451.104	1033.94
451.324	995.94
451.545	998.94
451.766	975.94
451.986	975.94
452.207	951.94
452.428	980.94
452.648	987.94
452.869	949.94
453.089	973.94
453.31	966.94
453.53	978.94
453.751	940.94
453.971	938.94
454.192	939.94
454.412	933.94
454.633	923.94
454.853	917.94
455.073	906.94
455.294	911.94
455.514	895.94
455.734	895.94
455.955	890.94
456.175	884.94
456.395	890.94
456.616	898.94
456.836	900.94
457.056	896.94
457.276	882.94
457.497	902.94
457.717	913.94
457.937	914.94
458.157	902.94
458.377	953.94
458.598	941.94
458.818	954.94
459.038	1014.94
459.258	1035.94
459.478	1050.94
459.698	1100.94
459.918	1101.94
460.138	1179.94
460.358	1247.94
460.578	1234.94
460.798	1256.94
461.018	1293.94
461.238	1245.94
461.458	1252.94
461.678	1220.94
461.898	1239.94
462.118	1262.94
462.338	1353.94
462.558	1385.94
462.777	1391.94
462.997	1575.94
463.217	1718.94
463.437	1731.94
463.657	1579.94
463.876	1458.94
464.096	1470.94
464.316	1473.94
464.536	1518.94
464.755	1372.94
464.975	1361.94
465.195	1318.94
465.414	1227.94
465.634	1157.94
465.854	1100.94
466.073	1097.94
466.293	1065.94
466.512	1052.94
466.732	1012.94
466.951	1019.94
467.171	967.94
467.391	1034.94
467.61	1019.94
467.829	1017.94
468.049	980.94
468.268	982.94
468.488	954.94
468.707	968.94
468.927	952.94
469.146	993.94
469.365	980.94
469.585	1007.94
469.804	983.94
470.023	1018.94
470.243	1018.94
470.462	1062.94
470.681	1052.94
470.901	1066.94
471.12	1026.94
471.339	1026.94
471.558	1006.94
471.777	974.94
471.997	973.94
472.216	971.94
472.435	957.94
472.654	959.94
472.873	946.94
473.092	918.94
473.311	929.94
473.53	922.94
473.749	954.94
473.968	951.94
474.187	930.94
474.406	946.94
474.625	915.94
474.844	938.94
475.063	957.94
475.282	914.94
475.501	958.94
475.72	964.94
475.939	957.94
476.158	991.94
476.377	983.94
476.596	973.94
476.814	963.94
477.033	997.94
477.252	1002.94
477.471	1011.94
477.69	1062.94
477.908	1093.94
478.127	1123.94
478.346	1114.94
478.564	1141.94
478.783	1138.94
479.002	1180.94
479.22	1191.94
479.439	1160.94
479.658	1159.94
479.876	1177.94
480.095	1174.94
480.313	1227.94
480.532	1255.94
480.751	1281.94
480.969	1202.94
481.188	1136.94
481.406	1134.94
481.624	1128.94
481.843	1068.94
482.061	1094.94
482.28	1059.94
482.498	1063.94
482.717	1057.94
482.935	1038.94
483.153	1040.94
483.372	1081.94
483.59	1054.94
483.808	1083.94
484.027	1070.94
484.245	1067.94
484.463	1071.94
484.681	1104.94
484.9	1095.94
485.118	1104.94
485.336	1120.94
485.554	1104.94
485.772	1141.94
485.99	1135.94
486.209	1130.94
486.427	1129.94
486.645	1126.94
486.863	1140.94
487.081	1150.94
487.299	1134.94
487.517	1119.94
487.735	1123.94
487.953	1128.94
488.171	1137.94
488.389	1122.94
488.607	1123.94
488.825	1094.94
489.043	1086.94
489.261	1098.94
489.479	1098.94
489.696	1140.94
489.914	1128.94
490.132	1133.94
490.35	1129.94
490.568	1146.94
490.786	1136.94
491.003	1132.94
491.221	1134.94
491.439	1147.94
491.657	1132.94
491.874	1136.94
492.092	1130.94
492.31	1146.94
492.527	1139.94
492.745	1169.94
492.963	1177.94
493.18	1172.94
493.398	1192.94
493.615	1182.94
493.833	1168.94
494.05	1181.94
494.268	1210.94
494.485	1204.94
494.703	1188.94
494.92	1202.94
495.138	1162.94
495.355	1186.94
495.573	1198.94
495.79	1184.94
496.008	1202.94
496.225	1180.94
