Data from Ni(NO3)2@0.25M.TitratingCurve.Agarose3%dH2O.NegLispCup.LampEnergy10.LIBS07252019_HRD10591_18-05-06-566.txt Node
Date: Thu Jul 25 18:05:06 EDT 2019
User: cochatt
Spectrometer: HR+D1059
Trigger mode: 1
Integration Time (sec): 1.000000E-1
Scans to average: 1
Electric dark correction enabled: true
Nonlinearity correction enabled: false
Boxcar width: 0
XAxis mode: Wavelengths
Number of Pixels in Spectrum: 2048
>>>>>Begin Spectral Data<<<<<
223.165	-7.19
223.4	-7.19
223.635	-7.19
223.869	-5.19
224.104	-25.19
224.338	-28.19
224.573	-5.19
224.808	-9.19
225.042	-9.19
225.277	-4.19
225.511	-12.19
225.746	7.81
225.98	6.81
226.215	1.81
226.449	6.81
226.683	28.81
226.918	24.81
227.152	28.81
227.387	35.81
227.621	37.81
227.856	38.81
228.09	49.81
228.324	57.81
228.559	57.81
228.793	78.81
229.027	86.81
229.262	84.81
229.496	86.81
229.73	81.81
229.964	88.81
230.199	107.81
230.433	108.81
230.667	117.81
230.901	118.81
231.136	122.81
231.37	110.81
231.604	121.81
231.838	114.81
232.072	120.81
232.306	111.81
232.541	118.81
232.775	114.81
233.009	112.81
233.243	111.81
233.477	142.81
233.711	112.81
233.945	123.81
234.179	117.81
234.413	111.81
234.647	123.81
234.881	131.81
235.115	126.81
235.349	105.81
235.583	116.81
235.817	107.81
236.051	121.81
236.285	109.81
236.519	114.81
236.753	115.81
236.987	100.81
237.221	109.81
237.455	128.81
237.689	112.81
237.922	111.81
238.156	134.81
238.39	119.81
238.624	130.81
238.858	120.81
239.091	124.81
239.325	135.81
239.559	140.81
239.793	114.81
240.027	127.81
240.26	144.81
240.494	114.81
240.728	132.81
240.961	125.81
241.195	122.81
241.429	143.81
241.662	144.81
241.896	141.81
242.13	144.81
242.363	131.81
242.597	149.81
242.83	139.81
243.064	139.81
243.298	139.81
243.531	147.81
243.765	145.81
243.998	156.81
244.232	139.81
244.465	141.81
244.699	146.81
244.932	145.81
245.166	159.81
245.399	155.81
245.633	145.81
245.866	156.81
246.099	152.81
246.333	153.81
246.566	136.81
246.8	146.81
247.033	152.81
247.266	153.81
247.5	160.81
247.733	167.81
247.966	158.81
248.2	152.81
248.433	170.81
248.666	174.81
248.899	171.81
249.133	156.81
249.366	166.81
249.599	177.81
249.832	164.81
250.066	177.81
250.299	192.81
250.532	180.81
250.765	169.81
250.998	192.81
251.231	197.81
251.465	181.81
251.698	181.81
251.931	187.81
252.164	212.81
252.397	194.81
252.63	186.81
252.863	186.81
253.096	203.81
253.329	194.81
253.562	199.81
253.795	206.81
254.028	215.81
254.261	188.81
254.494	219.81
254.727	214.81
254.96	194.81
255.193	211.81
255.426	215.81
255.659	215.81
255.892	220.81
256.124	220.81
256.357	226.81
256.59	224.81
256.823	224.81
257.056	228.81
257.289	243.81
257.521	242.81
257.754	250.81
257.987	232.81
258.22	223.81
258.452	238.81
258.685	227.81
258.918	223.81
259.151	234.81
259.383	219.81
259.616	246.81
259.849	214.81
260.081	254.81
260.314	243.81
260.547	235.81
260.779	236.81
261.012	262.81
261.244	242.81
261.477	256.81
261.71	242.81
261.942	249.81
262.175	250.81
262.407	248.81
262.64	228.81
262.872	236.81
263.105	258.81
263.337	255.81
263.57	235.81
263.802	248.81
264.035	257.81
264.267	250.81
264.499	262.81
264.732	277.81
264.964	266.81
265.197	269.81
265.429	270.81
265.661	264.81
265.894	275.81
266.126	269.81
266.358	265.81
266.591	274.81
266.823	262.81
267.055	270.81
267.287	264.81
267.52	269.81
267.752	278.81
267.984	284.81
268.216	282.81
268.448	263.81
268.681	286.81
268.913	275.81
269.145	271.81
269.377	297.81
269.609	280.81
269.841	300.81
270.073	282.81
270.306	272.81
270.538	278.81
270.77	283.81
271.002	296.81
271.234	293.81
271.466	290.81
271.698	265.81
271.93	293.81
272.162	294.81
272.394	283.81
272.626	288.81
272.858	296.81
273.09	295.81
273.322	299.81
273.553	304.81
273.785	293.81
274.017	309.81
274.249	292.81
274.481	300.81
274.713	295.81
274.945	315.81
275.176	299.81
275.408	298.81
275.64	302.81
275.872	296.81
276.104	292.81
276.335	310.81
276.567	291.81
276.799	289.81
277.031	308.81
277.262	315.81
277.494	321.81
277.726	302.81
277.957	287.81
278.189	321.81
278.421	317.81
278.652	312.81
278.884	320.81
279.115	323.81
279.347	316.81
279.579	313.81
279.81	336.81
280.042	315.81
280.273	341.81
280.505	319.81
280.736	336.81
280.968	342.81
281.199	323.81
281.431	336.81
281.662	329.81
281.894	345.81
282.125	342.81
282.356	342.81
282.588	337.81
282.819	353.81
283.051	321.81
283.282	327.81
283.513	333.81
283.745	343.81
283.976	337.81
284.207	333.81
284.439	335.81
284.67	346.81
284.901	353.81
285.132	342.81
285.364	331.81
285.595	363.81
285.826	336.81
286.057	360.81
286.288	335.81
286.52	342.81
286.751	343.81
286.982	358.81
287.213	347.81
287.444	341.81
287.675	366.81
287.906	336.81
288.138	363.81
288.369	345.81
288.6	368.81
288.831	347.81
289.062	361.81
289.293	369.81
289.524	358.81
289.755	355.81
289.986	350.81
290.217	366.81
290.448	368.81
290.679	358.81
290.91	358.81
291.141	366.81
291.371	349.81
291.602	368.81
291.833	347.81
292.064	360.81
292.295	350.81
292.526	378.81
292.757	351.81
292.987	370.81
293.218	367.81
293.449	372.81
293.68	363.81
293.91	348.81
294.141	376.81
294.372	351.81
294.603	348.81
294.833	356.81
295.064	369.81
295.295	354.81
295.525	371.81
295.756	374.81
295.987	373.81
296.217	381.81
296.448	373.81
296.679	366.81
296.909	360.81
297.14	378.81
297.37	374.81
297.601	378.81
297.831	370.81
298.062	377.81
298.292	384.81
298.523	383.81
298.753	403.81
298.984	405.81
299.214	396.81
299.445	392.81
299.675	400.81
299.905	393.81
300.136	407.81
300.366	405.81
300.597	398.81
300.827	411.81
301.057	401.81
301.288	430.81
301.518	430.81
301.748	422.81
301.979	429.81
302.209	406.81
302.439	394.81
302.669	423.81
302.9	404.81
303.13	390.81
303.36	399.81
303.59	400.81
303.82	414.81
304.051	423.81
304.281	427.81
304.511	428.81
304.741	397.81
304.971	417.81
305.201	410.81
305.431	417.81
305.661	404.81
305.891	389.81
306.121	414.81
306.352	409.81
306.582	401.81
306.812	414.81
307.042	417.81
307.272	423.81
307.502	415.81
307.731	409.81
307.961	392.81
308.191	415.81
308.421	388.81
308.651	423.81
308.881	406.81
309.111	417.81
309.341	395.81
309.571	402.81
309.8	396.81
310.03	404.81
310.26	437.81
310.49	427.81
310.72	421.81
310.949	430.81
311.179	402.81
311.409	442.81
311.639	420.81
311.868	402.81
312.098	435.81
312.328	425.81
312.557	443.81
312.787	433.81
313.017	429.81
313.246	463.81
313.476	454.81
313.706	452.81
313.935	450.81
314.165	450.81
314.394	448.81
314.624	453.81
314.853	456.81
315.083	444.81
315.312	449.81
315.542	454.81
315.771	456.81
316.001	433.81
316.23	451.81
316.46	474.81
316.689	464.81
316.919	460.81
317.148	470.81
317.377	461.81
317.607	454.81
317.836	456.81
318.065	459.81
318.295	463.81
318.524	456.81
318.753	469.81
318.983	466.81
319.212	479.81
319.441	490.81
319.67	469.81
319.9	452.81
320.129	456.81
320.358	448.81
320.587	457.81
320.816	477.81
321.046	479.81
321.275	464.81
321.504	469.81
321.733	468.81
321.962	476.81
322.191	494.81
322.42	486.81
322.649	491.81
322.878	467.81
323.108	478.81
323.337	495.81
323.566	514.81
323.795	496.81
324.024	491.81
324.253	491.81
324.482	513.81
324.71	493.81
324.939	474.81
325.168	520.81
325.397	508.81
325.626	513.81
325.855	519.81
326.084	505.81
326.313	528.81
326.542	535.81
326.77	545.81
326.999	529.81
327.228	531.81
327.457	546.81
327.686	535.81
327.914	532.81
328.143	524.81
328.372	545.81
328.6	558.81
328.829	542.81
329.058	568.81
329.287	548.81
329.515	567.81
329.744	539.81
329.972	561.81
330.201	555.81
330.43	579.81
330.658	562.81
330.887	568.81
331.115	585.81
331.344	581.81
331.572	583.81
331.801	585.81
332.03	609.81
332.258	625.81
332.486	617.81
332.715	632.81
332.943	648.81
333.172	672.81
333.4	672.81
333.629	709.81
333.857	702.81
334.085	708.81
334.314	729.81
334.542	706.81
334.771	714.81
334.999	703.81
335.227	704.81
335.455	709.81
335.684	684.81
335.912	684.81
336.14	701.81
336.369	674.81
336.597	702.81
336.825	689.81
337.053	671.81
337.281	684.81
337.51	647.81
337.738	646.81
337.966	640.81
338.194	676.81
338.422	660.81
338.65	631.81
338.878	648.81
339.106	616.81
339.334	623.81
339.562	646.81
339.79	598.81
340.018	606.81
340.246	579.81
340.474	603.81
340.702	606.81
340.93	592.81
341.158	613.81
341.386	629.81
341.614	646.81
341.842	617.81
342.07	607.81
342.298	598.81
342.526	613.81
342.754	611.81
342.981	583.81
343.209	602.81
343.437	656.81
343.665	651.81
343.893	687.81
344.12	688.81
344.348	683.81
344.576	678.81
344.804	667.81
345.031	625.81
345.259	649.81
345.487	646.81
345.714	619.81
345.942	610.81
346.17	640.81
346.397	598.81
346.625	588.81
346.853	566.81
347.08	574.81
347.308	585.81
347.535	587.81
347.763	584.81
347.99	587.81
348.218	584.81
348.445	600.81
348.673	593.81
348.9	582.81
349.128	571.81
349.355	597.81
349.583	598.81
349.81	603.81
350.037	589.81
350.265	578.81
350.492	564.81
350.72	556.81
350.947	554.81
351.174	588.81
351.402	587.81
351.629	586.81
351.856	567.81
352.083	582.81
352.311	576.81
352.538	599.81
352.765	604.81
352.992	570.81
353.22	548.81
353.447	566.81
353.674	578.81
353.901	552.81
354.128	552.81
354.355	553.81
354.583	566.81
354.81	562.81
355.037	561.81
355.264	555.81
355.491	579.81
355.718	572.81
355.945	569.81
356.172	571.81
356.399	560.81
356.626	580.81
356.853	572.81
357.08	556.81
357.307	573.81
357.534	566.81
357.761	560.81
357.988	584.81
358.215	560.81
358.441	561.81
358.668	544.81
358.895	555.81
359.122	535.81
359.349	567.81
359.576	588.81
359.802	551.81
360.029	551.81
360.256	580.81
360.483	562.81
360.709	563.81
360.936	571.81
361.163	551.81
361.39	565.81
361.616	569.81
361.843	562.81
362.07	572.81
362.296	591.81
362.523	552.81
362.749	574.81
362.976	558.81
363.203	565.81
363.429	547.81
363.656	570.81
363.882	544.81
364.109	554.81
364.335	561.81
364.562	560.81
364.788	561.81
365.015	536.81
365.241	560.81
365.468	575.81
365.694	556.81
365.92	558.81
366.147	532.81
366.373	530.81
366.599	561.81
366.826	554.81
367.052	566.81
367.278	543.81
367.505	570.81
367.731	542.81
367.957	551.81
368.184	551.81
368.41	563.81
368.636	562.81
368.862	552.81
369.089	554.81
369.315	547.81
369.541	565.81
369.767	568.81
369.993	556.81
370.219	560.81
370.445	578.81
370.672	571.81
370.898	589.81
371.124	606.81
371.35	587.81
371.576	596.81
371.802	579.81
372.028	566.81
372.254	596.81
372.48	595.81
372.706	602.81
372.932	602.81
373.158	604.81
373.384	592.81
373.61	602.81
373.835	603.81
374.061	587.81
374.287	588.81
374.513	616.81
374.739	622.81
374.965	630.81
375.191	655.81
375.416	664.81
375.642	607.81
375.868	625.81
376.094	615.81
376.319	570.81
376.545	584.81
376.771	598.81
376.997	586.81
377.222	600.81
377.448	574.81
377.674	584.81
377.899	584.81
378.125	567.81
378.35	576.81
378.576	566.81
378.802	564.81
379.027	576.81
379.253	591.81
379.478	566.81
379.704	574.81
379.929	583.81
380.155	570.81
380.38	586.81
380.606	565.81
380.831	581.81
381.057	570.81
381.282	573.81
381.507	580.81
381.733	589.81
381.958	576.81
382.184	561.81
382.409	597.81
382.634	604.81
382.86	591.81
383.085	602.81
383.31	610.81
383.535	619.81
383.761	622.81
383.986	624.81
384.211	634.81
384.436	625.81
384.662	645.81
384.887	680.81
385.112	664.81
385.337	660.81
385.562	689.81
385.787	666.81
386.013	690.81
386.238	664.81
386.463	673.81
386.688	680.81
386.913	665.81
387.138	684.81
387.363	639.81
387.588	648.81
387.813	679.81
388.038	665.81
388.263	690.81
388.488	653.81
388.713	654.81
388.938	655.81
389.163	677.81
389.387	658.81
389.612	649.81
389.837	647.81
390.062	682.81
390.287	661.81
390.512	660.81
390.736	671.81
390.961	711.81
391.186	683.81
391.411	686.81
391.636	734.81
391.86	728.81
392.085	743.81
392.31	749.81
392.534	716.81
392.759	737.81
392.984	729.81
393.208	691.81
393.433	724.81
393.658	686.81
393.882	704.81
394.107	704.81
394.331	708.81
394.556	709.81
394.78	715.81
395.005	739.81
395.229	744.81
395.454	748.81
395.678	743.81
395.903	724.81
396.127	746.81
396.352	744.81
396.576	719.81
396.801	726.81
397.025	714.81
397.249	740.81
397.474	754.81
397.698	778.81
397.922	782.81
398.147	758.81
398.371	780.81
398.595	819.81
398.82	852.81
399.044	868.81
399.268	962.81
399.492	1046.81
399.717	1140.81
399.941	1126.81
400.165	1084.81
400.389	1002.81
400.613	953.81
400.837	894.81
401.062	882.81
401.286	875.81
401.51	867.81
401.734	855.81
401.958	875.81
402.182	866.81
402.406	879.81
402.63	863.81
402.854	873.81
403.078	890.81
403.302	872.81
403.526	925.81
403.75	920.81
403.974	933.81
404.198	905.81
404.422	924.81
404.645	908.81
404.869	896.81
405.093	934.81
405.317	897.81
405.541	920.81
405.765	905.81
405.988	898.81
406.212	949.81
406.436	942.81
406.66	932.81
406.883	955.81
407.107	1032.81
407.331	1040.81
407.555	1076.81
407.778	1065.81
408.002	1072.81
408.226	1006.81
408.449	1015.81
408.673	982.81
408.896	954.81
409.12	975.81
409.344	972.81
409.567	929.81
409.791	954.81
410.014	934.81
410.238	932.81
410.461	928.81
410.685	951.81
410.908	922.81
411.132	914.81
411.355	883.81
411.578	896.81
411.802	891.81
412.025	891.81
412.249	913.81
412.472	908.81
412.695	874.81
412.919	866.81
413.142	886.81
413.365	849.81
413.589	868.81
413.812	865.81
414.035	884.81
414.258	850.81
414.482	856.81
414.705	878.81
414.928	873.81
415.151	855.81
415.374	871.81
415.597	864.81
415.821	852.81
416.044	845.81
416.267	844.81
416.49	848.81
416.713	856.81
416.936	853.81
417.159	879.81
417.382	840.81
417.605	828.81
417.828	840.81
418.051	842.81
418.274	856.81
418.497	847.81
418.72	885.81
418.943	889.81
419.166	919.81
419.389	975.81
419.611	961.81
419.834	942.81
420.057	920.81
420.28	886.81
420.503	866.81
420.726	858.81
420.948	867.81
421.171	889.81
421.394	886.81
421.617	857.81
421.839	885.81
422.062	867.81
422.285	859.81
422.507	872.81
422.73	866.81
422.953	876.81
423.175	906.81
423.398	890.81
423.621	880.81
423.843	890.81
424.066	894.81
424.288	875.81
424.511	887.81
424.733	869.81
424.956	871.81
425.178	864.81
425.401	843.81
425.623	859.81
425.846	857.81
426.068	867.81
426.291	875.81
426.513	838.81
426.735	828.81
426.958	852.81
427.18	815.81
427.402	839.81
427.625	823.81
427.847	800.81
428.069	803.81
428.292	842.81
428.514	815.81
428.736	802.81
428.958	806.81
429.181	796.81
429.403	786.81
429.625	810.81
429.847	788.81
430.069	759.81
430.292	800.81
430.514	786.81
430.736	786.81
430.958	790.81
431.18	806.81
431.402	798.81
431.624	780.81
431.846	801.81
432.068	794.81
432.29	801.81
432.512	784.81
432.734	827.81
432.956	806.81
433.178	820.81
433.4	807.81
433.622	819.81
433.844	827.81
434.066	828.81
434.287	826.81
434.509	862.81
434.731	871.81
434.953	895.81
435.175	881.81
435.397	892.81
435.618	844.81
435.84	826.81
436.062	817.81
436.284	816.81
436.505	817.81
436.727	798.81
436.949	801.81
437.17	809.81
437.392	788.81
437.614	768.81
437.835	791.81
438.057	790.81
438.278	800.81
438.5	784.81
438.721	764.81
438.943	797.81
439.165	795.81
439.386	796.81
439.608	809.81
439.829	792.81
440.05	796.81
440.272	811.81
440.493	816.81
440.715	853.81
440.936	839.81
441.158	847.81
441.379	869.81
441.6	899.81
441.822	892.81
442.043	912.81
442.264	914.81
442.486	889.81
442.707	859.81
442.928	868.81
443.149	884.81
443.371	886.81
443.592	880.81
443.813	913.81
444.034	909.81
444.255	920.81
444.476	966.81
444.698	987.81
444.919	1018.81
445.14	1140.81
445.361	1014.81
445.582	948.81
445.803	892.81
446.024	889.81
446.245	866.81
446.466	856.81
446.687	807.81
446.908	844.81
447.129	830.81
447.35	816.81
447.571	825.81
447.792	784.81
448.013	771.81
448.234	787.81
448.455	805.81
448.675	773.81
448.896	764.81
449.117	754.81
449.338	761.81
449.559	735.81
449.779	770.81
450	742.81
450.221	763.81
450.442	746.81
450.662	754.81
450.883	770.81
451.104	783.81
451.324	771.81
451.545	758.81
451.766	730.81
451.986	737.81
452.207	761.81
452.428	739.81
452.648	747.81
452.869	731.81
453.089	737.81
453.31	727.81
453.53	707.81
453.751	742.81
453.971	721.81
454.192	726.81
454.412	720.81
454.633	709.81
454.853	714.81
455.073	706.81
455.294	708.81
455.514	727.81
455.734	706.81
455.955	707.81
456.175	707.81
456.395	714.81
456.616	680.81
456.836	711.81
457.056	698.81
457.276	705.81
457.497	702.81
457.717	730.81
457.937	704.81
458.157	720.81
458.377	732.81
458.598	723.81
458.818	747.81
459.038	780.81
459.258	770.81
459.478	825.81
459.698	851.81
459.918	859.81
460.138	884.81
460.358	898.81
460.578	923.81
460.798	932.81
461.018	926.81
461.238	930.81
461.458	934.81
461.678	931.81
461.898	916.81
462.118	960.81
462.338	1006.81
462.558	1037.81
462.777	1066.81
462.997	1080.81
463.217	1145.81
463.437	1197.81
463.657	1136.81
463.876	1099.81
464.096	1068.81
464.316	1071.81
464.536	1055.81
464.755	1063.81
464.975	1042.81
465.195	947.81
465.414	908.81
465.634	882.81
465.854	829.81
466.073	848.81
466.293	818.81
466.512	787.81
466.732	802.81
466.951	800.81
467.171	787.81
467.391	808.81
467.61	768.81
467.829	780.81
468.049	777.81
468.268	768.81
468.488	773.81
468.707	755.81
468.927	741.81
469.146	768.81
469.365	811.81
469.585	774.81
469.804	780.81
470.023	802.81
470.243	793.81
470.462	786.81
470.681	802.81
470.901	817.81
471.12	808.81
471.339	783.81
471.558	798.81
471.777	785.81
471.997	796.81
472.216	771.81
472.435	731.81
472.654	750.81
472.873	750.81
473.092	760.81
473.311	748.81
473.53	776.81
473.749	737.81
473.968	729.81
474.187	707.81
474.406	742.81
474.625	744.81
474.844	726.81
475.063	745.81
475.282	742.81
475.501	762.81
475.72	740.81
475.939	784.81
476.158	758.81
476.377	789.81
476.596	769.81
476.814	791.81
477.033	795.81
477.252	810.81
477.471	804.81
477.69	827.81
477.908	822.81
478.127	855.81
478.346	878.81
478.564	887.81
478.783	886.81
479.002	896.81
479.22	920.81
479.439	918.81
479.658	913.81
479.876	928.81
480.095	899.81
480.313	931.81
480.532	944.81
480.751	939.81
480.969	886.81
481.188	894.81
481.406	875.81
481.624	873.81
481.843	868.81
482.061	851.81
482.28	847.81
482.498	812.81
482.717	835.81
482.935	837.81
483.153	846.81
483.372	858.81
483.59	839.81
483.808	847.81
484.027	847.81
484.245	865.81
484.463	854.81
484.681	865.81
484.9	885.81
485.118	885.81
485.336	856.81
485.554	853.81
485.772	879.81
485.99	870.81
486.209	881.81
486.427	872.81
486.645	873.81
486.863	867.81
487.081	848.81
487.299	884.81
487.517	883.81
487.735	888.81
487.953	898.81
488.171	871.81
488.389	872.81
488.607	873.81
488.825	879.81
489.043	889.81
489.261	878.81
489.479	877.81
489.696	893.81
489.914	869.81
490.132	894.81
490.35	906.81
490.568	901.81
490.786	937.81
491.003	883.81
491.221	890.81
491.439	903.81
491.657	903.81
491.874	926.81
492.092	946.81
492.31	958.81
492.527	935.81
492.745	914.81
492.963	923.81
493.18	930.81
493.398	940.81
493.615	917.81
493.833	958.81
494.05	965.81
494.268	968.81
494.485	951.81
494.703	966.81
494.92	984.81
495.138	928.81
495.355	978.81
495.573	968.81
495.79	969.81
496.008	978.81
496.225	983.81
496.442	1008.81
496.66	1018.81
496.877	1034.81
497.094	1042.81
497.312	1057.81
497.529	1074.81
497.746	1107.81
497.963	1158.81
498.181	1176.81
498.398	1211.81
498.615	1267.81
498.832	1369.81
499.049	1428.81
499.267	1549.81
499.484	1660.81
499.701	1781.81
499.918	1942.81
500.135	2140.81
500.352	2309.81
500.569	2390.81
500.786	2346.81
501.003	2212.81
