Data from Ni(NO3)2@0.25M.TitratingCurve.Agarose3%dH2O.NegLispCup.LampEnergy10.LIBS07252019_HRD10591_18-03-47-565.txt Node
Date: Thu Jul 25 18:03:47 EDT 2019
User: cochatt
Spectrometer: HR+D1059
Trigger mode: 1
Integration Time (sec): 1.000000E-1
Scans to average: 1
Electric dark correction enabled: true
Nonlinearity correction enabled: false
Boxcar width: 0
XAxis mode: Wavelengths
Number of Pixels in Spectrum: 2048
>>>>>Begin Spectral Data<<<<<
223.165	-8.94
223.4	-8.94
223.635	-8.94
223.869	-15.94
224.104	-19.94
224.338	-16.94
224.573	-19.94
224.808	-5.94
225.042	-11.94
225.277	-11.94
225.511	-4.94
225.746	-0.94
225.98	4.06
226.215	6.06
226.449	9.06
226.683	41.06
226.918	14.06
227.152	43.06
227.387	41.06
227.621	48.06
227.856	48.06
228.09	43.06
228.324	40.06
228.559	54.06
228.793	72.06
229.027	89.06
229.262	105.06
229.496	85.06
229.73	88.06
229.964	109.06
230.199	109.06
230.433	113.06
230.667	128.06
230.901	116.06
231.136	107.06
231.37	101.06
231.604	117.06
231.838	112.06
232.072	120.06
232.306	125.06
232.541	114.06
232.775	119.06
233.009	127.06
233.243	109.06
233.477	122.06
233.711	116.06
233.945	124.06
234.179	117.06
234.413	109.06
234.647	120.06
234.881	114.06
235.115	127.06
235.349	113.06
235.583	113.06
235.817	124.06
236.051	131.06
236.285	126.06
236.519	125.06
236.753	117.06
236.987	126.06
237.221	117.06
237.455	113.06
237.689	121.06
237.922	126.06
238.156	130.06
238.39	123.06
238.624	107.06
238.858	112.06
239.091	115.06
239.325	132.06
239.559	128.06
239.793	153.06
240.027	125.06
240.26	152.06
240.494	129.06
240.728	130.06
240.961	138.06
241.195	137.06
241.429	130.06
241.662	127.06
241.896	139.06
242.13	129.06
242.363	142.06
242.597	124.06
242.83	142.06
243.064	129.06
243.298	132.06
243.531	144.06
243.765	155.06
243.998	128.06
244.232	152.06
244.465	136.06
244.699	153.06
244.932	147.06
245.166	128.06
245.399	134.06
245.633	154.06
245.866	145.06
246.099	152.06
246.333	153.06
246.566	157.06
246.8	151.06
247.033	154.06
247.266	164.06
247.5	137.06
247.733	145.06
247.966	149.06
248.2	154.06
248.433	164.06
248.666	159.06
248.899	168.06
249.133	170.06
249.366	176.06
249.599	157.06
249.832	173.06
250.066	174.06
250.299	192.06
250.532	166.06
250.765	152.06
250.998	192.06
251.231	190.06
251.465	183.06
251.698	189.06
251.931	187.06
252.164	173.06
252.397	180.06
252.63	189.06
252.863	191.06
253.096	185.06
253.329	209.06
253.562	208.06
253.795	190.06
254.028	224.06
254.261	210.06
254.494	201.06
254.727	212.06
254.96	204.06
255.193	226.06
255.426	206.06
255.659	222.06
255.892	202.06
256.124	209.06
256.357	228.06
256.59	228.06
256.823	233.06
257.056	231.06
257.289	226.06
257.521	230.06
257.754	233.06
257.987	220.06
258.22	248.06
258.452	232.06
258.685	245.06
258.918	239.06
259.151	231.06
259.383	258.06
259.616	235.06
259.849	238.06
260.081	240.06
260.314	256.06
260.547	246.06
260.779	265.06
261.012	251.06
261.244	248.06
261.477	254.06
261.71	248.06
261.942	256.06
262.175	251.06
262.407	253.06
262.64	241.06
262.872	273.06
263.105	266.06
263.337	271.06
263.57	250.06
263.802	272.06
264.035	276.06
264.267	279.06
264.499	286.06
264.732	265.06
264.964	280.06
265.197	266.06
265.429	271.06
265.661	275.06
265.894	279.06
266.126	278.06
266.358	286.06
266.591	273.06
266.823	287.06
267.055	262.06
267.287	298.06
267.52	273.06
267.752	272.06
267.984	291.06
268.216	278.06
268.448	280.06
268.681	289.06
268.913	287.06
269.145	291.06
269.377	296.06
269.609	271.06
269.841	277.06
270.073	278.06
270.306	293.06
270.538	286.06
270.77	284.06
271.002	278.06
271.234	290.06
271.466	296.06
271.698	302.06
271.93	305.06
272.162	297.06
272.394	290.06
272.626	303.06
272.858	304.06
273.09	301.06
273.322	306.06
273.553	309.06
273.785	314.06
274.017	308.06
274.249	327.06
274.481	307.06
274.713	314.06
274.945	318.06
275.176	314.06
275.408	313.06
275.64	319.06
275.872	314.06
276.104	317.06
276.335	291.06
276.567	303.06
276.799	318.06
277.031	320.06
277.262	306.06
277.494	313.06
277.726	315.06
277.957	328.06
278.189	308.06
278.421	327.06
278.652	295.06
278.884	317.06
279.115	330.06
279.347	314.06
279.579	320.06
279.81	308.06
280.042	313.06
280.273	321.06
280.505	326.06
280.736	326.06
280.968	312.06
281.199	321.06
281.431	329.06
281.662	333.06
281.894	331.06
282.125	320.06
282.356	339.06
282.588	332.06
282.819	336.06
283.051	347.06
283.282	345.06
283.513	335.06
283.745	333.06
283.976	327.06
284.207	337.06
284.439	332.06
284.67	332.06
284.901	347.06
285.132	340.06
285.364	345.06
285.595	334.06
285.826	346.06
286.057	357.06
286.288	337.06
286.52	359.06
286.751	340.06
286.982	334.06
287.213	350.06
287.444	344.06
287.675	351.06
287.906	350.06
288.138	353.06
288.369	353.06
288.6	358.06
288.831	340.06
289.062	345.06
289.293	356.06
289.524	341.06
289.755	345.06
289.986	335.06
290.217	335.06
290.448	355.06
290.679	350.06
290.91	356.06
291.141	349.06
291.371	348.06
291.602	358.06
291.833	354.06
292.064	342.06
292.295	347.06
292.526	353.06
292.757	342.06
292.987	332.06
293.218	334.06
293.449	349.06
293.68	357.06
293.91	367.06
294.141	352.06
294.372	347.06
294.603	337.06
294.833	352.06
295.064	350.06
295.295	345.06
295.525	367.06
295.756	362.06
295.987	357.06
296.217	365.06
296.448	362.06
296.679	356.06
296.909	372.06
297.14	372.06
297.37	350.06
297.601	379.06
297.831	358.06
298.062	374.06
298.292	364.06
298.523	360.06
298.753	360.06
298.984	377.06
299.214	372.06
299.445	372.06
299.675	384.06
299.905	394.06
300.136	377.06
300.366	390.06
300.597	397.06
300.827	379.06
301.057	371.06
301.288	384.06
301.518	403.06
301.748	386.06
301.979	386.06
302.209	378.06
302.439	400.06
302.669	394.06
302.9	385.06
303.13	398.06
303.36	406.06
303.59	386.06
303.82	408.06
304.051	421.06
304.281	414.06
304.511	402.06
304.741	389.06
304.971	383.06
305.201	401.06
305.431	411.06
305.661	417.06
305.891	416.06
306.121	416.06
306.352	402.06
306.582	382.06
306.812	365.06
307.042	408.06
307.272	413.06
307.502	388.06
307.731	381.06
307.961	379.06
308.191	399.06
308.421	390.06
308.651	411.06
308.881	398.06
309.111	396.06
309.341	414.06
309.571	400.06
309.8	431.06
310.03	411.06
310.26	427.06
310.49	427.06
310.72	420.06
310.949	406.06
311.179	416.06
311.409	414.06
311.639	415.06
311.868	429.06
312.098	431.06
312.328	448.06
312.557	412.06
312.787	418.06
313.017	431.06
313.246	448.06
313.476	449.06
313.706	438.06
313.935	454.06
314.165	448.06
314.394	457.06
314.624	439.06
314.853	455.06
315.083	447.06
315.312	470.06
315.542	460.06
315.771	445.06
316.001	434.06
316.23	466.06
316.46	469.06
316.689	473.06
316.919	457.06
317.148	453.06
317.377	477.06
317.607	475.06
317.836	472.06
318.065	479.06
318.295	509.06
318.524	462.06
318.753	467.06
318.983	486.06
319.212	450.06
319.441	472.06
319.67	496.06
319.9	485.06
320.129	484.06
320.358	495.06
320.587	495.06
320.816	488.06
321.046	494.06
321.275	507.06
321.504	500.06
321.733	508.06
321.962	522.06
322.191	524.06
322.42	524.06
322.649	530.06
322.878	521.06
323.108	525.06
323.337	546.06
323.566	520.06
323.795	556.06
324.024	549.06
324.253	553.06
324.482	558.06
324.71	558.06
324.939	548.06
325.168	555.06
325.397	550.06
325.626	531.06
325.855	583.06
326.084	592.06
326.313	605.06
326.542	604.06
326.77	581.06
326.999	587.06
327.228	580.06
327.457	576.06
327.686	574.06
327.914	598.06
328.143	585.06
328.372	584.06
328.6	600.06
328.829	604.06
329.058	609.06
329.287	599.06
329.515	612.06
329.744	609.06
329.972	625.06
330.201	611.06
330.43	633.06
330.658	639.06
330.887	623.06
331.115	648.06
331.344	624.06
331.572	628.06
331.801	644.06
332.03	658.06
332.258	681.06
332.486	686.06
332.715	678.06
332.943	699.06
333.172	710.06
333.4	720.06
333.629	730.06
333.857	753.06
334.085	718.06
334.314	767.06
334.542	751.06
334.771	787.06
334.999	778.06
335.227	778.06
335.455	763.06
335.684	770.06
335.912	737.06
336.14	754.06
336.369	740.06
336.597	767.06
336.825	747.06
337.053	776.06
337.281	742.06
337.51	724.06
337.738	748.06
337.966	720.06
338.194	743.06
338.422	730.06
338.65	728.06
338.878	710.06
339.106	734.06
339.334	715.06
339.562	713.06
339.79	698.06
340.018	702.06
340.246	701.06
340.474	684.06
340.702	667.06
340.93	677.06
341.158	678.06
341.386	689.06
341.614	701.06
341.842	707.06
342.07	695.06
342.298	690.06
342.526	698.06
342.754	719.06
342.981	690.06
343.209	712.06
343.437	717.06
343.665	737.06
343.893	719.06
344.12	756.06
344.348	751.06
344.576	766.06
344.804	767.06
345.031	711.06
345.259	732.06
345.487	721.06
345.714	703.06
345.942	688.06
346.17	705.06
346.397	703.06
346.625	677.06
346.853	676.06
347.08	658.06
347.308	687.06
347.535	688.06
347.763	655.06
347.99	682.06
348.218	677.06
348.445	682.06
348.673	667.06
348.9	666.06
349.128	644.06
349.355	694.06
349.583	677.06
349.81	662.06
350.037	653.06
350.265	648.06
350.492	641.06
350.72	649.06
350.947	654.06
351.174	652.06
351.402	678.06
351.629	682.06
351.856	669.06
352.083	646.06
352.311	666.06
352.538	669.06
352.765	662.06
352.992	664.06
353.22	630.06
353.447	643.06
353.674	652.06
353.901	655.06
354.128	615.06
354.355	629.06
354.583	625.06
354.81	649.06
355.037	620.06
355.264	668.06
355.491	655.06
355.718	629.06
355.945	640.06
356.172	642.06
356.399	635.06
356.626	665.06
356.853	664.06
357.08	661.06
357.307	658.06
357.534	656.06
357.761	665.06
357.988	650.06
358.215	644.06
358.441	641.06
358.668	643.06
358.895	632.06
359.122	667.06
359.349	640.06
359.576	625.06
359.802	622.06
360.029	650.06
360.256	640.06
360.483	634.06
360.709	618.06
360.936	658.06
361.163	646.06
361.39	660.06
361.616	650.06
361.843	635.06
362.07	670.06
362.296	675.06
362.523	651.06
362.749	649.06
362.976	621.06
363.203	622.06
363.429	621.06
363.656	634.06
363.882	645.06
364.109	646.06
364.335	638.06
364.562	634.06
364.788	625.06
365.015	638.06
365.241	636.06
365.468	622.06
365.694	635.06
365.92	631.06
366.147	624.06
366.373	621.06
366.599	612.06
366.826	622.06
367.052	648.06
367.278	626.06
367.505	638.06
367.731	639.06
367.957	624.06
368.184	638.06
368.41	639.06
368.636	645.06
368.862	638.06
369.089	654.06
369.315	639.06
369.541	648.06
369.767	645.06
369.993	657.06
370.219	649.06
370.445	639.06
370.672	639.06
370.898	635.06
371.124	652.06
371.35	664.06
371.576	636.06
371.802	641.06
372.028	629.06
372.254	664.06
372.48	680.06
372.706	665.06
372.932	666.06
373.158	663.06
373.384	647.06
373.61	648.06
373.835	668.06
374.061	676.06
374.287	677.06
374.513	690.06
374.739	653.06
374.965	697.06
375.191	682.06
375.416	706.06
375.642	682.06
375.868	678.06
376.094	668.06
376.319	652.06
376.545	649.06
376.771	658.06
376.997	653.06
377.222	655.06
377.448	646.06
377.674	656.06
377.899	630.06
378.125	626.06
378.35	634.06
378.576	640.06
378.802	622.06
379.027	609.06
379.253	625.06
379.478	624.06
379.704	638.06
379.929	630.06
380.155	628.06
380.38	635.06
380.606	626.06
380.831	617.06
381.057	654.06
381.282	625.06
381.507	646.06
381.733	650.06
381.958	649.06
382.184	651.06
382.409	653.06
382.634	657.06
382.86	636.06
383.085	660.06
383.31	649.06
383.535	676.06
383.761	659.06
383.986	662.06
384.211	655.06
384.436	688.06
384.662	703.06
384.887	696.06
385.112	684.06
385.337	706.06
385.562	710.06
385.787	697.06
386.013	732.06
386.238	722.06
386.463	703.06
386.688	718.06
386.913	694.06
387.138	718.06
387.363	734.06
387.588	702.06
387.813	700.06
388.038	702.06
388.263	712.06
388.488	713.06
388.713	709.06
388.938	723.06
389.163	714.06
389.387	726.06
389.612	739.06
389.837	730.06
390.062	724.06
390.287	695.06
390.512	727.06
390.736	731.06
390.961	737.06
391.186	734.06
391.411	733.06
391.636	756.06
391.86	749.06
392.085	777.06
392.31	751.06
392.534	778.06
392.759	751.06
392.984	748.06
393.208	733.06
393.433	752.06
393.658	749.06
393.882	750.06
394.107	733.06
394.331	770.06
394.556	766.06
394.78	758.06
395.005	747.06
395.229	760.06
395.454	780.06
395.678	767.06
395.903	794.06
396.127	773.06
396.352	786.06
396.576	780.06
396.801	773.06
397.025	788.06
397.249	795.06
397.474	795.06
397.698	838.06
397.922	794.06
398.147	809.06
398.371	832.06
398.595	844.06
398.82	871.06
399.044	907.06
399.268	962.06
399.492	1010.06
399.717	1053.06
399.941	1110.06
400.165	998.06
400.389	994.06
400.613	979.06
400.837	925.06
401.062	923.06
401.286	885.06
401.51	905.06
401.734	872.06
401.958	898.06
402.182	915.06
402.406	885.06
402.63	907.06
402.854	884.06
403.078	891.06
403.302	897.06
403.526	920.06
403.75	906.06
403.974	932.06
404.198	917.06
404.422	932.06
404.645	937.06
404.869	902.06
405.093	912.06
405.317	931.06
405.541	928.06
405.765	929.06
405.988	969.06
406.212	968.06
406.436	940.06
406.66	989.06
406.883	972.06
407.107	1018.06
407.331	1008.06
407.555	1036.06
407.778	1062.06
408.002	1035.06
408.226	1061.06
408.449	1039.06
408.673	1036.06
408.896	983.06
409.12	990.06
409.344	983.06
409.567	1000.06
409.791	998.06
410.014	989.06
410.238	990.06
410.461	990.06
410.685	964.06
410.908	963.06
411.132	954.06
411.355	916.06
411.578	954.06
411.802	951.06
412.025	916.06
412.249	942.06
412.472	950.06
412.695	944.06
412.919	936.06
413.142	948.06
413.365	935.06
413.589	929.06
413.812	903.06
414.035	900.06
414.258	929.06
414.482	939.06
414.705	931.06
414.928	957.06
415.151	918.06
415.374	902.06
415.597	906.06
415.821	886.06
416.044	908.06
416.267	903.06
416.49	909.06
416.713	873.06
416.936	933.06
417.159	920.06
417.382	902.06
417.605	867.06
417.828	898.06
418.051	879.06
418.274	937.06
418.497	894.06
418.72	929.06
418.943	897.06
419.166	933.06
419.389	1017.06
419.611	994.06
419.834	980.06
420.057	977.06
420.28	943.06
420.503	926.06
420.726	935.06
420.948	918.06
421.171	911.06
421.394	906.06
421.617	937.06
421.839	920.06
422.062	926.06
422.285	905.06
422.507	920.06
422.73	916.06
422.953	921.06
423.175	918.06
423.398	941.06
423.621	899.06
423.843	922.06
424.066	914.06
424.288	947.06
424.511	918.06
424.733	932.06
424.956	934.06
425.178	923.06
425.401	925.06
425.623	927.06
425.846	905.06
426.068	917.06
426.291	908.06
426.513	905.06
426.735	922.06
426.958	904.06
427.18	891.06
427.402	920.06
427.625	894.06
427.847	878.06
428.069	890.06
428.292	882.06
428.514	893.06
428.736	898.06
428.958	914.06
429.181	914.06
429.403	905.06
429.625	901.06
429.847	866.06
430.069	886.06
430.292	878.06
430.514	896.06
430.736	914.06
430.958	877.06
431.18	874.06
431.402	913.06
431.624	898.06
431.846	880.06
432.068	887.06
432.29	902.06
432.512	898.06
432.734	905.06
432.956	895.06
433.178	881.06
433.4	898.06
433.622	910.06
433.844	936.06
434.066	947.06
434.287	923.06
434.509	913.06
434.731	957.06
434.953	938.06
435.175	944.06
435.397	966.06
435.618	936.06
435.84	914.06
436.062	912.06
436.284	913.06
436.505	902.06
436.727	910.06
436.949	925.06
437.17	886.06
437.392	900.06
437.614	891.06
437.835	870.06
438.057	840.06
438.278	870.06
438.5	879.06
438.721	864.06
438.943	900.06
439.165	884.06
439.386	901.06
439.608	907.06
439.829	912.06
440.05	894.06
440.272	926.06
440.493	904.06
440.715	936.06
440.936	898.06
441.158	954.06
441.379	926.06
441.6	989.06
441.822	980.06
442.043	955.06
442.264	947.06
442.486	945.06
442.707	974.06
442.928	975.06
443.149	954.06
443.371	964.06
443.592	970.06
443.813	964.06
444.034	962.06
444.255	997.06
444.476	1026.06
444.698	1041.06
444.919	1060.06
445.14	1101.06
445.361	1050.06
445.582	997.06
445.803	982.06
446.024	969.06
446.245	976.06
446.466	957.06
446.687	930.06
446.908	968.06
447.129	893.06
447.35	898.06
447.571	920.06
447.792	881.06
448.013	876.06
448.234	871.06
448.455	847.06
448.675	872.06
448.896	873.06
449.117	852.06
449.338	853.06
449.559	861.06
449.779	850.06
450	858.06
450.221	846.06
450.442	845.06
450.662	854.06
450.883	842.06
451.104	878.06
451.324	849.06
451.545	866.06
451.766	861.06
451.986	832.06
452.207	834.06
452.428	829.06
452.648	836.06
452.869	812.06
453.089	808.06
453.31	809.06
453.53	807.06
453.751	790.06
453.971	791.06
454.192	821.06
454.412	817.06
454.633	759.06
454.853	782.06
455.073	795.06
455.294	810.06
455.514	793.06
455.734	806.06
455.955	792.06
456.175	799.06
456.395	801.06
456.616	773.06
456.836	823.06
457.056	813.06
457.276	790.06
457.497	811.06
457.717	828.06
457.937	805.06
458.157	786.06
458.377	842.06
458.598	838.06
458.818	876.06
459.038	872.06
459.258	867.06
459.478	903.06
459.698	914.06
459.918	913.06
460.138	944.06
460.358	978.06
460.578	985.06
460.798	1026.06
461.018	1024.06
461.238	1009.06
461.458	1029.06
461.678	999.06
461.898	1015.06
462.118	1023.06
462.338	1058.06
462.558	1086.06
462.777	1101.06
462.997	1128.06
463.217	1136.06
463.437	1170.06
463.657	1149.06
463.876	1133.06
464.096	1154.06
464.316	1113.06
464.536	1093.06
464.755	1068.06
464.975	1065.06
465.195	994.06
465.414	970.06
465.634	960.06
465.854	948.06
466.073	917.06
466.293	929.06
466.512	914.06
466.732	885.06
466.951	942.06
467.171	893.06
467.391	915.06
467.61	880.06
467.829	886.06
468.049	850.06
468.268	878.06
468.488	876.06
468.707	847.06
468.927	848.06
469.146	856.06
469.365	881.06
469.585	888.06
469.804	900.06
470.023	904.06
470.243	888.06
470.462	905.06
470.681	895.06
470.901	879.06
471.12	865.06
471.339	905.06
471.558	899.06
471.777	900.06
471.997	885.06
472.216	901.06
472.435	897.06
472.654	854.06
472.873	849.06
473.092	847.06
473.311	877.06
473.53	834.06
473.749	856.06
473.968	850.06
474.187	869.06
474.406	854.06
474.625	854.06
474.844	861.06
475.063	860.06
475.282	866.06
475.501	849.06
475.72	894.06
475.939	906.06
476.158	896.06
476.377	892.06
476.596	866.06
476.814	904.06
477.033	902.06
477.252	936.06
477.471	937.06
477.69	975.06
477.908	963.06
478.127	994.06
478.346	988.06
478.564	990.06
478.783	1024.06
479.002	1012.06
479.22	1029.06
479.439	1027.06
479.658	1038.06
479.876	994.06
480.095	1048.06
480.313	1045.06
480.532	1029.06
480.751	1053.06
480.969	1043.06
481.188	1029.06
481.406	992.06
481.624	984.06
481.843	982.06
482.061	967.06
482.28	984.06
482.498	997.06
482.717	978.06
482.935	960.06
483.153	982.06
483.372	966.06
483.59	1000.06
483.808	979.06
484.027	1004.06
484.245	996.06
484.463	983.06
484.681	987.06
484.9	986.06
485.118	1017.06
485.336	1028.06
485.554	1022.06
485.772	1004.06
485.99	1032.06
486.209	1020.06
486.427	1006.06
486.645	1003.06
486.863	1015.06
487.081	1028.06
487.299	1029.06
487.517	1033.06
487.735	1021.06
487.953	1034.06
488.171	1053.06
488.389	1007.06
488.607	1057.06
488.825	1015.06
489.043	1015.06
489.261	983.06
489.479	1030.06
489.696	1008.06
489.914	1015.06
490.132	1054.06
490.35	1044.06
490.568	1036.06
490.786	1073.06
491.003	1063.06
491.221	1054.06
491.439	1059.06
491.657	1069.06
491.874	1083.06
492.092	1103.06
492.31	1119.06
492.527	1122.06
492.745	1128.06
492.963	1089.06
493.18	1084.06
493.398	1100.06
493.615	1098.06
493.833	1106.06
494.05	1108.06
494.268	1101.06
494.485	1104.06
494.703	1156.06
494.92	1148.06
495.138	1129.06
495.355	1128.06
495.573	1128.06
495.79	1165.06
496.008	1158.06
496.225	1193.06
496.442	1177.06
496.66	1211.06
496.877	1205.06
497.094	1225.06
497.312	1251.06
497.529	1266.06
497.746	1275.06
497.963	1302.06
498.181	1356.06
498.398	1391.06
498.615	1460.06
498.832	1478.06
499.049	1565.06
499.267	1679.06
499.484	1699.06
499.701	1846.06
499.918	1926.06
