Data from Ni(NO3)2@0.5M.TitratingCurve.Agarose3%dH2O.NegLispCup.LampEnergy10.LIBS07252019_HRD10591_17-57-50-564.txt Node
Date: Thu Jul 25 17:57:50 EDT 2019
User: cochatt
Spectrometer: HR+D1059
Trigger mode: 1
Integration Time (sec): 1.000000E-1
Scans to average: 1
Electric dark correction enabled: true
Nonlinearity correction enabled: false
Boxcar width: 0
XAxis mode: Wavelengths
Number of Pixels in Spectrum: 2048
>>>>>Begin Spectral Data<<<<<
223.165	-10.56
223.4	-10.56
223.635	-10.56
223.869	2.44
224.104	-23.56
224.338	-8.56
224.573	-21.56
224.808	-12.56
225.042	-7.56
225.277	-12.56
225.511	-8.56
225.746	5.44
225.98	4.44
226.215	7.44
226.449	18.44
226.683	17.44
226.918	16.44
227.152	33.44
227.387	32.44
227.621	39.44
227.856	42.44
228.09	52.44
228.324	55.44
228.559	64.44
228.793	72.44
229.027	143.44
229.262	158.44
229.496	157.44
229.73	157.44
229.964	192.44
230.199	219.44
230.433	226.44
230.667	215.44
230.901	212.44
231.136	191.44
231.37	172.44
231.604	183.44
231.838	227.44
232.072	223.44
232.306	219.44
232.541	206.44
232.775	192.44
233.009	165.44
233.243	180.44
233.477	172.44
233.711	172.44
233.945	182.44
234.179	195.44
234.413	173.44
234.647	201.44
234.881	204.44
235.115	186.44
235.349	185.44
235.583	171.44
235.817	171.44
236.051	176.44
236.285	189.44
236.519	173.44
236.753	179.44
236.987	191.44
237.221	182.44
237.455	186.44
237.689	192.44
237.922	211.44
238.156	192.44
238.39	201.44
238.624	192.44
238.858	185.44
239.091	211.44
239.325	198.44
239.559	225.44
239.793	263.44
240.027	259.44
240.26	222.44
240.494	193.44
240.728	201.44
240.961	217.44
241.195	211.44
241.429	219.44
241.662	237.44
241.896	257.44
242.13	292.44
242.363	241.44
242.597	232.44
242.83	234.44
243.064	233.44
243.298	242.44
243.531	231.44
243.765	243.44
243.998	247.44
244.232	272.44
244.465	246.44
244.699	239.44
244.932	268.44
245.166	241.44
245.399	247.44
245.633	260.44
245.866	273.44
246.099	254.44
246.333	253.44
246.566	239.44
246.8	263.44
247.033	260.44
247.266	284.44
247.5	267.44
247.733	294.44
247.966	274.44
248.2	287.44
248.433	290.44
248.666	276.44
248.899	292.44
249.133	306.44
249.366	303.44
249.599	304.44
249.832	310.44
250.066	301.44
250.299	321.44
250.532	327.44
250.765	352.44
250.998	354.44
251.231	372.44
251.465	385.44
251.698	374.44
251.931	348.44
252.164	351.44
252.397	364.44
252.63	365.44
252.863	340.44
253.096	354.44
253.329	349.44
253.562	341.44
253.795	374.44
254.028	379.44
254.261	362.44
254.494	355.44
254.727	391.44
254.96	416.44
255.193	389.44
255.426	400.44
255.659	393.44
255.892	420.44
256.124	405.44
256.357	408.44
256.59	423.44
256.823	397.44
257.056	404.44
257.289	426.44
257.521	426.44
257.754	421.44
257.987	435.44
258.22	438.44
258.452	422.44
258.685	418.44
258.918	437.44
259.151	442.44
259.383	460.44
259.616	445.44
259.849	443.44
260.081	452.44
260.314	460.44
260.547	471.44
260.779	456.44
261.012	478.44
261.244	465.44
261.477	477.44
261.71	494.44
261.942	488.44
262.175	477.44
262.407	503.44
262.64	476.44
262.872	497.44
263.105	481.44
263.337	512.44
263.57	497.44
263.802	519.44
264.035	520.44
264.267	508.44
264.499	497.44
264.732	529.44
264.964	513.44
265.197	518.44
265.429	521.44
265.661	538.44
265.894	533.44
266.126	553.44
266.358	511.44
266.591	535.44
266.823	528.44
267.055	522.44
267.287	524.44
267.52	551.44
267.752	527.44
267.984	513.44
268.216	550.44
268.448	550.44
268.681	538.44
268.913	555.44
269.145	563.44
269.377	567.44
269.609	550.44
269.841	547.44
270.073	567.44
270.306	575.44
270.538	566.44
270.77	540.44
271.002	556.44
271.234	581.44
271.466	581.44
271.698	569.44
271.93	604.44
272.162	594.44
272.394	600.44
272.626	584.44
272.858	559.44
273.09	583.44
273.322	602.44
273.553	608.44
273.785	604.44
274.017	603.44
274.249	613.44
274.481	605.44
274.713	642.44
274.945	625.44
275.176	585.44
275.408	590.44
275.64	616.44
275.872	627.44
276.104	635.44
276.335	629.44
276.567	624.44
276.799	627.44
277.031	635.44
277.262	634.44
277.494	623.44
277.726	631.44
277.957	648.44
278.189	664.44
278.421	649.44
278.652	669.44
278.884	662.44
279.115	639.44
279.347	646.44
279.579	612.44
279.81	657.44
280.042	651.44
280.273	663.44
280.505	675.44
280.736	666.44
280.968	664.44
281.199	651.44
281.431	661.44
281.662	656.44
281.894	676.44
282.125	634.44
282.356	680.44
282.588	650.44
282.819	700.44
283.051	698.44
283.282	657.44
283.513	677.44
283.745	670.44
283.976	689.44
284.207	655.44
284.439	696.44
284.67	677.44
284.901	699.44
285.132	669.44
285.364	693.44
285.595	673.44
285.826	704.44
286.057	703.44
286.288	695.44
286.52	710.44
286.751	709.44
286.982	699.44
287.213	710.44
287.444	689.44
287.675	707.44
287.906	701.44
288.138	737.44
288.369	704.44
288.6	684.44
288.831	724.44
289.062	683.44
289.293	714.44
289.524	714.44
289.755	705.44
289.986	720.44
290.217	713.44
290.448	717.44
290.679	705.44
290.91	719.44
291.141	705.44
291.371	705.44
291.602	717.44
291.833	733.44
292.064	723.44
292.295	733.44
292.526	741.44
292.757	727.44
292.987	714.44
293.218	722.44
293.449	709.44
293.68	737.44
293.91	724.44
294.141	715.44
294.372	724.44
294.603	731.44
294.833	741.44
295.064	751.44
295.295	727.44
295.525	760.44
295.756	735.44
295.987	736.44
296.217	731.44
296.448	731.44
296.679	739.44
296.909	727.44
297.14	732.44
297.37	754.44
297.601	769.44
297.831	746.44
298.062	746.44
298.292	757.44
298.523	771.44
298.753	772.44
298.984	735.44
299.214	753.44
299.445	769.44
299.675	760.44
299.905	775.44
300.136	771.44
300.366	809.44
300.597	805.44
300.827	789.44
301.057	795.44
301.288	803.44
301.518	816.44
301.748	785.44
301.979	804.44
302.209	802.44
302.439	781.44
302.669	782.44
302.9	805.44
303.13	795.44
303.36	819.44
303.59	782.44
303.82	841.44
304.051	824.44
304.281	834.44
304.511	823.44
304.741	834.44
304.971	840.44
305.201	877.44
305.431	889.44
305.661	868.44
305.891	851.44
306.121	828.44
306.352	847.44
306.582	849.44
306.812	829.44
307.042	830.44
307.272	828.44
307.502	875.44
307.731	859.44
307.961	844.44
308.191	835.44
308.421	852.44
308.651	874.44
308.881	839.44
309.111	858.44
309.341	857.44
309.571	864.44
309.8	875.44
310.03	921.44
310.26	937.44
310.49	924.44
310.72	887.44
310.949	869.44
311.179	889.44
311.409	872.44
311.639	891.44
311.868	888.44
312.098	892.44
312.328	921.44
312.557	905.44
312.787	910.44
313.017	945.44
313.246	955.44
313.476	954.44
313.706	961.44
313.935	923.44
314.165	913.44
314.394	930.44
314.624	930.44
314.853	952.44
315.083	954.44
315.312	949.44
315.542	930.44
315.771	977.44
316.001	949.44
316.23	964.44
316.46	963.44
316.689	986.44
316.919	984.44
317.148	1005.44
317.377	998.44
317.607	969.44
317.836	981.44
318.065	1005.44
318.295	1021.44
318.524	1043.44
318.753	1045.44
318.983	1008.44
319.212	1037.44
319.441	1030.44
319.67	1032.44
319.9	1069.44
320.129	1064.44
320.358	1044.44
320.587	1049.44
320.816	1068.44
321.046	1072.44
321.275	1087.44
321.504	1068.44
321.733	1100.44
321.962	1104.44
322.191	1124.44
322.42	1073.44
322.649	1113.44
322.878	1092.44
323.108	1097.44
323.337	1154.44
323.566	1147.44
323.795	1112.44
324.024	1146.44
324.253	1137.44
324.482	1123.44
324.71	1155.44
324.939	1150.44
325.168	1149.44
325.397	1128.44
325.626	1117.44
325.855	1132.44
326.084	1155.44
326.313	1179.44
326.542	1168.44
326.77	1180.44
326.999	1176.44
327.228	1168.44
327.457	1178.44
327.686	1168.44
327.914	1189.44
328.143	1173.44
328.372	1204.44
328.6	1216.44
328.829	1184.44
329.058	1184.44
329.287	1189.44
329.515	1221.44
329.744	1216.44
329.972	1257.44
330.201	1211.44
330.43	1209.44
330.658	1209.44
330.887	1223.44
331.115	1208.44
331.344	1257.44
331.572	1232.44
331.801	1253.44
332.03	1274.44
332.258	1252.44
332.486	1235.44
332.715	1260.44
332.943	1241.44
333.172	1266.44
333.4	1253.44
333.629	1260.44
333.857	1270.44
334.085	1293.44
334.314	1288.44
334.542	1275.44
334.771	1308.44
334.999	1261.44
335.227	1303.44
335.455	1320.44
335.684	1284.44
335.912	1332.44
336.14	1343.44
336.369	1270.44
336.597	1337.44
336.825	1363.44
337.053	1353.44
337.281	1392.44
337.51	1355.44
337.738	1337.44
337.966	1345.44
338.194	1390.44
338.422	1308.44
338.65	1292.44
338.878	1331.44
339.106	1309.44
339.334	1355.44
339.562	1346.44
339.79	1293.44
340.018	1266.44
340.246	1285.44
340.474	1297.44
340.702	1347.44
340.93	1318.44
341.158	1305.44
341.386	1350.44
341.614	1364.44
341.842	1338.44
342.07	1329.44
342.298	1304.44
342.526	1309.44
342.754	1282.44
342.981	1284.44
343.209	1293.44
343.437	1295.44
343.665	1334.44
343.893	1308.44
344.12	1295.44
344.348	1324.44
344.576	1343.44
344.804	1343.44
345.031	1293.44
345.259	1311.44
345.487	1301.44
345.714	1316.44
345.942	1340.44
346.17	1370.44
346.397	1353.44
346.625	1276.44
346.853	1270.44
347.08	1272.44
347.308	1299.44
347.535	1303.44
347.763	1268.44
347.99	1301.44
348.218	1277.44
348.445	1316.44
348.673	1275.44
348.9	1261.44
349.128	1286.44
349.355	1297.44
349.583	1291.44
349.81	1255.44
350.037	1256.44
350.265	1255.44
350.492	1268.44
350.72	1276.44
350.947	1286.44
351.174	1270.44
351.402	1314.44
351.629	1363.44
351.856	1314.44
352.083	1278.44
352.311	1290.44
352.538	1343.44
352.765	1331.44
352.992	1251.44
353.22	1233.44
353.447	1237.44
353.674	1204.44
353.901	1239.44
354.128	1252.44
354.355	1236.44
354.583	1254.44
354.81	1257.44
355.037	1232.44
355.264	1229.44
355.491	1276.44
355.718	1257.44
355.945	1262.44
356.172	1257.44
356.399	1271.44
356.626	1309.44
356.853	1355.44
357.08	1297.44
357.307	1255.44
357.534	1229.44
357.761	1269.44
357.988	1288.44
358.215	1249.44
358.441	1280.44
358.668	1250.44
358.895	1253.44
359.122	1256.44
359.349	1266.44
359.576	1264.44
359.802	1265.44
360.029	1260.44
360.256	1241.44
360.483	1258.44
360.709	1246.44
360.936	1258.44
361.163	1300.44
361.39	1271.44
361.616	1285.44
361.843	1311.44
362.07	1374.44
362.296	1323.44
362.523	1247.44
362.749	1266.44
362.976	1256.44
363.203	1269.44
363.429	1249.44
363.656	1272.44
363.882	1252.44
364.109	1274.44
364.335	1265.44
364.562	1265.44
364.788	1277.44
365.015	1285.44
365.241	1285.44
365.468	1302.44
365.694	1271.44
365.92	1271.44
366.147	1273.44
366.373	1295.44
366.599	1246.44
366.826	1277.44
367.052	1263.44
367.278	1295.44
367.505	1274.44
367.731	1253.44
367.957	1279.44
368.184	1277.44
368.41	1277.44
368.636	1288.44
368.862	1287.44
369.089	1293.44
369.315	1285.44
369.541	1284.44
369.767	1279.44
369.993	1282.44
370.219	1277.44
370.445	1307.44
370.672	1301.44
370.898	1303.44
371.124	1299.44
371.35	1290.44
371.576	1299.44
371.802	1304.44
372.028	1272.44
372.254	1290.44
372.48	1301.44
372.706	1313.44
372.932	1308.44
373.158	1266.44
373.384	1307.44
373.61	1321.44
373.835	1311.44
374.061	1253.44
374.287	1312.44
374.513	1285.44
374.739	1258.44
374.965	1276.44
375.191	1315.44
375.416	1294.44
375.642	1304.44
375.868	1282.44
376.094	1271.44
376.319	1260.44
376.545	1261.44
376.771	1274.44
376.997	1247.44
377.222	1249.44
377.448	1229.44
377.674	1254.44
377.899	1236.44
378.125	1224.44
378.35	1251.44
378.576	1279.44
378.802	1252.44
379.027	1243.44
379.253	1282.44
379.478	1238.44
379.704	1239.44
379.929	1252.44
380.155	1244.44
380.38	1243.44
380.606	1215.44
380.831	1260.44
381.057	1235.44
381.282	1236.44
381.507	1220.44
381.733	1225.44
381.958	1258.44
382.184	1283.44
382.409	1290.44
382.634	1266.44
382.86	1252.44
383.085	1284.44
383.31	1283.44
383.535	1268.44
383.761	1282.44
383.986	1273.44
384.211	1289.44
384.436	1276.44
384.662	1273.44
384.887	1281.44
385.112	1314.44
385.337	1312.44
385.562	1287.44
385.787	1308.44
386.013	1354.44
386.238	1316.44
386.463	1314.44
386.688	1301.44
386.913	1284.44
387.138	1331.44
387.363	1325.44
387.588	1308.44
387.813	1299.44
388.038	1319.44
388.263	1312.44
388.488	1314.44
388.713	1308.44
388.938	1339.44
389.163	1321.44
389.387	1381.44
389.612	1306.44
389.837	1319.44
390.062	1320.44
390.287	1328.44
390.512	1324.44
390.736	1300.44
390.961	1297.44
391.186	1303.44
391.411	1305.44
391.636	1317.44
391.86	1336.44
392.085	1336.44
392.31	1292.44
392.534	1349.44
392.759	1324.44
392.984	1306.44
393.208	1335.44
393.433	1345.44
393.658	1349.44
393.882	1330.44
394.107	1337.44
394.331	1337.44
394.556	1319.44
394.78	1305.44
395.005	1301.44
395.229	1283.44
395.454	1336.44
395.678	1341.44
395.903	1338.44
396.127	1323.44
396.352	1344.44
396.576	1339.44
396.801	1368.44
397.025	1354.44
397.249	1383.44
397.474	1354.44
397.698	1342.44
397.922	1363.44
398.147	1349.44
398.371	1358.44
398.595	1397.44
398.82	1376.44
399.044	1411.44
399.268	1387.44
399.492	1419.44
399.717	1423.44
399.941	1448.44
400.165	1417.44
400.389	1435.44
400.613	1462.44
400.837	1419.44
401.062	1394.44
401.286	1395.44
401.51	1410.44
401.734	1400.44
401.958	1406.44
402.182	1398.44
402.406	1415.44
402.63	1423.44
402.854	1422.44
403.078	1411.44
403.302	1417.44
403.526	1398.44
403.75	1399.44
403.974	1414.44
404.198	1406.44
404.422	1404.44
404.645	1395.44
404.869	1376.44
405.093	1395.44
405.317	1403.44
405.541	1423.44
405.765	1427.44
405.988	1415.44
406.212	1432.44
406.436	1466.44
406.66	1467.44
406.883	1456.44
407.107	1487.44
407.331	1477.44
407.555	1491.44
407.778	1475.44
408.002	1475.44
408.226	1484.44
408.449	1504.44
408.673	1469.44
408.896	1487.44
409.12	1473.44
409.344	1502.44
409.567	1450.44
409.791	1436.44
410.014	1462.44
410.238	1463.44
410.461	1480.44
410.685	1460.44
410.908	1463.44
411.132	1490.44
411.355	1431.44
411.578	1398.44
411.802	1420.44
412.025	1416.44
412.249	1444.44
412.472	1425.44
412.695	1411.44
412.919	1419.44
413.142	1463.44
413.365	1434.44
413.589	1435.44
413.812	1441.44
414.035	1384.44
414.258	1433.44
414.482	1390.44
414.705	1401.44
414.928	1382.44
415.151	1413.44
415.374	1393.44
415.597	1407.44
415.821	1387.44
416.044	1395.44
416.267	1381.44
416.49	1403.44
416.713	1372.44
416.936	1375.44
417.159	1407.44
417.382	1384.44
417.605	1369.44
417.828	1353.44
418.051	1377.44
418.274	1361.44
418.497	1323.44
418.72	1386.44
418.943	1315.44
419.166	1419.44
419.389	1469.44
419.611	1485.44
419.834	1408.44
420.057	1407.44
420.28	1373.44
420.503	1347.44
420.726	1365.44
420.948	1321.44
421.171	1393.44
421.394	1390.44
421.617	1365.44
421.839	1371.44
422.062	1370.44
422.285	1355.44
422.507	1348.44
422.73	1385.44
422.953	1379.44
423.175	1375.44
423.398	1352.44
423.621	1337.44
423.843	1384.44
424.066	1361.44
424.288	1355.44
424.511	1363.44
424.733	1360.44
424.956	1384.44
425.178	1394.44
425.401	1380.44
425.623	1395.44
425.846	1381.44
426.068	1358.44
426.291	1381.44
426.513	1380.44
426.735	1395.44
426.958	1403.44
427.18	1380.44
427.402	1368.44
427.625	1398.44
427.847	1383.44
428.069	1349.44
428.292	1399.44
428.514	1340.44
428.736	1375.44
428.958	1409.44
429.181	1349.44
429.403	1369.44
429.625	1391.44
429.847	1401.44
430.069	1361.44
430.292	1361.44
430.514	1369.44
430.736	1383.44
430.958	1412.44
431.18	1387.44
431.402	1341.44
431.624	1356.44
431.846	1333.44
432.068	1361.44
432.29	1395.44
432.512	1377.44
432.734	1380.44
432.956	1383.44
433.178	1401.44
433.4	1391.44
433.622	1450.44
433.844	1417.44
434.066	1435.44
434.287	1384.44
434.509	1382.44
434.731	1413.44
434.953	1395.44
435.175	1431.44
435.397	1480.44
435.618	1419.44
435.84	1406.44
436.062	1398.44
436.284	1389.44
436.505	1387.44
436.727	1392.44
436.949	1399.44
437.17	1401.44
437.392	1411.44
437.614	1370.44
437.835	1347.44
438.057	1348.44
438.278	1323.44
438.5	1324.44
438.721	1347.44
438.943	1379.44
439.165	1348.44
439.386	1385.44
439.608	1336.44
439.829	1393.44
440.05	1357.44
440.272	1389.44
440.493	1398.44
440.715	1407.44
440.936	1398.44
441.158	1380.44
441.379	1382.44
441.6	1424.44
441.822	1432.44
442.043	1397.44
442.264	1371.44
442.486	1359.44
442.707	1395.44
442.928	1388.44
443.149	1431.44
443.371	1429.44
443.592	1466.44
443.813	1465.44
444.034	1400.44
444.255	1411.44
444.476	1448.44
444.698	1405.44
444.919	1458.44
445.14	1592.44
445.361	1498.44
445.582	1440.44
445.803	1396.44
446.024	1379.44
446.245	1388.44
446.466	1354.44
446.687	1339.44
446.908	1341.44
447.129	1335.44
447.35	1324.44
447.571	1321.44
447.792	1322.44
448.013	1320.44
448.234	1309.44
448.455	1319.44
448.675	1271.44
448.896	1292.44
449.117	1267.44
449.338	1331.44
449.559	1292.44
449.779	1249.44
450	1291.44
450.221	1271.44
450.442	1309.44
450.662	1242.44
450.883	1298.44
451.104	1313.44
451.324	1294.44
451.545	1312.44
451.766	1284.44
451.986	1258.44
452.207	1265.44
452.428	1231.44
452.648	1275.44
452.869	1249.44
453.089	1291.44
453.31	1322.44
453.53	1285.44
453.751	1254.44
453.971	1272.44
454.192	1292.44
454.412	1306.44
454.633	1264.44
454.853	1277.44
455.073	1252.44
455.294	1267.44
455.514	1271.44
455.734	1292.44
455.955	1314.44
456.175	1344.44
456.395	1256.44
456.616	1226.44
456.836	1226.44
457.056	1249.44
457.276	1237.44
457.497	1314.44
457.717	1319.44
457.937	1289.44
458.157	1287.44
458.377	1271.44
458.598	1251.44
458.818	1270.44
459.038	1313.44
459.258	1311.44
459.478	1370.44
459.698	1448.44
459.918	1447.44
460.138	1397.44
460.358	1408.44
460.578	1376.44
460.798	1420.44
461.018	1434.44
461.238	1367.44
461.458	1331.44
461.678	1361.44
461.898	1379.44
462.118	1339.44
462.338	1371.44
462.558	1437.44
462.777	1487.44
462.997	1461.44
463.217	1456.44
463.437	1503.44
463.657	1489.44
463.876	1404.44
464.096	1423.44
464.316	1414.44
464.536	1431.44
464.755	1373.44
464.975	1409.44
465.195	1380.44
465.414	1374.44
465.634	1375.44
465.854	1340.44
466.073	1359.44
466.293	1340.44
466.512	1317.44
466.732	1352.44
466.951	1331.44
467.171	1329.44
467.391	1353.44
467.61	1355.44
467.829	1334.44
468.049	1353.44
468.268	1324.44
468.488	1324.44
468.707	1323.44
468.927	1332.44
469.146	1329.44
469.365	1379.44
469.585	1314.44
469.804	1340.44
470.023	1331.44
470.243	1292.44
470.462	1301.44
470.681	1354.44
470.901	1363.44
471.12	1372.44
471.339	1352.44
471.558	1345.44
471.777	1366.44
471.997	1369.44
472.216	1333.44
472.435	1324.44
472.654	1315.44
472.873	1353.44
473.092	1356.44
473.311	1379.44
473.53	1315.44
473.749	1385.44
473.968	1393.44
474.187	1369.44
474.406	1371.44
474.625	1401.44
474.844	1374.44
475.063	1407.44
475.282	1399.44
475.501	1419.44
475.72	1433.44
475.939	1401.44
476.158	1432.44
476.377	1457.44
476.596	1427.44
476.814	1430.44
477.033	1445.44
477.252	1441.44
477.471	1461.44
477.69	1480.44
477.908	1460.44
478.127	1491.44
478.346	1495.44
478.564	1553.44
478.783	1549.44
479.002	1607.44
479.22	1670.44
479.439	1619.44
479.658	1586.44
479.876	1577.44
480.095	1601.44
480.313	1573.44
480.532	1542.44
480.751	1576.44
480.969	1586.44
481.188	1571.44
481.406	1595.44
481.624	1546.44
481.843	1552.44
482.061	1572.44
482.28	1613.44
482.498	1585.44
482.717	1596.44
482.935	1631.44
483.153	1674.44
483.372	1675.44
483.59	1760.44
483.808	1691.44
484.027	1627.44
484.245	1616.44
484.463	1617.44
484.681	1633.44
484.9	1660.44
485.118	1648.44
485.336	1641.44
485.554	1675.44
485.772	1692.44
485.99	1667.44
486.209	1629.44
486.427	1665.44
486.645	1657.44
486.863	1668.44
487.081	1672.44
487.299	1680.44
487.517	1718.44
487.735	1708.44
487.953	1761.44
488.171	1743.44
488.389	1679.44
488.607	1698.44
488.825	1701.44
489.043	1684.44
489.261	1664.44
489.479	1661.44
489.696	1655.44
489.914	1697.44
490.132	1676.44
490.35	1709.44
490.568	1713.44
490.786	1736.44
491.003	1736.44
