Data from Ni(NO3)2@0.25M.TitratingCurve.Agarose3%dH2O.NegLispCup.LampEnergy10.LIBS07252019_HRD10591_18-03-57-565.txt Node
Date: Thu Jul 25 18:03:57 EDT 2019
User: cochatt
Spectrometer: HR+D1059
Trigger mode: 1
Integration Time (sec): 1.000000E-1
Scans to average: 1
Electric dark correction enabled: true
Nonlinearity correction enabled: false
Boxcar width: 0
XAxis mode: Wavelengths
Number of Pixels in Spectrum: 2048
>>>>>Begin Spectral Data<<<<<
223.165	-23.5
223.4	-23.5
223.635	-23.5
223.869	-17.5
224.104	-25.5
224.338	-20.5
224.573	-23.5
224.808	-31.5
225.042	-5.5
225.277	-10.5
225.511	2.5
225.746	6.5
225.98	4.5
226.215	13.5
226.449	18.5
226.683	20.5
226.918	45.5
227.152	46.5
227.387	39.5
227.621	38.5
227.856	51.5
228.09	52.5
228.324	56.5
228.559	65.5
228.793	74.5
229.027	80.5
229.262	96.5
229.496	98.5
229.73	106.5
229.964	101.5
230.199	115.5
230.433	106.5
230.667	110.5
230.901	112.5
231.136	127.5
231.37	125.5
231.604	126.5
231.838	129.5
232.072	126.5
232.306	107.5
232.541	124.5
232.775	111.5
233.009	106.5
233.243	121.5
233.477	133.5
233.711	119.5
233.945	121.5
234.179	127.5
234.413	126.5
234.647	123.5
234.881	131.5
235.115	130.5
235.349	120.5
235.583	123.5
235.817	107.5
236.051	116.5
236.285	123.5
236.519	124.5
236.753	123.5
236.987	111.5
237.221	128.5
237.455	132.5
237.689	131.5
237.922	119.5
238.156	117.5
238.39	124.5
238.624	128.5
238.858	131.5
239.091	122.5
239.325	121.5
239.559	126.5
239.793	138.5
240.027	146.5
240.26	144.5
240.494	137.5
240.728	132.5
240.961	136.5
241.195	139.5
241.429	152.5
241.662	132.5
241.896	132.5
242.13	148.5
242.363	127.5
242.597	130.5
242.83	142.5
243.064	142.5
243.298	153.5
243.531	147.5
243.765	163.5
243.998	157.5
244.232	166.5
244.465	157.5
244.699	148.5
244.932	152.5
245.166	151.5
245.399	157.5
245.633	157.5
245.866	158.5
246.099	153.5
246.333	156.5
246.566	159.5
246.8	159.5
247.033	171.5
247.266	159.5
247.5	155.5
247.733	153.5
247.966	168.5
248.2	174.5
248.433	183.5
248.666	186.5
248.899	176.5
249.133	166.5
249.366	178.5
249.599	180.5
249.832	192.5
250.066	191.5
250.299	191.5
250.532	199.5
250.765	191.5
250.998	180.5
251.231	192.5
251.465	198.5
251.698	209.5
251.931	194.5
252.164	212.5
252.397	204.5
252.63	215.5
252.863	205.5
253.096	238.5
253.329	222.5
253.562	218.5
253.795	219.5
254.028	224.5
254.261	217.5
254.494	226.5
254.727	231.5
254.96	215.5
255.193	214.5
255.426	229.5
255.659	242.5
255.892	236.5
256.124	249.5
256.357	231.5
256.59	250.5
256.823	247.5
257.056	218.5
257.289	262.5
257.521	249.5
257.754	262.5
257.987	266.5
258.22	264.5
258.452	246.5
258.685	256.5
258.918	246.5
259.151	259.5
259.383	266.5
259.616	267.5
259.849	281.5
260.081	257.5
260.314	275.5
260.547	265.5
260.779	278.5
261.012	272.5
261.244	289.5
261.477	278.5
261.71	283.5
261.942	302.5
262.175	300.5
262.407	272.5
262.64	282.5
262.872	313.5
263.105	289.5
263.337	289.5
263.57	299.5
263.802	300.5
264.035	298.5
264.267	292.5
264.499	309.5
264.732	286.5
264.964	294.5
265.197	296.5
265.429	297.5
265.661	293.5
265.894	285.5
266.126	308.5
266.358	292.5
266.591	326.5
266.823	301.5
267.055	317.5
267.287	294.5
267.52	312.5
267.752	310.5
267.984	315.5
268.216	334.5
268.448	330.5
268.681	332.5
268.913	326.5
269.145	301.5
269.377	322.5
269.609	328.5
269.841	328.5
270.073	325.5
270.306	330.5
270.538	310.5
270.77	335.5
271.002	322.5
271.234	306.5
271.466	320.5
271.698	327.5
271.93	333.5
272.162	332.5
272.394	335.5
272.626	325.5
272.858	333.5
273.09	333.5
273.322	344.5
273.553	315.5
273.785	334.5
274.017	337.5
274.249	328.5
274.481	330.5
274.713	336.5
274.945	335.5
275.176	343.5
275.408	357.5
275.64	333.5
275.872	348.5
276.104	332.5
276.335	349.5
276.567	336.5
276.799	333.5
277.031	351.5
277.262	354.5
277.494	332.5
277.726	356.5
277.957	359.5
278.189	348.5
278.421	340.5
278.652	358.5
278.884	342.5
279.115	358.5
279.347	344.5
279.579	348.5
279.81	350.5
280.042	370.5
280.273	356.5
280.505	362.5
280.736	361.5
280.968	377.5
281.199	356.5
281.431	375.5
281.662	356.5
281.894	379.5
282.125	376.5
282.356	378.5
282.588	358.5
282.819	382.5
283.051	373.5
283.282	356.5
283.513	364.5
283.745	363.5
283.976	380.5
284.207	373.5
284.439	366.5
284.67	374.5
284.901	384.5
285.132	364.5
285.364	390.5
285.595	388.5
285.826	382.5
286.057	399.5
286.288	389.5
286.52	389.5
286.751	393.5
286.982	365.5
287.213	367.5
287.444	370.5
287.675	388.5
287.906	387.5
288.138	380.5
288.369	381.5
288.6	396.5
288.831	387.5
289.062	391.5
289.293	392.5
289.524	399.5
289.755	384.5
289.986	406.5
290.217	377.5
290.448	388.5
290.679	399.5
290.91	387.5
291.141	379.5
291.371	373.5
291.602	396.5
291.833	401.5
292.064	396.5
292.295	391.5
292.526	400.5
292.757	389.5
292.987	386.5
293.218	382.5
293.449	400.5
293.68	387.5
293.91	388.5
294.141	392.5
294.372	415.5
294.603	400.5
294.833	397.5
295.064	375.5
295.295	402.5
295.525	405.5
295.756	396.5
295.987	400.5
296.217	421.5
296.448	390.5
296.679	404.5
296.909	409.5
297.14	413.5
297.37	429.5
297.601	412.5
297.831	389.5
298.062	410.5
298.292	422.5
298.523	448.5
298.753	428.5
298.984	412.5
299.214	417.5
299.445	416.5
299.675	420.5
299.905	436.5
300.136	438.5
300.366	432.5
300.597	435.5
300.827	432.5
301.057	445.5
301.288	450.5
301.518	438.5
301.748	447.5
301.979	428.5
302.209	445.5
302.439	428.5
302.669	440.5
302.9	423.5
303.13	446.5
303.36	457.5
303.59	436.5
303.82	452.5
304.051	459.5
304.281	459.5
304.511	452.5
304.741	437.5
304.971	451.5
305.201	465.5
305.431	452.5
305.661	446.5
305.891	463.5
306.121	439.5
306.352	423.5
306.582	462.5
306.812	442.5
307.042	442.5
307.272	453.5
307.502	446.5
307.731	451.5
307.961	450.5
308.191	455.5
308.421	445.5
308.651	431.5
308.881	437.5
309.111	436.5
309.341	465.5
309.571	457.5
309.8	450.5
310.03	472.5
310.26	476.5
310.49	471.5
310.72	463.5
310.949	472.5
311.179	470.5
311.409	469.5
311.639	455.5
311.868	477.5
312.098	475.5
312.328	502.5
312.557	472.5
312.787	464.5
313.017	490.5
313.246	508.5
313.476	484.5
313.706	493.5
313.935	516.5
314.165	515.5
314.394	491.5
314.624	500.5
314.853	527.5
315.083	501.5
315.312	512.5
315.542	502.5
315.771	501.5
316.001	517.5
316.23	537.5
316.46	522.5
316.689	532.5
316.919	536.5
317.148	521.5
317.377	546.5
317.607	528.5
317.836	527.5
318.065	532.5
318.295	523.5
318.524	525.5
318.753	520.5
318.983	542.5
319.212	541.5
319.441	529.5
319.67	542.5
319.9	536.5
320.129	562.5
320.358	545.5
320.587	557.5
320.816	535.5
321.046	557.5
321.275	567.5
321.504	572.5
321.733	572.5
321.962	550.5
322.191	562.5
322.42	554.5
322.649	579.5
322.878	589.5
323.108	574.5
323.337	610.5
323.566	592.5
323.795	589.5
324.024	599.5
324.253	600.5
324.482	608.5
324.71	608.5
324.939	612.5
325.168	613.5
325.397	610.5
325.626	631.5
325.855	642.5
326.084	630.5
326.313	645.5
326.542	639.5
326.77	650.5
326.999	657.5
327.228	646.5
327.457	661.5
327.686	637.5
327.914	655.5
328.143	672.5
328.372	681.5
328.6	673.5
328.829	686.5
329.058	671.5
329.287	652.5
329.515	686.5
329.744	660.5
329.972	694.5
330.201	692.5
330.43	706.5
330.658	691.5
330.887	694.5
331.115	717.5
331.344	732.5
331.572	733.5
331.801	751.5
332.03	763.5
332.258	751.5
332.486	776.5
332.715	777.5
332.943	808.5
333.172	778.5
333.4	815.5
333.629	847.5
333.857	847.5
334.085	869.5
334.314	860.5
334.542	853.5
334.771	845.5
334.999	855.5
335.227	872.5
335.455	865.5
335.684	848.5
335.912	844.5
336.14	861.5
336.369	858.5
336.597	866.5
336.825	844.5
337.053	866.5
337.281	836.5
337.51	854.5
337.738	839.5
337.966	839.5
338.194	806.5
338.422	823.5
338.65	798.5
338.878	804.5
339.106	803.5
339.334	781.5
339.562	778.5
339.79	771.5
340.018	772.5
340.246	742.5
340.474	743.5
340.702	769.5
340.93	761.5
341.158	752.5
341.386	788.5
341.614	818.5
341.842	785.5
342.07	773.5
342.298	754.5
342.526	760.5
342.754	765.5
342.981	757.5
343.209	767.5
343.437	804.5
343.665	819.5
343.893	857.5
344.12	859.5
344.348	872.5
344.576	874.5
344.804	832.5
345.031	823.5
345.259	791.5
345.487	757.5
345.714	814.5
345.942	800.5
346.17	794.5
346.397	759.5
346.625	752.5
346.853	736.5
347.08	747.5
347.308	756.5
347.535	749.5
347.763	728.5
347.99	734.5
348.218	740.5
348.445	747.5
348.673	717.5
348.9	727.5
349.128	733.5
349.355	757.5
349.583	745.5
349.81	733.5
350.037	719.5
350.265	746.5
350.492	708.5
350.72	714.5
350.947	710.5
351.174	723.5
351.402	732.5
351.629	764.5
351.856	736.5
352.083	742.5
352.311	746.5
352.538	744.5
352.765	768.5
352.992	716.5
353.22	672.5
353.447	698.5
353.674	702.5
353.901	703.5
354.128	691.5
354.355	699.5
354.583	720.5
354.81	742.5
355.037	711.5
355.264	698.5
355.491	715.5
355.718	714.5
355.945	706.5
356.172	715.5
356.399	723.5
356.626	713.5
356.853	761.5
357.08	712.5
357.307	729.5
357.534	698.5
357.761	713.5
357.988	716.5
358.215	720.5
358.441	706.5
358.668	685.5
358.895	684.5
359.122	692.5
359.349	728.5
359.576	717.5
359.802	700.5
360.029	735.5
360.256	703.5
360.483	715.5
360.709	706.5
360.936	727.5
361.163	718.5
361.39	715.5
361.616	729.5
361.843	743.5
362.07	741.5
362.296	747.5
362.523	709.5
362.749	706.5
362.976	698.5
363.203	702.5
363.429	697.5
363.656	683.5
363.882	692.5
364.109	694.5
364.335	693.5
364.562	683.5
364.788	707.5
365.015	693.5
365.241	702.5
365.468	700.5
365.694	697.5
365.92	676.5
366.147	697.5
366.373	700.5
366.599	688.5
366.826	687.5
367.052	712.5
367.278	698.5
367.505	686.5
367.731	692.5
367.957	716.5
368.184	710.5
368.41	699.5
368.636	697.5
368.862	698.5
369.089	712.5
369.315	704.5
369.541	714.5
369.767	700.5
369.993	723.5
370.219	714.5
370.445	720.5
370.672	714.5
370.898	724.5
371.124	734.5
371.35	742.5
371.576	744.5
371.802	737.5
372.028	756.5
372.254	723.5
372.48	766.5
372.706	763.5
372.932	745.5
373.158	753.5
373.384	758.5
373.61	754.5
373.835	723.5
374.061	724.5
374.287	728.5
374.513	743.5
374.739	749.5
374.965	776.5
375.191	764.5
375.416	754.5
375.642	760.5
375.868	769.5
376.094	744.5
376.319	731.5
376.545	746.5
376.771	730.5
376.997	739.5
377.222	730.5
377.448	712.5
377.674	714.5
377.899	741.5
378.125	702.5
378.35	721.5
378.576	700.5
378.802	682.5
379.027	689.5
379.253	713.5
379.478	700.5
379.704	712.5
379.929	715.5
380.155	685.5
380.38	690.5
380.606	696.5
380.831	725.5
381.057	715.5
381.282	713.5
381.507	715.5
381.733	717.5
381.958	697.5
382.184	712.5
382.409	716.5
382.634	687.5
382.86	732.5
383.085	744.5
383.31	731.5
383.535	736.5
383.761	754.5
383.986	743.5
384.211	758.5
384.436	773.5
384.662	786.5
384.887	796.5
385.112	768.5
385.337	797.5
385.562	783.5
385.787	807.5
386.013	820.5
386.238	809.5
386.463	839.5
386.688	813.5
386.913	804.5
387.138	804.5
387.363	805.5
387.588	798.5
387.813	798.5
388.038	814.5
388.263	798.5
388.488	820.5
388.713	814.5
388.938	804.5
389.163	795.5
389.387	825.5
389.612	797.5
389.837	846.5
390.062	789.5
390.287	822.5
390.512	832.5
390.736	788.5
390.961	822.5
391.186	834.5
391.411	846.5
391.636	866.5
391.86	851.5
392.085	851.5
392.31	852.5
392.534	862.5
392.759	860.5
392.984	869.5
393.208	847.5
393.433	840.5
393.658	841.5
393.882	857.5
394.107	862.5
394.331	838.5
394.556	847.5
394.78	857.5
395.005	894.5
395.229	879.5
395.454	878.5
395.678	881.5
395.903	890.5
396.127	901.5
396.352	883.5
396.576	857.5
396.801	877.5
397.025	872.5
397.249	897.5
397.474	890.5
397.698	926.5
397.922	917.5
398.147	941.5
398.371	972.5
398.595	986.5
398.82	991.5
399.044	1050.5
399.268	1124.5
399.492	1208.5
399.717	1253.5
399.941	1269.5
400.165	1214.5
400.389	1169.5
400.613	1123.5
400.837	1080.5
401.062	1067.5
401.286	1026.5
401.51	1018.5
401.734	1012.5
401.958	1013.5
402.182	1029.5
402.406	1017.5
402.63	1039.5
402.854	1036.5
403.078	1033.5
403.302	1053.5
403.526	1000.5
403.75	1084.5
403.974	1093.5
404.198	1069.5
404.422	1079.5
404.645	1069.5
404.869	1070.5
405.093	1075.5
405.317	1062.5
405.541	1065.5
405.765	1060.5
405.988	1076.5
406.212	1077.5
406.436	1059.5
406.66	1108.5
406.883	1121.5
407.107	1182.5
407.331	1190.5
407.555	1258.5
407.778	1210.5
408.002	1220.5
408.226	1201.5
408.449	1198.5
408.673	1151.5
408.896	1149.5
409.12	1136.5
409.344	1131.5
409.567	1123.5
409.791	1117.5
410.014	1098.5
410.238	1078.5
410.461	1112.5
410.685	1098.5
410.908	1098.5
411.132	1068.5
411.355	1040.5
411.578	1061.5
411.802	1090.5
412.025	1092.5
412.249	1064.5
412.472	1067.5
412.695	1064.5
412.919	1067.5
413.142	1059.5
413.365	1064.5
413.589	1046.5
413.812	1006.5
414.035	1028.5
414.258	1037.5
414.482	1046.5
414.705	1042.5
414.928	1053.5
415.151	1018.5
415.374	1052.5
415.597	1070.5
415.821	1044.5
416.044	1041.5
416.267	1019.5
416.49	1029.5
416.713	1023.5
416.936	1053.5
417.159	1014.5
417.382	1032.5
417.605	1005.5
417.828	1040.5
418.051	1024.5
418.274	1023.5
418.497	1048.5
418.72	1063.5
418.943	1039.5
419.166	1115.5
419.389	1154.5
419.611	1149.5
419.834	1140.5
420.057	1096.5
420.28	1074.5
420.503	1040.5
420.726	1056.5
420.948	1023.5
421.171	1030.5
421.394	1054.5
421.617	1039.5
421.839	1028.5
422.062	1040.5
422.285	1055.5
422.507	1069.5
422.73	1033.5
422.953	1040.5
423.175	1073.5
423.398	1083.5
423.621	1051.5
423.843	1077.5
424.066	1063.5
424.288	1064.5
424.511	1070.5
424.733	1071.5
424.956	1060.5
425.178	1077.5
425.401	1044.5
425.623	1079.5
425.846	1048.5
426.068	1035.5
426.291	1060.5
426.513	1020.5
426.735	1044.5
426.958	1019.5
427.18	1024.5
427.402	1000.5
427.625	1004.5
427.847	979.5
428.069	1017.5
428.292	1014.5
428.514	1011.5
428.736	1003.5
428.958	1046.5
429.181	970.5
429.403	1004.5
429.625	983.5
429.847	975.5
430.069	977.5
430.292	978.5
430.514	964.5
430.736	1018.5
430.958	999.5
431.18	997.5
431.402	983.5
431.624	976.5
431.846	1013.5
432.068	1010.5
432.29	1029.5
432.512	1003.5
432.734	1032.5
432.956	1015.5
433.178	1013.5
433.4	1008.5
433.622	1083.5
433.844	1056.5
434.066	1014.5
434.287	1046.5
434.509	1049.5
434.731	1058.5
434.953	1101.5
435.175	1066.5
435.397	1115.5
435.618	1055.5
435.84	1001.5
436.062	998.5
436.284	1024.5
436.505	1010.5
436.727	999.5
436.949	1046.5
437.17	1029.5
437.392	1002.5
437.614	986.5
437.835	950.5
438.057	985.5
438.278	967.5
438.5	964.5
438.721	963.5
438.943	1019.5
439.165	983.5
439.386	1002.5
439.608	1009.5
439.829	997.5
440.05	1010.5
440.272	1030.5
440.493	1043.5
440.715	1054.5
440.936	1035.5
441.158	1036.5
441.379	1032.5
441.6	1102.5
441.822	1092.5
442.043	1101.5
442.264	1076.5
442.486	1034.5
442.707	1120.5
442.928	1080.5
443.149	1110.5
443.371	1088.5
443.592	1119.5
443.813	1150.5
444.034	1136.5
444.255	1150.5
444.476	1142.5
444.698	1195.5
444.919	1197.5
445.14	1275.5
445.361	1210.5
445.582	1115.5
445.803	1095.5
446.024	1080.5
446.245	1093.5
446.466	1055.5
446.687	1018.5
446.908	1035.5
447.129	1012.5
447.35	1031.5
447.571	995.5
447.792	999.5
448.013	986.5
448.234	967.5
448.455	969.5
448.675	982.5
448.896	969.5
449.117	931.5
449.338	964.5
449.559	975.5
449.779	953.5
450	927.5
450.221	964.5
450.442	957.5
450.662	934.5
450.883	938.5
451.104	959.5
451.324	974.5
451.545	938.5
451.766	944.5
451.986	933.5
452.207	931.5
452.428	936.5
452.648	941.5
452.869	901.5
453.089	887.5
453.31	919.5
453.53	895.5
453.751	885.5
453.971	912.5
454.192	903.5
454.412	889.5
454.633	910.5
454.853	871.5
455.073	886.5
455.294	885.5
455.514	887.5
455.734	910.5
455.955	865.5
456.175	888.5
456.395	872.5
456.616	885.5
456.836	900.5
457.056	888.5
457.276	898.5
457.497	894.5
457.717	910.5
457.937	902.5
458.157	908.5
458.377	953.5
458.598	922.5
458.818	956.5
459.038	955.5
459.258	977.5
459.478	1014.5
459.698	1045.5
459.918	1064.5
460.138	1076.5
460.358	1117.5
460.578	1166.5
460.798	1167.5
461.018	1133.5
461.238	1162.5
461.458	1156.5
461.678	1180.5
461.898	1169.5
462.118	1182.5
462.338	1224.5
462.558	1260.5
462.777	1294.5
462.997	1352.5
463.217	1374.5
463.437	1375.5
463.657	1342.5
463.876	1310.5
464.096	1311.5
464.316	1282.5
464.536	1282.5
464.755	1241.5
464.975	1219.5
465.195	1164.5
465.414	1134.5
465.634	1082.5
465.854	1071.5
466.073	1033.5
466.293	1043.5
466.512	1004.5
466.732	1024.5
466.951	1041.5
467.171	996.5
467.391	996.5
467.61	973.5
467.829	966.5
468.049	1000.5
468.268	952.5
468.488	949.5
468.707	955.5
468.927	954.5
469.146	971.5
469.365	980.5
469.585	974.5
469.804	1000.5
470.023	991.5
470.243	960.5
470.462	983.5
470.681	1000.5
470.901	1002.5
471.12	980.5
471.339	992.5
471.558	997.5
471.777	980.5
471.997	974.5
472.216	959.5
472.435	968.5
472.654	979.5
472.873	968.5
473.092	964.5
473.311	970.5
473.53	929.5
473.749	964.5
473.968	958.5
474.187	923.5
474.406	943.5
474.625	955.5
474.844	978.5
475.063	939.5
475.282	951.5
475.501	956.5
475.72	980.5
475.939	997.5
476.158	1014.5
476.377	991.5
476.596	952.5
476.814	1014.5
477.033	1010.5
477.252	1037.5
477.471	1026.5
477.69	1051.5
477.908	1068.5
478.127	1112.5
478.346	1111.5
478.564	1113.5
478.783	1130.5
479.002	1162.5
479.22	1163.5
479.439	1140.5
479.658	1142.5
479.876	1170.5
480.095	1154.5
480.313	1180.5
480.532	1178.5
480.751	1158.5
480.969	1150.5
481.188	1131.5
481.406	1129.5
481.624	1083.5
481.843	1101.5
482.061	1136.5
482.28	1079.5
482.498	1080.5
482.717	1089.5
482.935	1094.5
483.153	1126.5
483.372	1156.5
483.59	1086.5
483.808	1106.5
484.027	1111.5
484.245	1120.5
484.463	1125.5
484.681	1125.5
484.9	1147.5
485.118	1130.5
485.336	1131.5
485.554	1129.5
485.772	1114.5
485.99	1120.5
486.209	1141.5
486.427	1126.5
486.645	1109.5
486.863	1153.5
487.081	1146.5
487.299	1135.5
487.517	1146.5
487.735	1164.5
487.953	1158.5
488.171	1181.5
488.389	1181.5
488.607	1155.5
488.825	1151.5
489.043	1148.5
489.261	1108.5
489.479	1123.5
489.696	1144.5
489.914	1177.5
490.132	1146.5
490.35	1159.5
490.568	1158.5
490.786	1173.5
491.003	1191.5
491.221	1219.5
491.439	1229.5
491.657	1199.5
491.874	1202.5
492.092	1202.5
492.31	1220.5
492.527	1203.5
492.745	1231.5
492.963	1221.5
493.18	1220.5
493.398	1243.5
493.615	1215.5
493.833	1247.5
494.05	1252.5
494.268	1196.5
494.485	1243.5
494.703	1229.5
494.92	1270.5
495.138	1219.5
495.355	1270.5
495.573	1278.5
495.79	1274.5
496.008	1255.5
496.225	1278.5
496.442	1323.5
496.66	1341.5
496.877	1346.5
497.094	1345.5
497.312	1413.5
497.529	1386.5
497.746	1442.5
497.963	1450.5
498.181	1543.5
498.398	1579.5
498.615	1608.5
498.832	1714.5
499.049	1816.5
499.267	1883.5
499.484	2007.5
499.701	2144.5
499.918	2241.5
500.135	2437.5
500.352	2607.5
500.569	2641.5
500.786	2606.5
501.003	2536.5
501.22	2387.5
501.437	2198.5
501.654	2047.5
501.871	1976.5
502.088	1854.5
502.305	1768.5
502.522	1750.5
502.739	1648.5
502.956	1577.5
503.172	1515.5
503.389	1498.5
503.606	1447.5
503.823	1437.5
504.04	1399.5
504.256	1404.5
504.473	1406.5
504.69	1426.5
504.907	1388.5
505.123	1332.5
505.34	1324.5
505.557	1278.5
505.773	1207.5
505.99	1222.5
506.207	1159.5
506.423	1180.5
506.64	1146.5
506.856	1160.5
507.073	1154.5
507.289	1139.5
507.506	1110.5
507.722	1110.5
507.939	1099.5
508.155	1112.5
508.372	1096.5
508.588	1071.5
508.805	1042.5
509.021	1074.5
509.238	1065.5
509.454	1020.5
509.67	1040.5
509.887	1046.5
510.103	1056.5
510.319	1035.5
510.536	1031.5
510.752	986.5
510.968	1004.5
511.184	1020.5
511.401	994.5
511.617	986.5
511.833	1004.5
512.049	1013.5
512.265	1018.5
512.481	1013.5
512.698	1026.5
512.914	987.5
513.13	1003.5
513.346	990.5
513.562	1020.5
513.778	987.5
