Data from Ni(NO3)2@0.25M.TitratingCurve.Agarose3%dH2O.NegLispCup.LampEnergy10.LIBS07252019_HRD10591_18-05-41-566.txt Node
Date: Thu Jul 25 18:05:41 EDT 2019
User: cochatt
Spectrometer: HR+D1059
Trigger mode: 1
Integration Time (sec): 1.000000E-1
Scans to average: 1
Electric dark correction enabled: true
Nonlinearity correction enabled: false
Boxcar width: 0
XAxis mode: Wavelengths
Number of Pixels in Spectrum: 2048
>>>>>Begin Spectral Data<<<<<
223.165	1.19
223.4	1.19
223.635	1.19
223.869	-10.81
224.104	-8.81
224.338	-29.81
224.573	-18.81
224.808	-17.81
225.042	-1.81
225.277	-2.81
225.511	-6.81
225.746	11.19
225.98	-2.81
226.215	9.19
226.449	19.19
226.683	19.19
226.918	19.19
227.152	21.19
227.387	38.19
227.621	47.19
227.856	51.19
228.09	52.19
228.324	57.19
228.559	56.19
228.793	68.19
229.027	95.19
229.262	123.19
229.496	123.19
229.73	115.19
229.964	126.19
230.199	129.19
230.433	131.19
230.667	144.19
230.901	132.19
231.136	144.19
231.37	146.19
231.604	147.19
231.838	171.19
232.072	142.19
232.306	148.19
232.541	149.19
232.775	129.19
233.009	145.19
233.243	147.19
233.477	160.19
233.711	144.19
233.945	149.19
234.179	148.19
234.413	147.19
234.647	149.19
234.881	142.19
235.115	164.19
235.349	155.19
235.583	163.19
235.817	146.19
236.051	155.19
236.285	165.19
236.519	169.19
236.753	159.19
236.987	161.19
237.221	161.19
237.455	167.19
237.689	158.19
237.922	174.19
238.156	196.19
238.39	157.19
238.624	183.19
238.858	173.19
239.091	168.19
239.325	172.19
239.559	165.19
239.793	156.19
240.027	188.19
240.26	176.19
240.494	174.19
240.728	184.19
240.961	187.19
241.195	181.19
241.429	181.19
241.662	192.19
241.896	169.19
242.13	204.19
242.363	206.19
242.597	195.19
242.83	207.19
243.064	195.19
243.298	223.19
243.531	213.19
243.765	203.19
243.998	206.19
244.232	205.19
244.465	208.19
244.699	217.19
244.932	210.19
245.166	220.19
245.399	226.19
245.633	224.19
245.866	222.19
246.099	219.19
246.333	235.19
246.566	233.19
246.8	226.19
247.033	238.19
247.266	225.19
247.5	228.19
247.733	241.19
247.966	238.19
248.2	259.19
248.433	239.19
248.666	232.19
248.899	257.19
249.133	257.19
249.366	255.19
249.599	244.19
249.832	266.19
250.066	257.19
250.299	271.19
250.532	251.19
250.765	258.19
250.998	269.19
251.231	268.19
251.465	262.19
251.698	265.19
251.931	275.19
252.164	270.19
252.397	291.19
252.63	282.19
252.863	298.19
253.096	301.19
253.329	287.19
253.562	303.19
253.795	288.19
254.028	306.19
254.261	305.19
254.494	299.19
254.727	285.19
254.96	298.19
255.193	332.19
255.426	302.19
255.659	309.19
255.892	329.19
256.124	308.19
256.357	314.19
256.59	326.19
256.823	341.19
257.056	314.19
257.289	310.19
257.521	342.19
257.754	323.19
257.987	329.19
258.22	325.19
258.452	336.19
258.685	350.19
258.918	351.19
259.151	333.19
259.383	339.19
259.616	347.19
259.849	344.19
260.081	340.19
260.314	371.19
260.547	364.19
260.779	360.19
261.012	352.19
261.244	360.19
261.477	363.19
261.71	368.19
261.942	365.19
262.175	367.19
262.407	345.19
262.64	360.19
262.872	359.19
263.105	365.19
263.337	378.19
263.57	366.19
263.802	395.19
264.035	372.19
264.267	367.19
264.499	379.19
264.732	376.19
264.964	380.19
265.197	395.19
265.429	395.19
265.661	383.19
265.894	383.19
266.126	403.19
266.358	387.19
266.591	389.19
266.823	397.19
267.055	402.19
267.287	407.19
267.52	394.19
267.752	410.19
267.984	409.19
268.216	403.19
268.448	414.19
268.681	401.19
268.913	412.19
269.145	395.19
269.377	404.19
269.609	409.19
269.841	425.19
270.073	423.19
270.306	415.19
270.538	422.19
270.77	429.19
271.002	420.19
271.234	440.19
271.466	435.19
271.698	448.19
271.93	423.19
272.162	422.19
272.394	424.19
272.626	417.19
272.858	419.19
273.09	436.19
273.322	443.19
273.553	427.19
273.785	436.19
274.017	453.19
274.249	447.19
274.481	430.19
274.713	445.19
274.945	449.19
275.176	461.19
275.408	440.19
275.64	451.19
275.872	454.19
276.104	466.19
276.335	468.19
276.567	485.19
276.799	467.19
277.031	474.19
277.262	458.19
277.494	481.19
277.726	495.19
277.957	487.19
278.189	460.19
278.421	472.19
278.652	467.19
278.884	476.19
279.115	500.19
279.347	499.19
279.579	479.19
279.81	480.19
280.042	473.19
280.273	501.19
280.505	498.19
280.736	492.19
280.968	496.19
281.199	518.19
281.431	526.19
281.662	519.19
281.894	521.19
282.125	519.19
282.356	530.19
282.588	513.19
282.819	513.19
283.051	529.19
283.282	529.19
283.513	517.19
283.745	517.19
283.976	523.19
284.207	524.19
284.439	545.19
284.67	539.19
284.901	536.19
285.132	536.19
285.364	524.19
285.595	527.19
285.826	532.19
286.057	552.19
286.288	550.19
286.52	563.19
286.751	547.19
286.982	565.19
287.213	550.19
287.444	545.19
287.675	537.19
287.906	547.19
288.138	542.19
288.369	556.19
288.6	585.19
288.831	542.19
289.062	553.19
289.293	548.19
289.524	562.19
289.755	578.19
289.986	556.19
290.217	587.19
290.448	559.19
290.679	571.19
290.91	572.19
291.141	554.19
291.371	585.19
291.602	554.19
291.833	558.19
292.064	595.19
292.295	587.19
292.526	586.19
292.757	579.19
292.987	550.19
293.218	566.19
293.449	571.19
293.68	562.19
293.91	563.19
294.141	571.19
294.372	595.19
294.603	574.19
294.833	572.19
295.064	591.19
295.295	566.19
295.525	562.19
295.756	581.19
295.987	553.19
296.217	587.19
296.448	605.19
296.679	606.19
296.909	607.19
297.14	589.19
297.37	610.19
297.601	619.19
297.831	603.19
298.062	630.19
298.292	617.19
298.523	602.19
298.753	620.19
298.984	618.19
299.214	606.19
299.445	619.19
299.675	636.19
299.905	626.19
300.136	599.19
300.366	647.19
300.597	631.19
300.827	635.19
301.057	622.19
301.288	630.19
301.518	645.19
301.748	674.19
301.979	662.19
302.209	687.19
302.439	657.19
302.669	668.19
302.9	622.19
303.13	627.19
303.36	659.19
303.59	636.19
303.82	669.19
304.051	659.19
304.281	675.19
304.511	638.19
304.741	639.19
304.971	644.19
305.201	659.19
305.431	687.19
305.661	678.19
305.891	647.19
306.121	627.19
306.352	664.19
306.582	645.19
306.812	634.19
307.042	641.19
307.272	635.19
307.502	614.19
307.731	639.19
307.961	634.19
308.191	643.19
308.421	616.19
308.651	634.19
308.881	622.19
309.111	647.19
309.341	615.19
309.571	627.19
309.8	656.19
310.03	654.19
310.26	649.19
310.49	635.19
310.72	622.19
310.949	654.19
311.179	644.19
311.409	662.19
311.639	644.19
311.868	669.19
312.098	672.19
312.328	665.19
312.557	653.19
312.787	667.19
313.017	651.19
313.246	670.19
313.476	705.19
313.706	695.19
313.935	703.19
314.165	700.19
314.394	721.19
314.624	707.19
314.853	715.19
315.083	699.19
315.312	707.19
315.542	712.19
315.771	695.19
316.001	711.19
316.23	706.19
316.46	690.19
316.689	689.19
316.919	692.19
317.148	695.19
317.377	687.19
317.607	681.19
317.836	681.19
318.065	671.19
318.295	695.19
318.524	714.19
318.753	694.19
318.983	701.19
319.212	688.19
319.441	687.19
319.67	697.19
319.9	701.19
320.129	705.19
320.358	712.19
320.587	711.19
320.816	709.19
321.046	715.19
321.275	718.19
321.504	711.19
321.733	709.19
321.962	714.19
322.191	744.19
322.42	731.19
322.649	732.19
322.878	726.19
323.108	723.19
323.337	743.19
323.566	757.19
323.795	757.19
324.024	742.19
324.253	732.19
324.482	774.19
324.71	745.19
324.939	746.19
325.168	749.19
325.397	747.19
325.626	769.19
325.855	758.19
326.084	771.19
326.313	803.19
326.542	789.19
326.77	833.19
326.999	794.19
327.228	783.19
327.457	790.19
327.686	793.19
327.914	795.19
328.143	790.19
328.372	790.19
328.6	804.19
328.829	799.19
329.058	789.19
329.287	801.19
329.515	829.19
329.744	834.19
329.972	827.19
330.201	833.19
330.43	842.19
330.658	828.19
330.887	818.19
331.115	830.19
331.344	863.19
331.572	860.19
331.801	881.19
332.03	909.19
332.258	909.19
332.486	897.19
332.715	911.19
332.943	957.19
333.172	1008.19
333.4	1015.19
333.629	1043.19
333.857	1066.19
334.085	1051.19
334.314	1036.19
334.542	1050.19
334.771	1041.19
334.999	1017.19
335.227	1038.19
335.455	1060.19
335.684	1022.19
335.912	1047.19
336.14	1033.19
336.369	996.19
336.597	1043.19
336.825	991.19
337.053	1015.19
337.281	988.19
337.51	965.19
337.738	973.19
337.966	927.19
338.194	946.19
338.422	950.19
338.65	918.19
338.878	926.19
339.106	915.19
339.334	900.19
339.562	901.19
339.79	888.19
340.018	892.19
340.246	867.19
340.474	860.19
340.702	853.19
340.93	880.19
341.158	864.19
341.386	861.19
341.614	888.19
341.842	870.19
342.07	863.19
342.298	851.19
342.526	846.19
342.754	876.19
342.981	905.19
343.209	889.19
343.437	942.19
343.665	940.19
343.893	989.19
344.12	1034.19
344.348	1033.19
344.576	990.19
344.804	969.19
345.031	941.19
345.259	898.19
345.487	881.19
345.714	866.19
345.942	886.19
346.17	876.19
346.397	897.19
346.625	882.19
346.853	854.19
347.08	853.19
347.308	829.19
347.535	853.19
347.763	846.19
347.99	856.19
348.218	851.19
348.445	827.19
348.673	823.19
348.9	821.19
349.128	855.19
349.355	818.19
349.583	842.19
349.81	811.19
350.037	806.19
350.265	814.19
350.492	817.19
350.72	819.19
350.947	807.19
351.174	820.19
351.402	841.19
351.629	847.19
351.856	821.19
352.083	798.19
352.311	821.19
352.538	841.19
352.765	839.19
352.992	811.19
353.22	789.19
353.447	781.19
353.674	795.19
353.901	822.19
354.128	809.19
354.355	802.19
354.583	802.19
354.81	806.19
355.037	811.19
355.264	803.19
355.491	795.19
355.718	801.19
355.945	814.19
356.172	811.19
356.399	821.19
356.626	838.19
356.853	806.19
357.08	825.19
357.307	807.19
357.534	827.19
357.761	804.19
357.988	826.19
358.215	820.19
358.441	800.19
358.668	814.19
358.895	829.19
359.122	817.19
359.349	817.19
359.576	792.19
359.802	808.19
360.029	800.19
360.256	801.19
360.483	843.19
360.709	834.19
360.936	833.19
361.163	790.19
361.39	785.19
361.616	795.19
361.843	806.19
362.07	809.19
362.296	829.19
362.523	832.19
362.749	833.19
362.976	804.19
363.203	815.19
363.429	805.19
363.656	820.19
363.882	803.19
364.109	802.19
364.335	799.19
364.562	802.19
364.788	798.19
365.015	813.19
365.241	782.19
365.468	789.19
365.694	808.19
365.92	830.19
366.147	814.19
366.373	838.19
366.599	811.19
366.826	801.19
367.052	793.19
367.278	798.19
367.505	797.19
367.731	803.19
367.957	814.19
368.184	799.19
368.41	795.19
368.636	803.19
368.862	804.19
369.089	832.19
369.315	848.19
369.541	846.19
369.767	835.19
369.993	843.19
370.219	841.19
370.445	834.19
370.672	832.19
370.898	832.19
371.124	861.19
371.35	873.19
371.576	863.19
371.802	865.19
372.028	858.19
372.254	868.19
372.48	877.19
372.706	855.19
372.932	899.19
373.158	897.19
373.384	891.19
373.61	878.19
373.835	866.19
374.061	853.19
374.287	919.19
374.513	890.19
374.739	915.19
374.965	956.19
375.191	937.19
375.416	932.19
375.642	913.19
375.868	904.19
376.094	883.19
376.319	892.19
376.545	888.19
376.771	865.19
376.997	870.19
377.222	866.19
377.448	871.19
377.674	871.19
377.899	846.19
378.125	838.19
378.35	859.19
378.576	853.19
378.802	842.19
379.027	860.19
379.253	879.19
379.478	852.19
379.704	873.19
379.929	861.19
380.155	849.19
380.38	856.19
380.606	877.19
380.831	863.19
381.057	858.19
381.282	870.19
381.507	866.19
381.733	879.19
381.958	871.19
382.184	890.19
382.409	902.19
382.634	879.19
382.86	903.19
383.085	891.19
383.31	911.19
383.535	909.19
383.761	914.19
383.986	910.19
384.211	919.19
384.436	953.19
384.662	968.19
384.887	992.19
385.112	995.19
385.337	993.19
385.562	994.19
385.787	1030.19
386.013	1013.19
386.238	1027.19
386.463	995.19
386.688	1028.19
386.913	1037.19
387.138	1046.19
387.363	1029.19
387.588	1036.19
387.813	993.19
388.038	1019.19
388.263	1009.19
388.488	1047.19
388.713	1012.19
388.938	1021.19
389.163	1010.19
389.387	1045.19
389.612	991.19
389.837	1026.19
390.062	996.19
390.287	985.19
390.512	991.19
390.736	1043.19
390.961	1059.19
391.186	1062.19
391.411	1059.19
391.636	1096.19
391.86	1132.19
392.085	1126.19
392.31	1116.19
392.534	1127.19
392.759	1130.19
392.984	1100.19
393.208	1064.19
393.433	1081.19
393.658	1073.19
393.882	1100.19
394.107	1083.19
394.331	1059.19
394.556	1078.19
394.78	1081.19
395.005	1069.19
395.229	1126.19
395.454	1147.19
395.678	1154.19
395.903	1152.19
396.127	1159.19
396.352	1119.19
396.576	1090.19
396.801	1125.19
397.025	1118.19
397.249	1145.19
397.474	1153.19
397.698	1161.19
397.922	1164.19
398.147	1196.19
398.371	1216.19
398.595	1240.19
398.82	1290.19
399.044	1345.19
399.268	1437.19
399.492	1591.19
399.717	1767.19
399.941	1775.19
400.165	1651.19
400.389	1570.19
400.613	1463.19
400.837	1393.19
401.062	1360.19
401.286	1331.19
401.51	1329.19
401.734	1302.19
401.958	1314.19
402.182	1310.19
402.406	1345.19
402.63	1331.19
402.854	1365.19
403.078	1362.19
403.302	1378.19
403.526	1393.19
403.75	1414.19
403.974	1402.19
404.198	1399.19
404.422	1448.19
404.645	1401.19
404.869	1398.19
405.093	1440.19
405.317	1393.19
405.541	1395.19
405.765	1430.19
405.988	1395.19
406.212	1419.19
406.436	1443.19
406.66	1442.19
406.883	1478.19
407.107	1555.19
407.331	1564.19
407.555	1610.19
407.778	1613.19
408.002	1612.19
408.226	1567.19
408.449	1555.19
408.673	1484.19
408.896	1483.19
409.12	1474.19
409.344	1504.19
409.567	1461.19
409.791	1478.19
410.014	1475.19
410.238	1447.19
410.461	1446.19
410.685	1418.19
410.908	1396.19
411.132	1393.19
411.355	1358.19
411.578	1345.19
411.802	1355.19
412.025	1373.19
412.249	1363.19
412.472	1342.19
412.695	1354.19
412.919	1318.19
413.142	1349.19
413.365	1334.19
413.589	1315.19
413.812	1266.19
414.035	1302.19
414.258	1291.19
414.482	1299.19
414.705	1325.19
414.928	1322.19
415.151	1314.19
415.374	1317.19
415.597	1287.19
415.821	1275.19
416.044	1290.19
416.267	1263.19
416.49	1269.19
416.713	1259.19
416.936	1285.19
417.159	1271.19
417.382	1281.19
417.605	1287.19
417.828	1278.19
418.051	1271.19
418.274	1329.19
418.497	1286.19
418.72	1347.19
418.943	1299.19
419.166	1402.19
419.389	1486.19
419.611	1429.19
419.834	1378.19
420.057	1346.19
420.28	1300.19
420.503	1239.19
420.726	1293.19
420.948	1263.19
421.171	1307.19
421.394	1254.19
421.617	1286.19
421.839	1322.19
422.062	1289.19
422.285	1277.19
422.507	1299.19
422.73	1293.19
422.953	1283.19
423.175	1321.19
423.398	1309.19
423.621	1267.19
423.843	1318.19
424.066	1317.19
424.288	1340.19
424.511	1321.19
424.733	1323.19
424.956	1290.19
425.178	1289.19
425.401	1255.19
425.623	1294.19
425.846	1264.19
426.068	1252.19
426.291	1275.19
426.513	1258.19
426.735	1233.19
426.958	1232.19
427.18	1228.19
427.402	1212.19
427.625	1206.19
427.847	1174.19
428.069	1189.19
428.292	1212.19
428.514	1163.19
428.736	1214.19
428.958	1204.19
429.181	1159.19
429.403	1180.19
429.625	1165.19
429.847	1138.19
430.069	1154.19
430.292	1149.19
430.514	1146.19
430.736	1166.19
430.958	1179.19
431.18	1151.19
431.402	1175.19
431.624	1150.19
431.846	1172.19
432.068	1192.19
432.29	1197.19
432.512	1163.19
432.734	1156.19
432.956	1161.19
433.178	1186.19
433.4	1175.19
433.622	1197.19
433.844	1201.19
434.066	1181.19
434.287	1198.19
434.509	1216.19
434.731	1253.19
434.953	1283.19
435.175	1304.19
435.397	1271.19
435.618	1258.19
435.84	1239.19
436.062	1183.19
436.284	1188.19
436.505	1190.19
436.727	1202.19
436.949	1193.19
437.17	1201.19
437.392	1163.19
437.614	1148.19
437.835	1135.19
438.057	1149.19
438.278	1110.19
438.5	1130.19
438.721	1130.19
438.943	1168.19
439.165	1143.19
439.386	1165.19
439.608	1185.19
439.829	1179.19
440.05	1167.19
440.272	1182.19
440.493	1215.19
440.715	1183.19
440.936	1245.19
441.158	1238.19
441.379	1229.19
441.6	1298.19
441.822	1317.19
442.043	1301.19
442.264	1303.19
442.486	1252.19
442.707	1271.19
442.928	1298.19
443.149	1282.19
443.371	1269.19
443.592	1293.19
443.813	1314.19
444.034	1355.19
444.255	1357.19
444.476	1376.19
444.698	1450.19
444.919	1461.19
445.14	1559.19
445.361	1414.19
445.582	1387.19
445.803	1257.19
446.024	1269.19
446.245	1262.19
446.466	1221.19
446.687	1214.19
446.908	1233.19
447.129	1174.19
447.35	1172.19
447.571	1189.19
447.792	1115.19
448.013	1118.19
448.234	1121.19
448.455	1126.19
448.675	1125.19
448.896	1114.19
449.117	1099.19
449.338	1095.19
449.559	1070.19
449.779	1063.19
450	1075.19
450.221	1097.19
450.442	1076.19
450.662	1116.19
450.883	1100.19
451.104	1109.19
451.324	1086.19
451.545	1135.19
451.766	1110.19
451.986	1080.19
452.207	1083.19
452.428	1078.19
452.648	1089.19
452.869	1044.19
453.089	1053.19
453.31	1049.19
453.53	1069.19
453.751	1059.19
453.971	1026.19
454.192	1035.19
454.412	1049.19
454.633	1037.19
454.853	1030.19
455.073	982.19
455.294	1010.19
455.514	1021.19
455.734	973.19
455.955	1003.19
456.175	1015.19
456.395	1015.19
456.616	1006.19
456.836	1014.19
457.056	1038.19
457.276	1000.19
457.497	1057.19
457.717	1021.19
457.937	1011.19
458.157	1051.19
458.377	1067.19
458.598	1054.19
458.818	1086.19
459.038	1110.19
459.258	1158.19
459.478	1177.19
459.698	1216.19
459.918	1250.19
460.138	1267.19
460.358	1333.19
460.578	1337.19
460.798	1339.19
461.018	1387.19
461.238	1387.19
461.458	1379.19
461.678	1352.19
461.898	1393.19
462.118	1395.19
462.338	1494.19
462.558	1504.19
462.777	1549.19
462.997	1660.19
463.217	1744.19
463.437	1748.19
463.657	1632.19
463.876	1604.19
464.096	1608.19
464.316	1583.19
464.536	1549.19
464.755	1515.19
464.975	1447.19
465.195	1434.19
465.414	1369.19
465.634	1295.19
465.854	1292.19
466.073	1223.19
466.293	1177.19
466.512	1133.19
466.732	1146.19
466.951	1146.19
467.171	1149.19
467.391	1130.19
467.61	1122.19
467.829	1117.19
468.049	1089.19
468.268	1102.19
468.488	1090.19
468.707	1108.19
468.927	1105.19
469.146	1099.19
469.365	1080.19
469.585	1111.19
469.804	1141.19
470.023	1164.19
470.243	1159.19
470.462	1163.19
470.681	1161.19
470.901	1147.19
471.12	1146.19
471.339	1164.19
471.558	1122.19
471.777	1109.19
471.997	1090.19
472.216	1099.19
472.435	1103.19
472.654	1079.19
472.873	1079.19
473.092	1067.19
473.311	1070.19
473.53	1075.19
473.749	1055.19
473.968	1062.19
474.187	1045.19
474.406	1070.19
474.625	1083.19
474.844	1064.19
475.063	1062.19
475.282	1065.19
475.501	1102.19
475.72	1098.19
475.939	1081.19
476.158	1108.19
476.377	1119.19
476.596	1139.19
476.814	1137.19
477.033	1148.19
477.252	1150.19
477.471	1181.19
477.69	1188.19
477.908	1201.19
478.127	1245.19
478.346	1217.19
478.564	1287.19
478.783	1302.19
479.002	1300.19
479.22	1325.19
479.439	1320.19
479.658	1294.19
479.876	1323.19
480.095	1328.19
480.313	1371.19
480.532	1407.19
480.751	1395.19
480.969	1342.19
481.188	1288.19
481.406	1288.19
481.624	1229.19
481.843	1239.19
482.061	1249.19
482.28	1222.19
482.498	1220.19
482.717	1235.19
482.935	1212.19
483.153	1234.19
483.372	1229.19
483.59	1267.19
483.808	1262.19
484.027	1226.19
484.245	1250.19
484.463	1247.19
484.681	1271.19
484.9	1262.19
485.118	1220.19
485.336	1253.19
485.554	1287.19
485.772	1262.19
485.99	1287.19
486.209	1305.19
486.427	1257.19
486.645	1274.19
486.863	1290.19
487.081	1283.19
487.299	1259.19
487.517	1293.19
487.735	1253.19
487.953	1278.19
488.171	1302.19
488.389	1270.19
488.607	1278.19
488.825	1234.19
489.043	1253.19
489.261	1263.19
489.479	1254.19
489.696	1257.19
489.914	1265.19
490.132	1260.19
490.35	1275.19
490.568	1324.19
490.786	1308.19
491.003	1281.19
491.221	1313.19
491.439	1298.19
491.657	1299.19
491.874	1307.19
492.092	1332.19
492.31	1318.19
492.527	1351.19
492.745	1331.19
492.963	1325.19
493.18	1338.19
493.398	1315.19
493.615	1382.19
493.833	1377.19
494.05	1372.19
494.268	1382.19
494.485	1351.19
494.703	1358.19
