Data from Ni(NO3)2@0.0625M.TitratingCurve.Agarose3%dH2O.NegLispCup.LampEnergy10.LIBS07252019_HRD10591_18-13-43-569.txt Node
Date: Thu Jul 25 18:13:43 EDT 2019
User: cochatt
Spectrometer: HR+D1059
Trigger mode: 1
Integration Time (sec): 1.000000E-1
Scans to average: 1
Electric dark correction enabled: true
Nonlinearity correction enabled: false
Boxcar width: 0
XAxis mode: Wavelengths
Number of Pixels in Spectrum: 2048
>>>>>Begin Spectral Data<<<<<
223.165	-18.56
223.4	-18.56
223.635	-18.56
223.869	-8.56
224.104	-22.56
224.338	-21.56
224.573	-13.56
224.808	-17.56
225.042	-5.56
225.277	-2.56
225.511	-1.56
225.746	-8.56
225.98	16.44
226.215	7.44
226.449	5.44
226.683	32.44
226.918	27.44
227.152	31.44
227.387	27.44
227.621	36.44
227.856	43.44
228.09	53.44
228.324	47.44
228.559	65.44
228.793	79.44
229.027	100.44
229.262	116.44
229.496	127.44
229.73	130.44
229.964	103.44
230.199	141.44
230.433	123.44
230.667	124.44
230.901	131.44
231.136	128.44
231.37	136.44
231.604	151.44
231.838	139.44
232.072	142.44
232.306	148.44
232.541	138.44
232.775	140.44
233.009	149.44
233.243	153.44
233.477	135.44
233.711	160.44
233.945	147.44
234.179	152.44
234.413	151.44
234.647	141.44
234.881	131.44
235.115	162.44
235.349	152.44
235.583	143.44
235.817	154.44
236.051	153.44
236.285	142.44
236.519	158.44
236.753	154.44
236.987	143.44
237.221	146.44
237.455	155.44
237.689	151.44
237.922	156.44
238.156	150.44
238.39	157.44
238.624	156.44
238.858	175.44
239.091	157.44
239.325	168.44
239.559	152.44
239.793	157.44
240.027	155.44
240.26	167.44
240.494	172.44
240.728	187.44
240.961	181.44
241.195	178.44
241.429	184.44
241.662	184.44
241.896	169.44
242.13	174.44
242.363	197.44
242.597	183.44
242.83	181.44
243.064	184.44
243.298	178.44
243.531	180.44
243.765	190.44
243.998	176.44
244.232	178.44
244.465	203.44
244.699	195.44
244.932	210.44
245.166	208.44
245.399	208.44
245.633	204.44
245.866	209.44
246.099	204.44
246.333	199.44
246.566	220.44
246.8	210.44
247.033	219.44
247.266	239.44
247.5	212.44
247.733	200.44
247.966	211.44
248.2	208.44
248.433	217.44
248.666	212.44
248.899	236.44
249.133	233.44
249.366	246.44
249.599	239.44
249.832	242.44
250.066	234.44
250.299	225.44
250.532	236.44
250.765	233.44
250.998	246.44
251.231	241.44
251.465	249.44
251.698	242.44
251.931	259.44
252.164	255.44
252.397	263.44
252.63	274.44
252.863	262.44
253.096	251.44
253.329	248.44
253.562	266.44
253.795	248.44
254.028	261.44
254.261	264.44
254.494	278.44
254.727	274.44
254.96	261.44
255.193	265.44
255.426	277.44
255.659	274.44
255.892	280.44
256.124	272.44
256.357	270.44
256.59	290.44
256.823	275.44
257.056	286.44
257.289	283.44
257.521	286.44
257.754	286.44
257.987	275.44
258.22	272.44
258.452	275.44
258.685	274.44
258.918	289.44
259.151	296.44
259.383	290.44
259.616	281.44
259.849	293.44
260.081	299.44
260.314	295.44
260.547	295.44
260.779	290.44
261.012	287.44
261.244	315.44
261.477	294.44
261.71	295.44
261.942	320.44
262.175	311.44
262.407	309.44
262.64	302.44
262.872	305.44
263.105	315.44
263.337	310.44
263.57	316.44
263.802	333.44
264.035	330.44
264.267	338.44
264.499	326.44
264.732	322.44
264.964	327.44
265.197	326.44
265.429	301.44
265.661	327.44
265.894	312.44
266.126	343.44
266.358	337.44
266.591	340.44
266.823	347.44
267.055	328.44
267.287	340.44
267.52	343.44
267.752	346.44
267.984	341.44
268.216	357.44
268.448	363.44
268.681	332.44
268.913	375.44
269.145	331.44
269.377	343.44
269.609	339.44
269.841	345.44
270.073	348.44
270.306	359.44
270.538	360.44
270.77	352.44
271.002	355.44
271.234	355.44
271.466	368.44
271.698	364.44
271.93	343.44
272.162	376.44
272.394	379.44
272.626	357.44
272.858	373.44
273.09	370.44
273.322	388.44
273.553	392.44
273.785	372.44
274.017	394.44
274.249	392.44
274.481	382.44
274.713	386.44
274.945	382.44
275.176	364.44
275.408	402.44
275.64	384.44
275.872	376.44
276.104	385.44
276.335	394.44
276.567	407.44
276.799	408.44
277.031	412.44
277.262	408.44
277.494	408.44
277.726	420.44
277.957	414.44
278.189	402.44
278.421	394.44
278.652	411.44
278.884	406.44
279.115	412.44
279.347	410.44
279.579	437.44
279.81	417.44
280.042	426.44
280.273	447.44
280.505	428.44
280.736	447.44
280.968	423.44
281.199	426.44
281.431	429.44
281.662	435.44
281.894	428.44
282.125	438.44
282.356	440.44
282.588	452.44
282.819	455.44
283.051	447.44
283.282	455.44
283.513	450.44
283.745	452.44
283.976	453.44
284.207	454.44
284.439	454.44
284.67	451.44
284.901	439.44
285.132	469.44
285.364	459.44
285.595	460.44
285.826	467.44
286.057	478.44
286.288	454.44
286.52	479.44
286.751	465.44
286.982	472.44
287.213	481.44
287.444	475.44
287.675	491.44
287.906	484.44
288.138	473.44
288.369	483.44
288.6	488.44
288.831	485.44
289.062	473.44
289.293	494.44
289.524	496.44
289.755	481.44
289.986	500.44
290.217	496.44
290.448	494.44
290.679	496.44
290.91	490.44
291.141	499.44
291.371	486.44
291.602	500.44
291.833	499.44
292.064	490.44
292.295	501.44
292.526	519.44
292.757	503.44
292.987	496.44
293.218	501.44
293.449	492.44
293.68	500.44
293.91	471.44
294.141	520.44
294.372	527.44
294.603	490.44
294.833	504.44
295.064	524.44
295.295	520.44
295.525	503.44
295.756	509.44
295.987	502.44
296.217	535.44
296.448	526.44
296.679	510.44
296.909	523.44
297.14	517.44
297.37	548.44
297.601	538.44
297.831	547.44
298.062	565.44
298.292	554.44
298.523	582.44
298.753	566.44
298.984	549.44
299.214	532.44
299.445	542.44
299.675	526.44
299.905	566.44
300.136	526.44
300.366	527.44
300.597	550.44
300.827	566.44
301.057	584.44
301.288	564.44
301.518	582.44
301.748	573.44
301.979	552.44
302.209	578.44
302.439	573.44
302.669	543.44
302.9	573.44
303.13	555.44
303.36	572.44
303.59	556.44
303.82	564.44
304.051	596.44
304.281	557.44
304.511	569.44
304.741	560.44
304.971	548.44
305.201	548.44
305.431	549.44
305.661	565.44
305.891	569.44
306.121	573.44
306.352	564.44
306.582	572.44
306.812	545.44
307.042	546.44
307.272	547.44
307.502	542.44
307.731	557.44
307.961	570.44
308.191	548.44
308.421	570.44
308.651	572.44
308.881	555.44
309.111	534.44
309.341	552.44
309.571	552.44
309.8	559.44
310.03	556.44
310.26	563.44
310.49	540.44
310.72	556.44
310.949	565.44
311.179	574.44
311.409	571.44
311.639	554.44
311.868	587.44
312.098	592.44
312.328	585.44
312.557	595.44
312.787	588.44
313.017	572.44
313.246	599.44
313.476	585.44
313.706	607.44
313.935	603.44
314.165	613.44
314.394	621.44
314.624	618.44
314.853	601.44
315.083	620.44
315.312	608.44
315.542	608.44
315.771	588.44
316.001	588.44
316.23	599.44
316.46	603.44
316.689	609.44
316.919	600.44
317.148	592.44
317.377	614.44
317.607	588.44
317.836	575.44
318.065	558.44
318.295	589.44
318.524	578.44
318.753	595.44
318.983	589.44
319.212	596.44
319.441	595.44
319.67	575.44
319.9	571.44
320.129	587.44
320.358	578.44
320.587	631.44
320.816	596.44
321.046	594.44
321.275	588.44
321.504	578.44
321.733	610.44
321.962	613.44
322.191	611.44
322.42	595.44
322.649	601.44
322.878	614.44
323.108	582.44
323.337	608.44
323.566	609.44
323.795	618.44
324.024	616.44
324.253	614.44
324.482	600.44
324.71	627.44
324.939	624.44
325.168	638.44
325.397	616.44
325.626	622.44
325.855	639.44
326.084	669.44
326.313	655.44
326.542	642.44
326.77	650.44
326.999	643.44
327.228	654.44
327.457	636.44
327.686	622.44
327.914	658.44
328.143	660.44
328.372	662.44
328.6	652.44
328.829	662.44
329.058	643.44
329.287	652.44
329.515	662.44
329.744	670.44
329.972	661.44
330.201	657.44
330.43	663.44
330.658	686.44
330.887	712.44
331.115	710.44
331.344	721.44
331.572	694.44
331.801	725.44
332.03	730.44
332.258	733.44
332.486	779.44
332.715	778.44
332.943	834.44
333.172	869.44
333.4	919.44
333.629	928.44
333.857	914.44
334.085	888.44
334.314	855.44
334.542	882.44
334.771	838.44
334.999	813.44
335.227	831.44
335.455	832.44
335.684	818.44
335.912	800.44
336.14	774.44
336.369	785.44
336.597	803.44
336.825	791.44
337.053	788.44
337.281	793.44
337.51	768.44
337.738	761.44
337.966	732.44
338.194	723.44
338.422	734.44
338.65	723.44
338.878	731.44
339.106	699.44
339.334	708.44
339.562	671.44
339.79	694.44
340.018	696.44
340.246	701.44
340.474	686.44
340.702	672.44
340.93	677.44
341.158	687.44
341.386	673.44
341.614	703.44
341.842	662.44
342.07	687.44
342.298	688.44
342.526	663.44
342.754	709.44
342.981	680.44
343.209	707.44
343.437	762.44
343.665	798.44
343.893	839.44
344.12	851.44
344.348	819.44
344.576	763.44
344.804	738.44
345.031	716.44
345.259	709.44
345.487	696.44
345.714	669.44
345.942	707.44
346.17	680.44
346.397	675.44
346.625	672.44
346.853	664.44
347.08	664.44
347.308	672.44
347.535	663.44
347.763	673.44
347.99	672.44
348.218	677.44
348.445	668.44
348.673	675.44
348.9	676.44
349.128	661.44
349.355	644.44
349.583	676.44
349.81	667.44
350.037	654.44
350.265	634.44
350.492	654.44
350.72	637.44
350.947	646.44
351.174	636.44
351.402	635.44
351.629	628.44
351.856	618.44
352.083	634.44
352.311	662.44
352.538	628.44
352.765	619.44
352.992	620.44
353.22	619.44
353.447	601.44
353.674	634.44
353.901	638.44
354.128	633.44
354.355	634.44
354.583	652.44
354.81	653.44
355.037	647.44
355.264	637.44
355.491	639.44
355.718	653.44
355.945	658.44
356.172	640.44
356.399	657.44
356.626	651.44
356.853	661.44
357.08	647.44
357.307	641.44
357.534	636.44
357.761	646.44
357.988	638.44
358.215	640.44
358.441	644.44
358.668	645.44
358.895	655.44
359.122	656.44
359.349	646.44
359.576	656.44
359.802	647.44
360.029	634.44
360.256	656.44
360.483	661.44
360.709	650.44
360.936	655.44
361.163	628.44
361.39	626.44
361.616	662.44
361.843	649.44
362.07	651.44
362.296	648.44
362.523	630.44
362.749	651.44
362.976	614.44
363.203	644.44
363.429	666.44
363.656	638.44
363.882	627.44
364.109	638.44
364.335	622.44
364.562	632.44
364.788	646.44
365.015	668.44
365.241	652.44
365.468	646.44
365.694	629.44
365.92	633.44
366.147	639.44
366.373	626.44
366.599	666.44
366.826	635.44
367.052	615.44
367.278	645.44
367.505	666.44
367.731	650.44
367.957	638.44
368.184	651.44
368.41	648.44
368.636	650.44
368.862	658.44
369.089	643.44
369.315	667.44
369.541	663.44
369.767	659.44
369.993	657.44
370.219	672.44
370.445	666.44
370.672	675.44
370.898	678.44
371.124	690.44
371.35	702.44
371.576	713.44
371.802	719.44
372.028	724.44
372.254	710.44
372.48	729.44
372.706	724.44
372.932	754.44
373.158	730.44
373.384	725.44
373.61	732.44
373.835	685.44
374.061	714.44
374.287	706.44
374.513	718.44
374.739	747.44
374.965	751.44
375.191	767.44
375.416	795.44
375.642	770.44
375.868	726.44
376.094	714.44
376.319	699.44
376.545	718.44
376.771	739.44
376.997	720.44
377.222	730.44
377.448	717.44
377.674	710.44
377.899	662.44
378.125	703.44
378.35	679.44
378.576	696.44
378.802	734.44
379.027	719.44
379.253	716.44
379.478	684.44
379.704	694.44
379.929	712.44
380.155	702.44
380.38	685.44
380.606	703.44
380.831	694.44
381.057	698.44
381.282	703.44
381.507	692.44
381.733	730.44
381.958	710.44
382.184	716.44
382.409	739.44
382.634	741.44
382.86	735.44
383.085	748.44
383.31	772.44
383.535	799.44
383.761	779.44
383.986	811.44
384.211	829.44
384.436	840.44
384.662	828.44
384.887	847.44
385.112	837.44
385.337	844.44
385.562	848.44
385.787	830.44
386.013	851.44
386.238	862.44
386.463	871.44
386.688	880.44
386.913	852.44
387.138	859.44
387.363	863.44
387.588	819.44
387.813	846.44
388.038	828.44
388.263	847.44
388.488	839.44
388.713	845.44
388.938	836.44
389.163	825.44
389.387	838.44
389.612	838.44
389.837	806.44
390.062	811.44
390.287	850.44
390.512	826.44
390.736	867.44
390.961	853.44
391.186	868.44
391.411	896.44
391.636	936.44
391.86	946.44
392.085	992.44
392.31	976.44
392.534	915.44
392.759	915.44
392.984	904.44
393.208	901.44
393.433	897.44
393.658	888.44
393.882	921.44
394.107	914.44
394.331	900.44
394.556	921.44
394.78	904.44
395.005	938.44
395.229	927.44
395.454	918.44
395.678	965.44
395.903	964.44
396.127	949.44
396.352	922.44
396.576	894.44
396.801	873.44
397.025	908.44
397.249	912.44
397.474	930.44
397.698	954.44
397.922	944.44
398.147	958.44
398.371	999.44
398.595	1026.44
398.82	1044.44
399.044	1144.44
399.268	1286.44
399.492	1487.44
399.717	1712.44
399.941	1686.44
400.165	1432.44
400.389	1301.44
400.613	1181.44
400.837	1101.44
401.062	1068.44
401.286	1048.44
401.51	1076.44
401.734	1052.44
401.958	1073.44
402.182	1078.44
402.406	1112.44
402.63	1099.44
402.854	1150.44
403.078	1191.44
403.302	1213.44
403.526	1218.44
403.75	1223.44
403.974	1289.44
404.198	1256.44
404.422	1304.44
404.645	1273.44
404.869	1243.44
405.093	1188.44
405.317	1189.44
405.541	1208.44
405.765	1172.44
405.988	1167.44
406.212	1168.44
406.436	1170.44
406.66	1197.44
406.883	1257.44
407.107	1316.44
407.331	1342.44
407.555	1401.44
407.778	1403.44
408.002	1339.44
408.226	1284.44
408.449	1277.44
408.673	1238.44
408.896	1219.44
409.12	1232.44
409.344	1199.44
409.567	1212.44
409.791	1236.44
410.014	1220.44
410.238	1191.44
410.461	1206.44
410.685	1157.44
410.908	1178.44
411.132	1129.44
411.355	1142.44
411.578	1123.44
411.802	1078.44
412.025	1077.44
412.249	1144.44
412.472	1158.44
412.695	1075.44
412.919	1067.44
413.142	1069.44
413.365	1021.44
413.589	1064.44
413.812	1048.44
414.035	1052.44
414.258	1058.44
414.482	1083.44
414.705	1052.44
414.928	1088.44
415.151	1081.44
415.374	1078.44
415.597	1039.44
415.821	1018.44
416.044	1037.44
416.267	1069.44
416.49	1048.44
416.713	1035.44
416.936	1078.44
417.159	1037.44
417.382	1031.44
417.605	1040.44
417.828	1033.44
418.051	1044.44
418.274	1031.44
418.497	1004.44
418.72	1076.44
418.943	1144.44
419.166	1110.44
419.389	1226.44
419.611	1191.44
419.834	1136.44
420.057	1096.44
420.28	1083.44
420.503	1063.44
420.726	1041.44
420.948	1045.44
421.171	1048.44
421.394	1027.44
421.617	1055.44
421.839	1037.44
422.062	1040.44
422.285	1045.44
422.507	1109.44
422.73	1078.44
422.953	1093.44
423.175	1117.44
423.398	1146.44
423.621	1123.44
423.843	1180.44
424.066	1159.44
424.288	1129.44
424.511	1097.44
424.733	1110.44
424.956	1097.44
425.178	1080.44
425.401	1075.44
425.623	1040.44
425.846	1024.44
426.068	1015.44
426.291	991.44
426.513	986.44
426.735	999.44
426.958	978.44
427.18	954.44
427.402	987.44
427.625	974.44
427.847	937.44
428.069	898.44
428.292	964.44
428.514	947.44
428.736	961.44
428.958	924.44
429.181	906.44
429.403	905.44
429.625	893.44
429.847	887.44
430.069	911.44
430.292	900.44
430.514	884.44
430.736	896.44
430.958	900.44
431.18	875.44
431.402	905.44
431.624	899.44
431.846	948.44
432.068	922.44
432.29	946.44
432.512	913.44
432.734	946.44
432.956	918.44
433.178	909.44
433.4	946.44
433.622	946.44
433.844	944.44
434.066	924.44
434.287	967.44
434.509	984.44
434.731	1002.44
434.953	1037.44
435.175	1051.44
435.397	1062.44
435.618	983.44
435.84	991.44
436.062	968.44
436.284	915.44
436.505	932.44
436.727	909.44
436.949	927.44
437.17	915.44
437.392	931.44
437.614	932.44
437.835	862.44
438.057	882.44
438.278	876.44
438.5	880.44
438.721	887.44
438.943	888.44
439.165	886.44
439.386	878.44
439.608	898.44
439.829	936.44
440.05	900.44
440.272	946.44
440.493	925.44
440.715	941.44
440.936	945.44
441.158	974.44
441.379	962.44
441.6	1074.44
441.822	1080.44
442.043	1053.44
442.264	1037.44
442.486	1035.44
442.707	1061.44
442.928	1041.44
443.149	1050.44
443.371	1029.44
443.592	1046.44
443.813	1079.44
444.034	1053.44
444.255	1120.44
444.476	1190.44
444.698	1239.44
444.919	1323.44
445.14	1336.44
445.361	1206.44
445.582	1062.44
445.803	1031.44
446.024	984.44
446.245	963.44
446.466	968.44
446.687	937.44
446.908	927.44
447.129	918.44
447.35	896.44
447.571	899.44
447.792	874.44
448.013	880.44
448.234	882.44
448.455	866.44
448.675	864.44
448.896	851.44
449.117	842.44
449.338	855.44
449.559	843.44
449.779	847.44
450	838.44
450.221	835.44
450.442	851.44
450.662	844.44
450.883	852.44
451.104	845.44
451.324	847.44
451.545	874.44
451.766	871.44
451.986	870.44
452.207	851.44
452.428	862.44
452.648	888.44
452.869	856.44
453.089	832.44
453.31	845.44
453.53	858.44
453.751	835.44
453.971	827.44
454.192	823.44
454.412	815.44
454.633	790.44
454.853	815.44
455.073	788.44
455.294	797.44
455.514	797.44
455.734	787.44
455.955	776.44
456.175	755.44
456.395	782.44
456.616	789.44
456.836	788.44
457.056	765.44
457.276	761.44
457.497	776.44
457.717	782.44
457.937	822.44
458.157	792.44
458.377	823.44
458.598	820.44
458.818	849.44
459.038	863.44
459.258	891.44
459.478	948.44
459.698	955.44
459.918	1004.44
460.138	1039.44
460.358	1088.44
460.578	1117.44
460.798	1127.44
461.018	1126.44
461.238	1119.44
461.458	1091.44
461.678	1092.44
461.898	1089.44
462.118	1116.44
462.338	1172.44
462.558	1192.44
462.777	1273.44
462.997	1373.44
463.217	1519.44
463.437	1484.44
463.657	1355.44
463.876	1288.44
464.096	1303.44
464.316	1267.44
464.536	1306.44
464.755	1271.44
464.975	1180.44
465.195	1138.44
465.414	1048.44
465.634	981.44
465.854	948.44
466.073	956.44
466.293	951.44
466.512	904.44
466.732	879.44
466.951	895.44
467.171	888.44
467.391	889.44
467.61	892.44
467.829	903.44
468.049	866.44
468.268	859.44
468.488	828.44
468.707	860.44
468.927	836.44
469.146	835.44
469.365	859.44
469.585	890.44
469.804	850.44
470.023	888.44
470.243	920.44
470.462	907.44
470.681	935.44
470.901	916.44
471.12	910.44
471.339	891.44
471.558	864.44
471.777	864.44
471.997	854.44
472.216	824.44
472.435	832.44
472.654	823.44
472.873	822.44
473.092	839.44
473.311	834.44
473.53	820.44
473.749	815.44
473.968	818.44
474.187	795.44
474.406	785.44
474.625	822.44
474.844	835.44
475.063	807.44
475.282	818.44
475.501	836.44
475.72	837.44
475.939	869.44
476.158	860.44
476.377	851.44
476.596	861.44
476.814	895.44
477.033	871.44
477.252	864.44
477.471	930.44
477.69	914.44
477.908	941.44
478.127	963.44
478.346	997.44
478.564	988.44
478.783	1026.44
479.002	1046.44
479.22	1052.44
479.439	995.44
479.658	1016.44
479.876	1042.44
480.095	1014.44
480.313	1072.44
480.532	1130.44
480.751	1126.44
480.969	1059.44
481.188	994.44
481.406	988.44
481.624	979.44
481.843	950.44
482.061	962.44
482.28	916.44
482.498	921.44
482.717	918.44
482.935	907.44
483.153	910.44
483.372	902.44
483.59	908.44
483.808	925.44
484.027	920.44
484.245	923.44
484.463	943.44
484.681	934.44
484.9	938.44
485.118	946.44
485.336	953.44
485.554	973.44
485.772	961.44
485.99	973.44
486.209	1007.44
486.427	978.44
486.645	948.44
486.863	996.44
487.081	998.44
487.299	978.44
487.517	972.44
487.735	971.44
487.953	967.44
488.171	975.44
488.389	957.44
488.607	936.44
488.825	938.44
489.043	920.44
489.261	939.44
489.479	958.44
489.696	959.44
489.914	978.44
490.132	960.44
490.35	978.44
490.568	978.44
490.786	976.44
491.003	973.44
491.221	982.44
491.439	975.44
491.657	997.44
491.874	947.44
492.092	987.44
492.31	942.44
492.527	983.44
492.745	1004.44
492.963	1002.44
493.18	990.44
493.398	1019.44
493.615	1028.44
493.833	1030.44
494.05	1047.44
494.268	1058.44
494.485	1029.44
494.703	1050.44
494.92	1041.44
495.138	1039.44
495.355	1021.44
495.573	1030.44
495.79	1019.44
496.008	1050.44
496.225	1057.44
496.442	1050.44
496.66	1092.44
496.877	1115.44
497.094	1106.44
497.312	1117.44
497.529	1121.44
497.746	1160.44
497.963	1229.44
498.181	1266.44
498.398	1318.44
498.615	1410.44
