Data from Ni(NO3)2@0.125M.TitratingCurve.Agarose3%dH2O.NegLispCup.LampEnergy10.LIBS07252019_HRD10591_18-10-07-568.txt Node
Date: Thu Jul 25 18:10:07 EDT 2019
User: cochatt
Spectrometer: HR+D1059
Trigger mode: 1
Integration Time (sec): 1.000000E-1
Scans to average: 1
Electric dark correction enabled: true
Nonlinearity correction enabled: false
Boxcar width: 0
XAxis mode: Wavelengths
Number of Pixels in Spectrum: 2048
>>>>>Begin Spectral Data<<<<<
223.165	-1.88
223.4	-1.88
223.635	-1.88
223.869	-20.88
224.104	-19.88
224.338	-20.88
224.573	-9.88
224.808	-29.88
225.042	9.12
225.277	-6.88
225.511	-3.88
225.746	7.12
225.98	1.12
226.215	1.12
226.449	13.12
226.683	23.12
226.918	25.12
227.152	34.12
227.387	37.12
227.621	42.12
227.856	42.12
228.09	37.12
228.324	58.12
228.559	61.12
228.793	65.12
229.027	90.12
229.262	103.12
229.496	105.12
229.73	105.12
229.964	104.12
230.199	105.12
230.433	111.12
230.667	115.12
230.901	120.12
231.136	108.12
231.37	96.12
231.604	112.12
231.838	111.12
232.072	120.12
232.306	113.12
232.541	108.12
232.775	125.12
233.009	127.12
233.243	130.12
233.477	128.12
233.711	126.12
233.945	130.12
234.179	127.12
234.413	126.12
234.647	128.12
234.881	121.12
235.115	119.12
235.349	131.12
235.583	135.12
235.817	135.12
236.051	127.12
236.285	130.12
236.519	125.12
236.753	116.12
236.987	119.12
237.221	131.12
237.455	129.12
237.689	117.12
237.922	149.12
238.156	125.12
238.39	130.12
238.624	146.12
238.858	141.12
239.091	129.12
239.325	132.12
239.559	148.12
239.793	138.12
240.027	136.12
240.26	145.12
240.494	130.12
240.728	146.12
240.961	151.12
241.195	136.12
241.429	144.12
241.662	143.12
241.896	151.12
242.13	140.12
242.363	137.12
242.597	155.12
242.83	148.12
243.064	153.12
243.298	156.12
243.531	154.12
243.765	161.12
243.998	156.12
244.232	157.12
244.465	154.12
244.699	162.12
244.932	144.12
245.166	172.12
245.399	164.12
245.633	158.12
245.866	156.12
246.099	157.12
246.333	173.12
246.566	174.12
246.8	176.12
247.033	175.12
247.266	172.12
247.5	167.12
247.733	188.12
247.966	183.12
248.2	186.12
248.433	177.12
248.666	181.12
248.899	182.12
249.133	168.12
249.366	181.12
249.599	185.12
249.832	181.12
250.066	171.12
250.299	186.12
250.532	165.12
250.765	188.12
250.998	190.12
251.231	185.12
251.465	207.12
251.698	201.12
251.931	188.12
252.164	198.12
252.397	190.12
252.63	193.12
252.863	204.12
253.096	200.12
253.329	201.12
253.562	203.12
253.795	198.12
254.028	221.12
254.261	204.12
254.494	208.12
254.727	219.12
254.96	195.12
255.193	211.12
255.426	211.12
255.659	202.12
255.892	209.12
256.124	216.12
256.357	212.12
256.59	221.12
256.823	219.12
257.056	213.12
257.289	200.12
257.521	207.12
257.754	228.12
257.987	220.12
258.22	223.12
258.452	220.12
258.685	238.12
258.918	221.12
259.151	227.12
259.383	222.12
259.616	224.12
259.849	228.12
260.081	218.12
260.314	218.12
260.547	221.12
260.779	232.12
261.012	215.12
261.244	238.12
261.477	256.12
261.71	247.12
261.942	226.12
262.175	220.12
262.407	237.12
262.64	238.12
262.872	250.12
263.105	233.12
263.337	225.12
263.57	230.12
263.802	244.12
264.035	242.12
264.267	253.12
264.499	249.12
264.732	236.12
264.964	246.12
265.197	246.12
265.429	249.12
265.661	258.12
265.894	248.12
266.126	234.12
266.358	246.12
266.591	252.12
266.823	240.12
267.055	262.12
267.287	248.12
267.52	257.12
267.752	261.12
267.984	262.12
268.216	264.12
268.448	265.12
268.681	262.12
268.913	280.12
269.145	266.12
269.377	286.12
269.609	260.12
269.841	267.12
270.073	277.12
270.306	257.12
270.538	267.12
270.77	267.12
271.002	248.12
271.234	260.12
271.466	272.12
271.698	284.12
271.93	276.12
272.162	282.12
272.394	276.12
272.626	261.12
272.858	279.12
273.09	296.12
273.322	268.12
273.553	287.12
273.785	286.12
274.017	294.12
274.249	283.12
274.481	306.12
274.713	274.12
274.945	288.12
275.176	285.12
275.408	286.12
275.64	276.12
275.872	279.12
276.104	286.12
276.335	300.12
276.567	309.12
276.799	304.12
277.031	318.12
277.262	288.12
277.494	297.12
277.726	301.12
277.957	308.12
278.189	303.12
278.421	298.12
278.652	312.12
278.884	303.12
279.115	298.12
279.347	322.12
279.579	314.12
279.81	303.12
280.042	322.12
280.273	284.12
280.505	313.12
280.736	325.12
280.968	324.12
281.199	309.12
281.431	309.12
281.662	319.12
281.894	297.12
282.125	324.12
282.356	321.12
282.588	311.12
282.819	343.12
283.051	317.12
283.282	325.12
283.513	337.12
283.745	332.12
283.976	328.12
284.207	329.12
284.439	327.12
284.67	334.12
284.901	332.12
285.132	324.12
285.364	333.12
285.595	349.12
285.826	328.12
286.057	343.12
286.288	334.12
286.52	341.12
286.751	338.12
286.982	350.12
287.213	345.12
287.444	350.12
287.675	357.12
287.906	352.12
288.138	337.12
288.369	359.12
288.6	343.12
288.831	363.12
289.062	353.12
289.293	356.12
289.524	343.12
289.755	367.12
289.986	340.12
290.217	361.12
290.448	364.12
290.679	357.12
290.91	369.12
291.141	367.12
291.371	342.12
291.602	379.12
291.833	360.12
292.064	351.12
292.295	376.12
292.526	357.12
292.757	372.12
292.987	369.12
293.218	368.12
293.449	374.12
293.68	388.12
293.91	380.12
294.141	368.12
294.372	348.12
294.603	367.12
294.833	390.12
295.064	388.12
295.295	360.12
295.525	380.12
295.756	369.12
295.987	367.12
296.217	377.12
296.448	374.12
296.679	388.12
296.909	381.12
297.14	386.12
297.37	392.12
297.601	383.12
297.831	392.12
298.062	400.12
298.292	407.12
298.523	383.12
298.753	384.12
298.984	394.12
299.214	410.12
299.445	401.12
299.675	407.12
299.905	401.12
300.136	380.12
300.366	399.12
300.597	392.12
300.827	425.12
301.057	422.12
301.288	408.12
301.518	416.12
301.748	399.12
301.979	420.12
302.209	413.12
302.439	404.12
302.669	414.12
302.9	418.12
303.13	396.12
303.36	409.12
303.59	396.12
303.82	408.12
304.051	401.12
304.281	399.12
304.511	406.12
304.741	414.12
304.971	412.12
305.201	389.12
305.431	411.12
305.661	399.12
305.891	398.12
306.121	414.12
306.352	418.12
306.582	405.12
306.812	399.12
307.042	424.12
307.272	400.12
307.502	399.12
307.731	413.12
307.961	406.12
308.191	414.12
308.421	422.12
308.651	392.12
308.881	397.12
309.111	406.12
309.341	392.12
309.571	391.12
309.8	389.12
310.03	387.12
310.26	383.12
310.49	404.12
310.72	400.12
310.949	393.12
311.179	416.12
311.409	421.12
311.639	412.12
311.868	391.12
312.098	419.12
312.328	426.12
312.557	428.12
312.787	396.12
313.017	417.12
313.246	410.12
313.476	416.12
313.706	442.12
313.935	448.12
314.165	434.12
314.394	423.12
314.624	424.12
314.853	425.12
315.083	442.12
315.312	441.12
315.542	410.12
315.771	410.12
316.001	418.12
316.23	432.12
316.46	444.12
316.689	425.12
316.919	417.12
317.148	432.12
317.377	437.12
317.607	414.12
317.836	412.12
318.065	397.12
318.295	401.12
318.524	429.12
318.753	437.12
318.983	426.12
319.212	402.12
319.441	417.12
319.67	415.12
319.9	425.12
320.129	414.12
320.358	421.12
320.587	416.12
320.816	416.12
321.046	421.12
321.275	437.12
321.504	430.12
321.733	432.12
321.962	434.12
322.191	443.12
322.42	426.12
322.649	428.12
322.878	408.12
323.108	444.12
323.337	434.12
323.566	431.12
323.795	456.12
324.024	444.12
324.253	432.12
324.482	456.12
324.71	430.12
324.939	432.12
325.168	454.12
325.397	429.12
325.626	444.12
325.855	470.12
326.084	461.12
326.313	486.12
326.542	458.12
326.77	471.12
326.999	475.12
327.228	476.12
327.457	460.12
327.686	447.12
327.914	459.12
328.143	483.12
328.372	485.12
328.6	466.12
328.829	459.12
329.058	447.12
329.287	457.12
329.515	467.12
329.744	474.12
329.972	473.12
330.201	475.12
330.43	482.12
330.658	496.12
330.887	492.12
331.115	490.12
331.344	481.12
331.572	508.12
331.801	502.12
332.03	528.12
332.258	535.12
332.486	546.12
332.715	572.12
332.943	621.12
333.172	607.12
333.4	639.12
333.629	644.12
333.857	675.12
334.085	636.12
334.314	604.12
334.542	591.12
334.771	606.12
334.999	606.12
335.227	575.12
335.455	586.12
335.684	582.12
335.912	568.12
336.14	557.12
336.369	580.12
336.597	597.12
336.825	581.12
337.053	555.12
337.281	570.12
337.51	556.12
337.738	527.12
337.966	544.12
338.194	505.12
338.422	537.12
338.65	511.12
338.878	518.12
339.106	522.12
339.334	501.12
339.562	503.12
339.79	488.12
340.018	504.12
340.246	482.12
340.474	488.12
340.702	481.12
340.93	486.12
341.158	503.12
341.386	500.12
341.614	484.12
341.842	504.12
342.07	481.12
342.298	489.12
342.526	495.12
342.754	480.12
342.981	477.12
343.209	505.12
343.437	549.12
343.665	556.12
343.893	588.12
344.12	607.12
344.348	597.12
344.576	538.12
344.804	537.12
345.031	513.12
345.259	528.12
345.487	508.12
345.714	504.12
345.942	488.12
346.17	501.12
346.397	487.12
346.625	499.12
346.853	500.12
347.08	486.12
347.308	488.12
347.535	507.12
347.763	493.12
347.99	514.12
348.218	500.12
348.445	486.12
348.673	498.12
348.9	489.12
349.128	492.12
349.355	496.12
349.583	490.12
349.81	461.12
350.037	476.12
350.265	471.12
350.492	493.12
350.72	471.12
350.947	472.12
351.174	464.12
351.402	470.12
351.629	445.12
351.856	452.12
352.083	466.12
352.311	465.12
352.538	461.12
352.765	471.12
352.992	465.12
353.22	446.12
353.447	462.12
353.674	479.12
353.901	465.12
354.128	470.12
354.355	463.12
354.583	454.12
354.81	465.12
355.037	467.12
355.264	468.12
355.491	469.12
355.718	454.12
355.945	452.12
356.172	475.12
356.399	477.12
356.626	462.12
356.853	464.12
357.08	461.12
357.307	477.12
357.534	473.12
357.761	458.12
357.988	470.12
358.215	476.12
358.441	470.12
358.668	464.12
358.895	458.12
359.122	456.12
359.349	464.12
359.576	456.12
359.802	473.12
360.029	448.12
360.256	456.12
360.483	460.12
360.709	449.12
360.936	460.12
361.163	454.12
361.39	452.12
361.616	471.12
361.843	476.12
362.07	481.12
362.296	477.12
362.523	463.12
362.749	463.12
362.976	452.12
363.203	470.12
363.429	440.12
363.656	444.12
363.882	465.12
364.109	456.12
364.335	473.12
364.562	442.12
364.788	468.12
365.015	450.12
365.241	446.12
365.468	461.12
365.694	454.12
365.92	468.12
366.147	457.12
366.373	447.12
366.599	445.12
366.826	479.12
367.052	480.12
367.278	485.12
367.505	458.12
367.731	472.12
367.957	470.12
368.184	500.12
368.41	473.12
368.636	480.12
368.862	481.12
369.089	463.12
369.315	446.12
369.541	471.12
369.767	500.12
369.993	504.12
370.219	486.12
370.445	489.12
370.672	476.12
370.898	497.12
371.124	510.12
371.35	526.12
371.576	490.12
371.802	504.12
372.028	511.12
372.254	484.12
372.48	512.12
372.706	500.12
372.932	548.12
373.158	528.12
373.384	513.12
373.61	517.12
373.835	520.12
374.061	524.12
374.287	519.12
374.513	511.12
374.739	560.12
374.965	559.12
375.191	552.12
375.416	557.12
375.642	528.12
375.868	544.12
376.094	531.12
376.319	534.12
376.545	502.12
376.771	515.12
376.997	508.12
377.222	487.12
377.448	484.12
377.674	489.12
377.899	516.12
378.125	491.12
378.35	488.12
378.576	497.12
378.802	497.12
379.027	489.12
379.253	502.12
379.478	487.12
379.704	477.12
379.929	494.12
380.155	501.12
380.38	517.12
380.606	506.12
380.831	512.12
381.057	496.12
381.282	510.12
381.507	520.12
381.733	505.12
381.958	509.12
382.184	506.12
382.409	539.12
382.634	541.12
382.86	534.12
383.085	553.12
383.31	553.12
383.535	561.12
383.761	561.12
383.986	581.12
384.211	578.12
384.436	577.12
384.662	597.12
384.887	605.12
385.112	602.12
385.337	603.12
385.562	598.12
385.787	611.12
386.013	604.12
386.238	605.12
386.463	612.12
386.688	591.12
386.913	608.12
387.138	608.12
387.363	614.12
387.588	608.12
387.813	604.12
388.038	602.12
388.263	597.12
388.488	603.12
388.713	625.12
388.938	595.12
389.163	589.12
389.387	602.12
389.612	599.12
389.837	603.12
390.062	581.12
390.287	603.12
390.512	622.12
390.736	616.12
390.961	600.12
391.186	632.12
391.411	630.12
391.636	656.12
391.86	672.12
392.085	685.12
392.31	700.12
392.534	652.12
392.759	642.12
392.984	637.12
393.208	657.12
393.433	637.12
393.658	635.12
393.882	663.12
394.107	659.12
394.331	644.12
394.556	638.12
394.78	640.12
395.005	631.12
395.229	646.12
395.454	651.12
395.678	673.12
395.903	676.12
396.127	669.12
396.352	656.12
396.576	630.12
396.801	626.12
397.025	635.12
397.249	644.12
397.474	666.12
397.698	658.12
397.922	680.12
398.147	671.12
398.371	687.12
398.595	717.12
398.82	725.12
399.044	796.12
399.268	856.12
399.492	981.12
399.717	1147.12
399.941	1142.12
400.165	982.12
400.389	893.12
400.613	843.12
400.837	804.12
401.062	766.12
401.286	747.12
401.51	734.12
401.734	759.12
401.958	771.12
402.182	768.12
402.406	788.12
402.63	775.12
402.854	809.12
403.078	821.12
403.302	820.12
403.526	829.12
403.75	876.12
403.974	888.12
404.198	892.12
404.422	905.12
404.645	874.12
404.869	886.12
405.093	805.12
405.317	851.12
405.541	829.12
405.765	846.12
405.988	841.12
406.212	822.12
406.436	797.12
406.66	806.12
406.883	877.12
407.107	909.12
407.331	982.12
407.555	982.12
407.778	978.12
408.002	950.12
408.226	917.12
408.449	910.12
408.673	874.12
408.896	852.12
409.12	826.12
409.344	869.12
409.567	842.12
409.791	889.12
410.014	869.12
410.238	856.12
410.461	854.12
410.685	849.12
410.908	837.12
411.132	837.12
411.355	803.12
411.578	793.12
411.802	790.12
412.025	775.12
412.249	800.12
412.472	794.12
412.695	764.12
412.919	757.12
413.142	770.12
413.365	738.12
413.589	731.12
413.812	741.12
414.035	735.12
414.258	730.12
414.482	766.12
414.705	766.12
414.928	782.12
415.151	771.12
415.374	776.12
415.597	774.12
415.821	742.12
416.044	728.12
416.267	714.12
416.49	741.12
416.713	736.12
416.936	740.12
417.159	730.12
417.382	725.12
417.605	743.12
417.828	770.12
418.051	770.12
418.274	786.12
418.497	760.12
418.72	794.12
418.943	770.12
419.166	823.12
419.389	853.12
419.611	832.12
419.834	814.12
420.057	798.12
420.28	759.12
420.503	735.12
420.726	763.12
420.948	764.12
421.171	729.12
421.394	774.12
421.617	767.12
421.839	769.12
422.062	760.12
422.285	754.12
422.507	774.12
422.73	762.12
422.953	753.12
423.175	796.12
423.398	802.12
423.621	806.12
423.843	812.12
424.066	830.12
424.288	827.12
424.511	823.12
424.733	783.12
424.956	775.12
425.178	729.12
425.401	774.12
425.623	765.12
425.846	746.12
426.068	710.12
426.291	731.12
426.513	731.12
426.735	705.12
426.958	718.12
427.18	684.12
427.402	704.12
427.625	692.12
427.847	668.12
428.069	670.12
428.292	654.12
428.514	659.12
428.736	659.12
428.958	666.12
429.181	677.12
429.403	680.12
429.625	656.12
429.847	673.12
430.069	652.12
430.292	659.12
430.514	672.12
430.736	657.12
430.958	666.12
431.18	666.12
431.402	695.12
431.624	646.12
431.846	692.12
432.068	695.12
432.29	698.12
432.512	670.12
432.734	682.12
432.956	668.12
433.178	684.12
433.4	685.12
433.622	670.12
433.844	700.12
434.066	661.12
434.287	700.12
434.509	746.12
434.731	722.12
434.953	759.12
435.175	756.12
435.397	758.12
435.618	734.12
435.84	710.12
436.062	683.12
436.284	684.12
436.505	699.12
436.727	670.12
436.949	676.12
437.17	673.12
437.392	684.12
437.614	658.12
437.835	642.12
438.057	649.12
438.278	648.12
438.5	650.12
438.721	662.12
438.943	651.12
439.165	668.12
439.386	671.12
439.608	672.12
439.829	700.12
440.05	657.12
440.272	690.12
440.493	668.12
440.715	694.12
440.936	681.12
441.158	712.12
441.379	748.12
441.6	775.12
441.822	782.12
442.043	781.12
442.264	768.12
442.486	762.12
442.707	748.12
442.928	774.12
443.149	762.12
443.371	762.12
443.592	782.12
443.813	792.12
444.034	782.12
444.255	778.12
444.476	850.12
444.698	885.12
444.919	920.12
445.14	1004.12
445.361	865.12
445.582	781.12
445.803	738.12
446.024	729.12
446.245	713.12
446.466	732.12
446.687	711.12
446.908	695.12
447.129	679.12
447.35	661.12
447.571	666.12
447.792	646.12
448.013	672.12
448.234	630.12
448.455	632.12
448.675	633.12
448.896	643.12
449.117	615.12
449.338	612.12
449.559	620.12
449.779	633.12
450	628.12
450.221	635.12
450.442	643.12
450.662	622.12
450.883	652.12
451.104	640.12
451.324	646.12
451.545	659.12
451.766	658.12
451.986	630.12
452.207	624.12
452.428	670.12
452.648	647.12
452.869	610.12
453.089	625.12
453.31	625.12
453.53	631.12
453.751	628.12
453.971	603.12
454.192	612.12
454.412	607.12
454.633	607.12
454.853	603.12
455.073	592.12
455.294	614.12
455.514	591.12
455.734	612.12
455.955	578.12
456.175	600.12
456.395	591.12
456.616	590.12
456.836	593.12
457.056	589.12
457.276	601.12
457.497	582.12
457.717	590.12
457.937	608.12
458.157	586.12
458.377	587.12
458.598	603.12
458.818	622.12
459.038	642.12
459.258	658.12
459.478	693.12
459.698	700.12
459.918	690.12
460.138	748.12
460.358	811.12
460.578	807.12
460.798	831.12
461.018	838.12
461.238	782.12
461.458	764.12
461.678	771.12
461.898	796.12
462.118	794.12
462.338	872.12
462.558	898.12
462.777	894.12
462.997	996.12
463.217	1070.12
463.437	1072.12
463.657	974.12
463.876	937.12
464.096	908.12
464.316	954.12
464.536	930.12
464.755	906.12
464.975	869.12
465.195	824.12
465.414	785.12
465.634	732.12
465.854	748.12
466.073	681.12
466.293	673.12
466.512	673.12
466.732	666.12
466.951	662.12
467.171	652.12
467.391	661.12
467.61	645.12
467.829	655.12
468.049	644.12
468.268	649.12
468.488	639.12
468.707	632.12
468.927	636.12
469.146	644.12
469.365	658.12
469.585	641.12
469.804	675.12
470.023	686.12
470.243	680.12
470.462	679.12
470.681	665.12
470.901	698.12
471.12	698.12
471.339	649.12
471.558	644.12
471.777	659.12
471.997	625.12
472.216	622.12
472.435	617.12
472.654	607.12
472.873	598.12
473.092	611.12
473.311	591.12
473.53	600.12
473.749	611.12
473.968	621.12
474.187	588.12
474.406	609.12
474.625	608.12
474.844	619.12
475.063	618.12
475.282	595.12
475.501	621.12
475.72	632.12
475.939	612.12
476.158	617.12
476.377	635.12
476.596	613.12
476.814	633.12
477.033	634.12
477.252	643.12
477.471	686.12
477.69	670.12
477.908	714.12
478.127	738.12
478.346	722.12
478.564	749.12
478.783	778.12
479.002	748.12
479.22	769.12
479.439	742.12
479.658	746.12
479.876	757.12
480.095	752.12
480.313	786.12
480.532	830.12
480.751	836.12
480.969	766.12
481.188	734.12
481.406	723.12
481.624	705.12
481.843	704.12
482.061	704.12
482.28	683.12
482.498	687.12
482.717	670.12
482.935	688.12
483.153	684.12
483.372	673.12
483.59	682.12
483.808	664.12
484.027	678.12
484.245	681.12
484.463	694.12
484.681	722.12
484.9	725.12
485.118	724.12
485.336	718.12
485.554	728.12
485.772	717.12
485.99	738.12
486.209	734.12
486.427	749.12
486.645	732.12
486.863	747.12
487.081	733.12
487.299	717.12
487.517	723.12
487.735	728.12
487.953	736.12
488.171	735.12
488.389	720.12
488.607	733.12
488.825	717.12
489.043	709.12
489.261	704.12
489.479	719.12
489.696	703.12
489.914	720.12
490.132	722.12
490.35	722.12
490.568	742.12
490.786	719.12
491.003	734.12
491.221	749.12
491.439	752.12
491.657	722.12
491.874	747.12
492.092	755.12
492.31	752.12
492.527	736.12
492.745	754.12
492.963	741.12
493.18	752.12
493.398	759.12
493.615	779.12
493.833	766.12
494.05	733.12
494.268	772.12
494.485	784.12
494.703	780.12
494.92	779.12
495.138	752.12
495.355	749.12
495.573	772.12
495.79	742.12
496.008	792.12
496.225	778.12
496.442	770.12
496.66	801.12
496.877	800.12
497.094	796.12
497.312	828.12
497.529	848.12
497.746	863.12
497.963	897.12
498.181	928.12
498.398	935.12
498.615	1045.12
498.832	1082.12
499.049	1169.12
499.267	1245.12
499.484	1368.12
499.701	1564.12
499.918	1700.12
500.135	1948.12
500.352	2302.12
500.569	2475.12
500.786	2370.12
501.003	2172.12
501.22	1915.12
501.437	1664.12
