Data from Ni(NO3)2@0.0625M.TitratingCurve.Agarose3%dH2O.NegLispCup.LampEnergy10.LIBS07252019_HRD10591_18-15-28-569.txt Node
Date: Thu Jul 25 18:15:28 EDT 2019
User: cochatt
Spectrometer: HR+D1059
Trigger mode: 1
Integration Time (sec): 1.000000E-1
Scans to average: 1
Electric dark correction enabled: true
Nonlinearity correction enabled: false
Boxcar width: 0
XAxis mode: Wavelengths
Number of Pixels in Spectrum: 2048
>>>>>Begin Spectral Data<<<<<
223.165	-11.25
223.4	-11.25
223.635	-11.25
223.869	-19.25
224.104	-13.25
224.338	-7.25
224.573	-13.25
224.808	-17.25
225.042	-6.25
225.277	-10.25
225.511	-7.25
225.746	8.75
225.98	2.75
226.215	9.75
226.449	-1.25
226.683	24.75
226.918	26.75
227.152	33.75
227.387	42.75
227.621	33.75
227.856	42.75
228.09	39.75
228.324	43.75
228.559	55.75
228.793	72.75
229.027	95.75
229.262	108.75
229.496	87.75
229.73	105.75
229.964	119.75
230.199	109.75
230.433	109.75
230.667	120.75
230.901	136.75
231.136	117.75
231.37	120.75
231.604	138.75
231.838	130.75
232.072	125.75
232.306	119.75
232.541	120.75
232.775	112.75
233.009	138.75
233.243	139.75
233.477	134.75
233.711	117.75
233.945	141.75
234.179	128.75
234.413	126.75
234.647	128.75
234.881	129.75
235.115	136.75
235.349	114.75
235.583	129.75
235.817	135.75
236.051	127.75
236.285	125.75
236.519	120.75
236.753	134.75
236.987	155.75
237.221	148.75
237.455	131.75
237.689	150.75
237.922	147.75
238.156	128.75
238.39	147.75
238.624	134.75
238.858	132.75
239.091	150.75
239.325	145.75
239.559	149.75
239.793	148.75
240.027	166.75
240.26	137.75
240.494	161.75
240.728	143.75
240.961	131.75
241.195	165.75
241.429	152.75
241.662	148.75
241.896	158.75
242.13	158.75
242.363	141.75
242.597	142.75
242.83	161.75
243.064	157.75
243.298	184.75
243.531	153.75
243.765	158.75
243.998	160.75
244.232	167.75
244.465	165.75
244.699	161.75
244.932	168.75
245.166	182.75
245.399	173.75
245.633	182.75
245.866	194.75
246.099	180.75
246.333	171.75
246.566	163.75
246.8	165.75
247.033	179.75
247.266	196.75
247.5	180.75
247.733	178.75
247.966	181.75
248.2	190.75
248.433	193.75
248.666	195.75
248.899	194.75
249.133	191.75
249.366	185.75
249.599	207.75
249.832	178.75
250.066	190.75
250.299	189.75
250.532	201.75
250.765	191.75
250.998	202.75
251.231	200.75
251.465	221.75
251.698	212.75
251.931	203.75
252.164	201.75
252.397	196.75
252.63	207.75
252.863	209.75
253.096	222.75
253.329	216.75
253.562	209.75
253.795	205.75
254.028	205.75
254.261	222.75
254.494	209.75
254.727	224.75
254.96	220.75
255.193	192.75
255.426	216.75
255.659	198.75
255.892	225.75
256.124	206.75
256.357	229.75
256.59	218.75
256.823	234.75
257.056	231.75
257.289	253.75
257.521	221.75
257.754	229.75
257.987	242.75
258.22	244.75
258.452	220.75
258.685	223.75
258.918	225.75
259.151	219.75
259.383	230.75
259.616	245.75
259.849	248.75
260.081	252.75
260.314	228.75
260.547	228.75
260.779	230.75
261.012	243.75
261.244	256.75
261.477	256.75
261.71	249.75
261.942	238.75
262.175	238.75
262.407	240.75
262.64	242.75
262.872	241.75
263.105	257.75
263.337	258.75
263.57	278.75
263.802	268.75
264.035	267.75
264.267	259.75
264.499	267.75
264.732	257.75
264.964	265.75
265.197	264.75
265.429	273.75
265.661	272.75
265.894	279.75
266.126	278.75
266.358	265.75
266.591	277.75
266.823	284.75
267.055	276.75
267.287	270.75
267.52	272.75
267.752	268.75
267.984	278.75
268.216	286.75
268.448	290.75
268.681	277.75
268.913	292.75
269.145	280.75
269.377	291.75
269.609	277.75
269.841	276.75
270.073	284.75
270.306	289.75
270.538	267.75
270.77	277.75
271.002	259.75
271.234	286.75
271.466	296.75
271.698	278.75
271.93	310.75
272.162	274.75
272.394	290.75
272.626	296.75
272.858	324.75
273.09	273.75
273.322	297.75
273.553	303.75
273.785	297.75
274.017	316.75
274.249	309.75
274.481	291.75
274.713	316.75
274.945	309.75
275.176	307.75
275.408	292.75
275.64	290.75
275.872	316.75
276.104	306.75
276.335	314.75
276.567	315.75
276.799	309.75
277.031	320.75
277.262	320.75
277.494	313.75
277.726	307.75
277.957	324.75
278.189	313.75
278.421	321.75
278.652	333.75
278.884	344.75
279.115	332.75
279.347	331.75
279.579	332.75
279.81	323.75
280.042	323.75
280.273	336.75
280.505	329.75
280.736	348.75
280.968	338.75
281.199	337.75
281.431	353.75
281.662	342.75
281.894	355.75
282.125	352.75
282.356	347.75
282.588	354.75
282.819	346.75
283.051	349.75
283.282	349.75
283.513	366.75
283.745	371.75
283.976	352.75
284.207	354.75
284.439	349.75
284.67	361.75
284.901	345.75
285.132	359.75
285.364	357.75
285.595	378.75
285.826	347.75
286.057	380.75
286.288	371.75
286.52	377.75
286.751	357.75
286.982	376.75
287.213	363.75
287.444	372.75
287.675	378.75
287.906	398.75
288.138	400.75
288.369	378.75
288.6	386.75
288.831	396.75
289.062	398.75
289.293	355.75
289.524	371.75
289.755	377.75
289.986	373.75
290.217	394.75
290.448	395.75
290.679	406.75
290.91	393.75
291.141	370.75
291.371	398.75
291.602	392.75
291.833	408.75
292.064	389.75
292.295	413.75
292.526	389.75
292.757	402.75
292.987	417.75
293.218	392.75
293.449	382.75
293.68	393.75
293.91	405.75
294.141	402.75
294.372	398.75
294.603	403.75
294.833	402.75
295.064	394.75
295.295	412.75
295.525	396.75
295.756	420.75
295.987	428.75
296.217	413.75
296.448	426.75
296.679	428.75
296.909	422.75
297.14	393.75
297.37	416.75
297.601	420.75
297.831	425.75
298.062	418.75
298.292	425.75
298.523	454.75
298.753	438.75
298.984	441.75
299.214	410.75
299.445	429.75
299.675	410.75
299.905	417.75
300.136	436.75
300.366	430.75
300.597	440.75
300.827	449.75
301.057	456.75
301.288	445.75
301.518	443.75
301.748	460.75
301.979	450.75
302.209	426.75
302.439	443.75
302.669	449.75
302.9	454.75
303.13	432.75
303.36	449.75
303.59	429.75
303.82	448.75
304.051	442.75
304.281	463.75
304.511	446.75
304.741	449.75
304.971	440.75
305.201	456.75
305.431	429.75
305.661	438.75
305.891	448.75
306.121	457.75
306.352	452.75
306.582	446.75
306.812	436.75
307.042	443.75
307.272	419.75
307.502	418.75
307.731	406.75
307.961	435.75
308.191	441.75
308.421	427.75
308.651	443.75
308.881	422.75
309.111	426.75
309.341	422.75
309.571	409.75
309.8	429.75
310.03	430.75
310.26	429.75
310.49	445.75
310.72	445.75
310.949	430.75
311.179	424.75
311.409	432.75
311.639	441.75
311.868	437.75
312.098	445.75
312.328	453.75
312.557	459.75
312.787	465.75
313.017	448.75
313.246	443.75
313.476	456.75
313.706	474.75
313.935	483.75
314.165	453.75
314.394	483.75
314.624	452.75
314.853	466.75
315.083	471.75
315.312	470.75
315.542	476.75
315.771	453.75
316.001	458.75
316.23	453.75
316.46	438.75
316.689	458.75
316.919	459.75
317.148	457.75
317.377	442.75
317.607	433.75
317.836	450.75
318.065	460.75
318.295	480.75
318.524	480.75
318.753	455.75
318.983	462.75
319.212	460.75
319.441	457.75
319.67	441.75
319.9	475.75
320.129	461.75
320.358	452.75
320.587	443.75
320.816	454.75
321.046	446.75
321.275	457.75
321.504	482.75
321.733	470.75
321.962	446.75
322.191	463.75
322.42	464.75
322.649	464.75
322.878	446.75
323.108	461.75
323.337	465.75
323.566	472.75
323.795	464.75
324.024	476.75
324.253	462.75
324.482	478.75
324.71	491.75
324.939	487.75
325.168	468.75
325.397	489.75
325.626	472.75
325.855	476.75
326.084	520.75
326.313	511.75
326.542	503.75
326.77	522.75
326.999	495.75
327.228	485.75
327.457	491.75
327.686	493.75
327.914	491.75
328.143	494.75
328.372	489.75
328.6	514.75
328.829	491.75
329.058	491.75
329.287	507.75
329.515	516.75
329.744	491.75
329.972	502.75
330.201	513.75
330.43	517.75
330.658	512.75
330.887	526.75
331.115	539.75
331.344	523.75
331.572	536.75
331.801	540.75
332.03	533.75
332.258	559.75
332.486	594.75
332.715	585.75
332.943	611.75
333.172	656.75
333.4	672.75
333.629	686.75
333.857	680.75
334.085	656.75
334.314	661.75
334.542	646.75
334.771	637.75
334.999	604.75
335.227	598.75
335.455	606.75
335.684	610.75
335.912	625.75
336.14	626.75
336.369	581.75
336.597	602.75
336.825	612.75
337.053	641.75
337.281	590.75
337.51	577.75
337.738	579.75
337.966	560.75
338.194	558.75
338.422	568.75
338.65	551.75
338.878	557.75
339.106	564.75
339.334	532.75
339.562	547.75
339.79	515.75
340.018	492.75
340.246	530.75
340.474	516.75
340.702	527.75
340.93	528.75
341.158	534.75
341.386	545.75
341.614	569.75
341.842	530.75
342.07	522.75
342.298	545.75
342.526	521.75
342.754	528.75
342.981	531.75
343.209	542.75
343.437	577.75
343.665	613.75
343.893	629.75
344.12	649.75
344.348	630.75
344.576	582.75
344.804	588.75
345.031	558.75
345.259	556.75
345.487	553.75
345.714	550.75
345.942	542.75
346.17	550.75
346.397	544.75
346.625	510.75
346.853	517.75
347.08	538.75
347.308	512.75
347.535	523.75
347.763	539.75
347.99	539.75
348.218	512.75
348.445	542.75
348.673	514.75
348.9	531.75
349.128	536.75
349.355	510.75
349.583	545.75
349.81	509.75
350.037	505.75
350.265	519.75
350.492	511.75
350.72	487.75
350.947	514.75
351.174	521.75
351.402	510.75
351.629	518.75
351.856	497.75
352.083	499.75
352.311	510.75
352.538	500.75
352.765	533.75
352.992	492.75
353.22	503.75
353.447	503.75
353.674	478.75
353.901	474.75
354.128	481.75
354.355	470.75
354.583	504.75
354.81	490.75
355.037	509.75
355.264	510.75
355.491	498.75
355.718	514.75
355.945	517.75
356.172	488.75
356.399	504.75
356.626	508.75
356.853	498.75
357.08	522.75
357.307	515.75
357.534	496.75
357.761	480.75
357.988	491.75
358.215	488.75
358.441	486.75
358.668	492.75
358.895	485.75
359.122	485.75
359.349	504.75
359.576	504.75
359.802	489.75
360.029	492.75
360.256	485.75
360.483	507.75
360.709	498.75
360.936	522.75
361.163	511.75
361.39	502.75
361.616	493.75
361.843	498.75
362.07	530.75
362.296	504.75
362.523	508.75
362.749	491.75
362.976	500.75
363.203	498.75
363.429	505.75
363.656	485.75
363.882	496.75
364.109	495.75
364.335	485.75
364.562	500.75
364.788	470.75
365.015	488.75
365.241	506.75
365.468	501.75
365.694	476.75
365.92	490.75
366.147	505.75
366.373	498.75
366.599	507.75
366.826	498.75
367.052	463.75
367.278	507.75
367.505	523.75
367.731	504.75
367.957	492.75
368.184	508.75
368.41	497.75
368.636	516.75
368.862	496.75
369.089	524.75
369.315	526.75
369.541	518.75
369.767	529.75
369.993	518.75
370.219	514.75
370.445	532.75
370.672	518.75
370.898	536.75
371.124	532.75
371.35	539.75
371.576	561.75
371.802	542.75
372.028	555.75
372.254	542.75
372.48	524.75
372.706	549.75
372.932	580.75
373.158	572.75
373.384	567.75
373.61	519.75
373.835	538.75
374.061	545.75
374.287	553.75
374.513	552.75
374.739	557.75
374.965	595.75
375.191	604.75
375.416	589.75
375.642	565.75
375.868	572.75
376.094	564.75
376.319	553.75
376.545	580.75
376.771	541.75
376.997	540.75
377.222	549.75
377.448	546.75
377.674	553.75
377.899	542.75
378.125	528.75
378.35	527.75
378.576	533.75
378.802	520.75
379.027	543.75
379.253	560.75
379.478	524.75
379.704	528.75
379.929	531.75
380.155	534.75
380.38	534.75
380.606	542.75
380.831	528.75
381.057	526.75
381.282	553.75
381.507	553.75
381.733	531.75
381.958	533.75
382.184	544.75
382.409	560.75
382.634	552.75
382.86	566.75
383.085	575.75
383.31	584.75
383.535	594.75
383.761	591.75
383.986	613.75
384.211	627.75
384.436	624.75
384.662	655.75
384.887	634.75
385.112	649.75
385.337	640.75
385.562	631.75
385.787	652.75
386.013	670.75
386.238	674.75
386.463	675.75
386.688	654.75
386.913	666.75
387.138	650.75
387.363	655.75
387.588	636.75
387.813	654.75
388.038	630.75
388.263	666.75
388.488	635.75
388.713	626.75
388.938	619.75
389.163	625.75
389.387	648.75
389.612	614.75
389.837	630.75
390.062	640.75
390.287	607.75
390.512	642.75
390.736	645.75
390.961	634.75
391.186	642.75
391.411	658.75
391.636	690.75
391.86	718.75
392.085	707.75
392.31	703.75
392.534	703.75
392.759	705.75
392.984	694.75
393.208	677.75
393.433	689.75
393.658	684.75
393.882	682.75
394.107	684.75
394.331	698.75
394.556	681.75
394.78	711.75
395.005	688.75
395.229	677.75
395.454	717.75
395.678	722.75
395.903	710.75
396.127	705.75
396.352	681.75
396.576	684.75
396.801	637.75
397.025	680.75
397.249	678.75
397.474	706.75
397.698	713.75
397.922	722.75
398.147	703.75
398.371	738.75
398.595	751.75
398.82	778.75
399.044	828.75
399.268	918.75
399.492	1084.75
399.717	1235.75
399.941	1221.75
400.165	1073.75
400.389	920.75
400.613	857.75
400.837	802.75
401.062	818.75
401.286	796.75
401.51	817.75
401.734	789.75
401.958	821.75
402.182	826.75
402.406	846.75
402.63	841.75
402.854	838.75
403.078	862.75
403.302	922.75
403.526	902.75
403.75	918.75
403.974	941.75
404.198	940.75
404.422	904.75
404.645	942.75
404.869	922.75
405.093	908.75
405.317	886.75
405.541	892.75
405.765	883.75
405.988	848.75
406.212	880.75
406.436	877.75
406.66	924.75
406.883	928.75
407.107	958.75
407.331	1010.75
407.555	1062.75
407.778	1053.75
408.002	1021.75
408.226	980.75
408.449	940.75
408.673	937.75
408.896	909.75
409.12	890.75
409.344	907.75
409.567	891.75
409.791	945.75
410.014	929.75
410.238	940.75
410.461	904.75
410.685	894.75
410.908	881.75
411.132	882.75
411.355	832.75
411.578	851.75
411.802	859.75
412.025	821.75
412.249	863.75
412.472	890.75
412.695	828.75
412.919	810.75
413.142	801.75
413.365	817.75
413.589	811.75
413.812	814.75
414.035	816.75
414.258	802.75
414.482	786.75
414.705	824.75
414.928	804.75
415.151	797.75
415.374	817.75
415.597	806.75
415.821	788.75
416.044	786.75
416.267	795.75
416.49	770.75
416.713	776.75
416.936	788.75
417.159	770.75
417.382	790.75
417.605	771.75
417.828	794.75
418.051	795.75
418.274	790.75
418.497	796.75
418.72	840.75
418.943	811.75
419.166	885.75
419.389	936.75
419.611	902.75
419.834	846.75
420.057	830.75
420.28	800.75
420.503	770.75
420.726	786.75
420.948	784.75
421.171	747.75
421.394	803.75
421.617	779.75
421.839	780.75
422.062	801.75
422.285	775.75
422.507	825.75
422.73	828.75
422.953	833.75
423.175	827.75
423.398	859.75
423.621	838.75
423.843	859.75
424.066	836.75
424.288	848.75
424.511	868.75
424.733	838.75
424.956	830.75
425.178	792.75
425.401	823.75
425.623	818.75
425.846	775.75
426.068	764.75
426.291	753.75
426.513	752.75
426.735	732.75
426.958	747.75
427.18	706.75
427.402	710.75
427.625	717.75
427.847	704.75
428.069	724.75
428.292	712.75
428.514	703.75
428.736	710.75
428.958	717.75
429.181	694.75
429.403	709.75
429.625	725.75
429.847	699.75
430.069	675.75
430.292	692.75
430.514	674.75
430.736	684.75
430.958	685.75
431.18	695.75
431.402	714.75
431.624	712.75
431.846	694.75
432.068	726.75
432.29	726.75
432.512	694.75
432.734	712.75
432.956	722.75
433.178	717.75
433.4	699.75
433.622	694.75
433.844	713.75
434.066	739.75
434.287	744.75
434.509	779.75
434.731	813.75
434.953	806.75
435.175	826.75
435.397	836.75
435.618	786.75
435.84	726.75
436.062	731.75
436.284	724.75
436.505	725.75
436.727	733.75
436.949	717.75
437.17	708.75
437.392	706.75
437.614	713.75
437.835	694.75
438.057	711.75
438.278	683.75
438.5	690.75
438.721	688.75
438.943	689.75
439.165	691.75
439.386	690.75
439.608	698.75
439.829	723.75
440.05	707.75
440.272	719.75
440.493	740.75
440.715	715.75
440.936	727.75
441.158	750.75
441.379	786.75
441.6	799.75
441.822	811.75
442.043	795.75
442.264	786.75
442.486	785.75
442.707	806.75
442.928	796.75
443.149	799.75
443.371	791.75
443.592	809.75
443.813	828.75
444.034	812.75
444.255	814.75
444.476	850.75
444.698	941.75
444.919	982.75
445.14	1048.75
445.361	969.75
445.582	848.75
445.803	778.75
446.024	777.75
446.245	723.75
446.466	713.75
446.687	720.75
446.908	718.75
447.129	731.75
447.35	699.75
447.571	708.75
447.792	680.75
448.013	700.75
448.234	699.75
448.455	677.75
448.675	665.75
448.896	675.75
449.117	658.75
449.338	650.75
449.559	656.75
449.779	649.75
450	656.75
450.221	642.75
450.442	676.75
450.662	667.75
450.883	698.75
451.104	709.75
451.324	701.75
451.545	668.75
451.766	692.75
451.986	685.75
452.207	682.75
452.428	652.75
452.648	636.75
452.869	657.75
453.089	643.75
453.31	666.75
453.53	658.75
453.751	646.75
453.971	672.75
454.192	632.75
454.412	667.75
454.633	633.75
454.853	652.75
455.073	617.75
455.294	632.75
455.514	638.75
455.734	638.75
455.955	643.75
456.175	641.75
456.395	634.75
456.616	634.75
456.836	603.75
457.056	613.75
457.276	637.75
457.497	639.75
457.717	627.75
457.937	631.75
458.157	643.75
458.377	637.75
458.598	653.75
458.818	656.75
459.038	700.75
459.258	737.75
459.478	740.75
459.698	789.75
459.918	787.75
460.138	797.75
460.358	856.75
460.578	847.75
460.798	850.75
461.018	854.75
461.238	846.75
461.458	878.75
461.678	862.75
461.898	872.75
462.118	861.75
462.338	895.75
462.558	940.75
462.777	967.75
462.997	1052.75
463.217	1134.75
463.437	1171.75
463.657	1081.75
463.876	1022.75
464.096	1020.75
464.316	1028.75
464.536	1033.75
464.755	972.75
464.975	941.75
465.195	889.75
465.414	839.75
465.634	771.75
465.854	740.75
466.073	746.75
466.293	756.75
466.512	700.75
466.732	700.75
466.951	698.75
467.171	685.75
467.391	716.75
467.61	706.75
467.829	692.75
468.049	705.75
468.268	678.75
468.488	688.75
468.707	665.75
468.927	663.75
469.146	661.75
469.365	692.75
469.585	694.75
469.804	675.75
470.023	723.75
470.243	723.75
470.462	721.75
470.681	718.75
470.901	728.75
471.12	720.75
471.339	695.75
471.558	682.75
471.777	682.75
471.997	676.75
472.216	662.75
472.435	666.75
472.654	654.75
472.873	646.75
473.092	665.75
473.311	672.75
473.53	669.75
473.749	655.75
473.968	658.75
474.187	670.75
474.406	671.75
474.625	648.75
474.844	654.75
475.063	659.75
475.282	660.75
475.501	658.75
475.72	654.75
475.939	674.75
476.158	688.75
476.377	678.75
476.596	667.75
476.814	719.75
477.033	676.75
477.252	721.75
477.471	738.75
477.69	713.75
477.908	749.75
478.127	781.75
478.346	777.75
478.564	781.75
478.783	789.75
479.002	807.75
479.22	849.75
479.439	833.75
479.658	796.75
479.876	820.75
480.095	820.75
480.313	858.75
480.532	885.75
480.751	903.75
480.969	834.75
481.188	836.75
481.406	802.75
481.624	746.75
481.843	739.75
482.061	774.75
482.28	739.75
482.498	781.75
482.717	764.75
482.935	739.75
483.153	749.75
483.372	761.75
483.59	759.75
483.808	770.75
484.027	770.75
484.245	801.75
484.463	756.75
484.681	806.75
484.9	782.75
485.118	777.75
485.336	810.75
485.554	805.75
485.772	794.75
485.99	800.75
486.209	804.75
486.427	810.75
486.645	797.75
486.863	820.75
487.081	792.75
487.299	801.75
487.517	804.75
487.735	818.75
487.953	816.75
488.171	801.75
488.389	787.75
488.607	772.75
488.825	797.75
489.043	770.75
489.261	790.75
489.479	804.75
489.696	785.75
489.914	816.75
490.132	816.75
490.35	798.75
490.568	795.75
490.786	789.75
491.003	808.75
491.221	840.75
491.439	772.75
491.657	778.75
491.874	804.75
492.092	801.75
492.31	792.75
492.527	806.75
492.745	814.75
492.963	825.75
493.18	843.75
493.398	837.75
493.615	813.75
493.833	795.75
494.05	808.75
494.268	830.75
494.485	833.75
494.703	828.75
494.92	815.75
495.138	825.75
495.355	804.75
495.573	832.75
495.79	825.75
496.008	852.75
496.225	847.75
496.442	860.75
496.66	885.75
496.877	874.75
497.094	864.75
497.312	894.75
497.529	902.75
497.746	964.75
497.963	935.75
498.181	988.75
498.398	1076.75
498.615	1091.75
498.832	1162.75
499.049	1240.75
499.267	1318.75
499.484	1462.75
499.701	1642.75
499.918	1772.75
500.135	2073.75
500.352	2382.75
500.569	2547.75
500.786	2483.75
501.003	2308.75
501.22	2024.75
