Data from Ni(NO3)2Standard.Agarose3%.GreenCap.LampEnergy5.5.E.O_HRD10591_14-42-16-188.txt Node
Date: Mon Jul 22 14:42:16 EDT 2019
User: cochatt
Spectrometer: HR+D1059
Trigger mode: 1
Integration Time (sec): 1.000000E-1
Scans to average: 1
Electric dark correction enabled: true
Nonlinearity correction enabled: false
Boxcar width: 0
XAxis mode: Wavelengths
Number of Pixels in Spectrum: 2048
>>>>>Begin Spectral Data<<<<<
223.165	-8.38
223.4	-8.38
223.635	-8.38
223.869	-17.38
224.104	-20.38
224.338	-3.38
224.573	-11.38
224.808	-7.38
225.042	-5.38
225.277	-7.38
225.511	-1.38
225.746	-5.38
225.98	19.62
226.215	5.62
226.449	9.62
226.683	4.62
226.918	21.62
227.152	26.62
227.387	32.62
227.621	45.62
227.856	37.62
228.09	55.62
228.324	40.62
228.559	56.62
228.793	57.62
229.027	65.62
229.262	69.62
229.496	71.62
229.73	74.62
229.964	76.62
230.199	45.62
230.433	80.62
230.667	63.62
230.901	68.62
231.136	85.62
231.37	88.62
231.604	90.62
231.838	86.62
232.072	79.62
232.306	100.62
232.541	80.62
232.775	86.62
233.009	88.62
233.243	83.62
233.477	93.62
233.711	78.62
233.945	75.62
234.179	73.62
234.413	71.62
234.647	73.62
234.881	92.62
235.115	66.62
235.349	78.62
235.583	79.62
235.817	78.62
236.051	74.62
236.285	73.62
236.519	70.62
236.753	82.62
236.987	75.62
237.221	82.62
237.455	80.62
237.689	79.62
237.922	74.62
238.156	78.62
238.39	74.62
238.624	71.62
238.858	79.62
239.091	76.62
239.325	72.62
239.559	86.62
239.793	78.62
240.027	80.62
240.26	88.62
240.494	80.62
240.728	64.62
240.961	76.62
241.195	81.62
241.429	78.62
241.662	71.62
241.896	85.62
242.13	86.62
242.363	82.62
242.597	93.62
242.83	73.62
243.064	90.62
243.298	82.62
243.531	66.62
243.765	69.62
243.998	77.62
244.232	83.62
244.465	85.62
244.699	72.62
244.932	83.62
245.166	72.62
245.399	78.62
245.633	85.62
245.866	75.62
246.099	78.62
246.333	87.62
246.566	85.62
246.8	88.62
247.033	74.62
247.266	74.62
247.5	85.62
247.733	73.62
247.966	79.62
248.2	85.62
248.433	80.62
248.666	68.62
248.899	77.62
249.133	90.62
249.366	89.62
249.599	72.62
249.832	76.62
250.066	91.62
250.299	83.62
250.532	73.62
250.765	83.62
250.998	80.62
251.231	76.62
251.465	72.62
251.698	83.62
251.931	80.62
252.164	96.62
252.397	92.62
252.63	89.62
252.863	72.62
253.096	71.62
253.329	78.62
253.562	76.62
253.795	95.62
254.028	73.62
254.261	87.62
254.494	89.62
254.727	84.62
254.96	69.62
255.193	64.62
255.426	84.62
255.659	85.62
255.892	80.62
256.124	74.62
256.357	74.62
256.59	81.62
256.823	78.62
257.056	71.62
257.289	87.62
257.521	75.62
257.754	92.62
257.987	86.62
258.22	79.62
258.452	89.62
258.685	78.62
258.918	78.62
259.151	65.62
259.383	77.62
259.616	81.62
259.849	68.62
260.081	82.62
260.314	90.62
260.547	86.62
260.779	83.62
261.012	85.62
261.244	73.62
261.477	78.62
261.71	75.62
261.942	68.62
262.175	78.62
262.407	88.62
262.64	82.62
262.872	80.62
263.105	80.62
263.337	64.62
263.57	89.62
263.802	90.62
264.035	90.62
264.267	81.62
264.499	76.62
264.732	86.62
264.964	83.62
265.197	75.62
265.429	74.62
265.661	82.62
265.894	77.62
266.126	80.62
266.358	92.62
266.591	78.62
266.823	89.62
267.055	84.62
267.287	94.62
267.52	75.62
267.752	86.62
267.984	85.62
268.216	69.62
268.448	84.62
268.681	94.62
268.913	83.62
269.145	89.62
269.377	92.62
269.609	70.62
269.841	80.62
270.073	94.62
270.306	81.62
270.538	93.62
270.77	90.62
271.002	82.62
271.234	83.62
271.466	91.62
271.698	67.62
271.93	82.62
272.162	70.62
272.394	83.62
272.626	93.62
272.858	90.62
273.09	70.62
273.322	82.62
273.553	88.62
273.785	83.62
274.017	77.62
274.249	72.62
274.481	80.62
274.713	85.62
274.945	82.62
275.176	93.62
275.408	72.62
275.64	73.62
275.872	83.62
276.104	92.62
276.335	79.62
276.567	94.62
276.799	83.62
277.031	84.62
277.262	73.62
277.494	77.62
277.726	80.62
277.957	77.62
278.189	81.62
278.421	74.62
278.652	92.62
278.884	73.62
279.115	89.62
279.347	80.62
279.579	73.62
279.81	82.62
280.042	76.62
280.273	90.62
280.505	78.62
280.736	82.62
280.968	89.62
281.199	89.62
281.431	78.62
281.662	90.62
281.894	74.62
282.125	90.62
282.356	91.62
282.588	82.62
282.819	92.62
283.051	90.62
283.282	77.62
283.513	90.62
283.745	89.62
283.976	82.62
284.207	88.62
284.439	70.62
284.67	94.62
284.901	79.62
285.132	78.62
285.364	85.62
285.595	71.62
285.826	80.62
286.057	85.62
286.288	82.62
286.52	87.62
286.751	77.62
286.982	80.62
287.213	73.62
287.444	79.62
287.675	85.62
287.906	100.62
288.138	93.62
288.369	91.62
288.6	76.62
288.831	92.62
289.062	81.62
289.293	89.62
289.524	99.62
289.755	85.62
289.986	87.62
290.217	97.62
290.448	79.62
290.679	92.62
290.91	96.62
291.141	75.62
291.371	85.62
291.602	94.62
291.833	88.62
292.064	81.62
292.295	97.62
292.526	102.62
292.757	84.62
292.987	77.62
293.218	91.62
293.449	93.62
293.68	84.62
293.91	75.62
294.141	85.62
294.372	86.62
294.603	85.62
294.833	82.62
295.064	83.62
295.295	83.62
295.525	89.62
295.756	98.62
295.987	91.62
296.217	82.62
296.448	100.62
296.679	86.62
296.909	97.62
297.14	83.62
297.37	88.62
297.601	88.62
297.831	83.62
298.062	99.62
298.292	68.62
298.523	83.62
298.753	78.62
298.984	71.62
299.214	90.62
299.445	80.62
299.675	90.62
299.905	101.62
300.136	89.62
300.366	89.62
300.597	73.62
300.827	82.62
301.057	90.62
301.288	85.62
301.518	77.62
301.748	91.62
301.979	83.62
302.209	83.62
302.439	76.62
302.669	88.62
302.9	82.62
303.13	86.62
303.36	88.62
303.59	84.62
303.82	85.62
304.051	97.62
304.281	84.62
304.511	81.62
304.741	89.62
304.971	94.62
305.201	90.62
305.431	94.62
305.661	90.62
305.891	84.62
306.121	88.62
306.352	95.62
306.582	73.62
306.812	90.62
307.042	79.62
307.272	98.62
307.502	84.62
307.731	70.62
307.961	77.62
308.191	83.62
308.421	80.62
308.651	81.62
308.881	84.62
309.111	83.62
309.341	100.62
309.571	84.62
309.8	86.62
310.03	90.62
310.26	79.62
310.49	84.62
310.72	79.62
310.949	78.62
311.179	89.62
311.409	88.62
311.639	93.62
311.868	79.62
312.098	82.62
312.328	92.62
312.557	91.62
312.787	81.62
313.017	76.62
313.246	78.62
313.476	84.62
313.706	88.62
313.935	91.62
314.165	70.62
314.394	75.62
314.624	90.62
314.853	77.62
315.083	70.62
315.312	85.62
315.542	93.62
315.771	82.62
316.001	85.62
316.23	82.62
316.46	96.62
316.689	95.62
316.919	74.62
317.148	93.62
317.377	84.62
317.607	82.62
317.836	76.62
318.065	86.62
318.295	76.62
318.524	94.62
318.753	81.62
318.983	89.62
319.212	92.62
319.441	78.62
319.67	74.62
319.9	81.62
320.129	83.62
320.358	81.62
320.587	74.62
320.816	84.62
321.046	98.62
321.275	85.62
321.504	83.62
321.733	70.62
321.962	86.62
322.191	78.62
322.42	100.62
322.649	81.62
322.878	76.62
323.108	96.62
323.337	74.62
323.566	92.62
323.795	85.62
324.024	76.62
324.253	78.62
324.482	86.62
324.71	76.62
324.939	92.62
325.168	82.62
325.397	97.62
325.626	100.62
325.855	82.62
326.084	86.62
326.313	77.62
326.542	82.62
326.77	85.62
326.999	86.62
327.228	76.62
327.457	89.62
327.686	92.62
327.914	94.62
328.143	89.62
328.372	83.62
328.6	94.62
328.829	74.62
329.058	77.62
329.287	91.62
329.515	73.62
329.744	78.62
329.972	77.62
330.201	84.62
330.43	77.62
330.658	85.62
330.887	104.62
331.115	73.62
331.344	76.62
331.572	103.62
331.801	100.62
332.03	90.62
332.258	96.62
332.486	89.62
332.715	88.62
332.943	79.62
333.172	95.62
333.4	89.62
333.629	86.62
333.857	83.62
334.085	88.62
334.314	80.62
334.542	78.62
334.771	82.62
334.999	84.62
335.227	82.62
335.455	89.62
335.684	84.62
335.912	99.62
336.14	92.62
336.369	90.62
336.597	86.62
336.825	82.62
337.053	84.62
337.281	91.62
337.51	96.62
337.738	90.62
337.966	93.62
338.194	103.62
338.422	84.62
338.65	76.62
338.878	91.62
339.106	88.62
339.334	88.62
339.562	89.62
339.79	89.62
340.018	85.62
340.246	89.62
340.474	89.62
340.702	90.62
340.93	96.62
341.158	82.62
341.386	96.62
341.614	88.62
341.842	89.62
342.07	83.62
342.298	88.62
342.526	74.62
342.754	99.62
342.981	84.62
343.209	78.62
343.437	107.62
343.665	96.62
343.893	89.62
344.12	75.62
344.348	76.62
344.576	101.62
344.804	69.62
345.031	88.62
345.259	72.62
345.487	83.62
345.714	93.62
345.942	86.62
346.17	96.62
346.397	96.62
346.625	89.62
346.853	89.62
347.08	83.62
347.308	88.62
347.535	79.62
347.763	74.62
347.99	75.62
348.218	83.62
348.445	93.62
348.673	82.62
348.9	100.62
349.128	102.62
349.355	74.62
349.583	96.62
349.81	82.62
350.037	86.62
350.265	92.62
350.492	91.62
350.72	87.62
350.947	83.62
351.174	87.62
351.402	84.62
351.629	90.62
351.856	81.62
352.083	81.62
352.311	73.62
352.538	89.62
352.765	86.62
352.992	81.62
353.22	82.62
353.447	89.62
353.674	81.62
353.901	87.62
354.128	96.62
354.355	86.62
354.583	86.62
354.81	68.62
355.037	93.62
355.264	97.62
355.491	87.62
355.718	89.62
355.945	78.62
356.172	95.62
356.399	98.62
356.626	86.62
356.853	78.62
357.08	91.62
357.307	98.62
357.534	88.62
357.761	74.62
357.988	93.62
358.215	96.62
358.441	86.62
358.668	81.62
358.895	84.62
359.122	79.62
359.349	84.62
359.576	78.62
359.802	81.62
360.029	84.62
360.256	86.62
360.483	91.62
360.709	85.62
360.936	87.62
361.163	92.62
361.39	83.62
361.616	73.62
361.843	70.62
362.07	85.62
362.296	83.62
362.523	84.62
362.749	86.62
362.976	90.62
363.203	96.62
363.429	94.62
363.656	83.62
363.882	86.62
364.109	86.62
364.335	87.62
364.562	85.62
364.788	86.62
365.015	99.62
365.241	95.62
365.468	102.62
365.694	99.62
365.92	83.62
366.147	75.62
366.373	86.62
366.599	87.62
366.826	86.62
367.052	76.62
367.278	88.62
367.505	89.62
367.731	95.62
367.957	100.62
368.184	79.62
368.41	77.62
368.636	90.62
368.862	81.62
369.089	89.62
369.315	78.62
369.541	104.62
369.767	90.62
369.993	78.62
370.219	78.62
370.445	82.62
370.672	96.62
370.898	91.62
371.124	84.62
371.35	67.62
371.576	90.62
371.802	87.62
372.028	78.62
372.254	86.62
372.48	94.62
372.706	77.62
372.932	85.62
373.158	81.62
373.384	83.62
373.61	92.62
373.835	90.62
374.061	81.62
374.287	82.62
374.513	102.62
374.739	98.62
374.965	79.62
375.191	95.62
375.416	81.62
375.642	72.62
375.868	83.62
376.094	77.62
376.319	74.62
376.545	94.62
376.771	89.62
376.997	89.62
377.222	83.62
377.448	79.62
377.674	82.62
377.899	89.62
378.125	93.62
378.35	72.62
378.576	83.62
378.802	85.62
379.027	84.62
379.253	87.62
379.478	77.62
379.704	77.62
379.929	85.62
380.155	78.62
380.38	89.62
380.606	72.62
380.831	78.62
381.057	93.62
381.282	86.62
381.507	84.62
381.733	86.62
381.958	89.62
382.184	79.62
382.409	91.62
382.634	90.62
382.86	74.62
383.085	90.62
383.31	103.62
383.535	93.62
383.761	92.62
383.986	85.62
384.211	86.62
384.436	90.62
384.662	98.62
384.887	88.62
385.112	87.62
385.337	85.62
385.562	93.62
385.787	78.62
386.013	81.62
386.238	85.62
386.463	76.62
386.688	86.62
386.913	96.62
387.138	93.62
387.363	85.62
387.588	83.62
387.813	98.62
388.038	88.62
388.263	79.62
388.488	80.62
388.713	95.62
388.938	86.62
389.163	79.62
389.387	75.62
389.612	78.62
389.837	83.62
390.062	78.62
390.287	81.62
390.512	96.62
390.736	100.62
390.961	83.62
391.186	81.62
391.411	88.62
391.636	90.62
391.86	77.62
392.085	97.62
392.31	89.62
392.534	93.62
392.759	86.62
392.984	77.62
393.208	77.62
393.433	85.62
393.658	76.62
393.882	80.62
394.107	71.62
394.331	86.62
394.556	86.62
394.78	87.62
395.005	80.62
395.229	81.62
395.454	88.62
395.678	86.62
395.903	86.62
396.127	83.62
396.352	86.62
396.576	92.62
396.801	98.62
397.025	92.62
397.249	80.62
397.474	90.62
397.698	93.62
397.922	79.62
398.147	78.62
398.371	85.62
398.595	81.62
398.82	85.62
399.044	89.62
399.268	82.62
399.492	93.62
399.717	83.62
399.941	85.62
400.165	83.62
400.389	101.62
400.613	94.62
400.837	99.62
401.062	79.62
401.286	74.62
401.51	88.62
401.734	92.62
401.958	92.62
402.182	75.62
402.406	93.62
402.63	76.62
402.854	90.62
403.078	87.62
403.302	86.62
403.526	93.62
403.75	93.62
403.974	88.62
404.198	95.62
404.422	83.62
404.645	91.62
404.869	85.62
405.093	78.62
405.317	57.62
405.541	91.62
405.765	87.62
405.988	77.62
406.212	77.62
406.436	97.62
406.66	86.62
406.883	83.62
407.107	98.62
407.331	96.62
407.555	85.62
407.778	84.62
408.002	89.62
408.226	88.62
408.449	99.62
408.673	81.62
408.896	94.62
409.12	83.62
409.344	70.62
409.567	79.62
409.791	86.62
410.014	87.62
410.238	97.62
410.461	84.62
410.685	78.62
410.908	79.62
411.132	89.62
411.355	91.62
411.578	85.62
411.802	78.62
412.025	83.62
412.249	78.62
412.472	99.62
412.695	79.62
412.919	90.62
413.142	72.62
413.365	89.62
413.589	99.62
413.812	84.62
414.035	78.62
414.258	84.62
414.482	94.62
414.705	78.62
414.928	77.62
415.151	94.62
415.374	97.62
415.597	85.62
415.821	90.62
416.044	91.62
416.267	87.62
416.49	81.62
416.713	100.62
416.936	84.62
417.159	87.62
417.382	88.62
417.605	66.62
417.828	97.62
418.051	87.62
418.274	92.62
418.497	89.62
418.72	78.62
418.943	74.62
419.166	82.62
419.389	78.62
419.611	93.62
419.834	89.62
420.057	86.62
420.28	81.62
420.503	96.62
420.726	86.62
420.948	82.62
421.171	82.62
421.394	88.62
421.617	85.62
421.839	72.62
422.062	95.62
422.285	88.62
422.507	81.62
422.73	79.62
422.953	90.62
423.175	82.62
423.398	85.62
423.621	82.62
423.843	86.62
424.066	89.62
424.288	89.62
424.511	81.62
424.733	88.62
424.956	99.62
425.178	75.62
425.401	67.62
425.623	96.62
425.846	82.62
426.068	84.62
426.291	87.62
426.513	91.62
426.735	76.62
426.958	68.62
427.18	84.62
427.402	88.62
427.625	87.62
427.847	77.62
428.069	92.62
428.292	100.62
428.514	88.62
428.736	88.62
428.958	97.62
429.181	88.62
429.403	86.62
429.625	86.62
429.847	85.62
430.069	80.62
430.292	88.62
430.514	99.62
430.736	84.62
430.958	73.62
431.18	82.62
431.402	88.62
431.624	92.62
431.846	85.62
432.068	88.62
432.29	79.62
432.512	100.62
432.734	93.62
432.956	81.62
433.178	102.62
433.4	92.62
433.622	87.62
433.844	90.62
434.066	82.62
434.287	99.62
434.509	81.62
434.731	90.62
434.953	78.62
435.175	89.62
435.397	96.62
435.618	86.62
435.84	87.62
436.062	83.62
436.284	88.62
436.505	93.62
436.727	91.62
436.949	81.62
437.17	78.62
437.392	71.62
437.614	97.62
437.835	91.62
438.057	82.62
438.278	89.62
438.5	88.62
438.721	92.62
438.943	73.62
439.165	94.62
439.386	87.62
439.608	107.62
439.829	78.62
440.05	93.62
440.272	92.62
440.493	87.62
440.715	85.62
440.936	89.62
441.158	82.62
441.379	94.62
441.6	86.62
441.822	101.62
442.043	91.62
442.264	85.62
442.486	92.62
442.707	63.62
442.928	89.62
443.149	88.62
443.371	87.62
443.592	88.62
443.813	92.62
444.034	87.62
444.255	79.62
444.476	64.62
444.698	73.62
444.919	66.62
445.14	204.62
445.361	143.62
445.582	108.62
445.803	104.62
446.024	81.62
446.245	88.62
446.466	81.62
446.687	88.62
446.908	79.62
447.129	93.62
447.35	78.62
447.571	69.62
447.792	95.62
448.013	109.62
448.234	89.62
448.455	87.62
448.675	92.62
448.896	88.62
449.117	80.62
449.338	80.62
449.559	102.62
449.779	82.62
450	95.62
450.221	91.62
450.442	76.62
450.662	91.62
450.883	90.62
451.104	93.62
451.324	83.62
451.545	90.62
451.766	81.62
451.986	91.62
452.207	83.62
452.428	81.62
452.648	80.62
452.869	76.62
453.089	86.62
453.31	80.62
453.53	73.62
453.751	85.62
453.971	88.62
454.192	78.62
454.412	83.62
454.633	92.62
454.853	95.62
455.073	88.62
455.294	88.62
455.514	77.62
455.734	76.62
455.955	90.62
456.175	92.62
456.395	87.62
456.616	94.62
456.836	78.62
457.056	93.62
457.276	96.62
457.497	76.62
457.717	82.62
457.937	75.62
458.157	88.62
458.377	86.62
458.598	100.62
458.818	104.62
459.038	88.62
459.258	86.62
459.478	81.62
459.698	87.62
459.918	101.62
460.138	87.62
460.358	86.62
460.578	89.62
460.798	91.62
461.018	79.62
461.238	93.62
461.458	85.62
461.678	98.62
461.898	94.62
462.118	98.62
462.338	95.62
462.558	76.62
462.777	84.62
462.997	93.62
463.217	85.62
463.437	96.62
463.657	103.62
463.876	94.62
464.096	89.62
464.316	101.62
464.536	89.62
464.755	88.62
464.975	95.62
465.195	87.62
465.414	85.62
465.634	88.62
465.854	80.62
466.073	87.62
466.293	96.62
466.512	76.62
466.732	75.62
466.951	86.62
467.171	76.62
467.391	83.62
467.61	93.62
467.829	91.62
468.049	86.62
468.268	89.62
468.488	90.62
468.707	86.62
468.927	77.62
469.146	86.62
469.365	105.62
469.585	78.62
469.804	88.62
470.023	89.62
470.243	90.62
470.462	90.62
470.681	105.62
470.901	77.62
471.12	83.62
471.339	96.62
471.558	82.62
471.777	82.62
471.997	97.62
472.216	91.62
472.435	77.62
472.654	89.62
472.873	98.62
473.092	76.62
473.311	73.62
473.53	76.62
473.749	75.62
473.968	93.62
474.187	82.62
474.406	82.62
474.625	99.62
474.844	98.62
475.063	94.62
475.282	85.62
475.501	81.62
475.72	95.62
475.939	92.62
476.158	84.62
476.377	92.62
476.596	84.62
476.814	85.62
477.033	88.62
477.252	74.62
477.471	89.62
477.69	82.62
477.908	76.62
478.127	82.62
478.346	88.62
478.564	97.62
478.783	96.62
479.002	93.62
479.22	95.62
479.439	89.62
479.658	85.62
479.876	89.62
480.095	83.62
480.313	92.62
480.532	96.62
480.751	85.62
480.969	82.62
481.188	94.62
481.406	94.62
481.624	82.62
481.843	91.62
482.061	84.62
482.28	81.62
482.498	82.62
482.717	89.62
482.935	93.62
483.153	92.62
483.372	95.62
483.59	92.62
483.808	78.62
484.027	87.62
484.245	81.62
484.463	95.62
484.681	88.62
484.9	83.62
485.118	91.62
485.336	86.62
485.554	92.62
485.772	103.62
485.99	103.62
486.209	87.62
486.427	92.62
486.645	87.62
486.863	82.62
487.081	102.62
487.299	93.62
487.517	82.62
487.735	88.62
487.953	101.62
488.171	83.62
488.389	86.62
488.607	89.62
488.825	100.62
489.043	86.62
489.261	90.62
489.479	84.62
489.696	83.62
489.914	98.62
490.132	91.62
490.35	83.62
490.568	85.62
490.786	83.62
491.003	109.62
491.221	99.62
491.439	90.62
491.657	103.62
491.874	99.62
492.092	79.62
492.31	78.62
492.527	99.62
492.745	93.62
492.963	92.62
493.18	83.62
493.398	96.62
493.615	98.62
493.833	96.62
494.05	96.62
494.268	100.62
494.485	90.62
494.703	100.62
494.92	90.62
495.138	99.62
495.355	93.62
495.573	80.62
495.79	93.62
496.008	98.62
496.225	90.62
496.442	103.62
496.66	102.62
496.877	101.62
497.094	83.62
497.312	95.62
497.529	94.62
497.746	91.62
497.963	98.62
498.181	89.62
498.398	98.62
498.615	83.62
498.832	102.62
499.049	93.62
499.267	97.62
499.484	105.62
499.701	120.62
499.918	102.62
500.135	107.62
500.352	114.62
500.569	118.62
500.786	109.62
501.003	86.62
501.22	94.62
501.437	110.62
501.654	103.62
501.871	95.62
502.088	91.62
502.305	97.62
502.522	88.62
502.739	97.62
502.956	100.62
503.172	93.62
503.389	94.62
503.606	98.62
503.823	99.62
504.04	89.62
504.256	115.62
504.473	86.62
504.69	88.62
504.907	108.62
505.123	80.62
505.34	90.62
505.557	98.62
505.773	88.62
505.99	92.62
506.207	102.62
506.423	91.62
506.64	99.62
506.856	97.62
507.073	81.62
507.289	79.62
507.506	92.62
507.722	83.62
507.939	86.62
508.155	86.62
508.372	96.62
508.588	101.62
508.805	93.62
509.021	87.62
509.238	92.62
509.454	74.62
509.67	86.62
509.887	100.62
510.103	104.62
510.319	93.62
510.536	96.62
510.752	86.62
510.968	88.62
511.184	86.62
511.401	86.62
511.617	80.62
511.833	83.62
512.049	82.62
512.265	91.62
512.481	94.62
512.698	84.62
512.914	81.62
513.13	108.62
513.346	92.62
513.562	104.62
513.778	93.62
513.994	96.62
514.21	69.62
514.426	80.62
514.642	93.62
514.858	83.62
515.074	93.62
515.29	96.62
515.506	102.62
515.721	95.62
515.937	87.62
516.153	99.62
516.369	81.62
516.585	93.62
516.801	92.62
517.016	85.62
517.232	76.62
517.448	91.62
517.664	77.62
517.879	93.62
518.095	84.62
518.311	94.62
518.527	88.62
