Data from Ni(NO3)2@0.25M.TitratingCurve.Agarose3%dH2O.NegLispCup.LampEnergy10.LIBS07252019_HRD10591_18-05-30-566.txt Node
Date: Thu Jul 25 18:05:30 EDT 2019
User: cochatt
Spectrometer: HR+D1059
Trigger mode: 1
Integration Time (sec): 1.000000E-1
Scans to average: 1
Electric dark correction enabled: true
Nonlinearity correction enabled: false
Boxcar width: 0
XAxis mode: Wavelengths
Number of Pixels in Spectrum: 2048
>>>>>Begin Spectral Data<<<<<
223.165	-8.75
223.4	-8.75
223.635	-8.75
223.869	-22.75
224.104	-19.75
224.338	-9.75
224.573	-27.75
224.808	-24.75
225.042	-2.75
225.277	5.25
225.511	-5.75
225.746	-0.75
225.98	0.25
226.215	15.25
226.449	13.25
226.683	29.25
226.918	33.25
227.152	26.25
227.387	47.25
227.621	37.25
227.856	42.25
228.09	57.25
228.324	51.25
228.559	60.25
228.793	51.25
229.027	80.25
229.262	106.25
229.496	92.25
229.73	103.25
229.964	102.25
230.199	108.25
230.433	102.25
230.667	108.25
230.901	101.25
231.136	102.25
231.37	123.25
231.604	106.25
231.838	122.25
232.072	120.25
232.306	123.25
232.541	113.25
232.775	131.25
233.009	128.25
233.243	125.25
233.477	126.25
233.711	128.25
233.945	127.25
234.179	116.25
234.413	122.25
234.647	128.25
234.881	123.25
235.115	111.25
235.349	120.25
235.583	136.25
235.817	135.25
236.051	125.25
236.285	127.25
236.519	118.25
236.753	123.25
236.987	117.25
237.221	126.25
237.455	107.25
237.689	135.25
237.922	129.25
238.156	126.25
238.39	123.25
238.624	126.25
238.858	121.25
239.091	138.25
239.325	137.25
239.559	132.25
239.793	138.25
240.027	153.25
240.26	121.25
240.494	125.25
240.728	151.25
240.961	136.25
241.195	122.25
241.429	135.25
241.662	125.25
241.896	133.25
242.13	134.25
242.363	135.25
242.597	136.25
242.83	147.25
243.064	131.25
243.298	132.25
243.531	150.25
243.765	139.25
243.998	153.25
244.232	165.25
244.465	160.25
244.699	163.25
244.932	156.25
245.166	163.25
245.399	158.25
245.633	164.25
245.866	163.25
246.099	161.25
246.333	170.25
246.566	149.25
246.8	169.25
247.033	160.25
247.266	169.25
247.5	158.25
247.733	167.25
247.966	160.25
248.2	162.25
248.433	170.25
248.666	177.25
248.899	182.25
249.133	167.25
249.366	163.25
249.599	181.25
249.832	179.25
250.066	178.25
250.299	157.25
250.532	165.25
250.765	185.25
250.998	183.25
251.231	183.25
251.465	184.25
251.698	189.25
251.931	188.25
252.164	190.25
252.397	196.25
252.63	182.25
252.863	196.25
253.096	194.25
253.329	200.25
253.562	199.25
253.795	181.25
254.028	210.25
254.261	190.25
254.494	194.25
254.727	199.25
254.96	194.25
255.193	200.25
255.426	200.25
255.659	202.25
255.892	211.25
256.124	192.25
256.357	208.25
256.59	206.25
256.823	213.25
257.056	191.25
257.289	209.25
257.521	209.25
257.754	203.25
257.987	215.25
258.22	226.25
258.452	206.25
258.685	217.25
258.918	216.25
259.151	205.25
259.383	229.25
259.616	232.25
259.849	223.25
260.081	229.25
260.314	214.25
260.547	223.25
260.779	222.25
261.012	236.25
261.244	238.25
261.477	230.25
261.71	227.25
261.942	235.25
262.175	224.25
262.407	244.25
262.64	234.25
262.872	231.25
263.105	230.25
263.337	230.25
263.57	230.25
263.802	253.25
264.035	246.25
264.267	244.25
264.499	231.25
264.732	260.25
264.964	251.25
265.197	261.25
265.429	245.25
265.661	237.25
265.894	236.25
266.126	244.25
266.358	254.25
266.591	254.25
266.823	263.25
267.055	237.25
267.287	259.25
267.52	256.25
267.752	278.25
267.984	269.25
268.216	252.25
268.448	247.25
268.681	267.25
268.913	274.25
269.145	260.25
269.377	239.25
269.609	253.25
269.841	255.25
270.073	268.25
270.306	274.25
270.538	269.25
270.77	262.25
271.002	266.25
271.234	280.25
271.466	273.25
271.698	280.25
271.93	279.25
272.162	273.25
272.394	274.25
272.626	271.25
272.858	281.25
273.09	273.25
273.322	280.25
273.553	285.25
273.785	289.25
274.017	271.25
274.249	287.25
274.481	288.25
274.713	285.25
274.945	285.25
275.176	283.25
275.408	267.25
275.64	287.25
275.872	272.25
276.104	296.25
276.335	272.25
276.567	277.25
276.799	283.25
277.031	289.25
277.262	284.25
277.494	313.25
277.726	311.25
277.957	293.25
278.189	303.25
278.421	302.25
278.652	301.25
278.884	303.25
279.115	283.25
279.347	294.25
279.579	318.25
279.81	305.25
280.042	300.25
280.273	299.25
280.505	301.25
280.736	319.25
280.968	301.25
281.199	299.25
281.431	314.25
281.662	323.25
281.894	331.25
282.125	333.25
282.356	334.25
282.588	327.25
282.819	305.25
283.051	313.25
283.282	307.25
283.513	329.25
283.745	338.25
283.976	315.25
284.207	331.25
284.439	317.25
284.67	332.25
284.901	329.25
285.132	312.25
285.364	312.25
285.595	337.25
285.826	327.25
286.057	324.25
286.288	316.25
286.52	336.25
286.751	332.25
286.982	338.25
287.213	318.25
287.444	341.25
287.675	363.25
287.906	334.25
288.138	336.25
288.369	343.25
288.6	347.25
288.831	326.25
289.062	322.25
289.293	345.25
289.524	333.25
289.755	343.25
289.986	337.25
290.217	348.25
290.448	353.25
290.679	370.25
290.91	348.25
291.141	371.25
291.371	339.25
291.602	334.25
291.833	334.25
292.064	342.25
292.295	347.25
292.526	343.25
292.757	345.25
292.987	338.25
293.218	344.25
293.449	350.25
293.68	358.25
293.91	353.25
294.141	347.25
294.372	354.25
294.603	363.25
294.833	364.25
295.064	342.25
295.295	359.25
295.525	330.25
295.756	349.25
295.987	370.25
296.217	339.25
296.448	353.25
296.679	358.25
296.909	368.25
297.14	355.25
297.37	360.25
297.601	350.25
297.831	382.25
298.062	387.25
298.292	366.25
298.523	396.25
298.753	377.25
298.984	359.25
299.214	376.25
299.445	374.25
299.675	387.25
299.905	368.25
300.136	381.25
300.366	374.25
300.597	375.25
300.827	386.25
301.057	395.25
301.288	400.25
301.518	407.25
301.748	403.25
301.979	399.25
302.209	399.25
302.439	381.25
302.669	385.25
302.9	409.25
303.13	392.25
303.36	410.25
303.59	388.25
303.82	389.25
304.051	402.25
304.281	405.25
304.511	401.25
304.741	393.25
304.971	406.25
305.201	414.25
305.431	413.25
305.661	399.25
305.891	401.25
306.121	391.25
306.352	404.25
306.582	389.25
306.812	397.25
307.042	395.25
307.272	385.25
307.502	404.25
307.731	377.25
307.961	392.25
308.191	391.25
308.421	375.25
308.651	400.25
308.881	384.25
309.111	400.25
309.341	376.25
309.571	390.25
309.8	384.25
310.03	396.25
310.26	399.25
310.49	392.25
310.72	384.25
310.949	405.25
311.179	404.25
311.409	380.25
311.639	408.25
311.868	407.25
312.098	397.25
312.328	418.25
312.557	407.25
312.787	423.25
313.017	396.25
313.246	415.25
313.476	439.25
313.706	445.25
313.935	435.25
314.165	425.25
314.394	426.25
314.624	431.25
314.853	427.25
315.083	424.25
315.312	439.25
315.542	423.25
315.771	418.25
316.001	431.25
316.23	430.25
316.46	427.25
316.689	434.25
316.919	428.25
317.148	419.25
317.377	421.25
317.607	432.25
317.836	412.25
318.065	430.25
318.295	439.25
318.524	435.25
318.753	432.25
318.983	429.25
319.212	421.25
319.441	425.25
319.67	420.25
319.9	433.25
320.129	436.25
320.358	431.25
320.587	431.25
320.816	431.25
321.046	421.25
321.275	436.25
321.504	433.25
321.733	445.25
321.962	450.25
322.191	451.25
322.42	444.25
322.649	455.25
322.878	451.25
323.108	460.25
323.337	467.25
323.566	454.25
323.795	441.25
324.024	465.25
324.253	468.25
324.482	464.25
324.71	472.25
324.939	477.25
325.168	460.25
325.397	460.25
325.626	460.25
325.855	474.25
326.084	472.25
326.313	484.25
326.542	483.25
326.77	492.25
326.999	486.25
327.228	489.25
327.457	483.25
327.686	486.25
327.914	491.25
328.143	494.25
328.372	500.25
328.6	492.25
328.829	511.25
329.058	493.25
329.287	508.25
329.515	491.25
329.744	513.25
329.972	524.25
330.201	506.25
330.43	518.25
330.658	520.25
330.887	540.25
331.115	535.25
331.344	526.25
331.572	536.25
331.801	551.25
332.03	554.25
332.258	558.25
332.486	597.25
332.715	619.25
332.943	622.25
333.172	642.25
333.4	667.25
333.629	669.25
333.857	676.25
334.085	673.25
334.314	675.25
334.542	671.25
334.771	640.25
334.999	644.25
335.227	636.25
335.455	639.25
335.684	637.25
335.912	625.25
336.14	614.25
336.369	617.25
336.597	627.25
336.825	596.25
337.053	629.25
337.281	603.25
337.51	611.25
337.738	580.25
337.966	583.25
338.194	567.25
338.422	577.25
338.65	550.25
338.878	567.25
339.106	580.25
339.334	573.25
339.562	559.25
339.79	547.25
340.018	557.25
340.246	554.25
340.474	524.25
340.702	534.25
340.93	540.25
341.158	524.25
341.386	554.25
341.614	540.25
341.842	556.25
342.07	549.25
342.298	513.25
342.526	556.25
342.754	539.25
342.981	553.25
343.209	579.25
343.437	617.25
343.665	630.25
343.893	644.25
344.12	662.25
344.348	639.25
344.576	600.25
344.804	571.25
345.031	571.25
345.259	564.25
345.487	567.25
345.714	545.25
345.942	537.25
346.17	557.25
346.397	552.25
346.625	522.25
346.853	545.25
347.08	522.25
347.308	539.25
347.535	548.25
347.763	536.25
347.99	542.25
348.218	550.25
348.445	523.25
348.673	522.25
348.9	512.25
349.128	530.25
349.355	537.25
349.583	564.25
349.81	521.25
350.037	510.25
350.265	515.25
350.492	488.25
350.72	517.25
350.947	519.25
351.174	500.25
351.402	520.25
351.629	519.25
351.856	504.25
352.083	504.25
352.311	523.25
352.538	509.25
352.765	521.25
352.992	517.25
353.22	509.25
353.447	502.25
353.674	504.25
353.901	502.25
354.128	521.25
354.355	495.25
354.583	512.25
354.81	497.25
355.037	489.25
355.264	495.25
355.491	504.25
355.718	519.25
355.945	497.25
356.172	521.25
356.399	495.25
356.626	522.25
356.853	523.25
357.08	504.25
357.307	533.25
357.534	519.25
357.761	535.25
357.988	503.25
358.215	510.25
358.441	511.25
358.668	488.25
358.895	509.25
359.122	496.25
359.349	492.25
359.576	499.25
359.802	494.25
360.029	493.25
360.256	495.25
360.483	491.25
360.709	511.25
360.936	527.25
361.163	519.25
361.39	511.25
361.616	493.25
361.843	518.25
362.07	519.25
362.296	529.25
362.523	506.25
362.749	503.25
362.976	506.25
363.203	502.25
363.429	496.25
363.656	505.25
363.882	492.25
364.109	497.25
364.335	519.25
364.562	505.25
364.788	498.25
365.015	508.25
365.241	528.25
365.468	507.25
365.694	489.25
365.92	487.25
366.147	490.25
366.373	517.25
366.599	512.25
366.826	515.25
367.052	490.25
367.278	489.25
367.505	487.25
367.731	491.25
367.957	503.25
368.184	501.25
368.41	512.25
368.636	521.25
368.862	519.25
369.089	492.25
369.315	505.25
369.541	514.25
369.767	506.25
369.993	542.25
370.219	520.25
370.445	519.25
370.672	513.25
370.898	518.25
371.124	555.25
371.35	544.25
371.576	551.25
371.802	529.25
372.028	540.25
372.254	552.25
372.48	535.25
372.706	565.25
372.932	564.25
373.158	545.25
373.384	533.25
373.61	529.25
373.835	558.25
374.061	539.25
374.287	562.25
374.513	563.25
374.739	560.25
374.965	573.25
375.191	596.25
375.416	584.25
375.642	559.25
375.868	569.25
376.094	559.25
376.319	546.25
376.545	550.25
376.771	541.25
376.997	525.25
377.222	528.25
377.448	541.25
377.674	540.25
377.899	525.25
378.125	517.25
378.35	538.25
378.576	529.25
378.802	526.25
379.027	547.25
379.253	532.25
379.478	523.25
379.704	535.25
379.929	534.25
380.155	538.25
380.38	541.25
380.606	535.25
380.831	520.25
381.057	531.25
381.282	535.25
381.507	541.25
381.733	542.25
381.958	536.25
382.184	563.25
382.409	547.25
382.634	575.25
382.86	581.25
383.085	545.25
383.31	553.25
383.535	601.25
383.761	580.25
383.986	604.25
384.211	617.25
384.436	615.25
384.662	614.25
384.887	639.25
385.112	630.25
385.337	629.25
385.562	646.25
385.787	644.25
386.013	637.25
386.238	641.25
386.463	650.25
386.688	627.25
386.913	622.25
387.138	622.25
387.363	635.25
387.588	655.25
387.813	624.25
388.038	647.25
388.263	636.25
388.488	637.25
388.713	613.25
388.938	612.25
389.163	631.25
389.387	619.25
389.612	599.25
389.837	628.25
390.062	629.25
390.287	622.25
390.512	629.25
390.736	645.25
390.961	658.25
391.186	645.25
391.411	675.25
391.636	691.25
391.86	714.25
392.085	715.25
392.31	711.25
392.534	700.25
392.759	668.25
392.984	682.25
393.208	666.25
393.433	678.25
393.658	693.25
393.882	682.25
394.107	653.25
394.331	689.25
394.556	673.25
394.78	691.25
395.005	680.25
395.229	687.25
395.454	695.25
395.678	719.25
395.903	701.25
396.127	719.25
396.352	693.25
396.576	689.25
396.801	654.25
397.025	719.25
397.249	674.25
397.474	725.25
397.698	693.25
397.922	727.25
398.147	731.25
398.371	731.25
398.595	734.25
398.82	823.25
399.044	839.25
399.268	942.25
399.492	1065.25
399.717	1187.25
399.941	1154.25
400.165	1057.25
400.389	957.25
400.613	914.25
400.837	867.25
401.062	835.25
401.286	804.25
401.51	833.25
401.734	812.25
401.958	834.25
402.182	813.25
402.406	823.25
402.63	817.25
402.854	852.25
403.078	852.25
403.302	857.25
403.526	885.25
403.75	877.25
403.974	903.25
404.198	917.25
404.422	923.25
404.645	902.25
404.869	899.25
405.093	879.25
405.317	901.25
405.541	896.25
405.765	879.25
405.988	880.25
406.212	889.25
406.436	877.25
406.66	891.25
406.883	914.25
407.107	944.25
407.331	1002.25
407.555	1060.25
407.778	1047.25
408.002	1016.25
408.226	941.25
408.449	951.25
408.673	916.25
408.896	905.25
409.12	907.25
409.344	890.25
409.567	883.25
409.791	927.25
410.014	889.25
410.238	876.25
410.461	901.25
410.685	880.25
410.908	885.25
411.132	854.25
411.355	844.25
411.578	844.25
411.802	855.25
412.025	849.25
412.249	841.25
412.472	849.25
412.695	813.25
412.919	798.25
413.142	801.25
413.365	813.25
413.589	825.25
413.812	817.25
414.035	816.25
414.258	825.25
414.482	806.25
414.705	841.25
414.928	817.25
415.151	814.25
415.374	825.25
415.597	841.25
415.821	807.25
416.044	803.25
416.267	807.25
416.49	790.25
416.713	789.25
416.936	789.25
417.159	801.25
417.382	800.25
417.605	782.25
417.828	782.25
418.051	828.25
418.274	811.25
418.497	792.25
418.72	832.25
418.943	841.25
419.166	894.25
419.389	939.25
419.611	881.25
419.834	871.25
420.057	846.25
420.28	837.25
420.503	819.25
420.726	800.25
420.948	793.25
421.171	825.25
421.394	838.25
421.617	814.25
421.839	820.25
422.062	850.25
422.285	816.25
422.507	812.25
422.73	841.25
422.953	865.25
423.175	847.25
423.398	845.25
423.621	837.25
423.843	879.25
424.066	892.25
424.288	848.25
424.511	843.25
424.733	837.25
424.956	834.25
425.178	822.25
425.401	826.25
425.623	820.25
425.846	797.25
426.068	800.25
426.291	788.25
426.513	790.25
426.735	804.25
426.958	764.25
427.18	745.25
427.402	753.25
427.625	757.25
427.847	745.25
428.069	755.25
428.292	747.25
428.514	760.25
428.736	750.25
428.958	715.25
429.181	716.25
429.403	731.25
429.625	729.25
429.847	719.25
430.069	716.25
430.292	742.25
430.514	701.25
430.736	735.25
430.958	721.25
431.18	725.25
431.402	717.25
431.624	747.25
431.846	731.25
432.068	774.25
432.29	752.25
432.512	745.25
432.734	768.25
432.956	767.25
433.178	748.25
433.4	759.25
433.622	765.25
433.844	766.25
434.066	744.25
434.287	752.25
434.509	799.25
434.731	803.25
434.953	808.25
435.175	844.25
435.397	792.25
435.618	783.25
435.84	766.25
436.062	764.25
436.284	768.25
436.505	745.25
436.727	772.25
436.949	727.25
437.17	741.25
437.392	739.25
437.614	725.25
437.835	717.25
438.057	716.25
438.278	715.25
438.5	733.25
438.721	726.25
438.943	745.25
439.165	728.25
439.386	753.25
439.608	730.25
439.829	739.25
440.05	760.25
440.272	773.25
440.493	755.25
440.715	759.25
440.936	777.25
441.158	801.25
441.379	817.25
441.6	885.25
441.822	865.25
442.043	853.25
442.264	838.25
442.486	826.25
442.707	852.25
442.928	845.25
443.149	839.25
443.371	827.25
443.592	845.25
443.813	862.25
444.034	871.25
444.255	889.25
444.476	903.25
444.698	926.25
444.919	999.25
445.14	1083.25
445.361	953.25
445.582	913.25
445.803	854.25
446.024	814.25
446.245	808.25
446.466	797.25
446.687	773.25
446.908	794.25
447.129	748.25
447.35	733.25
447.571	741.25
447.792	730.25
448.013	715.25
448.234	716.25
448.455	713.25
448.675	684.25
448.896	703.25
449.117	697.25
449.338	716.25
449.559	721.25
449.779	707.25
450	701.25
450.221	672.25
450.442	713.25
450.662	716.25
450.883	688.25
451.104	718.25
451.324	703.25
451.545	692.25
451.766	688.25
451.986	688.25
452.207	700.25
452.428	675.25
452.648	677.25
452.869	674.25
453.089	677.25
453.31	677.25
453.53	657.25
453.751	672.25
453.971	645.25
454.192	683.25
454.412	658.25
454.633	637.25
454.853	653.25
455.073	646.25
455.294	663.25
455.514	666.25
455.734	665.25
455.955	645.25
456.175	647.25
456.395	667.25
456.616	632.25
456.836	647.25
457.056	643.25
457.276	633.25
457.497	656.25
457.717	666.25
457.937	647.25
458.157	675.25
458.377	662.25
458.598	677.25
458.818	714.25
459.038	720.25
459.258	707.25
459.478	787.25
459.698	784.25
459.918	796.25
460.138	827.25
460.358	873.25
460.578	858.25
460.798	881.25
461.018	879.25
461.238	885.25
461.458	891.25
461.678	883.25
461.898	906.25
462.118	913.25
462.338	944.25
462.558	984.25
462.777	1013.25
462.997	1087.25
463.217	1163.25
463.437	1136.25
463.657	1065.25
463.876	1047.25
464.096	1028.25
464.316	990.25
464.536	1056.25
464.755	991.25
464.975	931.25
465.195	918.25
465.414	855.25
465.634	826.25
465.854	791.25
466.073	757.25
466.293	803.25
466.512	745.25
466.732	730.25
466.951	743.25
467.171	751.25
467.391	735.25
467.61	718.25
467.829	732.25
468.049	741.25
468.268	716.25
468.488	709.25
468.707	698.25
468.927	701.25
469.146	691.25
469.365	709.25
469.585	735.25
469.804	717.25
470.023	755.25
470.243	752.25
470.462	761.25
470.681	732.25
470.901	757.25
471.12	744.25
471.339	725.25
471.558	726.25
471.777	720.25
471.997	694.25
472.216	698.25
472.435	704.25
472.654	671.25
472.873	689.25
473.092	692.25
473.311	695.25
473.53	714.25
473.749	685.25
473.968	686.25
474.187	662.25
474.406	680.25
474.625	689.25
474.844	685.25
475.063	671.25
475.282	677.25
475.501	686.25
475.72	663.25
475.939	714.25
476.158	698.25
476.377	712.25
476.596	697.25
476.814	727.25
477.033	702.25
477.252	727.25
477.471	771.25
477.69	766.25
477.908	760.25
478.127	795.25
478.346	807.25
478.564	807.25
478.783	823.25
479.002	840.25
479.22	854.25
479.439	853.25
479.658	831.25
479.876	842.25
480.095	831.25
480.313	879.25
480.532	926.25
480.751	890.25
480.969	872.25
481.188	827.25
481.406	819.25
481.624	818.25
481.843	777.25
482.061	789.25
482.28	789.25
482.498	775.25
482.717	763.25
482.935	736.25
483.153	780.25
483.372	798.25
483.59	783.25
483.808	778.25
484.027	779.25
484.245	759.25
484.463	774.25
484.681	795.25
484.9	790.25
485.118	786.25
485.336	806.25
485.554	791.25
485.772	795.25
485.99	791.25
486.209	802.25
486.427	799.25
486.645	790.25
486.863	807.25
487.081	791.25
487.299	804.25
487.517	803.25
487.735	812.25
487.953	830.25
488.171	820.25
488.389	821.25
488.607	790.25
488.825	820.25
489.043	784.25
489.261	823.25
489.479	777.25
489.696	804.25
489.914	797.25
490.132	789.25
490.35	801.25
490.568	842.25
490.786	807.25
491.003	823.25
491.221	838.25
491.439	827.25
491.657	820.25
491.874	856.25
492.092	858.25
492.31	872.25
492.527	865.25
492.745	858.25
492.963	856.25
493.18	854.25
493.398	863.25
493.615	862.25
493.833	857.25
494.05	858.25
494.268	867.25
494.485	859.25
494.703	895.25
494.92	873.25
495.138	870.25
495.355	879.25
495.573	876.25
495.79	870.25
496.008	896.25
496.225	878.25
496.442	911.25
496.66	957.25
496.877	897.25
497.094	951.25
497.312	973.25
497.529	960.25
497.746	979.25
497.963	1015.25
498.181	1083.25
498.398	1113.25
498.615	1165.25
498.832	1259.25
499.049	1349.25
499.267	1463.25
499.484	1561.25
499.701	1718.25
499.918	1898.25
500.135	2114.25
500.352	2373.25
500.569	2500.25
500.786	2412.25
501.003	2257.25
501.22	2076.25
