Data from Ni(NO3)2Standard.Agarose3%.GreenCap.LampEnergy5.5.E.O_HRD10591_14-39-58-188.txt Node
Date: Mon Jul 22 14:39:58 EDT 2019
User: cochatt
Spectrometer: HR+D1059
Trigger mode: 1
Integration Time (sec): 1.000000E-1
Scans to average: 1
Electric dark correction enabled: true
Nonlinearity correction enabled: false
Boxcar width: 0
XAxis mode: Wavelengths
Number of Pixels in Spectrum: 2048
>>>>>Begin Spectral Data<<<<<
223.165	-18.75
223.4	-18.75
223.635	-18.75
223.869	-24.75
224.104	-19.75
224.338	-12.75
224.573	-5.75
224.808	-11.75
225.042	-2.75
225.277	-4.75
225.511	3.25
225.746	-3.75
225.98	-3.75
226.215	11.25
226.449	19.25
226.683	10.25
226.918	29.25
227.152	35.25
227.387	33.25
227.621	41.25
227.856	36.25
228.09	46.25
228.324	44.25
228.559	59.25
228.793	56.25
229.027	64.25
229.262	66.25
229.496	71.25
229.73	63.25
229.964	71.25
230.199	83.25
230.433	72.25
230.667	85.25
230.901	77.25
231.136	92.25
231.37	71.25
231.604	82.25
231.838	92.25
232.072	89.25
232.306	87.25
232.541	98.25
232.775	91.25
233.009	86.25
233.243	78.25
233.477	79.25
233.711	74.25
233.945	90.25
234.179	91.25
234.413	97.25
234.647	92.25
234.881	75.25
235.115	83.25
235.349	82.25
235.583	91.25
235.817	76.25
236.051	77.25
236.285	73.25
236.519	60.25
236.753	87.25
236.987	74.25
237.221	80.25
237.455	87.25
237.689	72.25
237.922	73.25
238.156	67.25
238.39	72.25
238.624	79.25
238.858	75.25
239.091	65.25
239.325	84.25
239.559	100.25
239.793	83.25
240.027	80.25
240.26	73.25
240.494	80.25
240.728	76.25
240.961	75.25
241.195	81.25
241.429	73.25
241.662	72.25
241.896	89.25
242.13	94.25
242.363	76.25
242.597	84.25
242.83	76.25
243.064	78.25
243.298	79.25
243.531	96.25
243.765	87.25
243.998	77.25
244.232	88.25
244.465	72.25
244.699	87.25
244.932	79.25
245.166	92.25
245.399	73.25
245.633	71.25
245.866	86.25
246.099	77.25
246.333	75.25
246.566	73.25
246.8	85.25
247.033	84.25
247.266	63.25
247.5	88.25
247.733	93.25
247.966	96.25
248.2	88.25
248.433	87.25
248.666	71.25
248.899	79.25
249.133	93.25
249.366	89.25
249.599	71.25
249.832	89.25
250.066	80.25
250.299	84.25
250.532	72.25
250.765	84.25
250.998	76.25
251.231	63.25
251.465	81.25
251.698	84.25
251.931	93.25
252.164	86.25
252.397	78.25
252.63	80.25
252.863	101.25
253.096	75.25
253.329	78.25
253.562	91.25
253.795	86.25
254.028	80.25
254.261	83.25
254.494	68.25
254.727	72.25
254.96	82.25
255.193	81.25
255.426	100.25
255.659	85.25
255.892	107.25
256.124	93.25
256.357	82.25
256.59	93.25
256.823	88.25
257.056	91.25
257.289	91.25
257.521	93.25
257.754	72.25
257.987	77.25
258.22	70.25
258.452	91.25
258.685	76.25
258.918	86.25
259.151	84.25
259.383	97.25
259.616	73.25
259.849	74.25
260.081	81.25
260.314	88.25
260.547	79.25
260.779	88.25
261.012	65.25
261.244	73.25
261.477	101.25
261.71	80.25
261.942	98.25
262.175	89.25
262.407	79.25
262.64	95.25
262.872	85.25
263.105	92.25
263.337	86.25
263.57	98.25
263.802	87.25
264.035	84.25
264.267	101.25
264.499	71.25
264.732	87.25
264.964	83.25
265.197	90.25
265.429	75.25
265.661	89.25
265.894	85.25
266.126	98.25
266.358	82.25
266.591	78.25
266.823	88.25
267.055	92.25
267.287	83.25
267.52	88.25
267.752	75.25
267.984	90.25
268.216	78.25
268.448	83.25
268.681	94.25
268.913	87.25
269.145	117.25
269.377	78.25
269.609	83.25
269.841	97.25
270.073	91.25
270.306	78.25
270.538	86.25
270.77	97.25
271.002	92.25
271.234	88.25
271.466	72.25
271.698	89.25
271.93	87.25
272.162	91.25
272.394	81.25
272.626	83.25
272.858	93.25
273.09	97.25
273.322	89.25
273.553	88.25
273.785	91.25
274.017	76.25
274.249	99.25
274.481	84.25
274.713	83.25
274.945	87.25
275.176	87.25
275.408	102.25
275.64	68.25
275.872	97.25
276.104	88.25
276.335	84.25
276.567	95.25
276.799	83.25
277.031	101.25
277.262	89.25
277.494	82.25
277.726	82.25
277.957	79.25
278.189	86.25
278.421	79.25
278.652	74.25
278.884	86.25
279.115	96.25
279.347	93.25
279.579	98.25
279.81	85.25
280.042	96.25
280.273	89.25
280.505	90.25
280.736	85.25
280.968	76.25
281.199	93.25
281.431	85.25
281.662	88.25
281.894	77.25
282.125	69.25
282.356	95.25
282.588	68.25
282.819	107.25
283.051	75.25
283.282	78.25
283.513	87.25
283.745	89.25
283.976	83.25
284.207	91.25
284.439	85.25
284.67	94.25
284.901	83.25
285.132	103.25
285.364	70.25
285.595	87.25
285.826	86.25
286.057	82.25
286.288	91.25
286.52	95.25
286.751	94.25
286.982	89.25
287.213	98.25
287.444	80.25
287.675	89.25
287.906	96.25
288.138	93.25
288.369	88.25
288.6	87.25
288.831	92.25
289.062	93.25
289.293	85.25
289.524	89.25
289.755	91.25
289.986	76.25
290.217	98.25
290.448	95.25
290.679	96.25
290.91	96.25
291.141	99.25
291.371	95.25
291.602	83.25
291.833	77.25
292.064	81.25
292.295	86.25
292.526	92.25
292.757	98.25
292.987	93.25
293.218	96.25
293.449	78.25
293.68	92.25
293.91	87.25
294.141	89.25
294.372	92.25
294.603	89.25
294.833	95.25
295.064	90.25
295.295	91.25
295.525	88.25
295.756	92.25
295.987	86.25
296.217	93.25
296.448	84.25
296.679	78.25
296.909	108.25
297.14	84.25
297.37	83.25
297.601	102.25
297.831	98.25
298.062	78.25
298.292	90.25
298.523	94.25
298.753	85.25
298.984	96.25
299.214	94.25
299.445	74.25
299.675	94.25
299.905	79.25
300.136	71.25
300.366	93.25
300.597	86.25
300.827	101.25
301.057	86.25
301.288	91.25
301.518	87.25
301.748	91.25
301.979	81.25
302.209	86.25
302.439	80.25
302.669	84.25
302.9	97.25
303.13	86.25
303.36	77.25
303.59	77.25
303.82	90.25
304.051	82.25
304.281	99.25
304.511	94.25
304.741	92.25
304.971	78.25
305.201	98.25
305.431	90.25
305.661	86.25
305.891	77.25
306.121	90.25
306.352	83.25
306.582	94.25
306.812	79.25
307.042	80.25
307.272	77.25
307.502	91.25
307.731	96.25
307.961	100.25
308.191	86.25
308.421	98.25
308.651	110.25
308.881	91.25
309.111	87.25
309.341	92.25
309.571	75.25
309.8	93.25
310.03	83.25
310.26	79.25
310.49	98.25
310.72	86.25
310.949	86.25
311.179	93.25
311.409	91.25
311.639	111.25
311.868	87.25
312.098	85.25
312.328	89.25
312.557	90.25
312.787	89.25
313.017	88.25
313.246	86.25
313.476	91.25
313.706	85.25
313.935	90.25
314.165	88.25
314.394	98.25
314.624	95.25
314.853	94.25
315.083	90.25
315.312	108.25
315.542	86.25
315.771	91.25
316.001	85.25
316.23	105.25
316.46	100.25
316.689	90.25
316.919	95.25
317.148	91.25
317.377	94.25
317.607	88.25
317.836	90.25
318.065	100.25
318.295	86.25
318.524	83.25
318.753	98.25
318.983	87.25
319.212	83.25
319.441	88.25
319.67	84.25
319.9	75.25
320.129	86.25
320.358	87.25
320.587	77.25
320.816	66.25
321.046	97.25
321.275	99.25
321.504	95.25
321.733	87.25
321.962	79.25
322.191	106.25
322.42	79.25
322.649	91.25
322.878	81.25
323.108	101.25
323.337	91.25
323.566	90.25
323.795	90.25
324.024	98.25
324.253	80.25
324.482	98.25
324.71	96.25
324.939	79.25
325.168	82.25
325.397	91.25
325.626	98.25
325.855	78.25
326.084	90.25
326.313	74.25
326.542	88.25
326.77	88.25
326.999	93.25
327.228	87.25
327.457	81.25
327.686	87.25
327.914	96.25
328.143	103.25
328.372	84.25
328.6	91.25
328.829	91.25
329.058	91.25
329.287	77.25
329.515	81.25
329.744	90.25
329.972	85.25
330.201	82.25
330.43	86.25
330.658	78.25
330.887	87.25
331.115	93.25
331.344	74.25
331.572	95.25
331.801	91.25
332.03	87.25
332.258	81.25
332.486	99.25
332.715	91.25
332.943	99.25
333.172	95.25
333.4	88.25
333.629	99.25
333.857	81.25
334.085	89.25
334.314	100.25
334.542	82.25
334.771	82.25
334.999	80.25
335.227	104.25
335.455	77.25
335.684	89.25
335.912	87.25
336.14	79.25
336.369	85.25
336.597	92.25
336.825	96.25
337.053	88.25
337.281	88.25
337.51	92.25
337.738	83.25
337.966	93.25
338.194	84.25
338.422	89.25
338.65	86.25
338.878	94.25
339.106	88.25
339.334	91.25
339.562	80.25
339.79	96.25
340.018	80.25
340.246	92.25
340.474	94.25
340.702	86.25
340.93	93.25
341.158	100.25
341.386	99.25
341.614	77.25
341.842	99.25
342.07	94.25
342.298	101.25
342.526	98.25
342.754	90.25
342.981	95.25
343.209	105.25
343.437	99.25
343.665	83.25
343.893	106.25
344.12	83.25
344.348	103.25
344.576	93.25
344.804	90.25
345.031	77.25
345.259	86.25
345.487	91.25
345.714	87.25
345.942	86.25
346.17	79.25
346.397	90.25
346.625	93.25
346.853	92.25
347.08	77.25
347.308	82.25
347.535	92.25
347.763	87.25
347.99	88.25
348.218	74.25
348.445	91.25
348.673	86.25
348.9	90.25
349.128	92.25
349.355	99.25
349.583	86.25
349.81	87.25
350.037	79.25
350.265	95.25
350.492	91.25
350.72	99.25
350.947	84.25
351.174	106.25
351.402	92.25
351.629	93.25
351.856	92.25
352.083	95.25
352.311	85.25
352.538	84.25
352.765	76.25
352.992	83.25
353.22	78.25
353.447	88.25
353.674	104.25
353.901	85.25
354.128	80.25
354.355	90.25
354.583	97.25
354.81	87.25
355.037	77.25
355.264	94.25
355.491	86.25
355.718	86.25
355.945	94.25
356.172	95.25
356.399	83.25
356.626	85.25
356.853	83.25
357.08	85.25
357.307	88.25
357.534	94.25
357.761	81.25
357.988	96.25
358.215	95.25
358.441	98.25
358.668	88.25
358.895	86.25
359.122	98.25
359.349	95.25
359.576	103.25
359.802	87.25
360.029	97.25
360.256	110.25
360.483	92.25
360.709	91.25
360.936	87.25
361.163	84.25
361.39	92.25
361.616	96.25
361.843	101.25
362.07	70.25
362.296	99.25
362.523	85.25
362.749	79.25
362.976	94.25
363.203	87.25
363.429	84.25
363.656	88.25
363.882	115.25
364.109	83.25
364.335	84.25
364.562	86.25
364.788	77.25
365.015	81.25
365.241	91.25
365.468	91.25
365.694	74.25
365.92	87.25
366.147	90.25
366.373	89.25
366.599	66.25
366.826	69.25
367.052	77.25
367.278	84.25
367.505	87.25
367.731	79.25
367.957	97.25
368.184	80.25
368.41	89.25
368.636	100.25
368.862	91.25
369.089	78.25
369.315	80.25
369.541	86.25
369.767	84.25
369.993	92.25
370.219	87.25
370.445	91.25
370.672	76.25
370.898	94.25
371.124	79.25
371.35	98.25
371.576	87.25
371.802	86.25
372.028	101.25
372.254	79.25
372.48	88.25
372.706	101.25
372.932	86.25
373.158	86.25
373.384	91.25
373.61	82.25
373.835	100.25
374.061	100.25
374.287	89.25
374.513	91.25
374.739	96.25
374.965	86.25
375.191	79.25
375.416	88.25
375.642	85.25
375.868	76.25
376.094	84.25
376.319	105.25
376.545	79.25
376.771	84.25
376.997	83.25
377.222	91.25
377.448	86.25
377.674	76.25
377.899	82.25
378.125	84.25
378.35	80.25
378.576	76.25
378.802	90.25
379.027	91.25
379.253	95.25
379.478	88.25
379.704	86.25
379.929	88.25
380.155	91.25
380.38	85.25
380.606	76.25
380.831	77.25
381.057	94.25
381.282	92.25
381.507	77.25
381.733	92.25
381.958	94.25
382.184	96.25
382.409	98.25
382.634	84.25
382.86	87.25
383.085	78.25
383.31	82.25
383.535	92.25
383.761	93.25
383.986	80.25
384.211	96.25
384.436	72.25
384.662	86.25
384.887	84.25
385.112	80.25
385.337	78.25
385.562	86.25
385.787	79.25
386.013	94.25
386.238	72.25
386.463	87.25
386.688	69.25
386.913	93.25
387.138	95.25
387.363	89.25
387.588	100.25
387.813	89.25
388.038	80.25
388.263	89.25
388.488	92.25
388.713	100.25
388.938	85.25
389.163	82.25
389.387	79.25
389.612	80.25
389.837	82.25
390.062	98.25
390.287	92.25
390.512	86.25
390.736	80.25
390.961	84.25
391.186	87.25
391.411	84.25
391.636	92.25
391.86	89.25
392.085	90.25
392.31	87.25
392.534	84.25
392.759	71.25
392.984	77.25
393.208	91.25
393.433	90.25
393.658	84.25
393.882	86.25
394.107	80.25
394.331	91.25
394.556	89.25
394.78	84.25
395.005	68.25
395.229	77.25
395.454	101.25
395.678	84.25
395.903	89.25
396.127	90.25
396.352	81.25
396.576	99.25
396.801	77.25
397.025	94.25
397.249	80.25
397.474	78.25
397.698	99.25
397.922	94.25
398.147	98.25
398.371	82.25
398.595	100.25
398.82	101.25
399.044	78.25
399.268	90.25
399.492	100.25
399.717	101.25
399.941	79.25
400.165	95.25
400.389	92.25
400.613	83.25
400.837	83.25
401.062	93.25
401.286	77.25
401.51	86.25
401.734	78.25
401.958	85.25
402.182	97.25
402.406	93.25
402.63	83.25
402.854	92.25
403.078	75.25
403.302	92.25
403.526	80.25
403.75	79.25
403.974	86.25
404.198	103.25
404.422	75.25
404.645	84.25
404.869	90.25
405.093	87.25
405.317	76.25
405.541	86.25
405.765	113.25
405.988	84.25
406.212	84.25
406.436	93.25
406.66	74.25
406.883	88.25
407.107	54.25
407.331	90.25
407.555	86.25
407.778	86.25
408.002	93.25
408.226	95.25
408.449	88.25
408.673	86.25
408.896	85.25
409.12	86.25
409.344	85.25
409.567	91.25
409.791	89.25
410.014	98.25
410.238	96.25
410.461	88.25
410.685	98.25
410.908	84.25
411.132	85.25
411.355	91.25
411.578	88.25
411.802	92.25
412.025	92.25
412.249	90.25
412.472	84.25
412.695	66.25
412.919	85.25
413.142	91.25
413.365	91.25
413.589	83.25
413.812	86.25
414.035	83.25
414.258	92.25
414.482	82.25
414.705	73.25
414.928	91.25
415.151	95.25
415.374	94.25
415.597	87.25
415.821	76.25
416.044	83.25
416.267	87.25
416.49	86.25
416.713	86.25
416.936	83.25
417.159	86.25
417.382	85.25
417.605	85.25
417.828	81.25
418.051	85.25
418.274	79.25
418.497	90.25
418.72	88.25
418.943	87.25
419.166	93.25
419.389	66.25
419.611	86.25
419.834	95.25
420.057	91.25
420.28	87.25
420.503	86.25
420.726	80.25
420.948	77.25
421.171	84.25
421.394	80.25
421.617	75.25
421.839	98.25
422.062	81.25
422.285	81.25
422.507	99.25
422.73	96.25
422.953	88.25
423.175	99.25
423.398	78.25
423.621	90.25
423.843	71.25
424.066	86.25
424.288	94.25
424.511	100.25
424.733	101.25
424.956	78.25
425.178	94.25
425.401	83.25
425.623	88.25
425.846	90.25
426.068	84.25
426.291	103.25
426.513	83.25
426.735	98.25
426.958	92.25
427.18	90.25
427.402	79.25
427.625	90.25
427.847	105.25
428.069	94.25
428.292	89.25
428.514	89.25
428.736	87.25
428.958	84.25
429.181	91.25
429.403	95.25
429.625	83.25
429.847	82.25
430.069	81.25
430.292	85.25
430.514	83.25
430.736	82.25
430.958	79.25
431.18	91.25
431.402	82.25
431.624	95.25
431.846	96.25
432.068	85.25
432.29	87.25
432.512	96.25
432.734	69.25
432.956	75.25
433.178	87.25
433.4	84.25
433.622	101.25
433.844	95.25
434.066	89.25
434.287	88.25
434.509	84.25
434.731	81.25
434.953	84.25
435.175	83.25
435.397	79.25
435.618	83.25
435.84	92.25
436.062	93.25
436.284	80.25
436.505	90.25
436.727	83.25
436.949	73.25
437.17	77.25
437.392	96.25
437.614	80.25
437.835	89.25
438.057	80.25
438.278	88.25
438.5	91.25
438.721	84.25
438.943	90.25
439.165	91.25
439.386	78.25
439.608	89.25
439.829	95.25
440.05	108.25
440.272	90.25
440.493	95.25
440.715	82.25
440.936	92.25
441.158	98.25
441.379	75.25
441.6	93.25
441.822	87.25
442.043	79.25
442.264	80.25
442.486	83.25
442.707	86.25
442.928	83.25
443.149	102.25
443.371	86.25
443.592	93.25
443.813	94.25
444.034	91.25
444.255	87.25
444.476	88.25
444.698	93.25
444.919	94.25
445.14	213.25
445.361	127.25
445.582	97.25
445.803	93.25
446.024	92.25
446.245	83.25
446.466	76.25
446.687	83.25
446.908	94.25
447.129	98.25
447.35	79.25
447.571	87.25
447.792	100.25
448.013	93.25
448.234	78.25
448.455	89.25
448.675	94.25
448.896	92.25
449.117	87.25
449.338	89.25
449.559	90.25
449.779	97.25
450	86.25
450.221	84.25
450.442	72.25
450.662	94.25
450.883	81.25
451.104	99.25
451.324	84.25
451.545	93.25
451.766	84.25
451.986	105.25
452.207	98.25
452.428	91.25
452.648	94.25
452.869	71.25
453.089	84.25
453.31	84.25
453.53	92.25
453.751	98.25
453.971	97.25
454.192	83.25
454.412	91.25
454.633	75.25
454.853	89.25
455.073	91.25
455.294	98.25
455.514	76.25
455.734	78.25
455.955	85.25
456.175	77.25
456.395	90.25
456.616	79.25
456.836	97.25
457.056	93.25
457.276	96.25
457.497	98.25
457.717	92.25
457.937	89.25
458.157	75.25
458.377	78.25
458.598	87.25
458.818	94.25
459.038	86.25
459.258	79.25
459.478	79.25
459.698	99.25
459.918	84.25
460.138	80.25
460.358	95.25
460.578	91.25
460.798	101.25
461.018	94.25
461.238	83.25
461.458	93.25
461.678	89.25
461.898	80.25
462.118	104.25
462.338	98.25
462.558	98.25
462.777	98.25
462.997	95.25
463.217	78.25
463.437	90.25
463.657	96.25
463.876	79.25
464.096	102.25
464.316	110.25
464.536	91.25
464.755	94.25
464.975	93.25
465.195	95.25
465.414	91.25
465.634	81.25
465.854	100.25
466.073	73.25
466.293	86.25
466.512	81.25
466.732	90.25
466.951	82.25
467.171	88.25
467.391	77.25
467.61	84.25
467.829	86.25
468.049	93.25
468.268	88.25
468.488	101.25
468.707	78.25
468.927	102.25
469.146	87.25
469.365	89.25
469.585	98.25
469.804	93.25
470.023	96.25
470.243	97.25
470.462	96.25
470.681	91.25
470.901	94.25
471.12	87.25
471.339	96.25
471.558	89.25
471.777	82.25
471.997	103.25
472.216	81.25
472.435	90.25
472.654	91.25
472.873	95.25
473.092	85.25
473.311	76.25
473.53	85.25
473.749	81.25
473.968	88.25
474.187	87.25
474.406	86.25
474.625	107.25
474.844	105.25
475.063	82.25
475.282	81.25
475.501	73.25
475.72	95.25
475.939	82.25
476.158	93.25
476.377	89.25
476.596	94.25
476.814	76.25
477.033	88.25
477.252	91.25
477.471	77.25
477.69	88.25
477.908	105.25
478.127	91.25
478.346	92.25
478.564	98.25
478.783	106.25
479.002	90.25
479.22	102.25
479.439	94.25
479.658	83.25
479.876	82.25
480.095	78.25
480.313	93.25
480.532	92.25
480.751	95.25
480.969	103.25
481.188	79.25
481.406	94.25
481.624	94.25
481.843	69.25
482.061	99.25
482.28	89.25
482.498	95.25
482.717	109.25
482.935	93.25
483.153	89.25
483.372	92.25
483.59	100.25
483.808	81.25
484.027	108.25
484.245	102.25
484.463	108.25
484.681	114.25
484.9	94.25
485.118	80.25
485.336	92.25
485.554	105.25
485.772	83.25
485.99	96.25
486.209	89.25
486.427	84.25
486.645	83.25
486.863	94.25
487.081	101.25
487.299	91.25
487.517	98.25
487.735	107.25
487.953	95.25
488.171	99.25
488.389	93.25
488.607	91.25
488.825	104.25
489.043	98.25
489.261	97.25
489.479	103.25
489.696	98.25
489.914	94.25
490.132	83.25
490.35	107.25
490.568	99.25
490.786	92.25
491.003	99.25
491.221	89.25
491.439	80.25
491.657	94.25
491.874	94.25
492.092	106.25
492.31	106.25
492.527	98.25
492.745	100.25
492.963	96.25
493.18	100.25
493.398	94.25
493.615	98.25
493.833	109.25
494.05	107.25
494.268	95.25
494.485	103.25
494.703	97.25
494.92	97.25
495.138	99.25
495.355	109.25
495.573	105.25
495.79	89.25
496.008	114.25
496.225	96.25
496.442	98.25
496.66	95.25
496.877	105.25
497.094	97.25
497.312	93.25
497.529	92.25
497.746	93.25
497.963	97.25
498.181	94.25
498.398	106.25
498.615	89.25
498.832	105.25
499.049	110.25
499.267	110.25
499.484	113.25
499.701	98.25
499.918	114.25
500.135	102.25
500.352	92.25
500.569	107.25
500.786	106.25
501.003	114.25
501.22	116.25
501.437	90.25
501.654	119.25
501.871	106.25
502.088	100.25
502.305	98.25
502.522	111.25
502.739	99.25
502.956	87.25
503.172	86.25
503.389	82.25
503.606	103.25
503.823	103.25
504.04	86.25
504.256	109.25
504.473	99.25
504.69	107.25
504.907	92.25
505.123	107.25
505.34	90.25
505.557	95.25
505.773	92.25
505.99	106.25
506.207	90.25
506.423	98.25
506.64	94.25
506.856	99.25
507.073	97.25
507.289	100.25
507.506	101.25
507.722	100.25
507.939	92.25
508.155	103.25
508.372	106.25
508.588	98.25
508.805	82.25
509.021	102.25
509.238	83.25
509.454	108.25
509.67	94.25
509.887	106.25
510.103	92.25
510.319	86.25
510.536	99.25
510.752	81.25
510.968	99.25
511.184	93.25
511.401	91.25
511.617	79.25
511.833	92.25
512.049	103.25
512.265	85.25
512.481	91.25
512.698	111.25
512.914	94.25
513.13	90.25
513.346	95.25
513.562	94.25
513.778	85.25
513.994	101.25
514.21	90.25
514.426	109.25
514.642	86.25
514.858	103.25
515.074	92.25
515.29	95.25
515.506	101.25
515.721	74.25
515.937	97.25
516.153	101.25
516.369	96.25
516.585	96.25
516.801	100.25
517.016	95.25
517.232	101.25
517.448	88.25
