Data from Ni(NO3)2@0.25M.TitratingCurve.Agarose3%dH2O.NegLispCup.LampEnergy10.LIBS07252019_HRD10591_18-02-37-565.txt Node
Date: Thu Jul 25 18:02:37 EDT 2019
User: cochatt
Spectrometer: HR+D1059
Trigger mode: 1
Integration Time (sec): 1.000000E-1
Scans to average: 1
Electric dark correction enabled: true
Nonlinearity correction enabled: false
Boxcar width: 0
XAxis mode: Wavelengths
Number of Pixels in Spectrum: 2048
>>>>>Begin Spectral Data<<<<<
223.165	-7.88
223.4	-7.88
223.635	-7.88
223.869	-7.88
224.104	-24.88
224.338	-17.88
224.573	-8.88
224.808	-21.88
225.042	-4.88
225.277	-5.88
225.511	1.12
225.746	3.12
225.98	5.12
226.215	6.12
226.449	23.12
226.683	14.12
226.918	21.12
227.152	26.12
227.387	24.12
227.621	36.12
227.856	40.12
228.09	40.12
228.324	44.12
228.559	52.12
228.793	69.12
229.027	107.12
229.262	135.12
229.496	111.12
229.73	125.12
229.964	124.12
230.199	150.12
230.433	145.12
230.667	150.12
230.901	150.12
231.136	147.12
231.37	136.12
231.604	149.12
231.838	159.12
232.072	160.12
232.306	160.12
232.541	167.12
232.775	160.12
233.009	144.12
233.243	147.12
233.477	152.12
233.711	159.12
233.945	152.12
234.179	152.12
234.413	139.12
234.647	168.12
234.881	164.12
235.115	126.12
235.349	143.12
235.583	144.12
235.817	147.12
236.051	154.12
236.285	162.12
236.519	149.12
236.753	156.12
236.987	132.12
237.221	142.12
237.455	162.12
237.689	167.12
237.922	163.12
238.156	168.12
238.39	150.12
238.624	151.12
238.858	185.12
239.091	176.12
239.325	176.12
239.559	175.12
239.793	174.12
240.027	177.12
240.26	187.12
240.494	156.12
240.728	163.12
240.961	170.12
241.195	172.12
241.429	179.12
241.662	180.12
241.896	194.12
242.13	178.12
242.363	199.12
242.597	198.12
242.83	185.12
243.064	195.12
243.298	199.12
243.531	192.12
243.765	194.12
243.998	202.12
244.232	214.12
244.465	211.12
244.699	206.12
244.932	196.12
245.166	215.12
245.399	215.12
245.633	208.12
245.866	200.12
246.099	216.12
246.333	179.12
246.566	214.12
246.8	208.12
247.033	221.12
247.266	213.12
247.5	235.12
247.733	216.12
247.966	232.12
248.2	234.12
248.433	239.12
248.666	238.12
248.899	251.12
249.133	246.12
249.366	247.12
249.599	252.12
249.832	234.12
250.066	251.12
250.299	257.12
250.532	258.12
250.765	260.12
250.998	279.12
251.231	251.12
251.465	279.12
251.698	280.12
251.931	282.12
252.164	287.12
252.397	277.12
252.63	271.12
252.863	278.12
253.096	284.12
253.329	279.12
253.562	296.12
253.795	319.12
254.028	312.12
254.261	298.12
254.494	316.12
254.727	301.12
254.96	316.12
255.193	319.12
255.426	310.12
255.659	334.12
255.892	319.12
256.124	319.12
256.357	327.12
256.59	319.12
256.823	344.12
257.056	343.12
257.289	324.12
257.521	359.12
257.754	346.12
257.987	346.12
258.22	352.12
258.452	364.12
258.685	372.12
258.918	358.12
259.151	361.12
259.383	366.12
259.616	369.12
259.849	365.12
260.081	378.12
260.314	362.12
260.547	364.12
260.779	360.12
261.012	375.12
261.244	376.12
261.477	370.12
261.71	371.12
261.942	388.12
262.175	387.12
262.407	379.12
262.64	413.12
262.872	410.12
263.105	389.12
263.337	404.12
263.57	396.12
263.802	414.12
264.035	412.12
264.267	388.12
264.499	400.12
264.732	419.12
264.964	400.12
265.197	404.12
265.429	411.12
265.661	404.12
265.894	430.12
266.126	437.12
266.358	434.12
266.591	412.12
266.823	418.12
267.055	424.12
267.287	451.12
267.52	436.12
267.752	440.12
267.984	446.12
268.216	422.12
268.448	438.12
268.681	449.12
268.913	438.12
269.145	465.12
269.377	423.12
269.609	453.12
269.841	448.12
270.073	446.12
270.306	453.12
270.538	436.12
270.77	447.12
271.002	440.12
271.234	450.12
271.466	450.12
271.698	462.12
271.93	451.12
272.162	453.12
272.394	468.12
272.626	492.12
272.858	460.12
273.09	473.12
273.322	460.12
273.553	452.12
273.785	470.12
274.017	485.12
274.249	465.12
274.481	474.12
274.713	488.12
274.945	483.12
275.176	495.12
275.408	500.12
275.64	476.12
275.872	458.12
276.104	482.12
276.335	470.12
276.567	494.12
276.799	499.12
277.031	500.12
277.262	484.12
277.494	486.12
277.726	485.12
277.957	493.12
278.189	520.12
278.421	504.12
278.652	483.12
278.884	485.12
279.115	493.12
279.347	508.12
279.579	516.12
279.81	502.12
280.042	493.12
280.273	522.12
280.505	534.12
280.736	523.12
280.968	547.12
281.199	528.12
281.431	523.12
281.662	528.12
281.894	513.12
282.125	539.12
282.356	543.12
282.588	520.12
282.819	545.12
283.051	541.12
283.282	510.12
283.513	535.12
283.745	560.12
283.976	529.12
284.207	516.12
284.439	526.12
284.67	536.12
284.901	552.12
285.132	540.12
285.364	533.12
285.595	537.12
285.826	560.12
286.057	545.12
286.288	543.12
286.52	551.12
286.751	563.12
286.982	564.12
287.213	571.12
287.444	546.12
287.675	548.12
287.906	554.12
288.138	556.12
288.369	507.12
288.6	550.12
288.831	546.12
289.062	559.12
289.293	553.12
289.524	578.12
289.755	568.12
289.986	568.12
290.217	559.12
290.448	582.12
290.679	566.12
290.91	577.12
291.141	568.12
291.371	570.12
291.602	582.12
291.833	591.12
292.064	562.12
292.295	587.12
292.526	559.12
292.757	561.12
292.987	564.12
293.218	570.12
293.449	562.12
293.68	571.12
293.91	568.12
294.141	581.12
294.372	578.12
294.603	540.12
294.833	574.12
295.064	579.12
295.295	584.12
295.525	558.12
295.756	562.12
295.987	550.12
296.217	588.12
296.448	587.12
296.679	586.12
296.909	583.12
297.14	588.12
297.37	587.12
297.601	598.12
297.831	596.12
298.062	580.12
298.292	607.12
298.523	575.12
298.753	620.12
298.984	594.12
299.214	581.12
299.445	604.12
299.675	612.12
299.905	608.12
300.136	614.12
300.366	639.12
300.597	634.12
300.827	627.12
301.057	616.12
301.288	648.12
301.518	623.12
301.748	618.12
301.979	646.12
302.209	626.12
302.439	641.12
302.669	629.12
302.9	644.12
303.13	655.12
303.36	663.12
303.59	638.12
303.82	654.12
304.051	634.12
304.281	669.12
304.511	654.12
304.741	636.12
304.971	663.12
305.201	636.12
305.431	670.12
305.661	666.12
305.891	664.12
306.121	660.12
306.352	663.12
306.582	683.12
306.812	666.12
307.042	648.12
307.272	654.12
307.502	665.12
307.731	660.12
307.961	670.12
308.191	662.12
308.421	645.12
308.651	655.12
308.881	643.12
309.111	682.12
309.341	678.12
309.571	700.12
309.8	675.12
310.03	705.12
310.26	701.12
310.49	685.12
310.72	671.12
310.949	695.12
311.179	672.12
311.409	685.12
311.639	688.12
311.868	701.12
312.098	698.12
312.328	697.12
312.557	717.12
312.787	702.12
313.017	712.12
313.246	707.12
313.476	733.12
313.706	718.12
313.935	707.12
314.165	733.12
314.394	746.12
314.624	745.12
314.853	720.12
315.083	756.12
315.312	747.12
315.542	769.12
315.771	761.12
316.001	756.12
316.23	746.12
316.46	759.12
316.689	797.12
316.919	782.12
317.148	787.12
317.377	759.12
317.607	778.12
317.836	791.12
318.065	768.12
318.295	791.12
318.524	804.12
318.753	796.12
318.983	815.12
319.212	794.12
319.441	804.12
319.67	796.12
319.9	795.12
320.129	807.12
320.358	818.12
320.587	804.12
320.816	808.12
321.046	831.12
321.275	802.12
321.504	844.12
321.733	839.12
321.962	842.12
322.191	847.12
322.42	854.12
322.649	858.12
322.878	845.12
323.108	861.12
323.337	862.12
323.566	841.12
323.795	842.12
324.024	882.12
324.253	890.12
324.482	898.12
324.71	920.12
324.939	892.12
325.168	889.12
325.397	893.12
325.626	888.12
325.855	890.12
326.084	919.12
326.313	903.12
326.542	937.12
326.77	943.12
326.999	928.12
327.228	920.12
327.457	940.12
327.686	951.12
327.914	945.12
328.143	949.12
328.372	931.12
328.6	927.12
328.829	908.12
329.058	931.12
329.287	976.12
329.515	979.12
329.744	948.12
329.972	969.12
330.201	1015.12
330.43	1015.12
330.658	984.12
330.887	1031.12
331.115	1018.12
331.344	1013.12
331.572	1005.12
331.801	1050.12
332.03	1010.12
332.258	1008.12
332.486	1035.12
332.715	1066.12
332.943	1025.12
333.172	1065.12
333.4	1074.12
333.629	1081.12
333.857	1104.12
334.085	1103.12
334.314	1097.12
334.542	1099.12
334.771	1152.12
334.999	1089.12
335.227	1138.12
335.455	1119.12
335.684	1113.12
335.912	1144.12
336.14	1122.12
336.369	1138.12
336.597	1131.12
336.825	1152.12
337.053	1169.12
337.281	1128.12
337.51	1140.12
337.738	1130.12
337.966	1129.12
338.194	1151.12
338.422	1103.12
338.65	1088.12
338.878	1105.12
339.106	1121.12
339.334	1104.12
339.562	1095.12
339.79	1049.12
340.018	1082.12
340.246	1084.12
340.474	1079.12
340.702	1081.12
340.93	1063.12
341.158	1091.12
341.386	1109.12
341.614	1131.12
341.842	1100.12
342.07	1059.12
342.298	1068.12
342.526	1082.12
342.754	1060.12
342.981	1069.12
343.209	1107.12
343.437	1138.12
343.665	1125.12
343.893	1136.12
344.12	1151.12
344.348	1132.12
344.576	1142.12
344.804	1131.12
345.031	1117.12
345.259	1116.12
345.487	1094.12
345.714	1107.12
345.942	1079.12
346.17	1109.12
346.397	1080.12
346.625	1085.12
346.853	1060.12
347.08	1039.12
347.308	1061.12
347.535	1043.12
347.763	1079.12
347.99	1082.12
348.218	1050.12
348.445	1040.12
348.673	1048.12
348.9	1025.12
349.128	1067.12
349.355	1058.12
349.583	1061.12
349.81	1033.12
350.037	1040.12
350.265	1035.12
350.492	1015.12
350.72	1027.12
350.947	1053.12
351.174	1064.12
351.402	1040.12
351.629	1033.12
351.856	1057.12
352.083	1039.12
352.311	1060.12
352.538	1066.12
352.765	1028.12
352.992	994.12
353.22	986.12
353.447	959.12
353.674	1010.12
353.901	964.12
354.128	1030.12
354.355	1026.12
354.583	1026.12
354.81	1006.12
355.037	1041.12
355.264	1018.12
355.491	1010.12
355.718	1010.12
355.945	1002.12
356.172	1002.12
356.399	1010.12
356.626	1026.12
356.853	1003.12
357.08	1007.12
357.307	998.12
357.534	1005.12
357.761	1016.12
357.988	1030.12
358.215	1015.12
358.441	1017.12
358.668	982.12
358.895	996.12
359.122	984.12
359.349	1016.12
359.576	1026.12
359.802	1031.12
360.029	1009.12
360.256	1038.12
360.483	996.12
360.709	1012.12
360.936	1038.12
361.163	1015.12
361.39	999.12
361.616	1020.12
361.843	1017.12
362.07	1066.12
362.296	1028.12
362.523	979.12
362.749	998.12
362.976	995.12
363.203	1006.12
363.429	999.12
363.656	1022.12
363.882	1016.12
364.109	1013.12
364.335	1022.12
364.562	974.12
364.788	1007.12
365.015	988.12
365.241	1038.12
365.468	1031.12
365.694	1000.12
365.92	982.12
366.147	1028.12
366.373	1023.12
366.599	1019.12
366.826	1007.12
367.052	1033.12
367.278	1039.12
367.505	1008.12
367.731	996.12
367.957	1029.12
368.184	994.12
368.41	1010.12
368.636	1036.12
368.862	1055.12
369.089	1023.12
369.315	1034.12
369.541	1030.12
369.767	1014.12
369.993	1000.12
370.219	1026.12
370.445	1022.12
370.672	1032.12
370.898	1049.12
371.124	1015.12
371.35	1044.12
371.576	1045.12
371.802	1049.12
372.028	1036.12
372.254	1026.12
372.48	1042.12
372.706	1040.12
372.932	1056.12
373.158	1033.12
373.384	1037.12
373.61	1033.12
373.835	1034.12
374.061	1053.12
374.287	1069.12
374.513	1082.12
374.739	1062.12
374.965	1026.12
375.191	1044.12
375.416	1050.12
375.642	1055.12
375.868	1059.12
376.094	1059.12
376.319	1047.12
376.545	1015.12
376.771	1006.12
376.997	1011.12
377.222	1018.12
377.448	980.12
377.674	1017.12
377.899	1031.12
378.125	1006.12
378.35	1027.12
378.576	1002.12
378.802	1024.12
379.027	1006.12
379.253	1014.12
379.478	987.12
379.704	1002.12
379.929	966.12
380.155	1027.12
380.38	997.12
380.606	1045.12
380.831	1034.12
381.057	1022.12
381.282	1001.12
381.507	1003.12
381.733	986.12
381.958	1043.12
382.184	1045.12
382.409	1049.12
382.634	1021.12
382.86	1032.12
383.085	1047.12
383.31	1038.12
383.535	1017.12
383.761	1045.12
383.986	1047.12
384.211	1055.12
384.436	1046.12
384.662	1080.12
384.887	1060.12
385.112	1103.12
385.337	1090.12
385.562	1113.12
385.787	1120.12
386.013	1132.12
386.238	1102.12
386.463	1094.12
386.688	1111.12
386.913	1106.12
387.138	1085.12
387.363	1122.12
387.588	1091.12
387.813	1131.12
388.038	1138.12
388.263	1139.12
388.488	1127.12
388.713	1144.12
388.938	1139.12
389.163	1142.12
389.387	1152.12
389.612	1127.12
389.837	1130.12
390.062	1109.12
390.287	1147.12
390.512	1123.12
390.736	1120.12
390.961	1182.12
391.186	1152.12
391.411	1151.12
391.636	1182.12
391.86	1198.12
392.085	1180.12
392.31	1166.12
392.534	1154.12
392.759	1176.12
392.984	1150.12
393.208	1162.12
393.433	1186.12
393.658	1204.12
393.882	1151.12
394.107	1183.12
394.331	1195.12
394.556	1198.12
394.78	1168.12
395.005	1167.12
395.229	1181.12
395.454	1202.12
395.678	1199.12
395.903	1193.12
396.127	1190.12
396.352	1217.12
396.576	1235.12
396.801	1212.12
397.025	1220.12
397.249	1206.12
397.474	1228.12
397.698	1224.12
397.922	1272.12
398.147	1273.12
398.371	1275.12
398.595	1257.12
398.82	1318.12
399.044	1341.12
399.268	1369.12
399.492	1396.12
399.717	1430.12
399.941	1466.12
400.165	1426.12
400.389	1460.12
400.613	1374.12
400.837	1362.12
401.062	1360.12
401.286	1366.12
401.51	1311.12
401.734	1316.12
401.958	1354.12
402.182	1323.12
402.406	1317.12
402.63	1272.12
402.854	1314.12
403.078	1297.12
403.302	1293.12
403.526	1307.12
403.75	1319.12
403.974	1327.12
404.198	1315.12
404.422	1312.12
404.645	1324.12
404.869	1333.12
405.093	1346.12
405.317	1316.12
405.541	1356.12
405.765	1376.12
405.988	1363.12
406.212	1365.12
406.436	1387.12
406.66	1378.12
406.883	1376.12
407.107	1451.12
407.331	1455.12
407.555	1478.12
407.778	1462.12
408.002	1462.12
408.226	1436.12
408.449	1468.12
408.673	1436.12
408.896	1421.12
409.12	1438.12
409.344	1427.12
409.567	1410.12
409.791	1413.12
410.014	1429.12
410.238	1386.12
410.461	1420.12
410.685	1419.12
410.908	1405.12
411.132	1403.12
411.355	1359.12
411.578	1405.12
411.802	1363.12
412.025	1344.12
412.249	1362.12
412.472	1354.12
412.695	1348.12
412.919	1363.12
413.142	1365.12
413.365	1343.12
413.589	1352.12
413.812	1333.12
414.035	1336.12
414.258	1340.12
414.482	1357.12
414.705	1327.12
414.928	1327.12
415.151	1355.12
415.374	1324.12
415.597	1335.12
415.821	1307.12
416.044	1288.12
416.267	1307.12
416.49	1310.12
416.713	1276.12
416.936	1335.12
417.159	1320.12
417.382	1305.12
417.605	1258.12
417.828	1249.12
418.051	1274.12
418.274	1324.12
418.497	1259.12
418.72	1267.12
418.943	1294.12
419.166	1357.12
419.389	1437.12
419.611	1378.12
419.834	1383.12
420.057	1346.12
420.28	1311.12
420.503	1288.12
420.726	1280.12
420.948	1292.12
421.171	1289.12
421.394	1289.12
421.617	1267.12
421.839	1317.12
422.062	1333.12
422.285	1249.12
422.507	1314.12
422.73	1285.12
422.953	1284.12
423.175	1274.12
423.398	1295.12
423.621	1298.12
423.843	1308.12
424.066	1311.12
424.288	1317.12
424.511	1283.12
424.733	1324.12
424.956	1316.12
425.178	1322.12
425.401	1294.12
425.623	1334.12
425.846	1272.12
426.068	1310.12
426.291	1306.12
426.513	1336.12
426.735	1268.12
426.958	1325.12
427.18	1296.12
427.402	1270.12
427.625	1300.12
427.847	1259.12
428.069	1262.12
428.292	1291.12
428.514	1286.12
428.736	1249.12
428.958	1294.12
429.181	1294.12
429.403	1256.12
429.625	1272.12
429.847	1267.12
430.069	1267.12
430.292	1294.12
430.514	1276.12
430.736	1270.12
430.958	1264.12
431.18	1292.12
431.402	1238.12
431.624	1309.12
431.846	1270.12
432.068	1236.12
432.29	1266.12
432.512	1320.12
432.734	1293.12
432.956	1310.12
433.178	1336.12
433.4	1304.12
433.622	1320.12
433.844	1342.12
434.066	1291.12
434.287	1317.12
434.509	1292.12
434.731	1301.12
434.953	1301.12
435.175	1336.12
435.397	1352.12
435.618	1344.12
435.84	1308.12
436.062	1274.12
436.284	1278.12
436.505	1262.12
436.727	1297.12
436.949	1296.12
437.17	1282.12
437.392	1283.12
437.614	1262.12
437.835	1254.12
438.057	1255.12
438.278	1238.12
438.5	1254.12
438.721	1258.12
438.943	1257.12
439.165	1246.12
439.386	1260.12
439.608	1283.12
439.829	1278.12
440.05	1268.12
440.272	1284.12
440.493	1285.12
440.715	1325.12
440.936	1320.12
441.158	1335.12
441.379	1331.12
441.6	1358.12
441.822	1340.12
442.043	1338.12
442.264	1342.12
442.486	1310.12
442.707	1368.12
442.928	1324.12
443.149	1328.12
443.371	1363.12
443.592	1374.12
443.813	1371.12
444.034	1336.12
444.255	1342.12
444.476	1382.12
444.698	1397.12
444.919	1381.12
445.14	1503.12
445.361	1421.12
445.582	1357.12
445.803	1326.12
446.024	1306.12
446.245	1285.12
446.466	1322.12
446.687	1282.12
446.908	1275.12
447.129	1298.12
447.35	1279.12
447.571	1262.12
447.792	1246.12
448.013	1234.12
448.234	1228.12
448.455	1236.12
448.675	1229.12
448.896	1209.12
449.117	1252.12
449.338	1228.12
449.559	1190.12
449.779	1195.12
450	1182.12
450.221	1170.12
450.442	1205.12
450.662	1183.12
450.883	1185.12
451.104	1214.12
451.324	1169.12
451.545	1156.12
451.766	1180.12
451.986	1190.12
452.207	1197.12
452.428	1204.12
452.648	1170.12
452.869	1140.12
453.089	1140.12
453.31	1186.12
453.53	1158.12
453.751	1167.12
453.971	1193.12
454.192	1160.12
454.412	1155.12
454.633	1173.12
454.853	1130.12
455.073	1154.12
455.294	1155.12
455.514	1163.12
455.734	1151.12
455.955	1147.12
456.175	1139.12
456.395	1149.12
456.616	1135.12
456.836	1161.12
457.056	1154.12
457.276	1115.12
457.497	1158.12
457.717	1152.12
457.937	1192.12
458.157	1174.12
458.377	1184.12
458.598	1175.12
458.818	1182.12
459.038	1203.12
459.258	1220.12
459.478	1247.12
459.698	1293.12
459.918	1310.12
460.138	1293.12
460.358	1293.12
460.578	1334.12
460.798	1364.12
461.018	1378.12
461.238	1343.12
461.458	1353.12
461.678	1355.12
461.898	1391.12
462.118	1369.12
462.338	1384.12
462.558	1453.12
462.777	1450.12
462.997	1446.12
463.217	1468.12
463.437	1518.12
463.657	1484.12
463.876	1447.12
464.096	1447.12
464.316	1452.12
464.536	1436.12
464.755	1431.12
464.975	1401.12
465.195	1362.12
465.414	1359.12
465.634	1288.12
465.854	1302.12
466.073	1287.12
466.293	1285.12
466.512	1246.12
466.732	1250.12
466.951	1275.12
467.171	1241.12
467.391	1260.12
467.61	1241.12
467.829	1255.12
468.049	1220.12
468.268	1245.12
468.488	1246.12
468.707	1183.12
468.927	1231.12
469.146	1245.12
469.365	1243.12
469.585	1219.12
469.804	1254.12
470.023	1270.12
470.243	1241.12
470.462	1286.12
470.681	1252.12
470.901	1296.12
471.12	1242.12
471.339	1281.12
471.558	1261.12
471.777	1248.12
471.997	1207.12
472.216	1219.12
472.435	1228.12
472.654	1207.12
472.873	1224.12
473.092	1248.12
473.311	1259.12
473.53	1224.12
473.749	1207.12
473.968	1258.12
474.187	1251.12
474.406	1238.12
474.625	1235.12
474.844	1271.12
475.063	1300.12
475.282	1246.12
475.501	1292.12
475.72	1299.12
475.939	1304.12
476.158	1305.12
476.377	1318.12
476.596	1346.12
476.814	1321.12
477.033	1316.12
477.252	1361.12
477.471	1359.12
477.69	1373.12
477.908	1384.12
478.127	1376.12
478.346	1404.12
478.564	1425.12
478.783	1457.12
479.002	1465.12
479.22	1486.12
479.439	1463.12
479.658	1448.12
479.876	1413.12
480.095	1469.12
480.313	1488.12
480.532	1470.12
480.751	1471.12
480.969	1435.12
481.188	1440.12
481.406	1470.12
481.624	1448.12
481.843	1437.12
482.061	1435.12
482.28	1461.12
482.498	1450.12
482.717	1431.12
482.935	1461.12
483.153	1495.12
483.372	1485.12
483.59	1474.12
483.808	1447.12
484.027	1467.12
484.245	1463.12
484.463	1452.12
484.681	1498.12
484.9	1468.12
485.118	1460.12
485.336	1452.12
485.554	1448.12
485.772	1451.12
485.99	1455.12
486.209	1491.12
486.427	1480.12
486.645	1489.12
486.863	1469.12
487.081	1467.12
487.299	1538.12
487.517	1484.12
487.735	1516.12
487.953	1515.12
488.171	1562.12
488.389	1516.12
488.607	1523.12
488.825	1538.12
489.043	1486.12
489.261	1502.12
489.479	1511.12
489.696	1511.12
489.914	1516.12
490.132	1506.12
490.35	1509.12
490.568	1547.12
490.786	1583.12
491.003	1550.12
491.221	1589.12
491.439	1541.12
491.657	1574.12
491.874	1590.12
492.092	1580.12
