Data from Ni(NO3)2@0.25M.TitratingCurve.Agarose3%dH2O.NegLispCup.LampEnergy10.LIBS07252019_HRD10591_18-03-14-565.txt Node
Date: Thu Jul 25 18:03:14 EDT 2019
User: cochatt
Spectrometer: HR+D1059
Trigger mode: 1
Integration Time (sec): 1.000000E-1
Scans to average: 1
Electric dark correction enabled: true
Nonlinearity correction enabled: false
Boxcar width: 0
XAxis mode: Wavelengths
Number of Pixels in Spectrum: 2048
>>>>>Begin Spectral Data<<<<<
223.165	-18.81
223.4	-18.81
223.635	-18.81
223.869	-13.81
224.104	-18.81
224.338	-25.81
224.573	-14.81
224.808	-17.81
225.042	-8.81
225.277	-5.81
225.511	6.19
225.746	8.19
225.98	7.19
226.215	8.19
226.449	11.19
226.683	34.19
226.918	36.19
227.152	13.19
227.387	35.19
227.621	39.19
227.856	45.19
228.09	46.19
228.324	49.19
228.559	69.19
228.793	56.19
229.027	91.19
229.262	96.19
229.496	97.19
229.73	91.19
229.964	112.19
230.199	108.19
230.433	111.19
230.667	124.19
230.901	112.19
231.136	120.19
231.37	113.19
231.604	133.19
231.838	128.19
232.072	125.19
232.306	117.19
232.541	112.19
232.775	126.19
233.009	114.19
233.243	114.19
233.477	122.19
233.711	112.19
233.945	115.19
234.179	133.19
234.413	125.19
234.647	128.19
234.881	125.19
235.115	136.19
235.349	125.19
235.583	118.19
235.817	126.19
236.051	129.19
236.285	133.19
236.519	129.19
236.753	137.19
236.987	123.19
237.221	129.19
237.455	119.19
237.689	129.19
237.922	121.19
238.156	138.19
238.39	124.19
238.624	130.19
238.858	127.19
239.091	133.19
239.325	157.19
239.559	134.19
239.793	126.19
240.027	138.19
240.26	133.19
240.494	140.19
240.728	136.19
240.961	142.19
241.195	153.19
241.429	136.19
241.662	146.19
241.896	136.19
242.13	156.19
242.363	150.19
242.597	152.19
242.83	153.19
243.064	153.19
243.298	151.19
243.531	144.19
243.765	143.19
243.998	158.19
244.232	141.19
244.465	165.19
244.699	154.19
244.932	164.19
245.166	184.19
245.399	154.19
245.633	172.19
245.866	162.19
246.099	176.19
246.333	179.19
246.566	166.19
246.8	160.19
247.033	157.19
247.266	159.19
247.5	186.19
247.733	180.19
247.966	185.19
248.2	184.19
248.433	184.19
248.666	180.19
248.899	174.19
249.133	177.19
249.366	176.19
249.599	188.19
249.832	186.19
250.066	201.19
250.299	193.19
250.532	201.19
250.765	195.19
250.998	200.19
251.231	202.19
251.465	193.19
251.698	219.19
251.931	188.19
252.164	206.19
252.397	230.19
252.63	230.19
252.863	214.19
253.096	213.19
253.329	213.19
253.562	205.19
253.795	205.19
254.028	210.19
254.261	252.19
254.494	214.19
254.727	224.19
254.96	229.19
255.193	225.19
255.426	206.19
255.659	236.19
255.892	227.19
256.124	230.19
256.357	249.19
256.59	248.19
256.823	241.19
257.056	233.19
257.289	248.19
257.521	246.19
257.754	242.19
257.987	239.19
258.22	227.19
258.452	235.19
258.685	256.19
258.918	250.19
259.151	251.19
259.383	273.19
259.616	240.19
259.849	260.19
260.081	254.19
260.314	258.19
260.547	254.19
260.779	271.19
261.012	267.19
261.244	290.19
261.477	255.19
261.71	275.19
261.942	261.19
262.175	263.19
262.407	267.19
262.64	274.19
262.872	271.19
263.105	278.19
263.337	286.19
263.57	273.19
263.802	288.19
264.035	289.19
264.267	288.19
264.499	299.19
264.732	307.19
264.964	269.19
265.197	298.19
265.429	300.19
265.661	279.19
265.894	301.19
266.126	282.19
266.358	294.19
266.591	289.19
266.823	284.19
267.055	297.19
267.287	297.19
267.52	305.19
267.752	304.19
267.984	301.19
268.216	300.19
268.448	318.19
268.681	298.19
268.913	310.19
269.145	304.19
269.377	294.19
269.609	299.19
269.841	300.19
270.073	296.19
270.306	299.19
270.538	307.19
270.77	298.19
271.002	304.19
271.234	309.19
271.466	323.19
271.698	311.19
271.93	332.19
272.162	295.19
272.394	329.19
272.626	294.19
272.858	309.19
273.09	316.19
273.322	337.19
273.553	317.19
273.785	319.19
274.017	329.19
274.249	328.19
274.481	314.19
274.713	316.19
274.945	334.19
275.176	344.19
275.408	332.19
275.64	331.19
275.872	347.19
276.104	341.19
276.335	337.19
276.567	333.19
276.799	328.19
277.031	332.19
277.262	361.19
277.494	340.19
277.726	340.19
277.957	358.19
278.189	321.19
278.421	354.19
278.652	327.19
278.884	350.19
279.115	345.19
279.347	336.19
279.579	332.19
279.81	364.19
280.042	343.19
280.273	348.19
280.505	369.19
280.736	340.19
280.968	339.19
281.199	351.19
281.431	361.19
281.662	357.19
281.894	375.19
282.125	346.19
282.356	375.19
282.588	361.19
282.819	348.19
283.051	361.19
283.282	361.19
283.513	390.19
283.745	372.19
283.976	389.19
284.207	366.19
284.439	366.19
284.67	378.19
284.901	378.19
285.132	378.19
285.364	374.19
285.595	379.19
285.826	366.19
286.057	386.19
286.288	388.19
286.52	371.19
286.751	389.19
286.982	395.19
287.213	384.19
287.444	397.19
287.675	384.19
287.906	394.19
288.138	418.19
288.369	376.19
288.6	382.19
288.831	386.19
289.062	386.19
289.293	397.19
289.524	396.19
289.755	410.19
289.986	387.19
290.217	409.19
290.448	390.19
290.679	410.19
290.91	388.19
291.141	383.19
291.371	393.19
291.602	398.19
291.833	371.19
292.064	389.19
292.295	406.19
292.526	421.19
292.757	392.19
292.987	388.19
293.218	390.19
293.449	397.19
293.68	402.19
293.91	387.19
294.141	393.19
294.372	380.19
294.603	404.19
294.833	408.19
295.064	418.19
295.295	407.19
295.525	412.19
295.756	382.19
295.987	398.19
296.217	413.19
296.448	428.19
296.679	410.19
296.909	412.19
297.14	433.19
297.37	416.19
297.601	424.19
297.831	410.19
298.062	414.19
298.292	431.19
298.523	459.19
298.753	448.19
298.984	436.19
299.214	446.19
299.445	439.19
299.675	450.19
299.905	422.19
300.136	420.19
300.366	425.19
300.597	422.19
300.827	471.19
301.057	434.19
301.288	454.19
301.518	457.19
301.748	455.19
301.979	481.19
302.209	433.19
302.439	471.19
302.669	444.19
302.9	469.19
303.13	428.19
303.36	454.19
303.59	438.19
303.82	444.19
304.051	446.19
304.281	438.19
304.511	454.19
304.741	439.19
304.971	458.19
305.201	461.19
305.431	484.19
305.661	467.19
305.891	449.19
306.121	474.19
306.352	456.19
306.582	454.19
306.812	441.19
307.042	432.19
307.272	443.19
307.502	451.19
307.731	457.19
307.961	430.19
308.191	435.19
308.421	448.19
308.651	452.19
308.881	456.19
309.111	452.19
309.341	436.19
309.571	445.19
309.8	457.19
310.03	470.19
310.26	487.19
310.49	491.19
310.72	480.19
310.949	450.19
311.179	462.19
311.409	460.19
311.639	457.19
311.868	472.19
312.098	485.19
312.328	485.19
312.557	493.19
312.787	473.19
313.017	473.19
313.246	493.19
313.476	486.19
313.706	494.19
313.935	514.19
314.165	504.19
314.394	516.19
314.624	525.19
314.853	501.19
315.083	527.19
315.312	521.19
315.542	524.19
315.771	492.19
316.001	500.19
316.23	510.19
316.46	496.19
316.689	496.19
316.919	503.19
317.148	509.19
317.377	513.19
317.607	512.19
317.836	511.19
318.065	515.19
318.295	511.19
318.524	527.19
318.753	535.19
318.983	530.19
319.212	510.19
319.441	517.19
319.67	529.19
319.9	517.19
320.129	517.19
320.358	526.19
320.587	518.19
320.816	526.19
321.046	526.19
321.275	523.19
321.504	529.19
321.733	535.19
321.962	550.19
322.191	572.19
322.42	550.19
322.649	550.19
322.878	547.19
323.108	565.19
323.337	563.19
323.566	570.19
323.795	583.19
324.024	572.19
324.253	568.19
324.482	578.19
324.71	564.19
324.939	591.19
325.168	578.19
325.397	580.19
325.626	613.19
325.855	595.19
326.084	601.19
326.313	612.19
326.542	638.19
326.77	627.19
326.999	616.19
327.228	614.19
327.457	629.19
327.686	613.19
327.914	626.19
328.143	630.19
328.372	614.19
328.6	625.19
328.829	615.19
329.058	626.19
329.287	621.19
329.515	674.19
329.744	640.19
329.972	635.19
330.201	665.19
330.43	644.19
330.658	644.19
330.887	659.19
331.115	681.19
331.344	682.19
331.572	675.19
331.801	712.19
332.03	704.19
332.258	724.19
332.486	753.19
332.715	756.19
332.943	782.19
333.172	772.19
333.4	811.19
333.629	836.19
333.857	852.19
334.085	860.19
334.314	838.19
334.542	834.19
334.771	836.19
334.999	788.19
335.227	798.19
335.455	790.19
335.684	806.19
335.912	808.19
336.14	783.19
336.369	783.19
336.597	798.19
336.825	804.19
337.053	805.19
337.281	771.19
337.51	755.19
337.738	755.19
337.966	756.19
338.194	754.19
338.422	721.19
338.65	721.19
338.878	702.19
339.106	734.19
339.334	734.19
339.562	729.19
339.79	686.19
340.018	696.19
340.246	692.19
340.474	688.19
340.702	706.19
340.93	699.19
341.158	678.19
341.386	718.19
341.614	722.19
341.842	686.19
342.07	694.19
342.298	709.19
342.526	705.19
342.754	693.19
342.981	722.19
343.209	706.19
343.437	760.19
343.665	792.19
343.893	790.19
344.12	831.19
344.348	795.19
344.576	788.19
344.804	796.19
345.031	744.19
345.259	708.19
345.487	745.19
345.714	725.19
345.942	710.19
346.17	722.19
346.397	711.19
346.625	672.19
346.853	686.19
347.08	698.19
347.308	653.19
347.535	708.19
347.763	692.19
347.99	671.19
348.218	682.19
348.445	667.19
348.673	689.19
348.9	680.19
349.128	689.19
349.355	663.19
349.583	683.19
349.81	654.19
350.037	668.19
350.265	654.19
350.492	642.19
350.72	653.19
350.947	644.19
351.174	659.19
351.402	673.19
351.629	694.19
351.856	650.19
352.083	666.19
352.311	655.19
352.538	675.19
352.765	674.19
352.992	655.19
353.22	630.19
353.447	644.19
353.674	656.19
353.901	640.19
354.128	637.19
354.355	639.19
354.583	653.19
354.81	642.19
355.037	648.19
355.264	671.19
355.491	657.19
355.718	656.19
355.945	644.19
356.172	652.19
356.399	665.19
356.626	660.19
356.853	676.19
357.08	641.19
357.307	682.19
357.534	636.19
357.761	626.19
357.988	656.19
358.215	631.19
358.441	640.19
358.668	648.19
358.895	644.19
359.122	659.19
359.349	645.19
359.576	652.19
359.802	652.19
360.029	657.19
360.256	652.19
360.483	660.19
360.709	648.19
360.936	655.19
361.163	659.19
361.39	654.19
361.616	687.19
361.843	648.19
362.07	685.19
362.296	674.19
362.523	646.19
362.749	654.19
362.976	662.19
363.203	656.19
363.429	661.19
363.656	667.19
363.882	645.19
364.109	660.19
364.335	649.19
364.562	621.19
364.788	652.19
365.015	651.19
365.241	651.19
365.468	645.19
365.694	640.19
365.92	614.19
366.147	637.19
366.373	642.19
366.599	635.19
366.826	638.19
367.052	627.19
367.278	648.19
367.505	649.19
367.731	633.19
367.957	638.19
368.184	621.19
368.41	658.19
368.636	652.19
368.862	632.19
369.089	665.19
369.315	642.19
369.541	656.19
369.767	662.19
369.993	650.19
370.219	666.19
370.445	666.19
370.672	683.19
370.898	690.19
371.124	669.19
371.35	665.19
371.576	676.19
371.802	666.19
372.028	670.19
372.254	679.19
372.48	685.19
372.706	701.19
372.932	709.19
373.158	693.19
373.384	685.19
373.61	690.19
373.835	698.19
374.061	663.19
374.287	685.19
374.513	692.19
374.739	696.19
374.965	703.19
375.191	728.19
375.416	728.19
375.642	704.19
375.868	700.19
376.094	675.19
376.319	698.19
376.545	682.19
376.771	676.19
376.997	677.19
377.222	672.19
377.448	658.19
377.674	652.19
377.899	670.19
378.125	659.19
378.35	664.19
378.576	661.19
378.802	647.19
379.027	658.19
379.253	660.19
379.478	652.19
379.704	667.19
379.929	654.19
380.155	661.19
380.38	645.19
380.606	643.19
380.831	650.19
381.057	662.19
381.282	657.19
381.507	640.19
381.733	659.19
381.958	654.19
382.184	679.19
382.409	688.19
382.634	677.19
382.86	700.19
383.085	714.19
383.31	711.19
383.535	704.19
383.761	737.19
383.986	710.19
384.211	740.19
384.436	759.19
384.662	747.19
384.887	744.19
385.112	764.19
385.337	770.19
385.562	773.19
385.787	768.19
386.013	803.19
386.238	782.19
386.463	764.19
386.688	796.19
386.913	785.19
387.138	792.19
387.363	753.19
387.588	767.19
387.813	776.19
388.038	778.19
388.263	755.19
388.488	774.19
388.713	777.19
388.938	782.19
389.163	752.19
389.387	763.19
389.612	761.19
389.837	769.19
390.062	757.19
390.287	774.19
390.512	753.19
390.736	769.19
390.961	786.19
391.186	803.19
391.411	817.19
391.636	833.19
391.86	862.19
392.085	852.19
392.31	872.19
392.534	856.19
392.759	842.19
392.984	795.19
393.208	803.19
393.433	809.19
393.658	812.19
393.882	829.19
394.107	835.19
394.331	851.19
394.556	833.19
394.78	825.19
395.005	839.19
395.229	838.19
395.454	869.19
395.678	867.19
395.903	867.19
396.127	859.19
396.352	828.19
396.576	843.19
396.801	861.19
397.025	861.19
397.249	849.19
397.474	893.19
397.698	869.19
397.922	912.19
398.147	886.19
398.371	924.19
398.595	958.19
398.82	990.19
399.044	1056.19
399.268	1131.19
399.492	1239.19
399.717	1351.19
399.941	1336.19
400.165	1228.19
400.389	1152.19
400.613	1101.19
400.837	1040.19
401.062	996.19
401.286	986.19
401.51	980.19
401.734	957.19
401.958	989.19
402.182	979.19
402.406	1038.19
402.63	1027.19
402.854	1028.19
403.078	1080.19
403.302	1047.19
403.526	1077.19
403.75	1063.19
403.974	1054.19
404.198	1070.19
404.422	1102.19
404.645	1058.19
404.869	1104.19
405.093	1090.19
405.317	1080.19
405.541	1062.19
405.765	1031.19
405.988	1035.19
406.212	1088.19
406.436	1084.19
406.66	1057.19
406.883	1116.19
407.107	1174.19
407.331	1205.19
407.555	1261.19
407.778	1224.19
408.002	1212.19
408.226	1164.19
408.449	1185.19
408.673	1118.19
408.896	1110.19
409.12	1090.19
409.344	1096.19
409.567	1075.19
409.791	1129.19
410.014	1116.19
410.238	1088.19
410.461	1076.19
410.685	1074.19
410.908	1051.19
411.132	1044.19
411.355	1002.19
411.578	1023.19
411.802	1001.19
412.025	1009.19
412.249	1037.19
412.472	1043.19
412.695	1010.19
412.919	1029.19
413.142	1004.19
413.365	990.19
413.589	1017.19
413.812	981.19
414.035	986.19
414.258	1010.19
414.482	1000.19
414.705	1002.19
414.928	1014.19
415.151	1044.19
415.374	1021.19
415.597	1000.19
415.821	999.19
416.044	975.19
416.267	987.19
416.49	968.19
416.713	988.19
416.936	1002.19
417.159	964.19
417.382	996.19
417.605	982.19
417.828	983.19
418.051	1001.19
418.274	1003.19
418.497	1006.19
418.72	1035.19
418.943	984.19
419.166	1083.19
419.389	1136.19
419.611	1102.19
419.834	1062.19
420.057	1050.19
420.28	1028.19
420.503	997.19
420.726	985.19
420.948	1009.19
421.171	1008.19
421.394	1023.19
421.617	999.19
421.839	1008.19
422.062	1004.19
422.285	958.19
422.507	1023.19
422.73	1018.19
422.953	1028.19
423.175	1060.19
423.398	1061.19
423.621	1037.19
423.843	1071.19
424.066	1058.19
424.288	1029.19
424.511	1050.19
424.733	1046.19
424.956	996.19
425.178	1004.19
425.401	1018.19
425.623	1006.19
425.846	985.19
426.068	1002.19
426.291	989.19
426.513	970.19
426.735	963.19
426.958	984.19
427.18	941.19
427.402	980.19
427.625	952.19
427.847	949.19
428.069	899.19
428.292	934.19
428.514	940.19
428.736	952.19
428.958	966.19
429.181	917.19
429.403	930.19
429.625	899.19
429.847	924.19
430.069	928.19
430.292	943.19
430.514	909.19
430.736	932.19
430.958	902.19
431.18	911.19
431.402	920.19
431.624	957.19
431.846	952.19
432.068	941.19
432.29	949.19
432.512	938.19
432.734	956.19
432.956	950.19
433.178	948.19
433.4	965.19
433.622	942.19
433.844	936.19
434.066	947.19
434.287	932.19
434.509	988.19
434.731	1005.19
434.953	1012.19
435.175	1021.19
435.397	1037.19
435.618	997.19
435.84	947.19
436.062	945.19
436.284	901.19
436.505	937.19
436.727	982.19
436.949	944.19
437.17	952.19
437.392	956.19
437.614	891.19
437.835	872.19
438.057	907.19
438.278	912.19
438.5	921.19
438.721	922.19
438.943	934.19
439.165	924.19
439.386	942.19
439.608	927.19
439.829	947.19
440.05	979.19
440.272	964.19
440.493	926.19
440.715	976.19
440.936	967.19
441.158	1001.19
441.379	993.19
441.6	1035.19
441.822	1058.19
442.043	1073.19
442.264	1027.19
442.486	1032.19
442.707	1050.19
442.928	1037.19
443.149	1018.19
443.371	1024.19
443.592	1056.19
443.813	1058.19
444.034	1061.19
444.255	1106.19
444.476	1130.19
444.698	1187.19
444.919	1198.19
445.14	1294.19
445.361	1172.19
445.582	1078.19
445.803	1068.19
446.024	1008.19
446.245	1029.19
446.466	990.19
446.687	974.19
446.908	974.19
447.129	911.19
447.35	934.19
447.571	926.19
447.792	893.19
448.013	919.19
448.234	890.19
448.455	897.19
448.675	900.19
448.896	872.19
449.117	902.19
449.338	884.19
449.559	875.19
449.779	852.19
450	902.19
450.221	891.19
450.442	864.19
450.662	889.19
450.883	882.19
451.104	914.19
451.324	877.19
451.545	888.19
451.766	868.19
451.986	869.19
452.207	870.19
452.428	845.19
452.648	852.19
452.869	846.19
453.089	851.19
453.31	852.19
453.53	820.19
453.751	828.19
453.971	819.19
454.192	846.19
454.412	830.19
454.633	833.19
454.853	815.19
455.073	837.19
455.294	846.19
455.514	804.19
455.734	826.19
455.955	792.19
456.175	810.19
456.395	810.19
456.616	800.19
456.836	820.19
457.056	822.19
457.276	797.19
457.497	811.19
457.717	811.19
457.937	830.19
458.157	843.19
458.377	840.19
458.598	841.19
458.818	877.19
459.038	902.19
459.258	889.19
459.478	942.19
459.698	984.19
459.918	1005.19
460.138	1042.19
460.358	1072.19
460.578	1050.19
460.798	1107.19
461.018	1115.19
461.238	1085.19
461.458	1095.19
461.678	1108.19
461.898	1124.19
462.118	1139.19
462.338	1157.19
462.558	1176.19
462.777	1257.19
462.997	1282.19
463.217	1313.19
463.437	1373.19
463.657	1325.19
463.876	1271.19
464.096	1271.19
464.316	1233.19
464.536	1228.19
464.755	1163.19
464.975	1172.19
465.195	1130.19
465.414	1077.19
465.634	974.19
465.854	1024.19
466.073	976.19
466.293	934.19
466.512	937.19
466.732	920.19
466.951	922.19
467.171	909.19
467.391	913.19
467.61	898.19
467.829	912.19
468.049	916.19
468.268	891.19
468.488	898.19
468.707	891.19
468.927	880.19
469.146	882.19
469.365	921.19
469.585	932.19
469.804	945.19
470.023	940.19
470.243	968.19
470.462	948.19
470.681	938.19
470.901	962.19
471.12	921.19
471.339	939.19
471.558	916.19
471.777	919.19
471.997	898.19
472.216	924.19
472.435	886.19
472.654	861.19
472.873	824.19
473.092	869.19
473.311	874.19
473.53	892.19
473.749	851.19
473.968	859.19
474.187	856.19
474.406	853.19
474.625	865.19
474.844	871.19
475.063	906.19
475.282	894.19
475.501	872.19
475.72	884.19
475.939	890.19
476.158	877.19
476.377	894.19
476.596	908.19
476.814	905.19
477.033	913.19
477.252	932.19
477.471	942.19
477.69	966.19
477.908	1022.19
478.127	991.19
478.346	1028.19
478.564	1044.19
478.783	1037.19
479.002	1077.19
479.22	1053.19
479.439	1068.19
479.658	1052.19
479.876	1064.19
480.095	1069.19
480.313	1102.19
480.532	1089.19
480.751	1098.19
480.969	1081.19
481.188	1043.19
481.406	1042.19
481.624	1000.19
481.843	973.19
482.061	1034.19
482.28	1012.19
482.498	963.19
482.717	984.19
482.935	996.19
483.153	976.19
483.372	979.19
483.59	974.19
483.808	982.19
484.027	1001.19
484.245	989.19
484.463	1003.19
484.681	1028.19
484.9	992.19
485.118	1015.19
485.336	1005.19
485.554	1032.19
485.772	1005.19
485.99	1013.19
486.209	1024.19
486.427	1012.19
486.645	991.19
486.863	1025.19
487.081	1032.19
487.299	1003.19
487.517	1021.19
487.735	1032.19
487.953	1048.19
488.171	1048.19
488.389	1034.19
488.607	1033.19
488.825	1030.19
489.043	1026.19
489.261	1023.19
489.479	1045.19
489.696	1021.19
489.914	1032.19
490.132	1054.19
490.35	1039.19
490.568	1040.19
490.786	1068.19
491.003	1055.19
491.221	1063.19
491.439	1060.19
491.657	1062.19
491.874	1087.19
492.092	1092.19
492.31	1110.19
492.527	1098.19
492.745	1091.19
492.963	1134.19
493.18	1093.19
493.398	1094.19
493.615	1118.19
493.833	1122.19
494.05	1107.19
494.268	1114.19
494.485	1129.19
494.703	1118.19
494.92	1162.19
495.138	1123.19
495.355	1120.19
495.573	1117.19
495.79	1163.19
496.008	1154.19
496.225	1172.19
496.442	1165.19
496.66	1195.19
496.877	1184.19
497.094	1206.19
497.312	1286.19
497.529	1252.19
497.746	1282.19
497.963	1321.19
498.181	1394.19
498.398	1441.19
