Data from Ni(NO3)2@0.25M.TitratingCurve.Agarose3%dH2O.NegLispCup.LampEnergy10.LIBS07252019_HRD10591_18-04-54-566.txt Node
Date: Thu Jul 25 18:04:54 EDT 2019
User: cochatt
Spectrometer: HR+D1059
Trigger mode: 1
Integration Time (sec): 1.000000E-1
Scans to average: 1
Electric dark correction enabled: true
Nonlinearity correction enabled: false
Boxcar width: 0
XAxis mode: Wavelengths
Number of Pixels in Spectrum: 2048
>>>>>Begin Spectral Data<<<<<
223.165	-4.12
223.4	-4.12
223.635	-4.12
223.869	-19.12
224.104	-19.12
224.338	-26.12
224.573	-25.12
224.808	-19.12
225.042	-10.12
225.277	1.88
225.511	8.88
225.746	5.88
225.98	9.88
226.215	24.88
226.449	1.88
226.683	20.88
226.918	14.88
227.152	33.88
227.387	24.88
227.621	44.88
227.856	34.88
228.09	43.88
228.324	60.88
228.559	47.88
228.793	69.88
229.027	116.88
229.262	123.88
229.496	122.88
229.73	139.88
229.964	153.88
230.199	141.88
230.433	146.88
230.667	163.88
230.901	158.88
231.136	149.88
231.37	151.88
231.604	161.88
231.838	165.88
232.072	167.88
232.306	169.88
232.541	160.88
232.775	180.88
233.009	166.88
233.243	157.88
233.477	175.88
233.711	180.88
233.945	170.88
234.179	162.88
234.413	175.88
234.647	185.88
234.881	171.88
235.115	171.88
235.349	205.88
235.583	181.88
235.817	175.88
236.051	185.88
236.285	189.88
236.519	203.88
236.753	185.88
236.987	188.88
237.221	170.88
237.455	187.88
237.689	192.88
237.922	189.88
238.156	191.88
238.39	194.88
238.624	192.88
238.858	197.88
239.091	204.88
239.325	205.88
239.559	201.88
239.793	204.88
240.027	241.88
240.26	225.88
240.494	225.88
240.728	219.88
240.961	223.88
241.195	216.88
241.429	219.88
241.662	243.88
241.896	228.88
242.13	237.88
242.363	226.88
242.597	227.88
242.83	242.88
243.064	234.88
243.298	253.88
243.531	262.88
243.765	244.88
243.998	285.88
244.232	267.88
244.465	256.88
244.699	261.88
244.932	262.88
245.166	265.88
245.399	275.88
245.633	267.88
245.866	287.88
246.099	275.88
246.333	281.88
246.566	279.88
246.8	293.88
247.033	281.88
247.266	274.88
247.5	296.88
247.733	295.88
247.966	298.88
248.2	305.88
248.433	298.88
248.666	311.88
248.899	315.88
249.133	313.88
249.366	311.88
249.599	330.88
249.832	321.88
250.066	345.88
250.299	331.88
250.532	317.88
250.765	342.88
250.998	359.88
251.231	353.88
251.465	351.88
251.698	338.88
251.931	338.88
252.164	343.88
252.397	360.88
252.63	371.88
252.863	371.88
253.096	385.88
253.329	371.88
253.562	374.88
253.795	382.88
254.028	386.88
254.261	393.88
254.494	380.88
254.727	387.88
254.96	381.88
255.193	391.88
255.426	394.88
255.659	392.88
255.892	394.88
256.124	387.88
256.357	408.88
256.59	412.88
256.823	408.88
257.056	404.88
257.289	405.88
257.521	432.88
257.754	425.88
257.987	402.88
258.22	423.88
258.452	420.88
258.685	445.88
258.918	431.88
259.151	441.88
259.383	423.88
259.616	443.88
259.849	443.88
260.081	456.88
260.314	459.88
260.547	443.88
260.779	451.88
261.012	469.88
261.244	465.88
261.477	454.88
261.71	478.88
261.942	435.88
262.175	486.88
262.407	477.88
262.64	462.88
262.872	461.88
263.105	439.88
263.337	476.88
263.57	479.88
263.802	469.88
264.035	494.88
264.267	504.88
264.499	488.88
264.732	500.88
264.964	511.88
265.197	488.88
265.429	491.88
265.661	507.88
265.894	495.88
266.126	521.88
266.358	529.88
266.591	544.88
266.823	503.88
267.055	521.88
267.287	523.88
267.52	524.88
267.752	532.88
267.984	530.88
268.216	516.88
268.448	543.88
268.681	518.88
268.913	521.88
269.145	537.88
269.377	551.88
269.609	531.88
269.841	528.88
270.073	540.88
270.306	557.88
270.538	545.88
270.77	531.88
271.002	545.88
271.234	558.88
271.466	566.88
271.698	568.88
271.93	553.88
272.162	566.88
272.394	593.88
272.626	592.88
272.858	590.88
273.09	587.88
273.322	564.88
273.553	591.88
273.785	580.88
274.017	555.88
274.249	586.88
274.481	597.88
274.713	584.88
274.945	607.88
275.176	619.88
275.408	609.88
275.64	603.88
275.872	577.88
276.104	599.88
276.335	615.88
276.567	609.88
276.799	607.88
277.031	611.88
277.262	584.88
277.494	619.88
277.726	618.88
277.957	609.88
278.189	627.88
278.421	634.88
278.652	644.88
278.884	642.88
279.115	624.88
279.347	642.88
279.579	641.88
279.81	628.88
280.042	645.88
280.273	640.88
280.505	649.88
280.736	660.88
280.968	637.88
281.199	658.88
281.431	657.88
281.662	690.88
281.894	660.88
282.125	653.88
282.356	679.88
282.588	689.88
282.819	691.88
283.051	667.88
283.282	690.88
283.513	667.88
283.745	665.88
283.976	693.88
284.207	651.88
284.439	685.88
284.67	698.88
284.901	709.88
285.132	703.88
285.364	708.88
285.595	711.88
285.826	706.88
286.057	711.88
286.288	692.88
286.52	730.88
286.751	716.88
286.982	725.88
287.213	712.88
287.444	722.88
287.675	743.88
287.906	703.88
288.138	728.88
288.369	705.88
288.6	728.88
288.831	727.88
289.062	715.88
289.293	722.88
289.524	727.88
289.755	722.88
289.986	735.88
290.217	716.88
290.448	730.88
290.679	736.88
290.91	748.88
291.141	729.88
291.371	740.88
291.602	764.88
291.833	732.88
292.064	728.88
292.295	733.88
292.526	741.88
292.757	744.88
292.987	746.88
293.218	724.88
293.449	767.88
293.68	722.88
293.91	749.88
294.141	727.88
294.372	736.88
294.603	735.88
294.833	736.88
295.064	756.88
295.295	732.88
295.525	773.88
295.756	771.88
295.987	771.88
296.217	753.88
296.448	743.88
296.679	760.88
296.909	775.88
297.14	767.88
297.37	780.88
297.601	793.88
297.831	795.88
298.062	805.88
298.292	811.88
298.523	817.88
298.753	832.88
298.984	807.88
299.214	790.88
299.445	797.88
299.675	792.88
299.905	785.88
300.136	798.88
300.366	787.88
300.597	835.88
300.827	811.88
301.057	845.88
301.288	840.88
301.518	817.88
301.748	850.88
301.979	868.88
302.209	856.88
302.439	854.88
302.669	847.88
302.9	863.88
303.13	846.88
303.36	871.88
303.59	858.88
303.82	855.88
304.051	877.88
304.281	838.88
304.511	863.88
304.741	848.88
304.971	851.88
305.201	836.88
305.431	863.88
305.661	848.88
305.891	853.88
306.121	831.88
306.352	856.88
306.582	865.88
306.812	821.88
307.042	834.88
307.272	856.88
307.502	816.88
307.731	821.88
307.961	831.88
308.191	829.88
308.421	828.88
308.651	840.88
308.881	844.88
309.111	864.88
309.341	832.88
309.571	860.88
309.8	857.88
310.03	887.88
310.26	866.88
310.49	853.88
310.72	856.88
310.949	868.88
311.179	856.88
311.409	876.88
311.639	836.88
311.868	869.88
312.098	887.88
312.328	883.88
312.557	899.88
312.787	892.88
313.017	884.88
313.246	914.88
313.476	906.88
313.706	922.88
313.935	926.88
314.165	922.88
314.394	961.88
314.624	941.88
314.853	892.88
315.083	922.88
315.312	957.88
315.542	935.88
315.771	938.88
316.001	930.88
316.23	900.88
316.46	926.88
316.689	927.88
316.919	927.88
317.148	928.88
317.377	908.88
317.607	922.88
317.836	903.88
318.065	936.88
318.295	946.88
318.524	915.88
318.753	917.88
318.983	946.88
319.212	943.88
319.441	936.88
319.67	956.88
319.9	924.88
320.129	934.88
320.358	945.88
320.587	943.88
320.816	958.88
321.046	941.88
321.275	955.88
321.504	965.88
321.733	951.88
321.962	963.88
322.191	1003.88
322.42	980.88
322.649	986.88
322.878	952.88
323.108	959.88
323.337	978.88
323.566	998.88
323.795	1022.88
324.024	1023.88
324.253	1016.88
324.482	1023.88
324.71	1016.88
324.939	1014.88
325.168	1029.88
325.397	1022.88
325.626	1059.88
325.855	1073.88
326.084	1058.88
326.313	1072.88
326.542	1086.88
326.77	1088.88
326.999	1065.88
327.228	1052.88
327.457	1063.88
327.686	1072.88
327.914	1061.88
328.143	1081.88
328.372	1069.88
328.6	1081.88
328.829	1080.88
329.058	1113.88
329.287	1118.88
329.515	1111.88
329.744	1097.88
329.972	1121.88
330.201	1150.88
330.43	1145.88
330.658	1143.88
330.887	1148.88
331.115	1155.88
331.344	1160.88
331.572	1188.88
331.801	1221.88
332.03	1232.88
332.258	1228.88
332.486	1281.88
332.715	1290.88
332.943	1305.88
333.172	1346.88
333.4	1403.88
333.629	1435.88
333.857	1425.88
334.085	1475.88
334.314	1464.88
334.542	1466.88
334.771	1463.88
334.999	1419.88
335.227	1424.88
335.455	1459.88
335.684	1450.88
335.912	1421.88
336.14	1436.88
336.369	1370.88
336.597	1364.88
336.825	1380.88
337.053	1399.88
337.281	1384.88
337.51	1361.88
337.738	1290.88
337.966	1247.88
338.194	1290.88
338.422	1279.88
338.65	1244.88
338.878	1251.88
339.106	1255.88
339.334	1235.88
339.562	1228.88
339.79	1229.88
340.018	1175.88
340.246	1204.88
340.474	1211.88
340.702	1187.88
340.93	1178.88
341.158	1218.88
341.386	1210.88
341.614	1228.88
341.842	1232.88
342.07	1207.88
342.298	1195.88
342.526	1196.88
342.754	1201.88
342.981	1204.88
343.209	1221.88
343.437	1295.88
343.665	1343.88
343.893	1415.88
344.12	1395.88
344.348	1388.88
344.576	1379.88
344.804	1324.88
345.031	1270.88
345.259	1224.88
345.487	1234.88
345.714	1199.88
345.942	1187.88
346.17	1210.88
346.397	1155.88
346.625	1211.88
346.853	1171.88
347.08	1143.88
347.308	1181.88
347.535	1149.88
347.763	1143.88
347.99	1140.88
348.218	1148.88
348.445	1185.88
348.673	1131.88
348.9	1167.88
349.128	1137.88
349.355	1151.88
349.583	1165.88
349.81	1124.88
350.037	1124.88
350.265	1121.88
350.492	1125.88
350.72	1117.88
350.947	1127.88
351.174	1096.88
351.402	1121.88
351.629	1136.88
351.856	1108.88
352.083	1132.88
352.311	1123.88
352.538	1135.88
352.765	1140.88
352.992	1107.88
353.22	1100.88
353.447	1097.88
353.674	1089.88
353.901	1113.88
354.128	1075.88
354.355	1107.88
354.583	1089.88
354.81	1106.88
355.037	1106.88
355.264	1116.88
355.491	1096.88
355.718	1093.88
355.945	1092.88
356.172	1077.88
356.399	1096.88
356.626	1107.88
356.853	1137.88
357.08	1093.88
357.307	1101.88
357.534	1077.88
357.761	1101.88
357.988	1117.88
358.215	1095.88
358.441	1091.88
358.668	1089.88
358.895	1078.88
359.122	1106.88
359.349	1103.88
359.576	1087.88
359.802	1086.88
360.029	1077.88
360.256	1108.88
360.483	1103.88
360.709	1096.88
360.936	1099.88
361.163	1081.88
361.39	1101.88
361.616	1112.88
361.843	1148.88
362.07	1144.88
362.296	1117.88
362.523	1084.88
362.749	1101.88
362.976	1082.88
363.203	1095.88
363.429	1119.88
363.656	1087.88
363.882	1077.88
364.109	1094.88
364.335	1103.88
364.562	1079.88
364.788	1063.88
365.015	1106.88
365.241	1089.88
365.468	1090.88
365.694	1086.88
365.92	1072.88
366.147	1084.88
366.373	1128.88
366.599	1097.88
366.826	1083.88
367.052	1114.88
367.278	1081.88
367.505	1112.88
367.731	1109.88
367.957	1109.88
368.184	1105.88
368.41	1073.88
368.636	1100.88
368.862	1110.88
369.089	1121.88
369.315	1121.88
369.541	1124.88
369.767	1121.88
369.993	1090.88
370.219	1128.88
370.445	1109.88
370.672	1170.88
370.898	1125.88
371.124	1157.88
371.35	1171.88
371.576	1201.88
371.802	1188.88
372.028	1156.88
372.254	1147.88
372.48	1176.88
372.706	1196.88
372.932	1195.88
373.158	1216.88
373.384	1247.88
373.61	1173.88
373.835	1169.88
374.061	1215.88
374.287	1201.88
374.513	1203.88
374.739	1241.88
374.965	1261.88
375.191	1266.88
375.416	1260.88
375.642	1245.88
375.868	1217.88
376.094	1242.88
376.319	1189.88
376.545	1180.88
376.771	1187.88
376.997	1165.88
377.222	1196.88
377.448	1192.88
377.674	1170.88
377.899	1175.88
378.125	1172.88
378.35	1171.88
378.576	1146.88
378.802	1153.88
379.027	1149.88
379.253	1200.88
379.478	1135.88
379.704	1157.88
379.929	1137.88
380.155	1148.88
380.38	1183.88
380.606	1151.88
380.831	1144.88
381.057	1151.88
381.282	1138.88
381.507	1174.88
381.733	1171.88
381.958	1155.88
382.184	1152.88
382.409	1212.88
382.634	1188.88
382.86	1201.88
383.085	1217.88
383.31	1247.88
383.535	1253.88
383.761	1268.88
383.986	1297.88
384.211	1289.88
384.436	1320.88
384.662	1336.88
384.887	1349.88
385.112	1351.88
385.337	1370.88
385.562	1340.88
385.787	1410.88
386.013	1391.88
386.238	1365.88
386.463	1429.88
386.688	1441.88
386.913	1383.88
387.138	1421.88
387.363	1413.88
387.588	1359.88
387.813	1439.88
388.038	1391.88
388.263	1398.88
388.488	1431.88
388.713	1413.88
388.938	1398.88
389.163	1373.88
389.387	1358.88
389.612	1370.88
389.837	1387.88
390.062	1393.88
390.287	1388.88
390.512	1423.88
390.736	1413.88
390.961	1458.88
391.186	1451.88
391.411	1508.88
391.636	1503.88
391.86	1555.88
392.085	1574.88
392.31	1537.88
392.534	1537.88
392.759	1529.88
392.984	1503.88
393.208	1502.88
393.433	1477.88
393.658	1516.88
393.882	1473.88
394.107	1468.88
394.331	1513.88
394.556	1509.88
394.78	1520.88
395.005	1498.88
395.229	1500.88
395.454	1558.88
395.678	1555.88
395.903	1560.88
396.127	1566.88
396.352	1543.88
396.576	1526.88
396.801	1537.88
397.025	1571.88
397.249	1577.88
397.474	1632.88
397.698	1593.88
397.922	1610.88
398.147	1655.88
398.371	1692.88
398.595	1753.88
398.82	1770.88
399.044	1944.88
399.268	2052.88
399.492	2258.88
399.717	2434.88
399.941	2457.88
400.165	2346.88
400.389	2200.88
400.613	2046.88
400.837	1941.88
401.062	1922.88
401.286	1871.88
401.51	1837.88
401.734	1812.88
401.958	1820.88
402.182	1793.88
402.406	1817.88
402.63	1844.88
402.854	1916.88
403.078	1851.88
403.302	1892.88
403.526	1919.88
403.75	1908.88
403.974	1965.88
404.198	1915.88
404.422	1929.88
404.645	1885.88
404.869	1913.88
405.093	1939.88
405.317	1933.88
405.541	1943.88
405.765	1951.88
405.988	1941.88
406.212	1944.88
406.436	1994.88
406.66	2039.88
406.883	1973.88
407.107	2123.88
407.331	2187.88
407.555	2212.88
407.778	2241.88
408.002	2209.88
408.226	2173.88
408.449	2125.88
408.673	2086.88
408.896	2041.88
409.12	2023.88
409.344	2061.88
409.567	2034.88
409.791	2072.88
410.014	2015.88
410.238	1951.88
410.461	1960.88
410.685	1966.88
410.908	1955.88
411.132	1921.88
411.355	1874.88
411.578	1879.88
411.802	1880.88
412.025	1873.88
412.249	1875.88
412.472	1877.88
412.695	1884.88
412.919	1825.88
413.142	1829.88
413.365	1804.88
413.589	1828.88
413.812	1829.88
414.035	1782.88
414.258	1800.88
414.482	1804.88
414.705	1811.88
414.928	1809.88
415.151	1804.88
415.374	1811.88
415.597	1753.88
415.821	1735.88
416.044	1781.88
416.267	1779.88
416.49	1732.88
416.713	1739.88
416.936	1746.88
417.159	1763.88
417.382	1742.88
417.605	1712.88
417.828	1796.88
418.051	1776.88
418.274	1778.88
418.497	1770.88
418.72	1803.88
418.943	1834.88
419.166	1895.88
419.389	2021.88
419.611	2002.88
419.834	1959.88
420.057	1898.88
420.28	1829.88
420.503	1783.88
420.726	1759.88
420.948	1762.88
421.171	1776.88
421.394	1735.88
421.617	1756.88
421.839	1724.88
422.062	1812.88
422.285	1742.88
422.507	1770.88
422.73	1806.88
422.953	1773.88
423.175	1821.88
423.398	1800.88
423.621	1749.88
423.843	1805.88
424.066	1897.88
424.288	1805.88
424.511	1765.88
424.733	1766.88
424.956	1762.88
425.178	1776.88
425.401	1791.88
425.623	1781.88
425.846	1723.88
426.068	1762.88
426.291	1747.88
426.513	1735.88
426.735	1741.88
426.958	1707.88
427.18	1637.88
427.402	1690.88
427.625	1638.88
427.847	1633.88
428.069	1625.88
428.292	1653.88
428.514	1636.88
428.736	1596.88
428.958	1626.88
429.181	1584.88
429.403	1616.88
429.625	1580.88
429.847	1596.88
430.069	1581.88
430.292	1613.88
430.514	1539.88
430.736	1587.88
430.958	1579.88
431.18	1612.88
431.402	1599.88
431.624	1595.88
431.846	1614.88
432.068	1633.88
432.29	1645.88
432.512	1588.88
432.734	1637.88
432.956	1623.88
433.178	1619.88
433.4	1613.88
433.622	1668.88
433.844	1655.88
434.066	1655.88
434.287	1673.88
434.509	1708.88
434.731	1759.88
434.953	1798.88
435.175	1799.88
435.397	1769.88
435.618	1696.88
435.84	1660.88
436.062	1649.88
436.284	1635.88
436.505	1619.88
436.727	1653.88
436.949	1626.88
437.17	1585.88
437.392	1594.88
437.614	1591.88
437.835	1539.88
438.057	1547.88
438.278	1562.88
438.5	1519.88
438.721	1546.88
438.943	1601.88
439.165	1570.88
439.386	1578.88
439.608	1599.88
439.829	1623.88
440.05	1615.88
440.272	1591.88
440.493	1648.88
440.715	1674.88
440.936	1690.88
441.158	1703.88
441.379	1729.88
441.6	1791.88
441.822	1795.88
442.043	1777.88
442.264	1760.88
442.486	1717.88
442.707	1764.88
442.928	1754.88
443.149	1772.88
443.371	1757.88
443.592	1776.88
443.813	1778.88
444.034	1849.88
444.255	1859.88
444.476	1900.88
444.698	1977.88
444.919	2018.88
445.14	2112.88
445.361	2002.88
445.582	1848.88
445.803	1775.88
446.024	1756.88
446.245	1701.88
446.466	1677.88
446.687	1665.88
446.908	1691.88
447.129	1607.88
447.35	1596.88
447.571	1561.88
447.792	1498.88
448.013	1528.88
448.234	1488.88
448.455	1469.88
448.675	1474.88
448.896	1499.88
449.117	1489.88
449.338	1509.88
449.559	1467.88
449.779	1457.88
450	1456.88
450.221	1471.88
450.442	1489.88
450.662	1497.88
450.883	1484.88
451.104	1492.88
451.324	1479.88
451.545	1459.88
451.766	1453.88
451.986	1476.88
452.207	1445.88
452.428	1427.88
452.648	1401.88
452.869	1424.88
453.089	1371.88
453.31	1416.88
453.53	1419.88
453.751	1404.88
453.971	1391.88
454.192	1378.88
454.412	1363.88
454.633	1380.88
454.853	1397.88
455.073	1371.88
455.294	1386.88
455.514	1364.88
455.734	1344.88
455.955	1379.88
456.175	1371.88
456.395	1349.88
456.616	1375.88
456.836	1391.88
457.056	1392.88
457.276	1345.88
457.497	1385.88
457.717	1372.88
457.937	1386.88
458.157	1416.88
458.377	1428.88
458.598	1488.88
458.818	1547.88
459.038	1541.88
459.258	1592.88
459.478	1632.88
459.698	1661.88
459.918	1723.88
460.138	1770.88
460.358	1832.88
460.578	1834.88
460.798	1883.88
461.018	1890.88
461.238	1901.88
461.458	1854.88
461.678	1867.88
461.898	1910.88
462.118	1915.88
462.338	2038.88
462.558	2090.88
462.777	2160.88
462.997	2266.88
463.217	2308.88
463.437	2387.88
463.657	2304.88
463.876	2251.88
464.096	2229.88
464.316	2168.88
464.536	2155.88
464.755	2116.88
464.975	2078.88
465.195	1942.88
465.414	1917.88
465.634	1748.88
465.854	1720.88
466.073	1677.88
466.293	1617.88
466.512	1630.88
466.732	1534.88
466.951	1591.88
467.171	1577.88
467.391	1547.88
467.61	1522.88
467.829	1508.88
468.049	1533.88
468.268	1450.88
468.488	1480.88
468.707	1463.88
468.927	1498.88
469.146	1485.88
469.365	1512.88
469.585	1509.88
469.804	1563.88
470.023	1549.88
470.243	1564.88
470.462	1625.88
470.681	1559.88
470.901	1596.88
471.12	1551.88
471.339	1588.88
471.558	1563.88
471.777	1496.88
471.997	1480.88
472.216	1496.88
472.435	1503.88
472.654	1471.88
472.873	1465.88
473.092	1465.88
473.311	1440.88
473.53	1467.88
473.749	1455.88
473.968	1473.88
474.187	1445.88
474.406	1397.88
474.625	1438.88
474.844	1420.88
475.063	1458.88
475.282	1449.88
475.501	1438.88
475.72	1446.88
475.939	1465.88
476.158	1505.88
476.377	1532.88
476.596	1507.88
476.814	1526.88
477.033	1544.88
477.252	1588.88
477.471	1611.88
477.69	1641.88
477.908	1657.88
478.127	1710.88
478.346	1730.88
478.564	1773.88
478.783	1741.88
479.002	1764.88
479.22	1837.88
479.439	1843.88
479.658	1795.88
479.876	1780.88
480.095	1817.88
480.313	1887.88
480.532	1878.88
480.751	1899.88
480.969	1846.88
481.188	1768.88
481.406	1772.88
481.624	1707.88
481.843	1684.88
482.061	1677.88
482.28	1667.88
482.498	1681.88
482.717	1692.88
482.935	1660.88
483.153	1675.88
483.372	1640.88
483.59	1671.88
483.808	1669.88
484.027	1656.88
484.245	1674.88
484.463	1735.88
484.681	1695.88
484.9	1712.88
485.118	1700.88
485.336	1663.88
485.554	1684.88
485.772	1690.88
485.99	1745.88
486.209	1726.88
486.427	1745.88
486.645	1698.88
486.863	1744.88
487.081	1769.88
487.299	1721.88
487.517	1683.88
487.735	1729.88
487.953	1725.88
488.171	1725.88
488.389	1730.88
488.607	1728.88
488.825	1684.88
489.043	1712.88
489.261	1719.88
489.479	1701.88
489.696	1717.88
489.914	1719.88
490.132	1721.88
490.35	1723.88
490.568	1717.88
490.786	1720.88
491.003	1721.88
491.221	1754.88
