Data from Ni(NO3)2Standard.Agarose3%.GreenCap.LampEnergy5.5.E.O_HRD10591_14-41-12-188.txt Node
Date: Mon Jul 22 14:41:12 EDT 2019
User: cochatt
Spectrometer: HR+D1059
Trigger mode: 1
Integration Time (sec): 1.000000E-1
Scans to average: 1
Electric dark correction enabled: true
Nonlinearity correction enabled: false
Boxcar width: 0
XAxis mode: Wavelengths
Number of Pixels in Spectrum: 2048
>>>>>Begin Spectral Data<<<<<
223.165	-24.25
223.4	-24.25
223.635	-24.25
223.869	-6.25
224.104	-20.25
224.338	-16.25
224.573	-8.25
224.808	-16.25
225.042	2.75
225.277	-5.25
225.511	-5.25
225.746	0.75
225.98	-7.25
226.215	8.75
226.449	18.75
226.683	22.75
226.918	19.75
227.152	35.75
227.387	36.75
227.621	44.75
227.856	41.75
228.09	47.75
228.324	56.75
228.559	56.75
228.793	66.75
229.027	62.75
229.262	62.75
229.496	70.75
229.73	58.75
229.964	69.75
230.199	72.75
230.433	75.75
230.667	81.75
230.901	84.75
231.136	82.75
231.37	83.75
231.604	85.75
231.838	80.75
232.072	84.75
232.306	84.75
232.541	85.75
232.775	78.75
233.009	88.75
233.243	83.75
233.477	85.75
233.711	83.75
233.945	75.75
234.179	75.75
234.413	89.75
234.647	82.75
234.881	84.75
235.115	90.75
235.349	85.75
235.583	100.75
235.817	85.75
236.051	88.75
236.285	69.75
236.519	71.75
236.753	63.75
236.987	87.75
237.221	85.75
237.455	74.75
237.689	71.75
237.922	85.75
238.156	85.75
238.39	68.75
238.624	76.75
238.858	76.75
239.091	77.75
239.325	76.75
239.559	80.75
239.793	72.75
240.027	75.75
240.26	92.75
240.494	75.75
240.728	77.75
240.961	73.75
241.195	83.75
241.429	79.75
241.662	91.75
241.896	69.75
242.13	75.75
242.363	63.75
242.597	80.75
242.83	81.75
243.064	69.75
243.298	84.75
243.531	88.75
243.765	88.75
243.998	67.75
244.232	88.75
244.465	81.75
244.699	72.75
244.932	75.75
245.166	79.75
245.399	83.75
245.633	92.75
245.866	81.75
246.099	85.75
246.333	81.75
246.566	70.75
246.8	78.75
247.033	82.75
247.266	90.75
247.5	94.75
247.733	90.75
247.966	80.75
248.2	85.75
248.433	76.75
248.666	76.75
248.899	74.75
249.133	76.75
249.366	86.75
249.599	75.75
249.832	80.75
250.066	68.75
250.299	82.75
250.532	97.75
250.765	75.75
250.998	76.75
251.231	84.75
251.465	66.75
251.698	82.75
251.931	82.75
252.164	89.75
252.397	85.75
252.63	93.75
252.863	87.75
253.096	88.75
253.329	95.75
253.562	76.75
253.795	97.75
254.028	79.75
254.261	76.75
254.494	77.75
254.727	90.75
254.96	85.75
255.193	80.75
255.426	87.75
255.659	72.75
255.892	85.75
256.124	73.75
256.357	84.75
256.59	97.75
256.823	72.75
257.056	74.75
257.289	84.75
257.521	83.75
257.754	72.75
257.987	68.75
258.22	92.75
258.452	85.75
258.685	73.75
258.918	70.75
259.151	78.75
259.383	86.75
259.616	63.75
259.849	83.75
260.081	84.75
260.314	82.75
260.547	85.75
260.779	88.75
261.012	81.75
261.244	81.75
261.477	81.75
261.71	76.75
261.942	70.75
262.175	87.75
262.407	93.75
262.64	81.75
262.872	95.75
263.105	75.75
263.337	85.75
263.57	81.75
263.802	78.75
264.035	72.75
264.267	71.75
264.499	92.75
264.732	85.75
264.964	84.75
265.197	88.75
265.429	78.75
265.661	105.75
265.894	76.75
266.126	89.75
266.358	88.75
266.591	85.75
266.823	87.75
267.055	86.75
267.287	86.75
267.52	76.75
267.752	80.75
267.984	84.75
268.216	77.75
268.448	67.75
268.681	72.75
268.913	85.75
269.145	93.75
269.377	80.75
269.609	82.75
269.841	82.75
270.073	76.75
270.306	83.75
270.538	89.75
270.77	86.75
271.002	87.75
271.234	83.75
271.466	83.75
271.698	82.75
271.93	80.75
272.162	76.75
272.394	84.75
272.626	90.75
272.858	83.75
273.09	97.75
273.322	92.75
273.553	71.75
273.785	88.75
274.017	80.75
274.249	90.75
274.481	87.75
274.713	83.75
274.945	88.75
275.176	74.75
275.408	87.75
275.64	83.75
275.872	80.75
276.104	88.75
276.335	78.75
276.567	77.75
276.799	75.75
277.031	87.75
277.262	92.75
277.494	82.75
277.726	83.75
277.957	85.75
278.189	93.75
278.421	80.75
278.652	83.75
278.884	72.75
279.115	100.75
279.347	85.75
279.579	97.75
279.81	93.75
280.042	85.75
280.273	74.75
280.505	86.75
280.736	83.75
280.968	91.75
281.199	97.75
281.431	83.75
281.662	85.75
281.894	83.75
282.125	88.75
282.356	86.75
282.588	79.75
282.819	91.75
283.051	74.75
283.282	94.75
283.513	90.75
283.745	88.75
283.976	90.75
284.207	96.75
284.439	85.75
284.67	84.75
284.901	76.75
285.132	91.75
285.364	86.75
285.595	88.75
285.826	89.75
286.057	101.75
286.288	68.75
286.52	79.75
286.751	86.75
286.982	96.75
287.213	72.75
287.444	80.75
287.675	89.75
287.906	88.75
288.138	80.75
288.369	82.75
288.6	81.75
288.831	92.75
289.062	87.75
289.293	83.75
289.524	93.75
289.755	98.75
289.986	78.75
290.217	88.75
290.448	85.75
290.679	83.75
290.91	88.75
291.141	91.75
291.371	85.75
291.602	89.75
291.833	82.75
292.064	85.75
292.295	74.75
292.526	89.75
292.757	88.75
292.987	85.75
293.218	79.75
293.449	85.75
293.68	80.75
293.91	93.75
294.141	83.75
294.372	83.75
294.603	81.75
294.833	68.75
295.064	91.75
295.295	92.75
295.525	80.75
295.756	87.75
295.987	101.75
296.217	76.75
296.448	87.75
296.679	88.75
296.909	90.75
297.14	97.75
297.37	89.75
297.601	77.75
297.831	94.75
298.062	92.75
298.292	83.75
298.523	85.75
298.753	85.75
298.984	97.75
299.214	80.75
299.445	99.75
299.675	85.75
299.905	89.75
300.136	87.75
300.366	89.75
300.597	92.75
300.827	83.75
301.057	95.75
301.288	87.75
301.518	94.75
301.748	77.75
301.979	80.75
302.209	69.75
302.439	81.75
302.669	84.75
302.9	81.75
303.13	73.75
303.36	94.75
303.59	95.75
303.82	98.75
304.051	92.75
304.281	93.75
304.511	84.75
304.741	83.75
304.971	102.75
305.201	101.75
305.431	86.75
305.661	79.75
305.891	85.75
306.121	80.75
306.352	85.75
306.582	89.75
306.812	81.75
307.042	83.75
307.272	89.75
307.502	80.75
307.731	83.75
307.961	91.75
308.191	87.75
308.421	81.75
308.651	81.75
308.881	82.75
309.111	73.75
309.341	83.75
309.571	80.75
309.8	89.75
310.03	88.75
310.26	92.75
310.49	84.75
310.72	92.75
310.949	91.75
311.179	74.75
311.409	91.75
311.639	77.75
311.868	115.75
312.098	90.75
312.328	90.75
312.557	86.75
312.787	69.75
313.017	89.75
313.246	94.75
313.476	86.75
313.706	76.75
313.935	85.75
314.165	86.75
314.394	92.75
314.624	94.75
314.853	81.75
315.083	71.75
315.312	79.75
315.542	69.75
315.771	88.75
316.001	95.75
316.23	82.75
316.46	80.75
316.689	86.75
316.919	92.75
317.148	75.75
317.377	91.75
317.607	87.75
317.836	81.75
318.065	90.75
318.295	91.75
318.524	72.75
318.753	77.75
318.983	81.75
319.212	75.75
319.441	84.75
319.67	75.75
319.9	94.75
320.129	85.75
320.358	99.75
320.587	88.75
320.816	82.75
321.046	103.75
321.275	96.75
321.504	93.75
321.733	100.75
321.962	90.75
322.191	71.75
322.42	78.75
322.649	77.75
322.878	86.75
323.108	86.75
323.337	86.75
323.566	78.75
323.795	77.75
324.024	90.75
324.253	92.75
324.482	86.75
324.71	82.75
324.939	93.75
325.168	97.75
325.397	92.75
325.626	93.75
325.855	83.75
326.084	90.75
326.313	100.75
326.542	83.75
326.77	88.75
326.999	90.75
327.228	82.75
327.457	84.75
327.686	85.75
327.914	89.75
328.143	94.75
328.372	86.75
328.6	84.75
328.829	81.75
329.058	96.75
329.287	87.75
329.515	78.75
329.744	96.75
329.972	79.75
330.201	82.75
330.43	78.75
330.658	79.75
330.887	77.75
331.115	95.75
331.344	86.75
331.572	87.75
331.801	89.75
332.03	83.75
332.258	82.75
332.486	92.75
332.715	97.75
332.943	82.75
333.172	101.75
333.4	86.75
333.629	92.75
333.857	80.75
334.085	91.75
334.314	99.75
334.542	97.75
334.771	91.75
334.999	101.75
335.227	83.75
335.455	86.75
335.684	97.75
335.912	84.75
336.14	82.75
336.369	86.75
336.597	83.75
336.825	90.75
337.053	88.75
337.281	81.75
337.51	84.75
337.738	89.75
337.966	87.75
338.194	92.75
338.422	88.75
338.65	100.75
338.878	106.75
339.106	95.75
339.334	76.75
339.562	87.75
339.79	73.75
340.018	72.75
340.246	84.75
340.474	94.75
340.702	86.75
340.93	88.75
341.158	99.75
341.386	86.75
341.614	91.75
341.842	96.75
342.07	85.75
342.298	89.75
342.526	88.75
342.754	82.75
342.981	89.75
343.209	86.75
343.437	92.75
343.665	95.75
343.893	80.75
344.12	101.75
344.348	84.75
344.576	83.75
344.804	72.75
345.031	98.75
345.259	76.75
345.487	84.75
345.714	87.75
345.942	88.75
346.17	74.75
346.397	78.75
346.625	96.75
346.853	77.75
347.08	76.75
347.308	86.75
347.535	89.75
347.763	97.75
347.99	91.75
348.218	86.75
348.445	91.75
348.673	89.75
348.9	96.75
349.128	96.75
349.355	86.75
349.583	76.75
349.81	84.75
350.037	88.75
350.265	92.75
350.492	103.75
350.72	96.75
350.947	73.75
351.174	82.75
351.402	87.75
351.629	80.75
351.856	91.75
352.083	83.75
352.311	96.75
352.538	89.75
352.765	82.75
352.992	91.75
353.22	96.75
353.447	89.75
353.674	79.75
353.901	83.75
354.128	82.75
354.355	90.75
354.583	83.75
354.81	78.75
355.037	80.75
355.264	96.75
355.491	90.75
355.718	87.75
355.945	97.75
356.172	95.75
356.399	85.75
356.626	80.75
356.853	91.75
357.08	87.75
357.307	88.75
357.534	76.75
357.761	58.75
357.988	97.75
358.215	100.75
358.441	76.75
358.668	83.75
358.895	88.75
359.122	90.75
359.349	84.75
359.576	88.75
359.802	79.75
360.029	85.75
360.256	85.75
360.483	71.75
360.709	93.75
360.936	89.75
361.163	95.75
361.39	82.75
361.616	85.75
361.843	92.75
362.07	97.75
362.296	78.75
362.523	85.75
362.749	91.75
362.976	86.75
363.203	89.75
363.429	80.75
363.656	91.75
363.882	81.75
364.109	91.75
364.335	90.75
364.562	80.75
364.788	92.75
365.015	92.75
365.241	72.75
365.468	79.75
365.694	91.75
365.92	83.75
366.147	74.75
366.373	73.75
366.599	92.75
366.826	80.75
367.052	79.75
367.278	88.75
367.505	79.75
367.731	81.75
367.957	87.75
368.184	95.75
368.41	91.75
368.636	83.75
368.862	87.75
369.089	87.75
369.315	89.75
369.541	95.75
369.767	91.75
369.993	74.75
370.219	77.75
370.445	86.75
370.672	86.75
370.898	82.75
371.124	88.75
371.35	77.75
371.576	83.75
371.802	72.75
372.028	92.75
372.254	95.75
372.48	80.75
372.706	90.75
372.932	85.75
373.158	86.75
373.384	84.75
373.61	84.75
373.835	90.75
374.061	80.75
374.287	75.75
374.513	52.75
374.739	90.75
374.965	85.75
375.191	77.75
375.416	84.75
375.642	77.75
375.868	83.75
376.094	78.75
376.319	78.75
376.545	89.75
376.771	75.75
376.997	76.75
377.222	77.75
377.448	88.75
377.674	85.75
377.899	81.75
378.125	76.75
378.35	76.75
378.576	83.75
378.802	95.75
379.027	71.75
379.253	83.75
379.478	80.75
379.704	71.75
379.929	82.75
380.155	78.75
380.38	85.75
380.606	88.75
380.831	73.75
381.057	84.75
381.282	93.75
381.507	78.75
381.733	81.75
381.958	83.75
382.184	82.75
382.409	80.75
382.634	92.75
382.86	68.75
383.085	95.75
383.31	98.75
383.535	84.75
383.761	77.75
383.986	79.75
384.211	87.75
384.436	89.75
384.662	80.75
384.887	88.75
385.112	88.75
385.337	80.75
385.562	95.75
385.787	81.75
386.013	96.75
386.238	95.75
386.463	89.75
386.688	80.75
386.913	101.75
387.138	83.75
387.363	83.75
387.588	92.75
387.813	83.75
388.038	72.75
388.263	87.75
388.488	72.75
388.713	79.75
388.938	76.75
389.163	87.75
389.387	97.75
389.612	95.75
389.837	80.75
390.062	81.75
390.287	90.75
390.512	80.75
390.736	90.75
390.961	86.75
391.186	82.75
391.411	84.75
391.636	75.75
391.86	75.75
392.085	77.75
392.31	85.75
392.534	99.75
392.759	86.75
392.984	85.75
393.208	84.75
393.433	77.75
393.658	64.75
393.882	82.75
394.107	81.75
394.331	89.75
394.556	76.75
394.78	91.75
395.005	87.75
395.229	83.75
395.454	76.75
395.678	81.75
395.903	70.75
396.127	89.75
396.352	91.75
396.576	76.75
396.801	91.75
397.025	89.75
397.249	82.75
397.474	81.75
397.698	72.75
397.922	90.75
398.147	85.75
398.371	97.75
398.595	77.75
398.82	78.75
399.044	86.75
399.268	76.75
399.492	79.75
399.717	89.75
399.941	84.75
400.165	74.75
400.389	81.75
400.613	90.75
400.837	94.75
401.062	87.75
401.286	81.75
401.51	69.75
401.734	91.75
401.958	86.75
402.182	71.75
402.406	91.75
402.63	74.75
402.854	71.75
403.078	81.75
403.302	89.75
403.526	80.75
403.75	75.75
403.974	79.75
404.198	94.75
404.422	87.75
404.645	81.75
404.869	91.75
405.093	77.75
405.317	89.75
405.541	92.75
405.765	78.75
405.988	76.75
406.212	70.75
406.436	80.75
406.66	81.75
406.883	82.75
407.107	92.75
407.331	87.75
407.555	78.75
407.778	84.75
408.002	79.75
408.226	84.75
408.449	91.75
408.673	87.75
408.896	76.75
409.12	84.75
409.344	85.75
409.567	94.75
409.791	85.75
410.014	80.75
410.238	93.75
410.461	100.75
410.685	88.75
410.908	78.75
411.132	95.75
411.355	85.75
411.578	79.75
411.802	84.75
412.025	96.75
412.249	96.75
412.472	86.75
412.695	76.75
412.919	87.75
413.142	78.75
413.365	105.75
413.589	87.75
413.812	71.75
414.035	83.75
414.258	85.75
414.482	77.75
414.705	77.75
414.928	87.75
415.151	78.75
415.374	86.75
415.597	75.75
415.821	103.75
416.044	92.75
416.267	93.75
416.49	85.75
416.713	101.75
416.936	98.75
417.159	80.75
417.382	76.75
417.605	88.75
417.828	86.75
418.051	85.75
418.274	80.75
418.497	81.75
418.72	76.75
418.943	93.75
419.166	89.75
419.389	74.75
419.611	92.75
419.834	81.75
420.057	93.75
420.28	79.75
420.503	84.75
420.726	82.75
420.948	90.75
421.171	76.75
421.394	98.75
421.617	88.75
421.839	78.75
422.062	87.75
422.285	91.75
422.507	89.75
422.73	104.75
422.953	94.75
423.175	81.75
423.398	86.75
423.621	89.75
423.843	74.75
424.066	86.75
424.288	84.75
424.511	98.75
424.733	95.75
424.956	88.75
425.178	76.75
425.401	80.75
425.623	75.75
425.846	85.75
426.068	80.75
426.291	74.75
426.513	81.75
426.735	87.75
426.958	88.75
427.18	82.75
427.402	86.75
427.625	83.75
427.847	84.75
428.069	112.75
428.292	80.75
428.514	63.75
428.736	92.75
428.958	83.75
429.181	90.75
429.403	77.75
429.625	73.75
429.847	84.75
430.069	72.75
430.292	74.75
430.514	98.75
430.736	89.75
430.958	95.75
431.18	91.75
431.402	79.75
431.624	89.75
431.846	93.75
432.068	85.75
432.29	95.75
432.512	105.75
432.734	93.75
432.956	90.75
433.178	77.75
433.4	82.75
433.622	88.75
433.844	95.75
434.066	86.75
434.287	92.75
434.509	103.75
434.731	90.75
434.953	82.75
435.175	89.75
435.397	91.75
435.618	83.75
435.84	77.75
436.062	99.75
436.284	86.75
436.505	77.75
436.727	81.75
436.949	85.75
437.17	84.75
437.392	84.75
437.614	82.75
437.835	84.75
438.057	87.75
438.278	86.75
438.5	86.75
438.721	89.75
438.943	69.75
439.165	84.75
439.386	70.75
439.608	95.75
439.829	83.75
440.05	90.75
440.272	82.75
440.493	87.75
440.715	83.75
440.936	98.75
441.158	99.75
441.379	79.75
441.6	86.75
441.822	83.75
442.043	86.75
442.264	85.75
442.486	88.75
442.707	89.75
442.928	74.75
443.149	88.75
443.371	91.75
443.592	87.75
443.813	82.75
444.034	85.75
444.255	77.75
444.476	90.75
444.698	89.75
444.919	85.75
445.14	221.75
445.361	151.75
445.582	97.75
445.803	79.75
446.024	87.75
446.245	99.75
446.466	80.75
446.687	83.75
446.908	86.75
447.129	76.75
447.35	79.75
447.571	76.75
447.792	80.75
448.013	84.75
448.234	85.75
448.455	74.75
448.675	86.75
448.896	81.75
449.117	90.75
449.338	80.75
449.559	80.75
449.779	75.75
450	85.75
450.221	76.75
450.442	81.75
450.662	73.75
450.883	86.75
451.104	67.75
451.324	98.75
451.545	87.75
451.766	99.75
451.986	106.75
452.207	91.75
452.428	82.75
452.648	80.75
452.869	91.75
453.089	83.75
453.31	83.75
453.53	76.75
453.751	84.75
453.971	88.75
454.192	96.75
454.412	95.75
454.633	80.75
454.853	78.75
455.073	84.75
455.294	80.75
455.514	90.75
455.734	99.75
455.955	91.75
456.175	89.75
456.395	93.75
456.616	91.75
456.836	88.75
457.056	89.75
457.276	90.75
457.497	83.75
457.717	81.75
457.937	113.75
458.157	86.75
458.377	81.75
458.598	92.75
458.818	81.75
459.038	75.75
459.258	90.75
459.478	88.75
459.698	89.75
459.918	96.75
460.138	91.75
460.358	83.75
460.578	82.75
460.798	74.75
461.018	87.75
461.238	97.75
461.458	92.75
461.678	87.75
461.898	77.75
462.118	81.75
462.338	82.75
462.558	91.75
462.777	80.75
462.997	90.75
463.217	75.75
463.437	95.75
463.657	85.75
463.876	93.75
464.096	84.75
464.316	86.75
464.536	80.75
464.755	99.75
464.975	96.75
465.195	94.75
465.414	103.75
465.634	100.75
465.854	94.75
466.073	85.75
466.293	88.75
466.512	81.75
466.732	91.75
466.951	74.75
467.171	99.75
467.391	78.75
467.61	83.75
467.829	84.75
468.049	90.75
468.268	86.75
468.488	80.75
468.707	80.75
468.927	79.75
469.146	88.75
469.365	97.75
469.585	85.75
469.804	87.75
470.023	87.75
470.243	91.75
470.462	81.75
470.681	83.75
470.901	89.75
471.12	84.75
471.339	83.75
471.558	98.75
471.777	87.75
471.997	83.75
472.216	90.75
472.435	80.75
472.654	84.75
472.873	79.75
473.092	91.75
473.311	82.75
473.53	77.75
473.749	97.75
473.968	77.75
474.187	100.75
474.406	90.75
474.625	82.75
474.844	80.75
475.063	84.75
475.282	93.75
475.501	89.75
475.72	108.75
475.939	96.75
476.158	97.75
476.377	97.75
476.596	86.75
476.814	87.75
477.033	95.75
477.252	73.75
477.471	91.75
477.69	78.75
477.908	87.75
478.127	72.75
478.346	96.75
478.564	81.75
478.783	79.75
479.002	105.75
479.22	93.75
479.439	107.75
479.658	74.75
479.876	88.75
480.095	77.75
480.313	79.75
480.532	89.75
480.751	88.75
480.969	92.75
481.188	90.75
481.406	87.75
481.624	84.75
481.843	78.75
482.061	96.75
482.28	86.75
482.498	87.75
482.717	88.75
482.935	82.75
483.153	90.75
483.372	84.75
483.59	85.75
483.808	100.75
484.027	108.75
484.245	88.75
484.463	90.75
484.681	100.75
484.9	93.75
485.118	87.75
485.336	89.75
485.554	82.75
485.772	82.75
485.99	85.75
486.209	82.75
486.427	96.75
486.645	92.75
486.863	96.75
487.081	99.75
487.299	89.75
487.517	103.75
487.735	102.75
487.953	90.75
488.171	95.75
488.389	90.75
488.607	75.75
488.825	88.75
489.043	89.75
489.261	87.75
489.479	91.75
489.696	87.75
489.914	83.75
490.132	88.75
490.35	96.75
490.568	100.75
490.786	84.75
491.003	98.75
491.221	90.75
491.439	99.75
491.657	87.75
491.874	79.75
492.092	93.75
492.31	100.75
492.527	86.75
492.745	105.75
492.963	97.75
493.18	92.75
493.398	109.75
493.615	88.75
493.833	94.75
494.05	94.75
494.268	71.75
494.485	88.75
494.703	87.75
494.92	93.75
495.138	101.75
495.355	93.75
495.573	102.75
495.79	93.75
496.008	84.75
496.225	90.75
496.442	76.75
496.66	103.75
496.877	101.75
497.094	87.75
497.312	77.75
497.529	99.75
497.746	95.75
497.963	85.75
498.181	95.75
498.398	91.75
498.615	93.75
498.832	97.75
499.049	110.75
499.267	113.75
499.484	120.75
499.701	102.75
499.918	96.75
500.135	103.75
500.352	108.75
500.569	105.75
500.786	112.75
501.003	123.75
501.22	116.75
501.437	115.75
501.654	113.75
501.871	116.75
502.088	105.75
502.305	100.75
502.522	101.75
502.739	91.75
502.956	93.75
503.172	98.75
503.389	102.75
503.606	91.75
503.823	87.75
504.04	98.75
504.256	98.75
504.473	98.75
504.69	100.75
504.907	88.75
505.123	92.75
505.34	83.75
505.557	91.75
505.773	96.75
505.99	91.75
506.207	90.75
506.423	98.75
506.64	92.75
506.856	98.75
507.073	93.75
507.289	92.75
507.506	110.75
507.722	92.75
507.939	79.75
508.155	99.75
508.372	87.75
508.588	97.75
508.805	91.75
509.021	89.75
509.238	77.75
509.454	77.75
509.67	81.75
509.887	85.75
510.103	85.75
510.319	90.75
510.536	96.75
510.752	98.75
510.968	91.75
511.184	83.75
511.401	87.75
511.617	81.75
511.833	84.75
512.049	95.75
512.265	85.75
512.481	79.75
512.698	85.75
512.914	82.75
513.13	79.75
513.346	86.75
513.562	104.75
513.778	87.75
513.994	93.75
514.21	100.75
514.426	89.75
514.642	91.75
514.858	97.75
515.074	93.75
515.29	88.75
515.506	88.75
515.721	89.75
515.937	91.75
516.153	90.75
516.369	96.75
516.585	88.75
516.801	95.75
517.016	85.75
517.232	92.75
517.448	93.75
517.664	80.75
517.879	116.75
518.095	98.75
518.311	100.75
518.527	91.75
