Data from Ni(NO3)2@0.0625M.TitratingCurve.Agarose3%dH2O.NegLispCup.LampEnergy10.LIBS07252019_HRD10591_18-15-14-569.txt Node
Date: Thu Jul 25 18:15:14 EDT 2019
User: cochatt
Spectrometer: HR+D1059
Trigger mode: 1
Integration Time (sec): 1.000000E-1
Scans to average: 1
Electric dark correction enabled: true
Nonlinearity correction enabled: false
Boxcar width: 0
XAxis mode: Wavelengths
Number of Pixels in Spectrum: 2048
>>>>>Begin Spectral Data<<<<<
223.165	-22.88
223.4	-22.88
223.635	-22.88
223.869	-9.88
224.104	-32.88
224.338	-16.88
224.573	3.12
224.808	-13.88
225.042	-7.88
225.277	7.12
225.511	2.12
225.746	-3.88
225.98	16.12
226.215	7.12
226.449	7.12
226.683	13.12
226.918	23.12
227.152	29.12
227.387	34.12
227.621	33.12
227.856	33.12
228.09	42.12
228.324	55.12
228.559	52.12
228.793	64.12
229.027	100.12
229.262	107.12
229.496	101.12
229.73	114.12
229.964	123.12
230.199	118.12
230.433	120.12
230.667	119.12
230.901	125.12
231.136	128.12
231.37	126.12
231.604	127.12
231.838	130.12
232.072	128.12
232.306	139.12
232.541	145.12
232.775	142.12
233.009	144.12
233.243	133.12
233.477	132.12
233.711	141.12
233.945	160.12
234.179	134.12
234.413	141.12
234.647	134.12
234.881	139.12
235.115	159.12
235.349	140.12
235.583	145.12
235.817	135.12
236.051	153.12
236.285	140.12
236.519	158.12
236.753	149.12
236.987	150.12
237.221	144.12
237.455	134.12
237.689	151.12
237.922	152.12
238.156	150.12
238.39	144.12
238.624	156.12
238.858	165.12
239.091	149.12
239.325	167.12
239.559	165.12
239.793	167.12
240.027	150.12
240.26	163.12
240.494	154.12
240.728	158.12
240.961	171.12
241.195	179.12
241.429	167.12
241.662	183.12
241.896	171.12
242.13	185.12
242.363	171.12
242.597	183.12
242.83	180.12
243.064	177.12
243.298	163.12
243.531	195.12
243.765	203.12
243.998	193.12
244.232	198.12
244.465	203.12
244.699	194.12
244.932	186.12
245.166	199.12
245.399	218.12
245.633	209.12
245.866	218.12
246.099	199.12
246.333	216.12
246.566	214.12
246.8	195.12
247.033	212.12
247.266	209.12
247.5	212.12
247.733	219.12
247.966	193.12
248.2	216.12
248.433	207.12
248.666	220.12
248.899	227.12
249.133	214.12
249.366	223.12
249.599	230.12
249.832	238.12
250.066	238.12
250.299	221.12
250.532	230.12
250.765	220.12
250.998	233.12
251.231	236.12
251.465	234.12
251.698	247.12
251.931	256.12
252.164	247.12
252.397	231.12
252.63	251.12
252.863	251.12
253.096	257.12
253.329	253.12
253.562	231.12
253.795	233.12
254.028	241.12
254.261	269.12
254.494	260.12
254.727	247.12
254.96	246.12
255.193	253.12
255.426	248.12
255.659	253.12
255.892	268.12
256.124	252.12
256.357	271.12
256.59	266.12
256.823	285.12
257.056	249.12
257.289	275.12
257.521	276.12
257.754	288.12
257.987	260.12
258.22	250.12
258.452	263.12
258.685	291.12
258.918	283.12
259.151	290.12
259.383	259.12
259.616	281.12
259.849	277.12
260.081	282.12
260.314	276.12
260.547	295.12
260.779	285.12
261.012	290.12
261.244	291.12
261.477	298.12
261.71	297.12
261.942	286.12
262.175	292.12
262.407	285.12
262.64	296.12
262.872	291.12
263.105	300.12
263.337	295.12
263.57	308.12
263.802	311.12
264.035	307.12
264.267	308.12
264.499	312.12
264.732	307.12
264.964	304.12
265.197	315.12
265.429	301.12
265.661	313.12
265.894	330.12
266.126	322.12
266.358	332.12
266.591	316.12
266.823	319.12
267.055	306.12
267.287	311.12
267.52	358.12
267.752	317.12
267.984	337.12
268.216	353.12
268.448	346.12
268.681	319.12
268.913	332.12
269.145	323.12
269.377	338.12
269.609	338.12
269.841	342.12
270.073	350.12
270.306	338.12
270.538	328.12
270.77	349.12
271.002	336.12
271.234	343.12
271.466	348.12
271.698	338.12
271.93	345.12
272.162	344.12
272.394	356.12
272.626	352.12
272.858	345.12
273.09	367.12
273.322	349.12
273.553	350.12
273.785	363.12
274.017	355.12
274.249	345.12
274.481	364.12
274.713	377.12
274.945	371.12
275.176	381.12
275.408	383.12
275.64	391.12
275.872	380.12
276.104	371.12
276.335	371.12
276.567	380.12
276.799	379.12
277.031	386.12
277.262	395.12
277.494	379.12
277.726	377.12
277.957	380.12
278.189	385.12
278.421	375.12
278.652	396.12
278.884	377.12
279.115	384.12
279.347	405.12
279.579	390.12
279.81	387.12
280.042	412.12
280.273	402.12
280.505	401.12
280.736	414.12
280.968	419.12
281.199	405.12
281.431	397.12
281.662	408.12
281.894	433.12
282.125	390.12
282.356	417.12
282.588	419.12
282.819	411.12
283.051	443.12
283.282	420.12
283.513	421.12
283.745	428.12
283.976	421.12
284.207	437.12
284.439	422.12
284.67	438.12
284.901	450.12
285.132	455.12
285.364	414.12
285.595	439.12
285.826	449.12
286.057	428.12
286.288	453.12
286.52	421.12
286.751	431.12
286.982	460.12
287.213	458.12
287.444	461.12
287.675	445.12
287.906	447.12
288.138	469.12
288.369	457.12
288.6	467.12
288.831	482.12
289.062	449.12
289.293	449.12
289.524	475.12
289.755	470.12
289.986	446.12
290.217	453.12
290.448	449.12
290.679	460.12
290.91	446.12
291.141	476.12
291.371	491.12
291.602	474.12
291.833	480.12
292.064	464.12
292.295	455.12
292.526	488.12
292.757	482.12
292.987	447.12
293.218	458.12
293.449	485.12
293.68	476.12
293.91	462.12
294.141	447.12
294.372	468.12
294.603	469.12
294.833	493.12
295.064	474.12
295.295	480.12
295.525	496.12
295.756	484.12
295.987	491.12
296.217	500.12
296.448	481.12
296.679	507.12
296.909	504.12
297.14	514.12
297.37	496.12
297.601	523.12
297.831	502.12
298.062	484.12
298.292	509.12
298.523	542.12
298.753	565.12
298.984	539.12
299.214	513.12
299.445	511.12
299.675	503.12
299.905	536.12
300.136	520.12
300.366	520.12
300.597	534.12
300.827	534.12
301.057	533.12
301.288	569.12
301.518	535.12
301.748	531.12
301.979	526.12
302.209	511.12
302.439	539.12
302.669	516.12
302.9	525.12
303.13	544.12
303.36	512.12
303.59	538.12
303.82	525.12
304.051	517.12
304.281	524.12
304.511	536.12
304.741	540.12
304.971	524.12
305.201	520.12
305.431	541.12
305.661	521.12
305.891	513.12
306.121	519.12
306.352	543.12
306.582	524.12
306.812	498.12
307.042	525.12
307.272	511.12
307.502	513.12
307.731	517.12
307.961	536.12
308.191	521.12
308.421	519.12
308.651	515.12
308.881	511.12
309.111	534.12
309.341	526.12
309.571	516.12
309.8	502.12
310.03	513.12
310.26	525.12
310.49	491.12
310.72	515.12
310.949	519.12
311.179	506.12
311.409	529.12
311.639	533.12
311.868	519.12
312.098	540.12
312.328	525.12
312.557	529.12
312.787	543.12
313.017	528.12
313.246	547.12
313.476	567.12
313.706	537.12
313.935	546.12
314.165	571.12
314.394	571.12
314.624	560.12
314.853	567.12
315.083	529.12
315.312	539.12
315.542	554.12
315.771	552.12
316.001	553.12
316.23	589.12
316.46	529.12
316.689	535.12
316.919	535.12
317.148	559.12
317.377	539.12
317.607	531.12
317.836	520.12
318.065	565.12
318.295	531.12
318.524	531.12
318.753	522.12
318.983	551.12
319.212	529.12
319.441	539.12
319.67	557.12
319.9	534.12
320.129	540.12
320.358	554.12
320.587	561.12
320.816	544.12
321.046	543.12
321.275	553.12
321.504	551.12
321.733	557.12
321.962	540.12
322.191	562.12
322.42	540.12
322.649	530.12
322.878	545.12
323.108	539.12
323.337	549.12
323.566	543.12
323.795	554.12
324.024	567.12
324.253	559.12
324.482	566.12
324.71	555.12
324.939	563.12
325.168	566.12
325.397	576.12
325.626	561.12
325.855	560.12
326.084	611.12
326.313	611.12
326.542	609.12
326.77	614.12
326.999	580.12
327.228	610.12
327.457	607.12
327.686	578.12
327.914	608.12
328.143	583.12
328.372	599.12
328.6	586.12
328.829	593.12
329.058	603.12
329.287	596.12
329.515	604.12
329.744	584.12
329.972	609.12
330.201	619.12
330.43	595.12
330.658	602.12
330.887	607.12
331.115	623.12
331.344	628.12
331.572	636.12
331.801	644.12
332.03	650.12
332.258	656.12
332.486	707.12
332.715	695.12
332.943	756.12
333.172	778.12
333.4	805.12
333.629	835.12
333.857	817.12
334.085	809.12
334.314	780.12
334.542	780.12
334.771	775.12
334.999	737.12
335.227	751.12
335.455	744.12
335.684	745.12
335.912	743.12
336.14	745.12
336.369	725.12
336.597	723.12
336.825	725.12
337.053	715.12
337.281	709.12
337.51	715.12
337.738	682.12
337.966	679.12
338.194	653.12
338.422	665.12
338.65	653.12
338.878	646.12
339.106	631.12
339.334	633.12
339.562	629.12
339.79	627.12
340.018	607.12
340.246	635.12
340.474	598.12
340.702	612.12
340.93	628.12
341.158	609.12
341.386	616.12
341.614	634.12
341.842	624.12
342.07	612.12
342.298	588.12
342.526	598.12
342.754	604.12
342.981	631.12
343.209	653.12
343.437	669.12
343.665	680.12
343.893	773.12
344.12	791.12
344.348	735.12
344.576	681.12
344.804	661.12
345.031	661.12
345.259	654.12
345.487	638.12
345.714	631.12
345.942	621.12
346.17	635.12
346.397	612.12
346.625	599.12
346.853	617.12
347.08	610.12
347.308	605.12
347.535	618.12
347.763	620.12
347.99	644.12
348.218	639.12
348.445	626.12
348.673	610.12
348.9	626.12
349.128	599.12
349.355	590.12
349.583	580.12
349.81	602.12
350.037	588.12
350.265	588.12
350.492	573.12
350.72	592.12
350.947	586.12
351.174	579.12
351.402	583.12
351.629	604.12
351.856	579.12
352.083	578.12
352.311	571.12
352.538	566.12
352.765	585.12
352.992	577.12
353.22	584.12
353.447	576.12
353.674	584.12
353.901	550.12
354.128	579.12
354.355	590.12
354.583	579.12
354.81	575.12
355.037	594.12
355.264	580.12
355.491	582.12
355.718	592.12
355.945	569.12
356.172	562.12
356.399	603.12
356.626	603.12
356.853	589.12
357.08	571.12
357.307	581.12
357.534	577.12
357.761	588.12
357.988	596.12
358.215	568.12
358.441	582.12
358.668	593.12
358.895	577.12
359.122	588.12
359.349	568.12
359.576	587.12
359.802	583.12
360.029	583.12
360.256	586.12
360.483	572.12
360.709	577.12
360.936	586.12
361.163	584.12
361.39	602.12
361.616	587.12
361.843	592.12
362.07	593.12
362.296	596.12
362.523	590.12
362.749	563.12
362.976	572.12
363.203	580.12
363.429	582.12
363.656	601.12
363.882	597.12
364.109	567.12
364.335	587.12
364.562	571.12
364.788	577.12
365.015	593.12
365.241	578.12
365.468	584.12
365.694	579.12
365.92	572.12
366.147	591.12
366.373	570.12
366.599	577.12
366.826	565.12
367.052	598.12
367.278	588.12
367.505	597.12
367.731	573.12
367.957	589.12
368.184	618.12
368.41	620.12
368.636	585.12
368.862	588.12
369.089	608.12
369.315	600.12
369.541	597.12
369.767	594.12
369.993	619.12
370.219	611.12
370.445	616.12
370.672	603.12
370.898	630.12
371.124	623.12
371.35	649.12
371.576	640.12
371.802	618.12
372.028	640.12
372.254	628.12
372.48	638.12
372.706	631.12
372.932	668.12
373.158	662.12
373.384	645.12
373.61	641.12
373.835	634.12
374.061	620.12
374.287	655.12
374.513	669.12
374.739	689.12
374.965	704.12
375.191	727.12
375.416	727.12
375.642	659.12
375.868	687.12
376.094	692.12
376.319	639.12
376.545	645.12
376.771	645.12
376.997	633.12
377.222	643.12
377.448	637.12
377.674	644.12
377.899	616.12
378.125	616.12
378.35	612.12
378.576	595.12
378.802	627.12
379.027	605.12
379.253	629.12
379.478	628.12
379.704	626.12
379.929	631.12
380.155	616.12
380.38	629.12
380.606	635.12
380.831	624.12
381.057	607.12
381.282	619.12
381.507	680.12
381.733	658.12
381.958	636.12
382.184	663.12
382.409	643.12
382.634	660.12
382.86	664.12
383.085	666.12
383.31	707.12
383.535	698.12
383.761	720.12
383.986	745.12
384.211	735.12
384.436	753.12
384.662	777.12
384.887	775.12
385.112	757.12
385.337	777.12
385.562	767.12
385.787	765.12
386.013	783.12
386.238	772.12
386.463	769.12
386.688	774.12
386.913	773.12
387.138	783.12
387.363	737.12
387.588	745.12
387.813	721.12
388.038	759.12
388.263	737.12
388.488	756.12
388.713	765.12
388.938	736.12
389.163	751.12
389.387	711.12
389.612	743.12
389.837	748.12
390.062	711.12
390.287	735.12
390.512	757.12
390.736	775.12
390.961	753.12
391.186	772.12
391.411	788.12
391.636	824.12
391.86	853.12
392.085	889.12
392.31	867.12
392.534	848.12
392.759	821.12
392.984	797.12
393.208	795.12
393.433	772.12
393.658	809.12
393.882	804.12
394.107	804.12
394.331	810.12
394.556	831.12
394.78	822.12
395.005	826.12
395.229	826.12
395.454	853.12
395.678	881.12
395.903	855.12
396.127	854.12
396.352	833.12
396.576	799.12
396.801	818.12
397.025	802.12
397.249	837.12
397.474	831.12
397.698	868.12
397.922	836.12
398.147	846.12
398.371	869.12
398.595	895.12
398.82	903.12
399.044	1018.12
399.268	1100.12
399.492	1327.12
399.717	1510.12
399.941	1493.12
400.165	1288.12
400.389	1146.12
400.613	1044.12
400.837	994.12
401.062	952.12
401.286	947.12
401.51	929.12
401.734	957.12
401.958	971.12
402.182	977.12
402.406	1001.12
402.63	976.12
402.854	988.12
403.078	1036.12
403.302	1076.12
403.526	1103.12
403.75	1130.12
403.974	1138.12
404.198	1128.12
404.422	1124.12
404.645	1148.12
404.869	1115.12
405.093	1094.12
405.317	1056.12
405.541	1063.12
405.765	1050.12
405.988	1039.12
406.212	1064.12
406.436	1035.12
406.66	1059.12
406.883	1083.12
407.107	1156.12
407.331	1254.12
407.555	1264.12
407.778	1245.12
408.002	1216.12
408.226	1169.12
408.449	1149.12
408.673	1126.12
408.896	1089.12
409.12	1065.12
409.344	1125.12
409.567	1106.12
409.791	1145.12
410.014	1089.12
410.238	1110.12
410.461	1099.12
410.685	1084.12
410.908	1080.12
411.132	1014.12
411.355	1003.12
411.578	1005.12
411.802	1017.12
412.025	1005.12
412.249	1001.12
412.472	1019.12
412.695	986.12
412.919	984.12
413.142	937.12
413.365	936.12
413.589	966.12
413.812	937.12
414.035	965.12
414.258	986.12
414.482	955.12
414.705	998.12
414.928	969.12
415.151	962.12
415.374	941.12
415.597	936.12
415.821	952.12
416.044	949.12
416.267	918.12
416.49	912.12
416.713	951.12
416.936	959.12
417.159	937.12
417.382	955.12
417.605	943.12
417.828	919.12
418.051	955.12
418.274	967.12
418.497	975.12
418.72	995.12
418.943	969.12
419.166	1064.12
419.389	1123.12
419.611	1057.12
419.834	1062.12
420.057	996.12
420.28	970.12
420.503	921.12
420.726	928.12
420.948	937.12
421.171	972.12
421.394	953.12
421.617	936.12
421.839	949.12
422.062	965.12
422.285	912.12
422.507	976.12
422.73	972.12
422.953	1012.12
423.175	1004.12
423.398	1005.12
423.621	997.12
423.843	1038.12
424.066	1073.12
424.288	1032.12
424.511	995.12
424.733	991.12
424.956	986.12
425.178	968.12
425.401	971.12
425.623	945.12
425.846	906.12
426.068	898.12
426.291	909.12
426.513	916.12
426.735	881.12
426.958	915.12
427.18	855.12
427.402	862.12
427.625	855.12
427.847	843.12
428.069	839.12
428.292	865.12
428.514	827.12
428.736	847.12
428.958	865.12
429.181	830.12
429.403	856.12
429.625	834.12
429.847	807.12
430.069	804.12
430.292	809.12
430.514	810.12
430.736	835.12
430.958	825.12
431.18	832.12
431.402	841.12
431.624	808.12
431.846	850.12
432.068	869.12
432.29	866.12
432.512	828.12
432.734	848.12
432.956	849.12
433.178	859.12
433.4	831.12
433.622	859.12
433.844	849.12
434.066	851.12
434.287	866.12
434.509	900.12
434.731	948.12
434.953	974.12
435.175	960.12
435.397	952.12
435.618	874.12
435.84	885.12
436.062	875.12
436.284	860.12
436.505	855.12
436.727	829.12
436.949	875.12
437.17	842.12
437.392	831.12
437.614	819.12
437.835	796.12
438.057	833.12
438.278	795.12
438.5	787.12
438.721	794.12
438.943	828.12
439.165	839.12
439.386	836.12
439.608	838.12
439.829	851.12
440.05	852.12
440.272	843.12
440.493	851.12
440.715	841.12
440.936	899.12
441.158	903.12
441.379	893.12
441.6	955.12
441.822	971.12
442.043	950.12
442.264	954.12
442.486	920.12
442.707	951.12
442.928	938.12
443.149	935.12
443.371	955.12
443.592	967.12
443.813	964.12
444.034	957.12
444.255	1003.12
444.476	1021.12
444.698	1066.12
444.919	1157.12
445.14	1222.12
445.361	1083.12
445.582	955.12
445.803	893.12
446.024	883.12
446.245	889.12
446.466	863.12
446.687	851.12
446.908	867.12
447.129	802.12
447.35	827.12
447.571	837.12
447.792	797.12
448.013	827.12
448.234	793.12
448.455	795.12
448.675	787.12
448.896	764.12
449.117	771.12
449.338	737.12
449.559	774.12
449.779	772.12
450	760.12
450.221	797.12
450.442	790.12
450.662	792.12
450.883	834.12
451.104	821.12
451.324	831.12
451.545	823.12
451.766	806.12
451.986	797.12
452.207	819.12
452.428	800.12
452.648	777.12
452.869	786.12
453.089	781.12
453.31	809.12
453.53	773.12
453.751	760.12
453.971	767.12
454.192	728.12
454.412	785.12
454.633	782.12
454.853	741.12
455.073	724.12
455.294	748.12
455.514	719.12
455.734	751.12
455.955	728.12
456.175	740.12
456.395	709.12
456.616	720.12
456.836	751.12
457.056	723.12
457.276	713.12
457.497	727.12
457.717	709.12
457.937	732.12
458.157	724.12
458.377	741.12
458.598	763.12
458.818	797.12
459.038	816.12
459.258	831.12
459.478	857.12
459.698	891.12
459.918	889.12
460.138	928.12
460.358	994.12
460.578	1011.12
460.798	1021.12
461.018	1033.12
461.238	1020.12
461.458	1001.12
461.678	994.12
461.898	1008.12
462.118	1019.12
462.338	1100.12
462.558	1121.12
462.777	1102.12
462.997	1247.12
463.217	1399.12
463.437	1472.12
463.657	1269.12
463.876	1207.12
464.096	1212.12
464.316	1237.12
464.536	1237.12
464.755	1161.12
464.975	1100.12
465.195	1057.12
465.414	983.12
465.634	924.12
465.854	873.12
466.073	858.12
466.293	850.12
466.512	850.12
466.732	835.12
466.951	820.12
467.171	827.12
467.391	832.12
467.61	818.12
467.829	826.12
468.049	787.12
468.268	784.12
468.488	790.12
468.707	751.12
468.927	769.12
469.146	784.12
469.365	805.12
469.585	785.12
469.804	821.12
470.023	825.12
470.243	852.12
470.462	849.12
470.681	835.12
470.901	842.12
471.12	862.12
471.339	813.12
471.558	819.12
471.777	817.12
471.997	802.12
472.216	782.12
472.435	771.12
472.654	758.12
472.873	788.12
473.092	765.12
473.311	757.12
473.53	764.12
473.749	763.12
473.968	771.12
474.187	774.12
474.406	771.12
474.625	782.12
474.844	772.12
475.063	765.12
475.282	775.12
475.501	767.12
475.72	753.12
475.939	770.12
476.158	825.12
476.377	807.12
476.596	781.12
476.814	804.12
477.033	786.12
477.252	841.12
477.471	842.12
477.69	835.12
477.908	869.12
478.127	915.12
478.346	909.12
478.564	911.12
478.783	952.12
479.002	953.12
479.22	983.12
479.439	940.12
479.658	963.12
479.876	977.12
480.095	955.12
480.313	986.12
480.532	1049.12
480.751	1043.12
480.969	964.12
481.188	929.12
481.406	905.12
481.624	902.12
481.843	886.12
482.061	868.12
482.28	880.12
482.498	860.12
482.717	854.12
482.935	875.12
483.153	862.12
483.372	873.12
483.59	855.12
483.808	854.12
484.027	869.12
484.245	872.12
484.463	874.12
484.681	911.12
484.9	916.12
485.118	900.12
485.336	917.12
485.554	901.12
485.772	914.12
485.99	929.12
486.209	920.12
486.427	937.12
486.645	934.12
486.863	931.12
487.081	940.12
487.299	932.12
487.517	892.12
487.735	913.12
487.953	922.12
488.171	919.12
488.389	907.12
488.607	920.12
488.825	870.12
489.043	897.12
489.261	911.12
489.479	905.12
489.696	903.12
489.914	930.12
490.132	938.12
490.35	916.12
490.568	916.12
490.786	919.12
491.003	883.12
491.221	930.12
491.439	909.12
491.657	931.12
491.874	913.12
492.092	921.12
492.31	903.12
492.527	926.12
492.745	924.12
492.963	898.12
493.18	913.12
493.398	919.12
493.615	936.12
493.833	951.12
494.05	977.12
494.268	950.12
494.485	962.12
494.703	946.12
494.92	933.12
495.138	953.12
495.355	947.12
495.573	961.12
495.79	975.12
496.008	970.12
496.225	976.12
496.442	1009.12
496.66	1013.12
496.877	991.12
497.094	1016.12
497.312	1036.12
497.529	1061.12
497.746	1086.12
497.963	1103.12
498.181	1156.12
498.398	1203.12
498.615	1289.12
498.832	1347.12
499.049	1440.12
499.267	1546.12
499.484	1755.12
499.701	1932.12
499.918	2144.12
500.135	2545.12
