Data from Ni(NO3)2@0.0625M.TitratingCurve.Agarose3%dH2O.NegLispCup.LampEnergy10.LIBS07252019_HRD10591_18-14-34-569.txt Node
Date: Thu Jul 25 18:14:34 EDT 2019
User: cochatt
Spectrometer: HR+D1059
Trigger mode: 1
Integration Time (sec): 1.000000E-1
Scans to average: 1
Electric dark correction enabled: true
Nonlinearity correction enabled: false
Boxcar width: 0
XAxis mode: Wavelengths
Number of Pixels in Spectrum: 2048
>>>>>Begin Spectral Data<<<<<
223.165	-3.12
223.4	-3.12
223.635	-3.12
223.869	-21.12
224.104	-6.12
224.338	-1.12
224.573	-22.12
224.808	-8.12
225.042	-6.12
225.277	-3.12
225.511	-6.12
225.746	4.88
225.98	0.88
226.215	2.88
226.449	0.88
226.683	14.88
226.918	23.88
227.152	28.88
227.387	28.88
227.621	34.88
227.856	40.88
228.09	37.88
228.324	40.88
228.559	64.88
228.793	71.88
229.027	82.88
229.262	91.88
229.496	105.88
229.73	94.88
229.964	87.88
230.199	128.88
230.433	118.88
230.667	120.88
230.901	122.88
231.136	119.88
231.37	122.88
231.604	128.88
231.838	128.88
232.072	134.88
232.306	122.88
232.541	113.88
232.775	135.88
233.009	144.88
233.243	122.88
233.477	115.88
233.711	128.88
233.945	116.88
234.179	128.88
234.413	120.88
234.647	127.88
234.881	124.88
235.115	132.88
235.349	137.88
235.583	129.88
235.817	121.88
236.051	116.88
236.285	118.88
236.519	127.88
236.753	136.88
236.987	136.88
237.221	125.88
237.455	137.88
237.689	120.88
237.922	114.88
238.156	123.88
238.39	136.88
238.624	123.88
238.858	142.88
239.091	148.88
239.325	142.88
239.559	140.88
239.793	134.88
240.027	140.88
240.26	132.88
240.494	131.88
240.728	147.88
240.961	144.88
241.195	135.88
241.429	156.88
241.662	149.88
241.896	142.88
242.13	126.88
242.363	138.88
242.597	141.88
242.83	151.88
243.064	147.88
243.298	153.88
243.531	144.88
243.765	150.88
243.998	151.88
244.232	146.88
244.465	162.88
244.699	150.88
244.932	181.88
245.166	160.88
245.399	162.88
245.633	182.88
245.866	160.88
246.099	169.88
246.333	173.88
246.566	171.88
246.8	155.88
247.033	177.88
247.266	166.88
247.5	169.88
247.733	164.88
247.966	171.88
248.2	172.88
248.433	176.88
248.666	176.88
248.899	177.88
249.133	192.88
249.366	195.88
249.599	181.88
249.832	184.88
250.066	169.88
250.299	176.88
250.532	188.88
250.765	177.88
250.998	187.88
251.231	201.88
251.465	202.88
251.698	205.88
251.931	191.88
252.164	198.88
252.397	192.88
252.63	196.88
252.863	205.88
253.096	207.88
253.329	201.88
253.562	212.88
253.795	199.88
254.028	202.88
254.261	210.88
254.494	201.88
254.727	207.88
254.96	209.88
255.193	188.88
255.426	209.88
255.659	214.88
255.892	220.88
256.124	225.88
256.357	227.88
256.59	223.88
256.823	210.88
257.056	202.88
257.289	224.88
257.521	213.88
257.754	214.88
257.987	238.88
258.22	220.88
258.452	221.88
258.685	221.88
258.918	220.88
259.151	213.88
259.383	223.88
259.616	229.88
259.849	253.88
260.081	245.88
260.314	225.88
260.547	226.88
260.779	240.88
261.012	224.88
261.244	233.88
261.477	227.88
261.71	242.88
261.942	240.88
262.175	237.88
262.407	238.88
262.64	227.88
262.872	238.88
263.105	237.88
263.337	227.88
263.57	249.88
263.802	235.88
264.035	259.88
264.267	256.88
264.499	240.88
264.732	245.88
264.964	251.88
265.197	266.88
265.429	263.88
265.661	249.88
265.894	251.88
266.126	260.88
266.358	259.88
266.591	263.88
266.823	258.88
267.055	251.88
267.287	251.88
267.52	254.88
267.752	269.88
267.984	264.88
268.216	258.88
268.448	262.88
268.681	255.88
268.913	258.88
269.145	281.88
269.377	253.88
269.609	262.88
269.841	258.88
270.073	272.88
270.306	278.88
270.538	252.88
270.77	270.88
271.002	264.88
271.234	263.88
271.466	273.88
271.698	275.88
271.93	276.88
272.162	293.88
272.394	280.88
272.626	290.88
272.858	263.88
273.09	296.88
273.322	275.88
273.553	280.88
273.785	270.88
274.017	272.88
274.249	292.88
274.481	298.88
274.713	292.88
274.945	285.88
275.176	295.88
275.408	299.88
275.64	297.88
275.872	289.88
276.104	294.88
276.335	309.88
276.567	297.88
276.799	290.88
277.031	319.88
277.262	297.88
277.494	313.88
277.726	320.88
277.957	307.88
278.189	311.88
278.421	305.88
278.652	283.88
278.884	307.88
279.115	299.88
279.347	311.88
279.579	303.88
279.81	298.88
280.042	313.88
280.273	309.88
280.505	330.88
280.736	317.88
280.968	327.88
281.199	327.88
281.431	314.88
281.662	315.88
281.894	330.88
282.125	333.88
282.356	347.88
282.588	339.88
282.819	329.88
283.051	335.88
283.282	319.88
283.513	333.88
283.745	345.88
283.976	321.88
284.207	334.88
284.439	360.88
284.67	354.88
284.901	344.88
285.132	349.88
285.364	326.88
285.595	349.88
285.826	339.88
286.057	340.88
286.288	345.88
286.52	331.88
286.751	356.88
286.982	376.88
287.213	354.88
287.444	356.88
287.675	337.88
287.906	356.88
288.138	356.88
288.369	365.88
288.6	364.88
288.831	364.88
289.062	359.88
289.293	353.88
289.524	357.88
289.755	360.88
289.986	384.88
290.217	371.88
290.448	388.88
290.679	368.88
290.91	357.88
291.141	376.88
291.371	374.88
291.602	373.88
291.833	385.88
292.064	364.88
292.295	368.88
292.526	376.88
292.757	375.88
292.987	377.88
293.218	363.88
293.449	376.88
293.68	358.88
293.91	379.88
294.141	376.88
294.372	372.88
294.603	386.88
294.833	380.88
295.064	346.88
295.295	368.88
295.525	375.88
295.756	385.88
295.987	386.88
296.217	383.88
296.448	392.88
296.679	408.88
296.909	387.88
297.14	410.88
297.37	392.88
297.601	410.88
297.831	399.88
298.062	424.88
298.292	418.88
298.523	408.88
298.753	398.88
298.984	413.88
299.214	393.88
299.445	387.88
299.675	408.88
299.905	416.88
300.136	411.88
300.366	401.88
300.597	406.88
300.827	445.88
301.057	424.88
301.288	457.88
301.518	447.88
301.748	419.88
301.979	442.88
302.209	432.88
302.439	410.88
302.669	425.88
302.9	417.88
303.13	405.88
303.36	414.88
303.59	425.88
303.82	415.88
304.051	429.88
304.281	413.88
304.511	416.88
304.741	439.88
304.971	420.88
305.201	436.88
305.431	448.88
305.661	424.88
305.891	434.88
306.121	410.88
306.352	420.88
306.582	405.88
306.812	413.88
307.042	439.88
307.272	414.88
307.502	408.88
307.731	420.88
307.961	417.88
308.191	399.88
308.421	399.88
308.651	411.88
308.881	405.88
309.111	414.88
309.341	395.88
309.571	423.88
309.8	413.88
310.03	428.88
310.26	438.88
310.49	416.88
310.72	423.88
310.949	422.88
311.179	421.88
311.409	424.88
311.639	434.88
311.868	419.88
312.098	432.88
312.328	428.88
312.557	421.88
312.787	441.88
313.017	435.88
313.246	436.88
313.476	439.88
313.706	450.88
313.935	443.88
314.165	440.88
314.394	433.88
314.624	459.88
314.853	462.88
315.083	452.88
315.312	440.88
315.542	461.88
315.771	450.88
316.001	437.88
316.23	435.88
316.46	421.88
316.689	445.88
316.919	439.88
317.148	430.88
317.377	450.88
317.607	423.88
317.836	426.88
318.065	448.88
318.295	460.88
318.524	426.88
318.753	426.88
318.983	405.88
319.212	423.88
319.441	426.88
319.67	420.88
319.9	427.88
320.129	441.88
320.358	416.88
320.587	450.88
320.816	432.88
321.046	447.88
321.275	430.88
321.504	433.88
321.733	432.88
321.962	440.88
322.191	432.88
322.42	422.88
322.649	440.88
322.878	437.88
323.108	458.88
323.337	457.88
323.566	451.88
323.795	451.88
324.024	445.88
324.253	438.88
324.482	460.88
324.71	455.88
324.939	453.88
325.168	462.88
325.397	440.88
325.626	444.88
325.855	462.88
326.084	476.88
326.313	478.88
326.542	490.88
326.77	490.88
326.999	464.88
327.228	458.88
327.457	471.88
327.686	478.88
327.914	475.88
328.143	472.88
328.372	473.88
328.6	469.88
328.829	474.88
329.058	475.88
329.287	498.88
329.515	510.88
329.744	478.88
329.972	472.88
330.201	484.88
330.43	506.88
330.658	488.88
330.887	485.88
331.115	488.88
331.344	501.88
331.572	499.88
331.801	510.88
332.03	514.88
332.258	537.88
332.486	549.88
332.715	577.88
332.943	584.88
333.172	612.88
333.4	634.88
333.629	662.88
333.857	659.88
334.085	621.88
334.314	621.88
334.542	607.88
334.771	610.88
334.999	586.88
335.227	591.88
335.455	598.88
335.684	600.88
335.912	578.88
336.14	588.88
336.369	574.88
336.597	544.88
336.825	592.88
337.053	558.88
337.281	560.88
337.51	560.88
337.738	558.88
337.966	524.88
338.194	538.88
338.422	532.88
338.65	523.88
338.878	513.88
339.106	523.88
339.334	534.88
339.562	518.88
339.79	503.88
340.018	508.88
340.246	496.88
340.474	493.88
340.702	493.88
340.93	515.88
341.158	492.88
341.386	531.88
341.614	523.88
341.842	521.88
342.07	506.88
342.298	490.88
342.526	521.88
342.754	484.88
342.981	502.88
343.209	512.88
343.437	532.88
343.665	576.88
343.893	601.88
344.12	634.88
344.348	579.88
344.576	570.88
344.804	536.88
345.031	534.88
345.259	520.88
345.487	505.88
345.714	528.88
345.942	499.88
346.17	527.88
346.397	514.88
346.625	493.88
346.853	482.88
347.08	499.88
347.308	490.88
347.535	486.88
347.763	525.88
347.99	500.88
348.218	499.88
348.445	525.88
348.673	481.88
348.9	505.88
349.128	498.88
349.355	510.88
349.583	492.88
349.81	477.88
350.037	471.88
350.265	485.88
350.492	478.88
350.72	466.88
350.947	468.88
351.174	468.88
351.402	501.88
351.629	468.88
351.856	486.88
352.083	492.88
352.311	490.88
352.538	485.88
352.765	503.88
352.992	467.88
353.22	468.88
353.447	470.88
353.674	476.88
353.901	465.88
354.128	456.88
354.355	466.88
354.583	473.88
354.81	472.88
355.037	457.88
355.264	453.88
355.491	464.88
355.718	480.88
355.945	487.88
356.172	488.88
356.399	477.88
356.626	510.88
356.853	489.88
357.08	497.88
357.307	484.88
357.534	484.88
357.761	469.88
357.988	471.88
358.215	492.88
358.441	482.88
358.668	480.88
358.895	468.88
359.122	479.88
359.349	500.88
359.576	473.88
359.802	483.88
360.029	452.88
360.256	473.88
360.483	480.88
360.709	473.88
360.936	482.88
361.163	462.88
361.39	489.88
361.616	467.88
361.843	477.88
362.07	487.88
362.296	473.88
362.523	467.88
362.749	474.88
362.976	463.88
363.203	456.88
363.429	472.88
363.656	468.88
363.882	489.88
364.109	460.88
364.335	455.88
364.562	470.88
364.788	444.88
365.015	483.88
365.241	484.88
365.468	478.88
365.694	485.88
365.92	488.88
366.147	467.88
366.373	483.88
366.599	468.88
366.826	454.88
367.052	485.88
367.278	482.88
367.505	483.88
367.731	463.88
367.957	475.88
368.184	491.88
368.41	485.88
368.636	480.88
368.862	487.88
369.089	467.88
369.315	501.88
369.541	502.88
369.767	495.88
369.993	495.88
370.219	473.88
370.445	496.88
370.672	518.88
370.898	505.88
371.124	520.88
371.35	525.88
371.576	514.88
371.802	501.88
372.028	520.88
372.254	516.88
372.48	531.88
372.706	522.88
372.932	538.88
373.158	555.88
373.384	535.88
373.61	528.88
373.835	521.88
374.061	535.88
374.287	525.88
374.513	550.88
374.739	551.88
374.965	561.88
375.191	563.88
375.416	583.88
375.642	581.88
375.868	550.88
376.094	533.88
376.319	548.88
376.545	542.88
376.771	528.88
376.997	552.88
377.222	520.88
377.448	539.88
377.674	508.88
377.899	522.88
378.125	520.88
378.35	533.88
378.576	515.88
378.802	497.88
379.027	501.88
379.253	501.88
379.478	500.88
379.704	510.88
379.929	519.88
380.155	508.88
380.38	523.88
380.606	520.88
380.831	502.88
381.057	517.88
381.282	516.88
381.507	498.88
381.733	514.88
381.958	527.88
382.184	533.88
382.409	533.88
382.634	567.88
382.86	553.88
383.085	559.88
383.31	576.88
383.535	564.88
383.761	571.88
383.986	577.88
384.211	600.88
384.436	599.88
384.662	620.88
384.887	633.88
385.112	624.88
385.337	625.88
385.562	618.88
385.787	625.88
386.013	612.88
386.238	642.88
386.463	605.88
386.688	617.88
386.913	602.88
387.138	610.88
387.363	608.88
387.588	624.88
387.813	610.88
388.038	593.88
388.263	627.88
388.488	604.88
388.713	595.88
388.938	611.88
389.163	588.88
389.387	603.88
389.612	598.88
389.837	605.88
390.062	606.88
390.287	579.88
390.512	596.88
390.736	611.88
390.961	645.88
391.186	632.88
391.411	646.88
391.636	671.88
391.86	700.88
392.085	715.88
392.31	690.88
392.534	671.88
392.759	660.88
392.984	649.88
393.208	658.88
393.433	650.88
393.658	640.88
393.882	646.88
394.107	636.88
394.331	664.88
394.556	646.88
394.78	652.88
395.005	663.88
395.229	641.88
395.454	673.88
395.678	694.88
395.903	705.88
396.127	683.88
396.352	641.88
396.576	628.88
396.801	644.88
397.025	637.88
397.249	662.88
397.474	670.88
397.698	707.88
397.922	697.88
398.147	672.88
398.371	679.88
398.595	731.88
398.82	774.88
399.044	790.88
399.268	858.88
399.492	1036.88
399.717	1180.88
399.941	1179.88
400.165	1020.88
400.389	894.88
400.613	866.88
400.837	772.88
401.062	796.88
401.286	758.88
401.51	737.88
401.734	750.88
401.958	773.88
402.182	778.88
402.406	794.88
402.63	804.88
402.854	839.88
403.078	852.88
403.302	849.88
403.526	860.88
403.75	898.88
403.974	916.88
404.198	889.88
404.422	899.88
404.645	900.88
404.869	861.88
405.093	876.88
405.317	849.88
405.541	842.88
405.765	862.88
405.988	842.88
406.212	829.88
406.436	849.88
406.66	873.88
406.883	844.88
407.107	928.88
407.331	952.88
407.555	1006.88
407.778	1029.88
408.002	974.88
408.226	932.88
408.449	905.88
408.673	888.88
408.896	858.88
409.12	839.88
409.344	860.88
409.567	888.88
409.791	927.88
410.014	905.88
410.238	868.88
410.461	879.88
410.685	874.88
410.908	847.88
411.132	800.88
411.355	792.88
411.578	809.88
411.802	790.88
412.025	812.88
412.249	841.88
412.472	790.88
412.695	801.88
412.919	776.88
413.142	774.88
413.365	768.88
413.589	738.88
413.812	749.88
414.035	743.88
414.258	770.88
414.482	775.88
414.705	807.88
414.928	784.88
415.151	786.88
415.374	755.88
415.597	783.88
415.821	750.88
416.044	741.88
416.267	749.88
416.49	743.88
416.713	749.88
416.936	731.88
417.159	753.88
417.382	770.88
417.605	756.88
417.828	770.88
418.051	738.88
418.274	764.88
418.497	761.88
418.72	801.88
418.943	773.88
419.166	820.88
419.389	859.88
419.611	841.88
419.834	797.88
420.057	829.88
420.28	763.88
420.503	753.88
420.726	752.88
420.948	749.88
421.171	758.88
421.394	747.88
421.617	764.88
421.839	752.88
422.062	773.88
422.285	773.88
422.507	774.88
422.73	747.88
422.953	792.88
423.175	788.88
423.398	795.88
423.621	802.88
423.843	834.88
424.066	802.88
424.288	806.88
424.511	806.88
424.733	797.88
424.956	787.88
425.178	777.88
425.401	770.88
425.623	766.88
425.846	756.88
426.068	728.88
426.291	706.88
426.513	714.88
426.735	721.88
426.958	694.88
427.18	688.88
427.402	699.88
427.625	722.88
427.847	674.88
428.069	682.88
428.292	691.88
428.514	681.88
428.736	680.88
428.958	671.88
429.181	670.88
429.403	648.88
429.625	667.88
429.847	652.88
430.069	653.88
430.292	650.88
430.514	668.88
430.736	664.88
430.958	667.88
431.18	652.88
431.402	663.88
431.624	687.88
431.846	684.88
432.068	683.88
432.29	722.88
432.512	698.88
432.734	697.88
432.956	686.88
433.178	692.88
433.4	694.88
433.622	696.88
433.844	729.88
434.066	742.88
434.287	690.88
434.509	702.88
434.731	747.88
434.953	774.88
435.175	793.88
435.397	776.88
435.618	735.88
435.84	696.88
436.062	699.88
436.284	700.88
436.505	684.88
436.727	710.88
436.949	697.88
437.17	700.88
437.392	693.88
437.614	672.88
437.835	660.88
438.057	669.88
438.278	649.88
438.5	626.88
438.721	655.88
438.943	689.88
439.165	668.88
439.386	680.88
439.608	680.88
439.829	695.88
440.05	677.88
440.272	696.88
440.493	692.88
440.715	694.88
440.936	713.88
441.158	722.88
441.379	736.88
441.6	774.88
441.822	778.88
442.043	773.88
442.264	768.88
442.486	726.88
442.707	737.88
442.928	742.88
443.149	756.88
443.371	747.88
443.592	763.88
443.813	789.88
444.034	788.88
444.255	797.88
444.476	854.88
444.698	911.88
444.919	948.88
445.14	1018.88
445.361	883.88
445.582	804.88
445.803	741.88
446.024	732.88
446.245	714.88
446.466	720.88
446.687	693.88
446.908	705.88
447.129	686.88
447.35	692.88
447.571	658.88
447.792	647.88
448.013	656.88
448.234	650.88
448.455	646.88
448.675	624.88
448.896	627.88
449.117	648.88
449.338	625.88
449.559	652.88
449.779	648.88
450	633.88
450.221	614.88
450.442	636.88
450.662	658.88
450.883	654.88
451.104	661.88
451.324	676.88
451.545	666.88
451.766	638.88
451.986	650.88
452.207	660.88
452.428	650.88
452.648	658.88
452.869	641.88
453.089	616.88
453.31	660.88
453.53	640.88
453.751	596.88
453.971	625.88
454.192	636.88
454.412	619.88
454.633	610.88
454.853	622.88
455.073	617.88
455.294	621.88
455.514	605.88
455.734	605.88
455.955	596.88
456.175	609.88
456.395	599.88
456.616	603.88
456.836	593.88
457.056	606.88
457.276	595.88
457.497	598.88
457.717	616.88
457.937	598.88
458.157	621.88
458.377	595.88
458.598	636.88
458.818	630.88
459.038	652.88
459.258	699.88
459.478	724.88
459.698	729.88
459.918	740.88
460.138	786.88
460.358	813.88
460.578	818.88
460.798	855.88
461.018	840.88
461.238	833.88
461.458	824.88
461.678	802.88
461.898	795.88
462.118	836.88
462.338	871.88
462.558	898.88
462.777	932.88
462.997	1025.88
463.217	1095.88
463.437	1139.88
463.657	1046.88
463.876	948.88
464.096	984.88
464.316	945.88
464.536	976.88
464.755	924.88
464.975	863.88
465.195	851.88
465.414	822.88
465.634	748.88
465.854	718.88
466.073	724.88
466.293	694.88
466.512	669.88
466.732	664.88
466.951	678.88
467.171	671.88
467.391	677.88
467.61	676.88
467.829	657.88
468.049	655.88
468.268	640.88
468.488	636.88
468.707	651.88
468.927	663.88
469.146	669.88
469.365	650.88
469.585	659.88
469.804	680.88
470.023	688.88
470.243	683.88
470.462	730.88
470.681	680.88
470.901	690.88
471.12	717.88
471.339	668.88
471.558	654.88
471.777	668.88
471.997	648.88
472.216	620.88
472.435	649.88
472.654	628.88
472.873	633.88
473.092	630.88
473.311	627.88
473.53	613.88
473.749	640.88
473.968	633.88
474.187	626.88
474.406	645.88
474.625	619.88
474.844	630.88
475.063	634.88
475.282	625.88
475.501	664.88
475.72	628.88
475.939	640.88
476.158	664.88
476.377	651.88
476.596	651.88
476.814	692.88
477.033	711.88
477.252	707.88
477.471	694.88
477.69	698.88
477.908	708.88
478.127	760.88
478.346	759.88
478.564	760.88
478.783	777.88
479.002	811.88
479.22	808.88
479.439	772.88
479.658	768.88
479.876	771.88
480.095	797.88
480.313	801.88
480.532	837.88
480.751	843.88
480.969	804.88
481.188	772.88
481.406	753.88
481.624	764.88
481.843	731.88
482.061	694.88
482.28	717.88
482.498	721.88
482.717	730.88
482.935	732.88
483.153	743.88
483.372	739.88
483.59	748.88
483.808	749.88
484.027	733.88
484.245	728.88
484.463	742.88
484.681	762.88
484.9	761.88
485.118	756.88
485.336	742.88
485.554	782.88
485.772	770.88
485.99	779.88
486.209	791.88
486.427	791.88
486.645	790.88
486.863	797.88
487.081	773.88
487.299	788.88
487.517	765.88
487.735	770.88
487.953	773.88
488.171	744.88
488.389	763.88
488.607	768.88
488.825	754.88
489.043	743.88
489.261	765.88
489.479	727.88
489.696	770.88
489.914	751.88
490.132	770.88
490.35	740.88
490.568	749.88
490.786	766.88
491.003	764.88
491.221	773.88
491.439	784.88
491.657	749.88
491.874	780.88
492.092	762.88
492.31	782.88
492.527	793.88
492.745	792.88
492.963	800.88
493.18	793.88
493.398	796.88
493.615	794.88
493.833	826.88
494.05	789.88
494.268	790.88
494.485	818.88
494.703	808.88
494.92	804.88
495.138	824.88
495.355	795.88
495.573	796.88
495.79	792.88
496.008	802.88
496.225	786.88
496.442	824.88
496.66	818.88
496.877	823.88
497.094	851.88
497.312	860.88
497.529	881.88
497.746	891.88
497.963	920.88
498.181	948.88
498.398	971.88
498.615	1030.88
498.832	1109.88
499.049	1162.88
499.267	1298.88
499.484	1406.88
499.701	1574.88
499.918	1782.88
500.135	2013.88
500.352	2264.88
500.569	2409.88
500.786	2375.88
501.003	2204.88
501.22	1952.88
501.437	1694.88
