Data from Ni(NO3)2@0.5M.TitratingCurve.Agarose3%dH2O.NegLispCup.LampEnergy10.LIBS07252019_HRD10591_17-59-49-564.txt Node
Date: Thu Jul 25 17:59:49 EDT 2019
User: cochatt
Spectrometer: HR+D1059
Trigger mode: 1
Integration Time (sec): 1.000000E-1
Scans to average: 1
Electric dark correction enabled: true
Nonlinearity correction enabled: false
Boxcar width: 0
XAxis mode: Wavelengths
Number of Pixels in Spectrum: 2048
>>>>>Begin Spectral Data<<<<<
223.165	-8.25
223.4	-8.25
223.635	-8.25
223.869	-16.25
224.104	-8.25
224.338	-9.25
224.573	-28.25
224.808	-21.25
225.042	-4.25
225.277	-15.25
225.511	0.75
225.746	-6.25
225.98	3.75
226.215	12.75
226.449	13.75
226.683	26.75
226.918	29.75
227.152	29.75
227.387	42.75
227.621	55.75
227.856	47.75
228.09	48.75
228.324	48.75
228.559	57.75
228.793	61.75
229.027	62.75
229.262	83.75
229.496	78.75
229.73	77.75
229.964	89.75
230.199	88.75
230.433	94.75
230.667	97.75
230.901	80.75
231.136	94.75
231.37	99.75
231.604	90.75
231.838	102.75
232.072	100.75
232.306	92.75
232.541	106.75
232.775	99.75
233.009	100.75
233.243	107.75
233.477	111.75
233.711	112.75
233.945	96.75
234.179	102.75
234.413	92.75
234.647	89.75
234.881	86.75
235.115	102.75
235.349	104.75
235.583	98.75
235.817	104.75
236.051	96.75
236.285	94.75
236.519	80.75
236.753	91.75
236.987	85.75
237.221	103.75
237.455	93.75
237.689	90.75
237.922	88.75
238.156	100.75
238.39	92.75
238.624	80.75
238.858	101.75
239.091	104.75
239.325	96.75
239.559	96.75
239.793	90.75
240.027	91.75
240.26	100.75
240.494	109.75
240.728	88.75
240.961	91.75
241.195	94.75
241.429	100.75
241.662	97.75
241.896	94.75
242.13	112.75
242.363	102.75
242.597	99.75
242.83	100.75
243.064	89.75
243.298	101.75
243.531	108.75
243.765	98.75
243.998	97.75
244.232	95.75
244.465	96.75
244.699	102.75
244.932	110.75
245.166	111.75
245.399	95.75
245.633	78.75
245.866	96.75
246.099	94.75
246.333	109.75
246.566	115.75
246.8	101.75
247.033	91.75
247.266	98.75
247.5	97.75
247.733	105.75
247.966	97.75
248.2	116.75
248.433	105.75
248.666	119.75
248.899	110.75
249.133	112.75
249.366	104.75
249.599	118.75
249.832	119.75
250.066	122.75
250.299	119.75
250.532	126.75
250.765	116.75
250.998	113.75
251.231	113.75
251.465	104.75
251.698	114.75
251.931	117.75
252.164	110.75
252.397	119.75
252.63	116.75
252.863	105.75
253.096	128.75
253.329	107.75
253.562	121.75
253.795	127.75
254.028	104.75
254.261	99.75
254.494	126.75
254.727	119.75
254.96	118.75
255.193	122.75
255.426	128.75
255.659	111.75
255.892	120.75
256.124	117.75
256.357	123.75
256.59	126.75
256.823	112.75
257.056	116.75
257.289	121.75
257.521	117.75
257.754	123.75
257.987	120.75
258.22	127.75
258.452	122.75
258.685	138.75
258.918	121.75
259.151	127.75
259.383	127.75
259.616	126.75
259.849	124.75
260.081	120.75
260.314	116.75
260.547	120.75
260.779	132.75
261.012	141.75
261.244	115.75
261.477	124.75
261.71	127.75
261.942	118.75
262.175	128.75
262.407	128.75
262.64	118.75
262.872	134.75
263.105	136.75
263.337	137.75
263.57	129.75
263.802	141.75
264.035	142.75
264.267	129.75
264.499	133.75
264.732	133.75
264.964	124.75
265.197	135.75
265.429	125.75
265.661	156.75
265.894	139.75
266.126	135.75
266.358	136.75
266.591	130.75
266.823	128.75
267.055	141.75
267.287	133.75
267.52	127.75
267.752	143.75
267.984	143.75
268.216	136.75
268.448	129.75
268.681	117.75
268.913	124.75
269.145	136.75
269.377	124.75
269.609	132.75
269.841	135.75
270.073	143.75
270.306	129.75
270.538	137.75
270.77	137.75
271.002	142.75
271.234	141.75
271.466	156.75
271.698	128.75
271.93	135.75
272.162	134.75
272.394	127.75
272.626	142.75
272.858	132.75
273.09	143.75
273.322	138.75
273.553	132.75
273.785	134.75
274.017	160.75
274.249	144.75
274.481	139.75
274.713	149.75
274.945	141.75
275.176	153.75
275.408	154.75
275.64	148.75
275.872	129.75
276.104	155.75
276.335	147.75
276.567	155.75
276.799	131.75
277.031	152.75
277.262	160.75
277.494	153.75
277.726	150.75
277.957	141.75
278.189	160.75
278.421	137.75
278.652	143.75
278.884	150.75
279.115	153.75
279.347	146.75
279.579	160.75
279.81	143.75
280.042	151.75
280.273	153.75
280.505	148.75
280.736	145.75
280.968	156.75
281.199	148.75
281.431	148.75
281.662	157.75
281.894	167.75
282.125	142.75
282.356	159.75
282.588	148.75
282.819	164.75
283.051	149.75
283.282	163.75
283.513	148.75
283.745	157.75
283.976	156.75
284.207	156.75
284.439	168.75
284.67	146.75
284.901	158.75
285.132	149.75
285.364	157.75
285.595	168.75
285.826	155.75
286.057	159.75
286.288	148.75
286.52	159.75
286.751	157.75
286.982	163.75
287.213	160.75
287.444	160.75
287.675	156.75
287.906	141.75
288.138	152.75
288.369	162.75
288.6	156.75
288.831	167.75
289.062	174.75
289.293	164.75
289.524	168.75
289.755	193.75
289.986	160.75
290.217	159.75
290.448	151.75
290.679	172.75
290.91	166.75
291.141	164.75
291.371	168.75
291.602	171.75
291.833	150.75
292.064	171.75
292.295	155.75
292.526	160.75
292.757	164.75
292.987	156.75
293.218	157.75
293.449	166.75
293.68	173.75
293.91	167.75
294.141	156.75
294.372	166.75
294.603	162.75
294.833	160.75
295.064	163.75
295.295	169.75
295.525	184.75
295.756	166.75
295.987	152.75
296.217	175.75
296.448	164.75
296.679	170.75
296.909	170.75
297.14	175.75
297.37	172.75
297.601	165.75
297.831	156.75
298.062	169.75
298.292	158.75
298.523	172.75
298.753	173.75
298.984	169.75
299.214	164.75
299.445	192.75
299.675	192.75
299.905	171.75
300.136	189.75
300.366	181.75
300.597	186.75
300.827	168.75
301.057	192.75
301.288	174.75
301.518	185.75
301.748	179.75
301.979	171.75
302.209	183.75
302.439	156.75
302.669	163.75
302.9	176.75
303.13	179.75
303.36	169.75
303.59	176.75
303.82	189.75
304.051	187.75
304.281	191.75
304.511	175.75
304.741	168.75
304.971	191.75
305.201	172.75
305.431	187.75
305.661	193.75
305.891	183.75
306.121	190.75
306.352	175.75
306.582	182.75
306.812	183.75
307.042	168.75
307.272	189.75
307.502	176.75
307.731	174.75
307.961	177.75
308.191	181.75
308.421	181.75
308.651	175.75
308.881	184.75
309.111	164.75
309.341	172.75
309.571	189.75
309.8	175.75
310.03	184.75
310.26	189.75
310.49	204.75
310.72	178.75
310.949	166.75
311.179	181.75
311.409	190.75
311.639	202.75
311.868	199.75
312.098	192.75
312.328	188.75
312.557	188.75
312.787	176.75
313.017	180.75
313.246	215.75
313.476	195.75
313.706	192.75
313.935	190.75
314.165	188.75
314.394	193.75
314.624	195.75
314.853	184.75
315.083	181.75
315.312	182.75
315.542	195.75
315.771	199.75
316.001	212.75
316.23	198.75
316.46	205.75
316.689	177.75
316.919	159.75
317.148	170.75
317.377	172.75
317.607	195.75
317.836	185.75
318.065	191.75
318.295	207.75
318.524	191.75
318.753	196.75
318.983	193.75
319.212	195.75
319.441	173.75
319.67	203.75
319.9	187.75
320.129	203.75
320.358	190.75
320.587	198.75
320.816	191.75
321.046	196.75
321.275	198.75
321.504	214.75
321.733	209.75
321.962	181.75
322.191	213.75
322.42	204.75
322.649	211.75
322.878	195.75
323.108	214.75
323.337	201.75
323.566	207.75
323.795	188.75
324.024	211.75
324.253	200.75
324.482	212.75
324.71	200.75
324.939	189.75
325.168	202.75
325.397	227.75
325.626	212.75
325.855	213.75
326.084	208.75
326.313	201.75
326.542	188.75
326.77	197.75
326.999	209.75
327.228	204.75
327.457	203.75
327.686	205.75
327.914	209.75
328.143	206.75
328.372	210.75
328.6	205.75
328.829	199.75
329.058	208.75
329.287	203.75
329.515	210.75
329.744	211.75
329.972	227.75
330.201	217.75
330.43	234.75
330.658	208.75
330.887	220.75
331.115	215.75
331.344	208.75
331.572	213.75
331.801	230.75
332.03	219.75
332.258	232.75
332.486	223.75
332.715	223.75
332.943	235.75
333.172	222.75
333.4	239.75
333.629	235.75
333.857	255.75
334.085	231.75
334.314	209.75
334.542	237.75
334.771	239.75
334.999	243.75
335.227	239.75
335.455	228.75
335.684	236.75
335.912	232.75
336.14	227.75
336.369	235.75
336.597	245.75
336.825	227.75
337.053	246.75
337.281	239.75
337.51	223.75
337.738	234.75
337.966	234.75
338.194	223.75
338.422	231.75
338.65	233.75
338.878	226.75
339.106	228.75
339.334	247.75
339.562	245.75
339.79	212.75
340.018	230.75
340.246	218.75
340.474	202.75
340.702	236.75
340.93	241.75
341.158	230.75
341.386	228.75
341.614	216.75
341.842	235.75
342.07	219.75
342.298	221.75
342.526	216.75
342.754	219.75
342.981	216.75
343.209	222.75
343.437	211.75
343.665	249.75
343.893	235.75
344.12	232.75
344.348	239.75
344.576	223.75
344.804	232.75
345.031	230.75
345.259	219.75
345.487	231.75
345.714	228.75
345.942	232.75
346.17	244.75
346.397	207.75
346.625	226.75
346.853	237.75
347.08	218.75
347.308	196.75
347.535	212.75
347.763	225.75
347.99	219.75
348.218	213.75
348.445	209.75
348.673	247.75
348.9	215.75
349.128	220.75
349.355	235.75
349.583	238.75
349.81	215.75
350.037	216.75
350.265	211.75
350.492	207.75
350.72	222.75
350.947	228.75
351.174	215.75
351.402	224.75
351.629	222.75
351.856	223.75
352.083	212.75
352.311	228.75
352.538	213.75
352.765	209.75
352.992	221.75
353.22	200.75
353.447	217.75
353.674	191.75
353.901	196.75
354.128	209.75
354.355	216.75
354.583	210.75
354.81	208.75
355.037	216.75
355.264	200.75
355.491	206.75
355.718	208.75
355.945	215.75
356.172	204.75
356.399	221.75
356.626	220.75
356.853	208.75
357.08	209.75
357.307	227.75
357.534	214.75
357.761	218.75
357.988	214.75
358.215	206.75
358.441	222.75
358.668	216.75
358.895	209.75
359.122	207.75
359.349	207.75
359.576	207.75
359.802	236.75
360.029	201.75
360.256	209.75
360.483	223.75
360.709	215.75
360.936	214.75
361.163	212.75
361.39	202.75
361.616	211.75
361.843	204.75
362.07	226.75
362.296	218.75
362.523	200.75
362.749	208.75
362.976	218.75
363.203	204.75
363.429	209.75
363.656	214.75
363.882	207.75
364.109	224.75
364.335	214.75
364.562	211.75
364.788	226.75
365.015	218.75
365.241	215.75
365.468	202.75
365.694	204.75
365.92	218.75
366.147	210.75
366.373	228.75
366.599	213.75
366.826	222.75
367.052	222.75
367.278	219.75
367.505	202.75
367.731	202.75
367.957	224.75
368.184	206.75
368.41	239.75
368.636	196.75
368.862	205.75
369.089	213.75
369.315	209.75
369.541	231.75
369.767	206.75
369.993	230.75
370.219	213.75
370.445	219.75
370.672	230.75
370.898	210.75
371.124	215.75
371.35	232.75
371.576	223.75
371.802	223.75
372.028	218.75
372.254	231.75
372.48	226.75
372.706	228.75
372.932	245.75
373.158	228.75
373.384	212.75
373.61	241.75
373.835	236.75
374.061	229.75
374.287	215.75
374.513	229.75
374.739	243.75
374.965	231.75
375.191	242.75
375.416	236.75
375.642	227.75
375.868	228.75
376.094	231.75
376.319	220.75
376.545	234.75
376.771	225.75
376.997	221.75
377.222	226.75
377.448	222.75
377.674	219.75
377.899	223.75
378.125	228.75
378.35	223.75
378.576	222.75
378.802	218.75
379.027	211.75
379.253	213.75
379.478	227.75
379.704	215.75
379.929	222.75
380.155	223.75
380.38	231.75
380.606	229.75
380.831	225.75
381.057	245.75
381.282	224.75
381.507	219.75
381.733	230.75
381.958	214.75
382.184	233.75
382.409	236.75
382.634	247.75
382.86	217.75
383.085	243.75
383.31	232.75
383.535	236.75
383.761	230.75
383.986	244.75
384.211	246.75
384.436	263.75
384.662	247.75
384.887	251.75
385.112	240.75
385.337	228.75
385.562	244.75
385.787	237.75
386.013	251.75
386.238	259.75
386.463	255.75
386.688	264.75
386.913	254.75
387.138	252.75
387.363	248.75
387.588	254.75
387.813	248.75
388.038	253.75
388.263	262.75
388.488	261.75
388.713	250.75
388.938	239.75
389.163	249.75
389.387	243.75
389.612	251.75
389.837	252.75
390.062	253.75
390.287	255.75
390.512	251.75
390.736	264.75
390.961	246.75
391.186	245.75
391.411	247.75
391.636	271.75
391.86	257.75
392.085	262.75
392.31	274.75
392.534	272.75
392.759	261.75
392.984	273.75
393.208	257.75
393.433	247.75
393.658	247.75
393.882	244.75
394.107	271.75
394.331	285.75
394.556	276.75
394.78	266.75
395.005	241.75
395.229	245.75
395.454	265.75
395.678	271.75
395.903	275.75
396.127	265.75
396.352	264.75
396.576	255.75
396.801	272.75
397.025	257.75
397.249	273.75
397.474	276.75
397.698	285.75
397.922	259.75
398.147	285.75
398.371	265.75
398.595	296.75
398.82	267.75
399.044	317.75
399.268	310.75
399.492	332.75
399.717	348.75
399.941	345.75
400.165	329.75
400.389	329.75
400.613	322.75
400.837	289.75
401.062	295.75
401.286	289.75
401.51	295.75
401.734	295.75
401.958	294.75
402.182	283.75
402.406	292.75
402.63	297.75
402.854	299.75
403.078	288.75
403.302	303.75
403.526	296.75
403.75	300.75
403.974	312.75
404.198	282.75
404.422	299.75
404.645	316.75
404.869	315.75
405.093	285.75
405.317	303.75
405.541	311.75
405.765	323.75
405.988	305.75
406.212	310.75
406.436	302.75
406.66	335.75
406.883	287.75
407.107	327.75
407.331	323.75
407.555	348.75
407.778	330.75
408.002	350.75
408.226	341.75
408.449	311.75
408.673	304.75
408.896	330.75
409.12	320.75
409.344	357.75
409.567	331.75
409.791	335.75
410.014	302.75
410.238	301.75
410.461	318.75
410.685	301.75
410.908	305.75
411.132	304.75
411.355	297.75
411.578	312.75
411.802	299.75
412.025	300.75
412.249	301.75
412.472	297.75
412.695	307.75
412.919	303.75
413.142	285.75
413.365	288.75
413.589	305.75
413.812	295.75
414.035	302.75
414.258	304.75
414.482	305.75
414.705	308.75
414.928	291.75
415.151	287.75
415.374	282.75
415.597	274.75
415.821	292.75
416.044	283.75
416.267	284.75
416.49	289.75
416.713	291.75
416.936	298.75
417.159	274.75
417.382	285.75
417.605	280.75
417.828	287.75
418.051	301.75
418.274	295.75
418.497	292.75
418.72	300.75
418.943	302.75
419.166	308.75
419.389	325.75
419.611	327.75
419.834	292.75
420.057	307.75
420.28	297.75
420.503	288.75
420.726	287.75
420.948	287.75
421.171	295.75
421.394	281.75
421.617	279.75
421.839	300.75
422.062	285.75
422.285	278.75
422.507	276.75
422.73	297.75
422.953	296.75
423.175	295.75
423.398	293.75
423.621	271.75
423.843	282.75
424.066	313.75
424.288	290.75
424.511	301.75
424.733	301.75
424.956	292.75
425.178	294.75
425.401	269.75
425.623	287.75
425.846	295.75
426.068	283.75
426.291	283.75
426.513	279.75
426.735	289.75
426.958	284.75
427.18	291.75
427.402	294.75
427.625	275.75
427.847	274.75
428.069	265.75
428.292	286.75
428.514	296.75
428.736	284.75
428.958	276.75
429.181	271.75
429.403	277.75
429.625	276.75
429.847	286.75
430.069	261.75
430.292	270.75
430.514	282.75
430.736	282.75
430.958	275.75
431.18	291.75
431.402	257.75
431.624	280.75
431.846	271.75
432.068	287.75
432.29	271.75
432.512	288.75
432.734	280.75
432.956	282.75
433.178	279.75
433.4	301.75
433.622	283.75
433.844	295.75
434.066	280.75
434.287	280.75
434.509	292.75
434.731	300.75
434.953	298.75
435.175	306.75
435.397	293.75
435.618	302.75
435.84	309.75
436.062	291.75
436.284	287.75
436.505	294.75
436.727	288.75
436.949	271.75
437.17	291.75
437.392	293.75
437.614	278.75
437.835	271.75
438.057	260.75
438.278	265.75
438.5	294.75
438.721	276.75
438.943	293.75
439.165	289.75
439.386	284.75
439.608	285.75
439.829	313.75
440.05	282.75
440.272	301.75
440.493	305.75
440.715	287.75
440.936	293.75
441.158	288.75
441.379	303.75
441.6	317.75
441.822	311.75
442.043	296.75
442.264	291.75
442.486	288.75
442.707	285.75
442.928	285.75
443.149	301.75
443.371	315.75
443.592	325.75
443.813	307.75
444.034	303.75
444.255	307.75
444.476	308.75
444.698	325.75
444.919	312.75
445.14	421.75
445.361	343.75
445.582	321.75
445.803	313.75
446.024	314.75
446.245	295.75
446.466	301.75
446.687	295.75
446.908	291.75
447.129	286.75
447.35	289.75
447.571	272.75
447.792	287.75
448.013	279.75
448.234	284.75
448.455	268.75
448.675	280.75
448.896	266.75
449.117	276.75
449.338	267.75
449.559	267.75
449.779	261.75
450	256.75
450.221	276.75
450.442	267.75
450.662	281.75
450.883	269.75
451.104	281.75
451.324	259.75
451.545	281.75
451.766	271.75
451.986	271.75
452.207	238.75
452.428	272.75
452.648	265.75
452.869	260.75
453.089	244.75
453.31	249.75
453.53	279.75
453.751	262.75
453.971	274.75
454.192	270.75
454.412	245.75
454.633	247.75
454.853	258.75
455.073	253.75
455.294	274.75
455.514	247.75
455.734	264.75
455.955	268.75
456.175	276.75
456.395	249.75
456.616	249.75
456.836	243.75
457.056	268.75
457.276	237.75
457.497	246.75
457.717	269.75
457.937	256.75
458.157	253.75
458.377	257.75
458.598	242.75
458.818	259.75
459.038	259.75
459.258	268.75
459.478	290.75
459.698	264.75
459.918	297.75
460.138	295.75
460.358	286.75
460.578	293.75
460.798	302.75
461.018	298.75
461.238	311.75
461.458	304.75
461.678	302.75
461.898	311.75
462.118	297.75
462.338	294.75
462.558	325.75
462.777	326.75
462.997	336.75
463.217	342.75
463.437	345.75
463.657	352.75
463.876	331.75
464.096	314.75
464.316	332.75
464.536	332.75
464.755	323.75
464.975	313.75
465.195	316.75
465.414	310.75
465.634	285.75
465.854	280.75
466.073	296.75
466.293	291.75
466.512	279.75
466.732	270.75
466.951	286.75
467.171	267.75
467.391	277.75
467.61	264.75
467.829	292.75
468.049	271.75
468.268	262.75
468.488	273.75
468.707	280.75
468.927	269.75
469.146	277.75
469.365	281.75
469.585	275.75
469.804	306.75
470.023	300.75
470.243	283.75
470.462	288.75
470.681	280.75
470.901	274.75
471.12	288.75
471.339	287.75
471.558	278.75
471.777	277.75
471.997	284.75
472.216	267.75
472.435	273.75
472.654	260.75
472.873	275.75
473.092	261.75
473.311	263.75
473.53	266.75
473.749	276.75
473.968	283.75
474.187	258.75
474.406	267.75
474.625	271.75
474.844	289.75
475.063	268.75
475.282	278.75
475.501	256.75
475.72	280.75
475.939	296.75
476.158	275.75
476.377	256.75
476.596	265.75
476.814	268.75
477.033	265.75
477.252	285.75
477.471	289.75
477.69	302.75
477.908	292.75
478.127	288.75
478.346	295.75
478.564	308.75
478.783	325.75
479.002	299.75
479.22	299.75
479.439	301.75
479.658	310.75
479.876	288.75
480.095	291.75
480.313	308.75
480.532	304.75
480.751	308.75
480.969	292.75
481.188	299.75
481.406	295.75
481.624	297.75
481.843	315.75
482.061	287.75
482.28	307.75
482.498	303.75
482.717	292.75
482.935	311.75
483.153	324.75
483.372	303.75
483.59	315.75
483.808	312.75
484.027	312.75
484.245	332.75
484.463	323.75
484.681	315.75
484.9	308.75
485.118	316.75
485.336	302.75
485.554	300.75
485.772	309.75
485.99	303.75
486.209	303.75
486.427	309.75
486.645	320.75
486.863	317.75
487.081	310.75
487.299	296.75
487.517	323.75
487.735	327.75
487.953	307.75
488.171	334.75
488.389	336.75
488.607	318.75
488.825	307.75
489.043	294.75
489.261	311.75
489.479	306.75
489.696	328.75
489.914	307.75
490.132	310.75
490.35	298.75
490.568	320.75
490.786	325.75
491.003	334.75
491.221	316.75
491.439	340.75
491.657	341.75
491.874	333.75
492.092	342.75
492.31	354.75
492.527	339.75
492.745	340.75
492.963	323.75
493.18	335.75
493.398	319.75
493.615	321.75
493.833	313.75
494.05	316.75
494.268	332.75
494.485	300.75
494.703	338.75
494.92	337.75
495.138	317.75
495.355	340.75
495.573	336.75
495.79	335.75
496.008	329.75
496.225	340.75
496.442	332.75
496.66	353.75
496.877	334.75
497.094	359.75
497.312	341.75
497.529	361.75
497.746	336.75
497.963	373.75
498.181	371.75
498.398	362.75
498.615	373.75
498.832	399.75
499.049	405.75
499.267	446.75
499.484	457.75
499.701	478.75
499.918	502.75
500.135	541.75
500.352	553.75
500.569	594.75
500.786	567.75
501.003	558.75
501.22	550.75
501.437	501.75
501.654	457.75
501.871	447.75
502.088	419.75
502.305	407.75
