Data from Ni(NO3)2@0.0625M.TitratingCurve.Agarose3%dH2O.NegLispCup.LampEnergy10.LIBS07252019_HRD10591_18-13-25-569.txt Node
Date: Thu Jul 25 18:13:25 EDT 2019
User: cochatt
Spectrometer: HR+D1059
Trigger mode: 1
Integration Time (sec): 1.000000E-1
Scans to average: 1
Electric dark correction enabled: true
Nonlinearity correction enabled: false
Boxcar width: 0
XAxis mode: Wavelengths
Number of Pixels in Spectrum: 2048
>>>>>Begin Spectral Data<<<<<
223.165	-6.81
223.4	-6.81
223.635	-6.81
223.869	-13.81
224.104	-16.81
224.338	-15.81
224.573	-16.81
224.808	-9.81
225.042	-24.81
225.277	-2.81
225.511	-10.81
225.746	-4.81
225.98	10.19
226.215	18.19
226.449	16.19
226.683	27.19
226.918	27.19
227.152	24.19
227.387	34.19
227.621	39.19
227.856	60.19
228.09	57.19
228.324	60.19
228.559	43.19
228.793	63.19
229.027	103.19
229.262	125.19
229.496	110.19
229.73	112.19
229.964	127.19
230.199	123.19
230.433	129.19
230.667	138.19
230.901	125.19
231.136	135.19
231.37	135.19
231.604	138.19
231.838	134.19
232.072	149.19
232.306	145.19
232.541	137.19
232.775	139.19
233.009	145.19
233.243	146.19
233.477	153.19
233.711	147.19
233.945	136.19
234.179	139.19
234.413	144.19
234.647	151.19
234.881	147.19
235.115	133.19
235.349	145.19
235.583	156.19
235.817	143.19
236.051	161.19
236.285	146.19
236.519	142.19
236.753	163.19
236.987	152.19
237.221	160.19
237.455	158.19
237.689	145.19
237.922	161.19
238.156	168.19
238.39	160.19
238.624	149.19
238.858	156.19
239.091	166.19
239.325	179.19
239.559	170.19
239.793	168.19
240.027	165.19
240.26	183.19
240.494	171.19
240.728	170.19
240.961	177.19
241.195	169.19
241.429	169.19
241.662	184.19
241.896	182.19
242.13	176.19
242.363	187.19
242.597	180.19
242.83	202.19
243.064	182.19
243.298	188.19
243.531	199.19
243.765	186.19
243.998	192.19
244.232	197.19
244.465	193.19
244.699	185.19
244.932	210.19
245.166	201.19
245.399	193.19
245.633	204.19
245.866	205.19
246.099	203.19
246.333	198.19
246.566	225.19
246.8	205.19
247.033	219.19
247.266	213.19
247.5	219.19
247.733	216.19
247.966	217.19
248.2	191.19
248.433	226.19
248.666	214.19
248.899	217.19
249.133	236.19
249.366	225.19
249.599	232.19
249.832	231.19
250.066	231.19
250.299	245.19
250.532	231.19
250.765	218.19
250.998	246.19
251.231	226.19
251.465	243.19
251.698	235.19
251.931	229.19
252.164	227.19
252.397	230.19
252.63	251.19
252.863	245.19
253.096	246.19
253.329	250.19
253.562	257.19
253.795	246.19
254.028	244.19
254.261	264.19
254.494	262.19
254.727	243.19
254.96	258.19
255.193	266.19
255.426	249.19
255.659	265.19
255.892	265.19
256.124	269.19
256.357	275.19
256.59	260.19
256.823	253.19
257.056	284.19
257.289	272.19
257.521	274.19
257.754	289.19
257.987	289.19
258.22	285.19
258.452	274.19
258.685	269.19
258.918	276.19
259.151	298.19
259.383	292.19
259.616	300.19
259.849	288.19
260.081	292.19
260.314	288.19
260.547	302.19
260.779	295.19
261.012	272.19
261.244	289.19
261.477	307.19
261.71	311.19
261.942	289.19
262.175	298.19
262.407	293.19
262.64	296.19
262.872	298.19
263.105	309.19
263.337	293.19
263.57	291.19
263.802	320.19
264.035	308.19
264.267	301.19
264.499	311.19
264.732	302.19
264.964	322.19
265.197	316.19
265.429	334.19
265.661	317.19
265.894	322.19
266.126	322.19
266.358	322.19
266.591	321.19
266.823	328.19
267.055	309.19
267.287	339.19
267.52	337.19
267.752	343.19
267.984	328.19
268.216	329.19
268.448	344.19
268.681	349.19
268.913	338.19
269.145	321.19
269.377	334.19
269.609	347.19
269.841	341.19
270.073	341.19
270.306	333.19
270.538	348.19
270.77	328.19
271.002	338.19
271.234	342.19
271.466	373.19
271.698	345.19
271.93	351.19
272.162	356.19
272.394	349.19
272.626	347.19
272.858	377.19
273.09	365.19
273.322	371.19
273.553	360.19
273.785	373.19
274.017	381.19
274.249	379.19
274.481	338.19
274.713	354.19
274.945	364.19
275.176	356.19
275.408	373.19
275.64	385.19
275.872	354.19
276.104	360.19
276.335	374.19
276.567	359.19
276.799	384.19
277.031	393.19
277.262	381.19
277.494	383.19
277.726	382.19
277.957	390.19
278.189	389.19
278.421	381.19
278.652	391.19
278.884	408.19
279.115	408.19
279.347	390.19
279.579	387.19
279.81	386.19
280.042	397.19
280.273	401.19
280.505	448.19
280.736	410.19
280.968	403.19
281.199	401.19
281.431	392.19
281.662	415.19
281.894	399.19
282.125	404.19
282.356	418.19
282.588	409.19
282.819	402.19
283.051	411.19
283.282	404.19
283.513	410.19
283.745	419.19
283.976	428.19
284.207	428.19
284.439	426.19
284.67	423.19
284.901	415.19
285.132	422.19
285.364	433.19
285.595	423.19
285.826	448.19
286.057	461.19
286.288	450.19
286.52	437.19
286.751	451.19
286.982	457.19
287.213	457.19
287.444	450.19
287.675	461.19
287.906	449.19
288.138	471.19
288.369	453.19
288.6	455.19
288.831	466.19
289.062	450.19
289.293	463.19
289.524	470.19
289.755	474.19
289.986	455.19
290.217	480.19
290.448	457.19
290.679	477.19
290.91	451.19
291.141	475.19
291.371	482.19
291.602	474.19
291.833	459.19
292.064	469.19
292.295	491.19
292.526	483.19
292.757	458.19
292.987	487.19
293.218	454.19
293.449	498.19
293.68	482.19
293.91	467.19
294.141	474.19
294.372	467.19
294.603	468.19
294.833	474.19
295.064	493.19
295.295	472.19
295.525	481.19
295.756	505.19
295.987	488.19
296.217	507.19
296.448	488.19
296.679	464.19
296.909	493.19
297.14	502.19
297.37	508.19
297.601	515.19
297.831	521.19
298.062	537.19
298.292	526.19
298.523	527.19
298.753	546.19
298.984	539.19
299.214	522.19
299.445	506.19
299.675	507.19
299.905	505.19
300.136	501.19
300.366	534.19
300.597	506.19
300.827	530.19
301.057	543.19
301.288	542.19
301.518	550.19
301.748	538.19
301.979	542.19
302.209	532.19
302.439	532.19
302.669	525.19
302.9	531.19
303.13	517.19
303.36	505.19
303.59	530.19
303.82	522.19
304.051	537.19
304.281	537.19
304.511	526.19
304.741	521.19
304.971	547.19
305.201	525.19
305.431	523.19
305.661	542.19
305.891	529.19
306.121	530.19
306.352	521.19
306.582	524.19
306.812	529.19
307.042	494.19
307.272	516.19
307.502	507.19
307.731	495.19
307.961	520.19
308.191	511.19
308.421	507.19
308.651	509.19
308.881	507.19
309.111	508.19
309.341	490.19
309.571	537.19
309.8	500.19
310.03	505.19
310.26	512.19
310.49	512.19
310.72	515.19
310.949	527.19
311.179	530.19
311.409	523.19
311.639	532.19
311.868	531.19
312.098	534.19
312.328	537.19
312.557	518.19
312.787	522.19
313.017	544.19
313.246	532.19
313.476	545.19
313.706	551.19
313.935	569.19
314.165	557.19
314.394	556.19
314.624	580.19
314.853	533.19
315.083	535.19
315.312	547.19
315.542	567.19
315.771	555.19
316.001	556.19
316.23	537.19
316.46	553.19
316.689	548.19
316.919	540.19
317.148	534.19
317.377	526.19
317.607	551.19
317.836	538.19
318.065	545.19
318.295	518.19
318.524	539.19
318.753	541.19
318.983	552.19
319.212	522.19
319.441	530.19
319.67	518.19
319.9	537.19
320.129	550.19
320.358	529.19
320.587	541.19
320.816	543.19
321.046	530.19
321.275	525.19
321.504	543.19
321.733	524.19
321.962	528.19
322.191	553.19
322.42	549.19
322.649	560.19
322.878	530.19
323.108	557.19
323.337	568.19
323.566	565.19
323.795	542.19
324.024	556.19
324.253	557.19
324.482	582.19
324.71	579.19
324.939	575.19
325.168	584.19
325.397	563.19
325.626	553.19
325.855	586.19
326.084	572.19
326.313	582.19
326.542	601.19
326.77	613.19
326.999	595.19
327.228	587.19
327.457	585.19
327.686	596.19
327.914	590.19
328.143	604.19
328.372	601.19
328.6	588.19
328.829	583.19
329.058	591.19
329.287	605.19
329.515	599.19
329.744	610.19
329.972	585.19
330.201	592.19
330.43	608.19
330.658	580.19
330.887	595.19
331.115	623.19
331.344	637.19
331.572	618.19
331.801	652.19
332.03	664.19
332.258	652.19
332.486	686.19
332.715	722.19
332.943	731.19
333.172	766.19
333.4	785.19
333.629	803.19
333.857	830.19
334.085	799.19
334.314	784.19
334.542	771.19
334.771	717.19
334.999	736.19
335.227	754.19
335.455	739.19
335.684	737.19
335.912	733.19
336.14	716.19
336.369	715.19
336.597	704.19
336.825	718.19
337.053	726.19
337.281	697.19
337.51	681.19
337.738	683.19
337.966	660.19
338.194	672.19
338.422	659.19
338.65	655.19
338.878	634.19
339.106	626.19
339.334	665.19
339.562	622.19
339.79	611.19
340.018	612.19
340.246	608.19
340.474	621.19
340.702	622.19
340.93	632.19
341.158	621.19
341.386	634.19
341.614	641.19
341.842	613.19
342.07	600.19
342.298	590.19
342.526	624.19
342.754	604.19
342.981	625.19
343.209	618.19
343.437	648.19
343.665	701.19
343.893	758.19
344.12	803.19
344.348	736.19
344.576	686.19
344.804	673.19
345.031	669.19
345.259	639.19
345.487	630.19
345.714	618.19
345.942	621.19
346.17	610.19
346.397	633.19
346.625	607.19
346.853	601.19
347.08	614.19
347.308	605.19
347.535	605.19
347.763	635.19
347.99	633.19
348.218	609.19
348.445	618.19
348.673	620.19
348.9	609.19
349.128	598.19
349.355	592.19
349.583	580.19
349.81	613.19
350.037	582.19
350.265	578.19
350.492	570.19
350.72	580.19
350.947	576.19
351.174	572.19
351.402	595.19
351.629	586.19
351.856	584.19
352.083	598.19
352.311	584.19
352.538	569.19
352.765	591.19
352.992	598.19
353.22	555.19
353.447	589.19
353.674	565.19
353.901	577.19
354.128	581.19
354.355	570.19
354.583	570.19
354.81	578.19
355.037	580.19
355.264	583.19
355.491	579.19
355.718	572.19
355.945	590.19
356.172	602.19
356.399	596.19
356.626	567.19
356.853	573.19
357.08	578.19
357.307	603.19
357.534	582.19
357.761	574.19
357.988	589.19
358.215	577.19
358.441	574.19
358.668	579.19
358.895	551.19
359.122	578.19
359.349	578.19
359.576	573.19
359.802	591.19
360.029	572.19
360.256	579.19
360.483	575.19
360.709	587.19
360.936	576.19
361.163	581.19
361.39	581.19
361.616	574.19
361.843	552.19
362.07	587.19
362.296	585.19
362.523	571.19
362.749	578.19
362.976	573.19
363.203	569.19
363.429	567.19
363.656	573.19
363.882	584.19
364.109	577.19
364.335	570.19
364.562	580.19
364.788	556.19
365.015	554.19
365.241	566.19
365.468	576.19
365.694	583.19
365.92	574.19
366.147	568.19
366.373	571.19
366.599	585.19
366.826	576.19
367.052	561.19
367.278	593.19
367.505	595.19
367.731	597.19
367.957	591.19
368.184	605.19
368.41	601.19
368.636	605.19
368.862	575.19
369.089	571.19
369.315	590.19
369.541	604.19
369.767	600.19
369.993	599.19
370.219	606.19
370.445	598.19
370.672	595.19
370.898	605.19
371.124	646.19
371.35	604.19
371.576	626.19
371.802	625.19
372.028	636.19
372.254	607.19
372.48	606.19
372.706	659.19
372.932	657.19
373.158	652.19
373.384	648.19
373.61	621.19
373.835	645.19
374.061	633.19
374.287	631.19
374.513	629.19
374.739	673.19
374.965	670.19
375.191	709.19
375.416	711.19
375.642	678.19
375.868	667.19
376.094	677.19
376.319	655.19
376.545	642.19
376.771	648.19
376.997	653.19
377.222	643.19
377.448	630.19
377.674	605.19
377.899	596.19
378.125	613.19
378.35	610.19
378.576	621.19
378.802	624.19
379.027	625.19
379.253	632.19
379.478	621.19
379.704	618.19
379.929	610.19
380.155	632.19
380.38	603.19
380.606	609.19
380.831	630.19
381.057	615.19
381.282	607.19
381.507	616.19
381.733	622.19
381.958	632.19
382.184	607.19
382.409	653.19
382.634	660.19
382.86	663.19
383.085	667.19
383.31	678.19
383.535	709.19
383.761	691.19
383.986	702.19
384.211	712.19
384.436	729.19
384.662	742.19
384.887	754.19
385.112	779.19
385.337	734.19
385.562	753.19
385.787	766.19
386.013	747.19
386.238	753.19
386.463	765.19
386.688	758.19
386.913	748.19
387.138	785.19
387.363	731.19
387.588	735.19
387.813	734.19
388.038	732.19
388.263	737.19
388.488	760.19
388.713	734.19
388.938	742.19
389.163	742.19
389.387	726.19
389.612	722.19
389.837	729.19
390.062	734.19
390.287	744.19
390.512	719.19
390.736	733.19
390.961	744.19
391.186	775.19
391.411	790.19
391.636	820.19
391.86	819.19
392.085	867.19
392.31	858.19
392.534	809.19
392.759	818.19
392.984	807.19
393.208	769.19
393.433	747.19
393.658	787.19
393.882	779.19
394.107	810.19
394.331	813.19
394.556	817.19
394.78	796.19
395.005	796.19
395.229	795.19
395.454	816.19
395.678	846.19
395.903	860.19
396.127	834.19
396.352	775.19
396.576	763.19
396.801	774.19
397.025	792.19
397.249	813.19
397.474	821.19
397.698	823.19
397.922	835.19
398.147	800.19
398.371	857.19
398.595	867.19
398.82	889.19
399.044	942.19
399.268	1040.19
399.492	1244.19
399.717	1447.19
399.941	1439.19
400.165	1249.19
400.389	1097.19
400.613	988.19
400.837	978.19
401.062	928.19
401.286	920.19
401.51	945.19
401.734	922.19
401.958	919.19
402.182	911.19
402.406	962.19
402.63	985.19
402.854	991.19
403.078	1002.19
403.302	1027.19
403.526	1093.19
403.75	1094.19
403.974	1128.19
404.198	1122.19
404.422	1096.19
404.645	1087.19
404.869	1051.19
405.093	1107.19
405.317	1057.19
405.541	1044.19
405.765	1025.19
405.988	992.19
406.212	1043.19
406.436	1030.19
406.66	1022.19
406.883	1029.19
407.107	1113.19
407.331	1186.19
407.555	1237.19
407.778	1191.19
408.002	1186.19
408.226	1149.19
408.449	1102.19
408.673	1077.19
408.896	1063.19
409.12	1065.19
409.344	1049.19
409.567	1087.19
409.791	1104.19
410.014	1082.19
410.238	1067.19
410.461	1061.19
410.685	1017.19
410.908	1032.19
411.132	999.19
411.355	949.19
411.578	994.19
411.802	994.19
412.025	979.19
412.249	1008.19
412.472	975.19
412.695	970.19
412.919	913.19
413.142	919.19
413.365	904.19
413.589	940.19
413.812	913.19
414.035	915.19
414.258	921.19
414.482	922.19
414.705	958.19
414.928	959.19
415.151	954.19
415.374	946.19
415.597	921.19
415.821	929.19
416.044	918.19
416.267	905.19
416.49	886.19
416.713	902.19
416.936	915.19
417.159	923.19
417.382	905.19
417.605	907.19
417.828	892.19
418.051	925.19
418.274	914.19
418.497	949.19
418.72	956.19
418.943	945.19
419.166	1035.19
419.389	1073.19
419.611	1034.19
419.834	974.19
420.057	967.19
420.28	958.19
420.503	937.19
420.726	914.19
420.948	923.19
421.171	919.19
421.394	949.19
421.617	922.19
421.839	928.19
422.062	923.19
422.285	921.19
422.507	953.19
422.73	946.19
422.953	987.19
423.175	987.19
423.398	990.19
423.621	1005.19
423.843	1005.19
424.066	1029.19
424.288	988.19
424.511	985.19
424.733	989.19
424.956	961.19
425.178	922.19
425.401	936.19
425.623	914.19
425.846	912.19
426.068	887.19
426.291	878.19
426.513	879.19
426.735	867.19
426.958	850.19
427.18	865.19
427.402	847.19
427.625	859.19
427.847	835.19
428.069	818.19
428.292	845.19
428.514	805.19
428.736	828.19
428.958	825.19
429.181	805.19
429.403	791.19
429.625	808.19
429.847	799.19
430.069	842.19
430.292	799.19
430.514	797.19
430.736	796.19
430.958	810.19
431.18	812.19
431.402	811.19
431.624	821.19
431.846	831.19
432.068	851.19
432.29	866.19
432.512	825.19
432.734	837.19
432.956	819.19
433.178	807.19
433.4	839.19
433.622	805.19
433.844	830.19
434.066	844.19
434.287	875.19
434.509	889.19
434.731	921.19
434.953	932.19
435.175	960.19
435.397	929.19
435.618	882.19
435.84	864.19
436.062	853.19
436.284	827.19
436.505	818.19
436.727	832.19
436.949	852.19
437.17	814.19
437.392	825.19
437.614	827.19
437.835	796.19
438.057	805.19
438.278	802.19
438.5	793.19
438.721	794.19
438.943	803.19
439.165	809.19
439.386	803.19
439.608	846.19
439.829	845.19
440.05	837.19
440.272	849.19
440.493	863.19
440.715	831.19
440.936	855.19
441.158	843.19
441.379	882.19
441.6	968.19
441.822	955.19
442.043	946.19
442.264	934.19
442.486	906.19
442.707	924.19
442.928	918.19
443.149	915.19
443.371	918.19
443.592	945.19
443.813	944.19
444.034	937.19
444.255	981.19
444.476	1018.19
444.698	1098.19
444.919	1159.19
445.14	1200.19
445.361	1053.19
445.582	963.19
445.803	920.19
446.024	901.19
446.245	885.19
446.466	837.19
446.687	856.19
446.908	855.19
447.129	831.19
447.35	832.19
447.571	829.19
447.792	826.19
448.013	811.19
448.234	789.19
448.455	760.19
448.675	774.19
448.896	775.19
449.117	742.19
449.338	787.19
449.559	765.19
449.779	794.19
450	779.19
450.221	768.19
450.442	812.19
450.662	795.19
450.883	795.19
451.104	826.19
451.324	791.19
451.545	797.19
451.766	806.19
451.986	793.19
452.207	783.19
452.428	780.19
452.648	792.19
452.869	769.19
453.089	744.19
453.31	780.19
453.53	752.19
453.751	771.19
453.971	746.19
454.192	738.19
454.412	729.19
454.633	736.19
454.853	749.19
455.073	746.19
455.294	735.19
455.514	723.19
455.734	739.19
455.955	722.19
456.175	703.19
456.395	749.19
456.616	700.19
456.836	715.19
457.056	717.19
457.276	704.19
457.497	744.19
457.717	727.19
457.937	727.19
458.157	727.19
458.377	725.19
458.598	765.19
458.818	762.19
459.038	789.19
459.258	817.19
459.478	856.19
459.698	849.19
459.918	886.19
460.138	911.19
460.358	1002.19
460.578	1021.19
460.798	1002.19
461.018	1006.19
461.238	991.19
461.458	969.19
461.678	957.19
461.898	955.19
462.118	1007.19
462.338	1038.19
462.558	1079.19
462.777	1132.19
462.997	1232.19
463.217	1360.19
463.437	1355.19
463.657	1244.19
463.876	1175.19
464.096	1181.19
464.316	1183.19
464.536	1183.19
464.755	1136.19
464.975	1084.19
465.195	1035.19
465.414	963.19
465.634	909.19
465.854	886.19
466.073	832.19
466.293	864.19
466.512	839.19
466.732	819.19
466.951	810.19
467.171	815.19
467.391	807.19
467.61	818.19
467.829	830.19
468.049	773.19
468.268	799.19
468.488	784.19
468.707	764.19
468.927	764.19
469.146	762.19
469.365	774.19
469.585	779.19
469.804	828.19
470.023	819.19
470.243	819.19
470.462	825.19
470.681	839.19
470.901	850.19
471.12	829.19
471.339	809.19
471.558	805.19
471.777	781.19
471.997	757.19
472.216	781.19
472.435	791.19
472.654	727.19
472.873	752.19
473.092	753.19
473.311	720.19
473.53	763.19
473.749	744.19
473.968	745.19
474.187	729.19
474.406	770.19
474.625	775.19
474.844	769.19
475.063	740.19
475.282	777.19
475.501	773.19
475.72	754.19
475.939	777.19
476.158	787.19
476.377	794.19
476.596	791.19
476.814	782.19
477.033	829.19
477.252	823.19
477.471	818.19
477.69	843.19
477.908	873.19
478.127	892.19
478.346	931.19
478.564	919.19
478.783	933.19
479.002	949.19
479.22	947.19
479.439	926.19
479.658	955.19
479.876	927.19
480.095	935.19
480.313	983.19
480.532	1035.19
480.751	1032.19
480.969	968.19
481.188	921.19
481.406	912.19
481.624	891.19
481.843	890.19
482.061	860.19
482.28	844.19
482.498	858.19
482.717	826.19
482.935	852.19
483.153	840.19
483.372	861.19
483.59	860.19
483.808	850.19
484.027	840.19
484.245	871.19
484.463	894.19
484.681	869.19
484.9	886.19
485.118	869.19
485.336	881.19
485.554	892.19
485.772	919.19
485.99	925.19
486.209	912.19
486.427	901.19
486.645	917.19
486.863	929.19
487.081	919.19
487.299	910.19
487.517	901.19
487.735	919.19
487.953	920.19
488.171	902.19
488.389	899.19
488.607	891.19
488.825	869.19
489.043	881.19
489.261	900.19
489.479	909.19
489.696	893.19
489.914	886.19
490.132	930.19
490.35	881.19
490.568	925.19
490.786	908.19
491.003	905.19
491.221	936.19
491.439	874.19
491.657	882.19
491.874	910.19
492.092	903.19
492.31	893.19
492.527	911.19
492.745	884.19
492.963	924.19
493.18	940.19
493.398	951.19
493.615	949.19
493.833	941.19
494.05	951.19
494.268	947.19
494.485	961.19
494.703	957.19
494.92	939.19
495.138	939.19
495.355	951.19
495.573	953.19
495.79	945.19
496.008	979.19
496.225	941.19
496.442	956.19
496.66	1020.19
496.877	974.19
497.094	1023.19
497.312	1033.19
497.529	1061.19
497.746	1074.19
497.963	1112.19
498.181	1122.19
498.398	1184.19
498.615	1235.19
498.832	1318.19
499.049	1429.19
499.267	1579.19
499.484	1756.19
499.701	1877.19
499.918	2082.19
500.135	2455.19
500.352	2840.19
