Data from Ni(NO3)2@0.5M.TitratingCurve.Agarose3%dH2O.NegLispCup.LampEnergy10.LIBS07252019_HRD10591_17-59-37-564.txt Node
Date: Thu Jul 25 17:59:37 EDT 2019
User: cochatt
Spectrometer: HR+D1059
Trigger mode: 1
Integration Time (sec): 1.000000E-1
Scans to average: 1
Electric dark correction enabled: true
Nonlinearity correction enabled: false
Boxcar width: 0
XAxis mode: Wavelengths
Number of Pixels in Spectrum: 2048
>>>>>Begin Spectral Data<<<<<
223.165	-16.56
223.4	-16.56
223.635	-16.56
223.869	-21.56
224.104	-27.56
224.338	-4.56
224.573	1.44
224.808	-19.56
225.042	-20.56
225.277	-4.56
225.511	-0.56
225.746	14.44
225.98	6.44
226.215	11.44
226.449	10.44
226.683	20.44
226.918	28.44
227.152	22.44
227.387	41.44
227.621	41.44
227.856	53.44
228.09	62.44
228.324	69.44
228.559	45.44
228.793	72.44
229.027	117.44
229.262	118.44
229.496	124.44
229.73	130.44
229.964	154.44
230.199	168.44
230.433	174.44
230.667	171.44
230.901	172.44
231.136	167.44
231.37	142.44
231.604	154.44
231.838	173.44
232.072	196.44
232.306	175.44
232.541	164.44
232.775	137.44
233.009	152.44
233.243	158.44
233.477	137.44
233.711	158.44
233.945	141.44
234.179	161.44
234.413	161.44
234.647	164.44
234.881	156.44
235.115	166.44
235.349	140.44
235.583	147.44
235.817	144.44
236.051	152.44
236.285	139.44
236.519	166.44
236.753	162.44
236.987	146.44
237.221	166.44
237.455	158.44
237.689	146.44
237.922	161.44
238.156	170.44
238.39	145.44
238.624	160.44
238.858	152.44
239.091	161.44
239.325	163.44
239.559	178.44
239.793	202.44
240.027	204.44
240.26	165.44
240.494	181.44
240.728	171.44
240.961	186.44
241.195	172.44
241.429	174.44
241.662	177.44
241.896	202.44
242.13	204.44
242.363	182.44
242.597	184.44
242.83	168.44
243.064	178.44
243.298	192.44
243.531	182.44
243.765	177.44
243.998	208.44
244.232	199.44
244.465	202.44
244.699	198.44
244.932	183.44
245.166	182.44
245.399	204.44
245.633	192.44
245.866	207.44
246.099	198.44
246.333	202.44
246.566	196.44
246.8	184.44
247.033	204.44
247.266	212.44
247.5	208.44
247.733	196.44
247.966	215.44
248.2	219.44
248.433	215.44
248.666	216.44
248.899	203.44
249.133	204.44
249.366	224.44
249.599	233.44
249.832	229.44
250.066	227.44
250.299	209.44
250.532	217.44
250.765	244.44
250.998	245.44
251.231	262.44
251.465	280.44
251.698	237.44
251.931	259.44
252.164	234.44
252.397	239.44
252.63	253.44
252.863	229.44
253.096	252.44
253.329	228.44
253.562	253.44
253.795	259.44
254.028	239.44
254.261	262.44
254.494	230.44
254.727	245.44
254.96	245.44
255.193	263.44
255.426	264.44
255.659	262.44
255.892	264.44
256.124	263.44
256.357	266.44
256.59	252.44
256.823	255.44
257.056	271.44
257.289	265.44
257.521	279.44
257.754	273.44
257.987	276.44
258.22	275.44
258.452	277.44
258.685	281.44
258.918	272.44
259.151	269.44
259.383	295.44
259.616	277.44
259.849	287.44
260.081	270.44
260.314	280.44
260.547	293.44
260.779	273.44
261.012	282.44
261.244	292.44
261.477	311.44
261.71	300.44
261.942	303.44
262.175	283.44
262.407	294.44
262.64	302.44
262.872	301.44
263.105	314.44
263.337	310.44
263.57	302.44
263.802	301.44
264.035	313.44
264.267	323.44
264.499	309.44
264.732	301.44
264.964	302.44
265.197	318.44
265.429	336.44
265.661	302.44
265.894	319.44
266.126	324.44
266.358	330.44
266.591	315.44
266.823	337.44
267.055	309.44
267.287	320.44
267.52	312.44
267.752	329.44
267.984	328.44
268.216	323.44
268.448	327.44
268.681	338.44
268.913	336.44
269.145	326.44
269.377	335.44
269.609	349.44
269.841	332.44
270.073	337.44
270.306	338.44
270.538	321.44
270.77	344.44
271.002	344.44
271.234	357.44
271.466	343.44
271.698	327.44
271.93	357.44
272.162	356.44
272.394	337.44
272.626	363.44
272.858	337.44
273.09	330.44
273.322	357.44
273.553	364.44
273.785	350.44
274.017	359.44
274.249	364.44
274.481	378.44
274.713	364.44
274.945	357.44
275.176	374.44
275.408	370.44
275.64	367.44
275.872	364.44
276.104	373.44
276.335	387.44
276.567	389.44
276.799	376.44
277.031	368.44
277.262	383.44
277.494	399.44
277.726	383.44
277.957	377.44
278.189	386.44
278.421	377.44
278.652	393.44
278.884	393.44
279.115	394.44
279.347	399.44
279.579	390.44
279.81	391.44
280.042	398.44
280.273	390.44
280.505	414.44
280.736	411.44
280.968	392.44
281.199	388.44
281.431	408.44
281.662	394.44
281.894	423.44
282.125	404.44
282.356	417.44
282.588	406.44
282.819	409.44
283.051	412.44
283.282	436.44
283.513	410.44
283.745	409.44
283.976	428.44
284.207	428.44
284.439	425.44
284.67	433.44
284.901	421.44
285.132	412.44
285.364	422.44
285.595	421.44
285.826	429.44
286.057	432.44
286.288	428.44
286.52	430.44
286.751	445.44
286.982	416.44
287.213	436.44
287.444	457.44
287.675	422.44
287.906	459.44
288.138	449.44
288.369	452.44
288.6	439.44
288.831	416.44
289.062	446.44
289.293	440.44
289.524	448.44
289.755	434.44
289.986	456.44
290.217	443.44
290.448	445.44
290.679	471.44
290.91	443.44
291.141	470.44
291.371	464.44
291.602	454.44
291.833	441.44
292.064	446.44
292.295	480.44
292.526	466.44
292.757	473.44
292.987	432.44
293.218	469.44
293.449	469.44
293.68	484.44
293.91	476.44
294.141	463.44
294.372	479.44
294.603	466.44
294.833	476.44
295.064	480.44
295.295	469.44
295.525	474.44
295.756	470.44
295.987	461.44
296.217	493.44
296.448	455.44
296.679	469.44
296.909	477.44
297.14	477.44
297.37	482.44
297.601	498.44
297.831	481.44
298.062	497.44
298.292	497.44
298.523	509.44
298.753	502.44
298.984	499.44
299.214	496.44
299.445	478.44
299.675	497.44
299.905	489.44
300.136	504.44
300.366	542.44
300.597	530.44
300.827	517.44
301.057	547.44
301.288	505.44
301.518	537.44
301.748	502.44
301.979	511.44
302.209	521.44
302.439	525.44
302.669	513.44
302.9	489.44
303.13	500.44
303.36	511.44
303.59	536.44
303.82	542.44
304.051	540.44
304.281	539.44
304.511	536.44
304.741	524.44
304.971	530.44
305.201	528.44
305.431	535.44
305.661	556.44
305.891	548.44
306.121	541.44
306.352	534.44
306.582	517.44
306.812	518.44
307.042	526.44
307.272	505.44
307.502	512.44
307.731	520.44
307.961	524.44
308.191	529.44
308.421	524.44
308.651	505.44
308.881	543.44
309.111	553.44
309.341	538.44
309.571	545.44
309.8	544.44
310.03	547.44
310.26	567.44
310.49	568.44
310.72	561.44
310.949	544.44
311.179	540.44
311.409	545.44
311.639	549.44
311.868	535.44
312.098	521.44
312.328	557.44
312.557	553.44
312.787	575.44
313.017	566.44
313.246	575.44
313.476	585.44
313.706	584.44
313.935	547.44
314.165	578.44
314.394	581.44
314.624	577.44
314.853	573.44
315.083	595.44
315.312	566.44
315.542	582.44
315.771	579.44
316.001	559.44
316.23	566.44
316.46	562.44
316.689	595.44
316.919	586.44
317.148	588.44
317.377	574.44
317.607	566.44
317.836	570.44
318.065	599.44
318.295	588.44
318.524	591.44
318.753	579.44
318.983	577.44
319.212	568.44
319.441	574.44
319.67	588.44
319.9	582.44
320.129	578.44
320.358	585.44
320.587	606.44
320.816	577.44
321.046	600.44
321.275	609.44
321.504	600.44
321.733	608.44
321.962	605.44
322.191	574.44
322.42	624.44
322.649	589.44
322.878	605.44
323.108	608.44
323.337	645.44
323.566	636.44
323.795	620.44
324.024	618.44
324.253	624.44
324.482	618.44
324.71	612.44
324.939	612.44
325.168	639.44
325.397	641.44
325.626	637.44
325.855	632.44
326.084	632.44
326.313	640.44
326.542	641.44
326.77	635.44
326.999	624.44
327.228	640.44
327.457	620.44
327.686	634.44
327.914	634.44
328.143	630.44
328.372	636.44
328.6	662.44
328.829	655.44
329.058	613.44
329.287	661.44
329.515	660.44
329.744	659.44
329.972	670.44
330.201	655.44
330.43	670.44
330.658	663.44
330.887	645.44
331.115	655.44
331.344	678.44
331.572	658.44
331.801	671.44
332.03	686.44
332.258	712.44
332.486	692.44
332.715	721.44
332.943	719.44
333.172	730.44
333.4	732.44
333.629	720.44
333.857	735.44
334.085	737.44
334.314	747.44
334.542	776.44
334.771	763.44
334.999	776.44
335.227	769.44
335.455	761.44
335.684	734.44
335.912	745.44
336.14	757.44
336.369	751.44
336.597	748.44
336.825	762.44
337.053	749.44
337.281	769.44
337.51	756.44
337.738	742.44
337.966	738.44
338.194	743.44
338.422	736.44
338.65	699.44
338.878	706.44
339.106	741.44
339.334	719.44
339.562	717.44
339.79	728.44
340.018	721.44
340.246	677.44
340.474	712.44
340.702	727.44
340.93	709.44
341.158	711.44
341.386	719.44
341.614	773.44
341.842	740.44
342.07	698.44
342.298	680.44
342.526	715.44
342.754	714.44
342.981	689.44
343.209	708.44
343.437	703.44
343.665	761.44
343.893	763.44
344.12	758.44
344.348	734.44
344.576	762.44
344.804	761.44
345.031	742.44
345.259	723.44
345.487	743.44
345.714	727.44
345.942	729.44
346.17	747.44
346.397	698.44
346.625	700.44
346.853	692.44
347.08	697.44
347.308	667.44
347.535	711.44
347.763	678.44
347.99	672.44
348.218	677.44
348.445	705.44
348.673	670.44
348.9	668.44
349.128	674.44
349.355	694.44
349.583	705.44
349.81	681.44
350.037	662.44
350.265	646.44
350.492	656.44
350.72	701.44
350.947	679.44
351.174	694.44
351.402	705.44
351.629	708.44
351.856	702.44
352.083	667.44
352.311	701.44
352.538	729.44
352.765	712.44
352.992	673.44
353.22	659.44
353.447	626.44
353.674	658.44
353.901	677.44
354.128	638.44
354.355	661.44
354.583	658.44
354.81	654.44
355.037	677.44
355.264	655.44
355.491	650.44
355.718	664.44
355.945	663.44
356.172	667.44
356.399	686.44
356.626	682.44
356.853	693.44
357.08	656.44
357.307	640.44
357.534	685.44
357.761	672.44
357.988	660.44
358.215	659.44
358.441	638.44
358.668	632.44
358.895	637.44
359.122	654.44
359.349	665.44
359.576	671.44
359.802	657.44
360.029	676.44
360.256	690.44
360.483	644.44
360.709	658.44
360.936	698.44
361.163	694.44
361.39	661.44
361.616	708.44
361.843	692.44
362.07	692.44
362.296	700.44
362.523	659.44
362.749	662.44
362.976	669.44
363.203	667.44
363.429	664.44
363.656	648.44
363.882	666.44
364.109	670.44
364.335	665.44
364.562	651.44
364.788	657.44
365.015	656.44
365.241	661.44
365.468	644.44
365.694	672.44
365.92	650.44
366.147	689.44
366.373	674.44
366.599	668.44
366.826	668.44
367.052	678.44
367.278	682.44
367.505	680.44
367.731	673.44
367.957	678.44
368.184	669.44
368.41	678.44
368.636	671.44
368.862	693.44
369.089	692.44
369.315	673.44
369.541	709.44
369.767	690.44
369.993	701.44
370.219	672.44
370.445	699.44
370.672	693.44
370.898	684.44
371.124	710.44
371.35	709.44
371.576	719.44
371.802	708.44
372.028	699.44
372.254	709.44
372.48	708.44
372.706	721.44
372.932	709.44
373.158	712.44
373.384	722.44
373.61	709.44
373.835	714.44
374.061	733.44
374.287	717.44
374.513	733.44
374.739	725.44
374.965	746.44
375.191	734.44
375.416	737.44
375.642	716.44
375.868	712.44
376.094	717.44
376.319	706.44
376.545	712.44
376.771	716.44
376.997	703.44
377.222	704.44
377.448	709.44
377.674	721.44
377.899	712.44
378.125	694.44
378.35	703.44
378.576	710.44
378.802	674.44
379.027	710.44
379.253	692.44
379.478	693.44
379.704	683.44
379.929	703.44
380.155	712.44
380.38	717.44
380.606	703.44
380.831	699.44
381.057	715.44
381.282	710.44
381.507	689.44
381.733	698.44
381.958	710.44
382.184	710.44
382.409	728.44
382.634	715.44
382.86	696.44
383.085	732.44
383.31	720.44
383.535	749.44
383.761	740.44
383.986	758.44
384.211	746.44
384.436	766.44
384.662	756.44
384.887	778.44
385.112	767.44
385.337	786.44
385.562	785.44
385.787	800.44
386.013	810.44
386.238	814.44
386.463	824.44
386.688	814.44
386.913	805.44
387.138	805.44
387.363	800.44
387.588	816.44
387.813	822.44
388.038	781.44
388.263	788.44
388.488	800.44
388.713	793.44
388.938	794.44
389.163	805.44
389.387	822.44
389.612	788.44
389.837	813.44
390.062	782.44
390.287	826.44
390.512	794.44
390.736	812.44
390.961	826.44
391.186	786.44
391.411	810.44
391.636	812.44
391.86	829.44
392.085	856.44
392.31	866.44
392.534	860.44
392.759	865.44
392.984	842.44
393.208	844.44
393.433	821.44
393.658	867.44
393.882	830.44
394.107	837.44
394.331	810.44
394.556	830.44
394.78	842.44
395.005	826.44
395.229	821.44
395.454	866.44
395.678	854.44
395.903	857.44
396.127	848.44
396.352	870.44
396.576	882.44
396.801	878.44
397.025	851.44
397.249	886.44
397.474	873.44
397.698	888.44
397.922	900.44
398.147	885.44
398.371	909.44
398.595	940.44
398.82	936.44
399.044	968.44
399.268	1008.44
399.492	1042.44
399.717	1061.44
399.941	1107.44
400.165	1092.44
400.389	1024.44
400.613	1033.44
400.837	964.44
401.062	975.44
401.286	964.44
401.51	918.44
401.734	928.44
401.958	941.44
402.182	937.44
402.406	937.44
402.63	935.44
402.854	956.44
403.078	965.44
403.302	941.44
403.526	949.44
403.75	963.44
403.974	955.44
404.198	970.44
404.422	956.44
404.645	956.44
404.869	961.44
405.093	967.44
405.317	944.44
405.541	977.44
405.765	1002.44
405.988	1020.44
406.212	982.44
406.436	977.44
406.66	1017.44
406.883	1031.44
407.107	1073.44
407.331	1081.44
407.555	1097.44
407.778	1097.44
408.002	1064.44
408.226	1080.44
408.449	1096.44
408.673	1043.44
408.896	1021.44
409.12	996.44
409.344	1034.44
409.567	1029.44
409.791	1017.44
410.014	992.44
410.238	975.44
410.461	974.44
410.685	983.44
410.908	999.44
411.132	993.44
411.355	981.44
411.578	983.44
411.802	981.44
412.025	965.44
412.249	1009.44
412.472	998.44
412.695	978.44
412.919	957.44
413.142	984.44
413.365	952.44
413.589	967.44
413.812	941.44
414.035	946.44
414.258	932.44
414.482	959.44
414.705	962.44
414.928	937.44
415.151	958.44
415.374	954.44
415.597	936.44
415.821	938.44
416.044	920.44
416.267	901.44
416.49	925.44
416.713	902.44
416.936	936.44
417.159	900.44
417.382	937.44
417.605	911.44
417.828	910.44
418.051	940.44
418.274	900.44
418.497	898.44
418.72	927.44
418.943	902.44
419.166	950.44
419.389	997.44
419.611	990.44
419.834	956.44
420.057	950.44
420.28	931.44
420.503	900.44
420.726	905.44
420.948	924.44
421.171	913.44
421.394	892.44
421.617	897.44
421.839	928.44
422.062	939.44
422.285	884.44
422.507	890.44
422.73	916.44
422.953	931.44
423.175	901.44
423.398	923.44
423.621	914.44
423.843	906.44
424.066	917.44
424.288	899.44
424.511	923.44
424.733	884.44
424.956	912.44
425.178	902.44
425.401	920.44
425.623	912.44
425.846	908.44
426.068	897.44
426.291	878.44
426.513	885.44
426.735	895.44
426.958	889.44
427.18	895.44
427.402	892.44
427.625	872.44
427.847	865.44
428.069	866.44
428.292	885.44
428.514	860.44
428.736	876.44
428.958	897.44
429.181	820.44
429.403	849.44
429.625	838.44
429.847	874.44
430.069	870.44
430.292	866.44
430.514	864.44
430.736	873.44
430.958	873.44
431.18	860.44
431.402	858.44
431.624	878.44
431.846	864.44
432.068	896.44
432.29	897.44
432.512	866.44
432.734	896.44
432.956	881.44
433.178	936.44
433.4	891.44
433.622	902.44
433.844	913.44
434.066	894.44
434.287	904.44
434.509	910.44
434.731	920.44
434.953	939.44
435.175	933.44
435.397	935.44
435.618	912.44
435.84	918.44
436.062	898.44
436.284	878.44
436.505	860.44
436.727	893.44
436.949	891.44
437.17	901.44
437.392	859.44
437.614	852.44
437.835	844.44
438.057	854.44
438.278	844.44
438.5	846.44
438.721	825.44
438.943	854.44
439.165	858.44
439.386	851.44
439.608	862.44
439.829	871.44
440.05	869.44
440.272	876.44
440.493	882.44
440.715	922.44
440.936	875.44
441.158	879.44
441.379	889.44
441.6	952.44
441.822	924.44
442.043	939.44
442.264	915.44
442.486	917.44
442.707	911.44
442.928	898.44
443.149	920.44
443.371	949.44
443.592	999.44
443.813	968.44
444.034	938.44
444.255	930.44
444.476	957.44
444.698	988.44
444.919	1018.44
445.14	1101.44
445.361	1041.44
445.582	964.44
445.803	926.44
446.024	915.44
446.245	912.44
446.466	876.44
446.687	872.44
446.908	861.44
447.129	873.44
447.35	863.44
447.571	849.44
447.792	829.44
448.013	840.44
448.234	820.44
448.455	831.44
448.675	828.44
448.896	812.44
449.117	828.44
449.338	810.44
449.559	796.44
449.779	803.44
450	762.44
450.221	794.44
450.442	808.44
450.662	793.44
450.883	849.44
451.104	820.44
451.324	815.44
451.545	787.44
451.766	796.44
451.986	798.44
452.207	795.44
452.428	801.44
452.648	798.44
452.869	779.44
453.089	790.44
453.31	801.44
453.53	757.44
453.751	779.44
453.971	761.44
454.192	802.44
454.412	787.44
454.633	789.44
454.853	758.44
455.073	791.44
455.294	734.44
455.514	777.44
455.734	794.44
455.955	830.44
456.175	806.44
456.395	761.44
456.616	748.44
456.836	739.44
457.056	769.44
457.276	757.44
457.497	764.44
457.717	808.44
457.937	808.44
458.157	773.44
458.377	796.44
458.598	808.44
458.818	822.44
459.038	834.44
459.258	852.44
459.478	865.44
459.698	958.44
459.918	934.44
460.138	942.44
460.358	947.44
460.578	942.44
460.798	978.44
461.018	1003.44
461.238	966.44
461.458	944.44
461.678	912.44
461.898	928.44
462.118	964.44
462.338	965.44
462.558	1031.44
462.777	1040.44
462.997	1089.44
463.217	1105.44
463.437	1127.44
463.657	1121.44
463.876	1012.44
464.096	1043.44
464.316	1041.44
464.536	1042.44
464.755	1028.44
464.975	991.44
465.195	954.44
465.414	920.44
465.634	867.44
465.854	906.44
466.073	889.44
466.293	858.44
466.512	856.44
466.732	841.44
466.951	848.44
467.171	882.44
467.391	844.44
467.61	825.44
467.829	849.44
468.049	820.44
468.268	820.44
468.488	800.44
468.707	829.44
468.927	830.44
469.146	840.44
469.365	871.44
469.585	839.44
469.804	814.44
470.023	854.44
470.243	854.44
470.462	844.44
470.681	839.44
470.901	856.44
471.12	838.44
471.339	854.44
471.558	860.44
471.777	863.44
471.997	858.44
472.216	823.44
472.435	833.44
472.654	806.44
472.873	834.44
473.092	840.44
473.311	837.44
473.53	816.44
473.749	845.44
473.968	828.44
474.187	817.44
474.406	826.44
474.625	850.44
474.844	857.44
475.063	849.44
475.282	868.44
475.501	844.44
475.72	859.44
475.939	872.44
476.158	866.44
476.377	865.44
476.596	875.44
476.814	884.44
477.033	894.44
477.252	912.44
477.471	907.44
477.69	903.44
477.908	966.44
478.127	938.44
478.346	961.44
478.564	959.44
478.783	994.44
479.002	989.44
479.22	1032.44
479.439	1022.44
479.658	998.44
479.876	991.44
480.095	964.44
480.313	1001.44
480.532	991.44
480.751	1019.44
480.969	997.44
481.188	1018.44
481.406	987.44
481.624	980.44
481.843	988.44
482.061	975.44
482.28	991.44
482.498	988.44
482.717	1002.44
482.935	1017.44
483.153	1011.44
483.372	1027.44
483.59	1061.44
483.808	1016.44
484.027	999.44
484.245	1015.44
484.463	986.44
484.681	1036.44
484.9	1012.44
485.118	995.44
485.336	1040.44
485.554	1001.44
485.772	1007.44
485.99	1013.44
486.209	1009.44
486.427	1038.44
486.645	1047.44
486.863	1028.44
487.081	1017.44
487.299	1046.44
487.517	1041.44
487.735	1030.44
487.953	1059.44
488.171	1065.44
488.389	1007.44
488.607	1028.44
488.825	1049.44
489.043	985.44
489.261	1037.44
489.479	1054.44
489.696	1010.44
489.914	1045.44
490.132	1034.44
490.35	1007.44
490.568	984.44
490.786	1015.44
491.003	1046.44
491.221	1043.44
491.439	1067.44
491.657	1016.44
491.874	1045.44
492.092	1081.44
492.31	1087.44
492.527	1032.44
492.745	1066.44
492.963	1047.44
493.18	1041.44
493.398	1048.44
493.615	1061.44
493.833	1055.44
494.05	1069.44
494.268	1056.44
494.485	1050.44
494.703	1078.44
494.92	1060.44
495.138	1071.44
495.355	1063.44
495.573	1076.44
495.79	1089.44
496.008	1079.44
496.225	1085.44
496.442	1096.44
496.66	1120.44
496.877	1048.44
497.094	1106.44
497.312	1126.44
497.529	1118.44
497.746	1152.44
497.963	1196.44
498.181	1218.44
498.398	1241.44
498.615	1272.44
498.832	1302.44
499.049	1339.44
499.267	1412.44
499.484	1507.44
499.701	1595.44
499.918	1632.44
