Data from Ni(NO3)2@0.0625M.TitratingCurve.Agarose3%dH2O.NegLispCup.LampEnergy10.LIBS07252019_HRD10591_18-14-33-580.txt Node
Date: Thu Jul 25 18:14:33 EDT 2019
User: cochatt
Spectrometer: HR+D1059
Trigger mode: 1
Integration Time (sec): 1.000000E-1
Scans to average: 1
Electric dark correction enabled: true
Nonlinearity correction enabled: false
Boxcar width: 0
XAxis mode: Wavelengths
Number of Pixels in Spectrum: 2048
>>>>>Begin Spectral Data<<<<<
223.165	-24.94
223.4	-24.94
223.635	-24.94
223.869	-0.94
224.104	-5.94
224.338	5.06
224.573	-19.94
224.808	-18.94
225.042	-11.94
225.277	-10.94
225.511	-5.94
225.746	13.06
225.98	0.06
226.215	11.06
226.449	5.06
226.683	11.06
226.918	22.06
227.152	32.06
227.387	39.06
227.621	39.06
227.856	47.06
228.09	48.06
228.324	48.06
228.559	60.06
228.793	63.06
229.027	107.06
229.262	100.06
229.496	110.06
229.73	103.06
229.964	127.06
230.199	119.06
230.433	126.06
230.667	117.06
230.901	109.06
231.136	117.06
231.37	119.06
231.604	125.06
231.838	131.06
232.072	131.06
232.306	138.06
232.541	119.06
232.775	140.06
233.009	149.06
233.243	127.06
233.477	141.06
233.711	120.06
233.945	134.06
234.179	139.06
234.413	141.06
234.647	135.06
234.881	120.06
235.115	127.06
235.349	120.06
235.583	124.06
235.817	119.06
236.051	131.06
236.285	144.06
236.519	140.06
236.753	125.06
236.987	132.06
237.221	127.06
237.455	139.06
237.689	129.06
237.922	123.06
238.156	127.06
238.39	125.06
238.624	136.06
238.858	133.06
239.091	147.06
239.325	134.06
239.559	140.06
239.793	137.06
240.027	162.06
240.26	144.06
240.494	154.06
240.728	145.06
240.961	157.06
241.195	157.06
241.429	132.06
241.662	159.06
241.896	161.06
242.13	147.06
242.363	157.06
242.597	156.06
242.83	164.06
243.064	152.06
243.298	169.06
243.531	161.06
243.765	154.06
243.998	157.06
244.232	164.06
244.465	148.06
244.699	165.06
244.932	154.06
245.166	171.06
245.399	172.06
245.633	176.06
245.866	172.06
246.099	168.06
246.333	179.06
246.566	173.06
246.8	168.06
247.033	168.06
247.266	175.06
247.5	180.06
247.733	170.06
247.966	189.06
248.2	187.06
248.433	173.06
248.666	159.06
248.899	179.06
249.133	199.06
249.366	188.06
249.599	190.06
249.832	191.06
250.066	186.06
250.299	167.06
250.532	191.06
250.765	198.06
250.998	203.06
251.231	184.06
251.465	200.06
251.698	205.06
251.931	199.06
252.164	207.06
252.397	197.06
252.63	210.06
252.863	207.06
253.096	193.06
253.329	191.06
253.562	208.06
253.795	206.06
254.028	208.06
254.261	198.06
254.494	200.06
254.727	217.06
254.96	211.06
255.193	204.06
255.426	204.06
255.659	221.06
255.892	215.06
256.124	204.06
256.357	201.06
256.59	213.06
256.823	216.06
257.056	212.06
257.289	214.06
257.521	217.06
257.754	225.06
257.987	224.06
258.22	220.06
258.452	208.06
258.685	231.06
258.918	236.06
259.151	223.06
259.383	222.06
259.616	233.06
259.849	229.06
260.081	222.06
260.314	228.06
260.547	238.06
260.779	235.06
261.012	232.06
261.244	251.06
261.477	251.06
261.71	228.06
261.942	231.06
262.175	248.06
262.407	250.06
262.64	246.06
262.872	235.06
263.105	236.06
263.337	263.06
263.57	252.06
263.802	258.06
264.035	248.06
264.267	237.06
264.499	246.06
264.732	259.06
264.964	254.06
265.197	263.06
265.429	261.06
265.661	263.06
265.894	255.06
266.126	258.06
266.358	256.06
266.591	263.06
266.823	256.06
267.055	265.06
267.287	281.06
267.52	263.06
267.752	253.06
267.984	254.06
268.216	261.06
268.448	287.06
268.681	281.06
268.913	261.06
269.145	269.06
269.377	268.06
269.609	261.06
269.841	267.06
270.073	275.06
270.306	282.06
270.538	278.06
270.77	279.06
271.002	278.06
271.234	286.06
271.466	281.06
271.698	285.06
271.93	264.06
272.162	273.06
272.394	281.06
272.626	290.06
272.858	270.06
273.09	284.06
273.322	290.06
273.553	276.06
273.785	304.06
274.017	286.06
274.249	280.06
274.481	298.06
274.713	282.06
274.945	294.06
275.176	281.06
275.408	304.06
275.64	300.06
275.872	296.06
276.104	314.06
276.335	299.06
276.567	307.06
276.799	289.06
277.031	320.06
277.262	307.06
277.494	292.06
277.726	293.06
277.957	319.06
278.189	325.06
278.421	311.06
278.652	307.06
278.884	324.06
279.115	306.06
279.347	319.06
279.579	322.06
279.81	321.06
280.042	318.06
280.273	326.06
280.505	321.06
280.736	322.06
280.968	329.06
281.199	321.06
281.431	319.06
281.662	334.06
281.894	327.06
282.125	336.06
282.356	336.06
282.588	355.06
282.819	342.06
283.051	342.06
283.282	359.06
283.513	334.06
283.745	329.06
283.976	349.06
284.207	344.06
284.439	339.06
284.67	354.06
284.901	348.06
285.132	352.06
285.364	345.06
285.595	336.06
285.826	353.06
286.057	357.06
286.288	382.06
286.52	352.06
286.751	339.06
286.982	368.06
287.213	360.06
287.444	360.06
287.675	380.06
287.906	361.06
288.138	367.06
288.369	352.06
288.6	376.06
288.831	365.06
289.062	380.06
289.293	356.06
289.524	363.06
289.755	381.06
289.986	379.06
290.217	381.06
290.448	386.06
290.679	367.06
290.91	371.06
291.141	360.06
291.371	393.06
291.602	387.06
291.833	382.06
292.064	388.06
292.295	375.06
292.526	367.06
292.757	375.06
292.987	387.06
293.218	371.06
293.449	367.06
293.68	387.06
293.91	376.06
294.141	380.06
294.372	388.06
294.603	379.06
294.833	399.06
295.064	365.06
295.295	389.06
295.525	393.06
295.756	391.06
295.987	403.06
296.217	395.06
296.448	380.06
296.679	393.06
296.909	375.06
297.14	381.06
297.37	414.06
297.601	402.06
297.831	420.06
298.062	399.06
298.292	427.06
298.523	422.06
298.753	430.06
298.984	425.06
299.214	404.06
299.445	423.06
299.675	410.06
299.905	426.06
300.136	416.06
300.366	423.06
300.597	437.06
300.827	431.06
301.057	413.06
301.288	424.06
301.518	411.06
301.748	438.06
301.979	431.06
302.209	453.06
302.439	440.06
302.669	408.06
302.9	432.06
303.13	420.06
303.36	409.06
303.59	432.06
303.82	443.06
304.051	415.06
304.281	439.06
304.511	446.06
304.741	419.06
304.971	412.06
305.201	439.06
305.431	435.06
305.661	418.06
305.891	433.06
306.121	445.06
306.352	401.06
306.582	421.06
306.812	401.06
307.042	426.06
307.272	415.06
307.502	425.06
307.731	427.06
307.961	420.06
308.191	414.06
308.421	423.06
308.651	416.06
308.881	415.06
309.111	407.06
309.341	402.06
309.571	417.06
309.8	417.06
310.03	418.06
310.26	425.06
310.49	441.06
310.72	418.06
310.949	413.06
311.179	433.06
311.409	428.06
311.639	427.06
311.868	414.06
312.098	423.06
312.328	432.06
312.557	437.06
312.787	439.06
313.017	436.06
313.246	438.06
313.476	451.06
313.706	451.06
313.935	445.06
314.165	439.06
314.394	435.06
314.624	450.06
314.853	457.06
315.083	443.06
315.312	432.06
315.542	441.06
315.771	449.06
316.001	451.06
316.23	441.06
316.46	443.06
316.689	423.06
316.919	420.06
317.148	423.06
317.377	434.06
317.607	444.06
317.836	419.06
318.065	428.06
318.295	448.06
318.524	430.06
318.753	433.06
318.983	424.06
319.212	420.06
319.441	410.06
319.67	421.06
319.9	436.06
320.129	432.06
320.358	434.06
320.587	419.06
320.816	446.06
321.046	459.06
321.275	423.06
321.504	425.06
321.733	445.06
321.962	444.06
322.191	429.06
322.42	443.06
322.649	451.06
322.878	453.06
323.108	442.06
323.337	477.06
323.566	452.06
323.795	450.06
324.024	447.06
324.253	464.06
324.482	465.06
324.71	465.06
324.939	464.06
325.168	462.06
325.397	463.06
325.626	461.06
325.855	468.06
326.084	469.06
326.313	482.06
326.542	484.06
326.77	486.06
326.999	489.06
327.228	484.06
327.457	479.06
327.686	477.06
327.914	470.06
328.143	480.06
328.372	483.06
328.6	495.06
328.829	484.06
329.058	489.06
329.287	482.06
329.515	479.06
329.744	484.06
329.972	458.06
330.201	487.06
330.43	493.06
330.658	489.06
330.887	492.06
331.115	469.06
331.344	486.06
331.572	494.06
331.801	503.06
332.03	519.06
332.258	533.06
332.486	531.06
332.715	567.06
332.943	591.06
333.172	611.06
333.4	618.06
333.629	640.06
333.857	646.06
334.085	651.06
334.314	630.06
334.542	621.06
334.771	607.06
334.999	569.06
335.227	590.06
335.455	615.06
335.684	598.06
335.912	607.06
336.14	590.06
336.369	570.06
336.597	590.06
336.825	598.06
337.053	586.06
337.281	586.06
337.51	561.06
337.738	535.06
337.966	547.06
338.194	517.06
338.422	544.06
338.65	533.06
338.878	532.06
339.106	549.06
339.334	525.06
339.562	519.06
339.79	519.06
340.018	503.06
340.246	520.06
340.474	508.06
340.702	494.06
340.93	499.06
341.158	519.06
341.386	520.06
341.614	527.06
341.842	507.06
342.07	499.06
342.298	495.06
342.526	509.06
342.754	501.06
342.981	488.06
343.209	528.06
343.437	533.06
343.665	585.06
343.893	595.06
344.12	627.06
344.348	607.06
344.576	568.06
344.804	559.06
345.031	539.06
345.259	529.06
345.487	516.06
345.714	521.06
345.942	522.06
346.17	531.06
346.397	512.06
346.625	504.06
346.853	494.06
347.08	491.06
347.308	501.06
347.535	503.06
347.763	483.06
347.99	507.06
348.218	509.06
348.445	495.06
348.673	509.06
348.9	525.06
349.128	519.06
349.355	508.06
349.583	489.06
349.81	482.06
350.037	470.06
350.265	503.06
350.492	479.06
350.72	475.06
350.947	463.06
351.174	465.06
351.402	485.06
351.629	489.06
351.856	470.06
352.083	466.06
352.311	479.06
352.538	457.06
352.765	511.06
352.992	477.06
353.22	466.06
353.447	459.06
353.674	456.06
353.901	459.06
354.128	456.06
354.355	455.06
354.583	463.06
354.81	471.06
355.037	468.06
355.264	475.06
355.491	481.06
355.718	480.06
355.945	506.06
356.172	488.06
356.399	490.06
356.626	469.06
356.853	492.06
357.08	493.06
357.307	468.06
357.534	491.06
357.761	471.06
357.988	451.06
358.215	488.06
358.441	485.06
358.668	474.06
358.895	476.06
359.122	475.06
359.349	481.06
359.576	490.06
359.802	482.06
360.029	494.06
360.256	473.06
360.483	467.06
360.709	475.06
360.936	474.06
361.163	479.06
361.39	475.06
361.616	495.06
361.843	460.06
362.07	479.06
362.296	477.06
362.523	472.06
362.749	455.06
362.976	484.06
363.203	477.06
363.429	475.06
363.656	480.06
363.882	480.06
364.109	469.06
364.335	472.06
364.562	470.06
364.788	457.06
365.015	472.06
365.241	489.06
365.468	464.06
365.694	477.06
365.92	476.06
366.147	480.06
366.373	479.06
366.599	479.06
366.826	473.06
367.052	494.06
367.278	487.06
367.505	465.06
367.731	486.06
367.957	473.06
368.184	475.06
368.41	496.06
368.636	492.06
368.862	487.06
369.089	493.06
369.315	486.06
369.541	491.06
369.767	492.06
369.993	493.06
370.219	484.06
370.445	486.06
370.672	516.06
370.898	522.06
371.124	535.06
371.35	511.06
371.576	510.06
371.802	528.06
372.028	519.06
372.254	532.06
372.48	528.06
372.706	527.06
372.932	558.06
373.158	541.06
373.384	526.06
373.61	509.06
373.835	493.06
374.061	527.06
374.287	539.06
374.513	524.06
374.739	546.06
374.965	569.06
375.191	573.06
375.416	558.06
375.642	523.06
375.868	551.06
376.094	551.06
376.319	539.06
376.545	511.06
376.771	531.06
376.997	526.06
377.222	537.06
377.448	541.06
377.674	534.06
377.899	511.06
378.125	521.06
378.35	518.06
378.576	485.06
378.802	495.06
379.027	501.06
379.253	499.06
379.478	521.06
379.704	513.06
379.929	500.06
380.155	527.06
380.38	522.06
380.606	512.06
380.831	519.06
381.057	504.06
381.282	511.06
381.507	521.06
381.733	523.06
381.958	532.06
382.184	527.06
382.409	533.06
382.634	553.06
382.86	560.06
383.085	519.06
383.31	530.06
383.535	560.06
383.761	583.06
383.986	584.06
384.211	593.06
384.436	601.06
384.662	617.06
384.887	601.06
385.112	624.06
385.337	606.06
385.562	613.06
385.787	625.06
386.013	619.06
386.238	624.06
386.463	620.06
386.688	627.06
386.913	609.06
387.138	620.06
387.363	614.06
387.588	602.06
387.813	602.06
388.038	608.06
388.263	639.06
388.488	617.06
388.713	611.06
388.938	597.06
389.163	585.06
389.387	591.06
389.612	585.06
389.837	571.06
390.062	585.06
390.287	594.06
390.512	605.06
390.736	602.06
390.961	620.06
391.186	602.06
391.411	634.06
391.636	643.06
391.86	677.06
392.085	677.06
392.31	676.06
392.534	671.06
392.759	643.06
392.984	635.06
393.208	635.06
393.433	619.06
393.658	656.06
393.882	647.06
394.107	656.06
394.331	655.06
394.556	665.06
394.78	638.06
395.005	675.06
395.229	650.06
395.454	662.06
395.678	693.06
395.903	711.06
396.127	667.06
396.352	631.06
396.576	645.06
396.801	651.06
397.025	647.06
397.249	655.06
397.474	687.06
397.698	675.06
397.922	678.06
398.147	651.06
398.371	691.06
398.595	693.06
398.82	721.06
399.044	776.06
399.268	868.06
399.492	1006.06
399.717	1124.06
399.941	1130.06
400.165	997.06
400.389	887.06
400.613	818.06
400.837	781.06
401.062	760.06
401.286	744.06
401.51	735.06
401.734	745.06
401.958	748.06
402.182	735.06
402.406	784.06
402.63	773.06
402.854	804.06
403.078	768.06
403.302	844.06
403.526	805.06
403.75	848.06
403.974	865.06
404.198	855.06
404.422	883.06
404.645	846.06
404.869	844.06
405.093	843.06
405.317	858.06
405.541	830.06
405.765	820.06
405.988	803.06
406.212	854.06
406.436	841.06
406.66	830.06
406.883	832.06
407.107	927.06
407.331	939.06
407.555	992.06
407.778	969.06
408.002	943.06
408.226	921.06
408.449	911.06
408.673	869.06
408.896	856.06
409.12	837.06
409.344	884.06
409.567	868.06
409.791	887.06
410.014	886.06
410.238	851.06
410.461	856.06
410.685	846.06
410.908	830.06
411.132	792.06
411.355	800.06
411.578	800.06
411.802	782.06
412.025	792.06
412.249	795.06
412.472	794.06
412.695	753.06
412.919	778.06
413.142	745.06
413.365	761.06
413.589	763.06
413.812	753.06
414.035	751.06
414.258	737.06
414.482	735.06
414.705	769.06
414.928	772.06
415.151	760.06
415.374	745.06
415.597	772.06
415.821	713.06
416.044	734.06
416.267	733.06
416.49	706.06
416.713	727.06
416.936	740.06
417.159	734.06
417.382	720.06
417.605	703.06
417.828	743.06
418.051	743.06
418.274	744.06
418.497	737.06
418.72	752.06
418.943	750.06
419.166	833.06
419.389	840.06
419.611	838.06
419.834	796.06
420.057	789.06
420.28	782.06
420.503	747.06
420.726	731.06
420.948	759.06
421.171	727.06
421.394	744.06
421.617	747.06
421.839	739.06
422.062	742.06
422.285	744.06
422.507	750.06
422.73	768.06
422.953	772.06
423.175	798.06
423.398	784.06
423.621	791.06
423.843	785.06
424.066	800.06
424.288	802.06
424.511	807.06
424.733	800.06
424.956	762.06
425.178	761.06
425.401	763.06
425.623	751.06
425.846	724.06
426.068	705.06
426.291	710.06
426.513	733.06
426.735	701.06
426.958	696.06
427.18	680.06
427.402	707.06
427.625	680.06
427.847	685.06
428.069	665.06
428.292	677.06
428.514	676.06
428.736	691.06
428.958	683.06
429.181	672.06
429.403	644.06
429.625	664.06
429.847	668.06
430.069	653.06
430.292	667.06
430.514	649.06
430.736	680.06
430.958	679.06
431.18	657.06
431.402	681.06
431.624	673.06
431.846	682.06
432.068	701.06
432.29	716.06
432.512	688.06
432.734	685.06
432.956	664.06
433.178	695.06
433.4	709.06
433.622	688.06
433.844	685.06
434.066	709.06
434.287	697.06
434.509	718.06
434.731	733.06
434.953	760.06
435.175	790.06
435.397	789.06
435.618	740.06
435.84	697.06
436.062	688.06
436.284	687.06
436.505	682.06
436.727	674.06
436.949	688.06
437.17	687.06
437.392	681.06
437.614	649.06
437.835	643.06
438.057	664.06
438.278	669.06
438.5	661.06
438.721	680.06
438.943	661.06
439.165	639.06
439.386	658.06
439.608	670.06
439.829	663.06
440.05	647.06
440.272	681.06
440.493	695.06
440.715	691.06
440.936	718.06
441.158	706.06
441.379	742.06
441.6	793.06
441.822	793.06
442.043	772.06
442.264	761.06
442.486	762.06
442.707	726.06
442.928	741.06
443.149	761.06
443.371	755.06
443.592	763.06
443.813	772.06
444.034	780.06
444.255	780.06
444.476	813.06
444.698	876.06
444.919	900.06
445.14	973.06
445.361	885.06
445.582	808.06
445.803	759.06
446.024	711.06
446.245	734.06
446.466	705.06
446.687	679.06
446.908	713.06
447.129	655.06
447.35	678.06
447.571	676.06
447.792	648.06
448.013	652.06
448.234	643.06
448.455	652.06
448.675	630.06
448.896	639.06
449.117	633.06
449.338	623.06
449.559	617.06
449.779	636.06
450	643.06
450.221	593.06
450.442	651.06
450.662	653.06
450.883	678.06
451.104	649.06
451.324	671.06
451.545	639.06
451.766	664.06
451.986	658.06
452.207	645.06
452.428	648.06
452.648	635.06
452.869	639.06
453.089	616.06
453.31	639.06
453.53	641.06
453.751	642.06
453.971	628.06
454.192	619.06
454.412	583.06
454.633	600.06
454.853	613.06
455.073	619.06
455.294	599.06
455.514	598.06
455.734	607.06
455.955	595.06
456.175	597.06
456.395	599.06
456.616	573.06
456.836	607.06
457.056	599.06
457.276	593.06
457.497	597.06
457.717	601.06
457.937	603.06
458.157	613.06
458.377	599.06
458.598	628.06
458.818	650.06
459.038	655.06
459.258	665.06
459.478	695.06
459.698	715.06
459.918	753.06
460.138	764.06
460.358	814.06
460.578	807.06
460.798	806.06
461.018	807.06
461.238	798.06
461.458	758.06
461.678	780.06
461.898	803.06
462.118	821.06
462.338	863.06
462.558	890.06
462.777	901.06
462.997	967.06
463.217	1045.06
463.437	1089.06
463.657	1015.06
463.876	921.06
464.096	920.06
464.316	928.06
464.536	914.06
464.755	919.06
464.975	866.06
465.195	841.06
465.414	762.06
465.634	745.06
465.854	725.06
466.073	684.06
466.293	715.06
466.512	679.06
466.732	675.06
466.951	669.06
467.171	642.06
467.391	666.06
467.61	665.06
467.829	654.06
468.049	686.06
468.268	620.06
468.488	635.06
468.707	637.06
468.927	658.06
469.146	635.06
469.365	641.06
469.585	626.06
469.804	657.06
470.023	682.06
470.243	700.06
470.462	680.06
470.681	688.06
470.901	708.06
471.12	657.06
471.339	638.06
471.558	645.06
471.777	671.06
471.997	638.06
472.216	639.06
472.435	639.06
472.654	628.06
472.873	631.06
473.092	623.06
473.311	602.06
473.53	640.06
473.749	611.06
473.968	631.06
474.187	636.06
474.406	606.06
474.625	634.06
474.844	631.06
475.063	613.06
475.282	627.06
475.501	622.06
475.72	620.06
475.939	659.06
476.158	656.06
476.377	657.06
476.596	644.06
476.814	633.06
477.033	647.06
477.252	677.06
477.471	680.06
477.69	683.06
477.908	704.06
478.127	725.06
478.346	731.06
478.564	765.06
478.783	748.06
479.002	755.06
479.22	797.06
479.439	774.06
479.658	750.06
479.876	771.06
480.095	773.06
480.313	786.06
480.532	843.06
480.751	823.06
480.969	811.06
481.188	767.06
481.406	752.06
481.624	749.06
481.843	716.06
482.061	741.06
482.28	717.06
482.498	715.06
482.717	712.06
482.935	727.06
483.153	711.06
483.372	730.06
483.59	728.06
483.808	725.06
484.027	724.06
484.245	735.06
484.463	738.06
484.681	769.06
484.9	760.06
485.118	774.06
485.336	762.06
485.554	771.06
485.772	776.06
485.99	765.06
486.209	787.06
486.427	778.06
486.645	777.06
486.863	767.06
487.081	744.06
487.299	764.06
487.517	747.06
487.735	752.06
487.953	759.06
488.171	773.06
488.389	781.06
488.607	737.06
488.825	725.06
489.043	732.06
489.261	760.06
489.479	744.06
489.696	743.06
489.914	753.06
490.132	756.06
490.35	745.06
490.568	759.06
490.786	772.06
491.003	756.06
491.221	810.06
491.439	759.06
491.657	769.06
491.874	735.06
492.092	756.06
492.31	775.06
492.527	784.06
492.745	743.06
492.963	748.06
493.18	764.06
493.398	773.06
493.615	791.06
493.833	784.06
494.05	778.06
494.268	790.06
494.485	791.06
494.703	786.06
494.92	757.06
495.138	792.06
495.355	793.06
495.573	789.06
495.79	798.06
496.008	815.06
496.225	784.06
496.442	826.06
496.66	814.06
496.877	817.06
497.094	847.06
497.312	833.06
497.529	835.06
497.746	885.06
497.963	891.06
498.181	926.06
498.398	959.06
498.615	996.06
498.832	1053.06
499.049	1139.06
499.267	1262.06
499.484	1407.06
499.701	1488.06
499.918	1629.06
500.135	1885.06
500.352	2114.06
500.569	2275.06
500.786	2295.06
501.003	2077.06
501.22	1873.06
