Data from Ni(NO3)2@0.125M.TitratingCurve.Agarose3%dH2O.NegLispCup.LampEnergy10.LIBS07252019_HRD10591_18-11-16-568.txt Node
Date: Thu Jul 25 18:11:16 EDT 2019
User: cochatt
Spectrometer: HR+D1059
Trigger mode: 1
Integration Time (sec): 1.000000E-1
Scans to average: 1
Electric dark correction enabled: true
Nonlinearity correction enabled: false
Boxcar width: 0
XAxis mode: Wavelengths
Number of Pixels in Spectrum: 2048
>>>>>Begin Spectral Data<<<<<
223.165	0.38
223.4	0.38
223.635	0.38
223.869	-21.62
224.104	-22.62
224.338	-1.62
224.573	-17.62
224.808	-22.62
225.042	3.38
225.277	-3.62
225.511	-9.62
225.746	1.38
225.98	12.38
226.215	12.38
226.449	1.38
226.683	11.38
226.918	26.38
227.152	30.38
227.387	33.38
227.621	46.38
227.856	29.38
228.09	48.38
228.324	36.38
228.559	49.38
228.793	71.38
229.027	96.38
229.262	107.38
229.496	114.38
229.73	122.38
229.964	109.38
230.199	116.38
230.433	121.38
230.667	120.38
230.901	120.38
231.136	115.38
231.37	129.38
231.604	139.38
231.838	136.38
232.072	136.38
232.306	134.38
232.541	130.38
232.775	137.38
233.009	123.38
233.243	142.38
233.477	145.38
233.711	147.38
233.945	152.38
234.179	131.38
234.413	146.38
234.647	133.38
234.881	142.38
235.115	148.38
235.349	133.38
235.583	155.38
235.817	150.38
236.051	130.38
236.285	143.38
236.519	148.38
236.753	151.38
236.987	151.38
237.221	147.38
237.455	149.38
237.689	145.38
237.922	154.38
238.156	142.38
238.39	160.38
238.624	139.38
238.858	158.38
239.091	159.38
239.325	151.38
239.559	158.38
239.793	140.38
240.027	154.38
240.26	171.38
240.494	152.38
240.728	164.38
240.961	176.38
241.195	167.38
241.429	179.38
241.662	168.38
241.896	169.38
242.13	194.38
242.363	186.38
242.597	179.38
242.83	185.38
243.064	185.38
243.298	196.38
243.531	181.38
243.765	184.38
243.998	204.38
244.232	188.38
244.465	198.38
244.699	197.38
244.932	209.38
245.166	209.38
245.399	195.38
245.633	213.38
245.866	217.38
246.099	202.38
246.333	199.38
246.566	207.38
246.8	178.38
247.033	204.38
247.266	217.38
247.5	212.38
247.733	199.38
247.966	211.38
248.2	208.38
248.433	209.38
248.666	213.38
248.899	222.38
249.133	220.38
249.366	226.38
249.599	226.38
249.832	229.38
250.066	248.38
250.299	249.38
250.532	238.38
250.765	236.38
250.998	227.38
251.231	258.38
251.465	240.38
251.698	241.38
251.931	236.38
252.164	256.38
252.397	242.38
252.63	240.38
252.863	278.38
253.096	267.38
253.329	256.38
253.562	263.38
253.795	289.38
254.028	256.38
254.261	247.38
254.494	262.38
254.727	265.38
254.96	254.38
255.193	269.38
255.426	274.38
255.659	283.38
255.892	264.38
256.124	260.38
256.357	272.38
256.59	262.38
256.823	273.38
257.056	281.38
257.289	263.38
257.521	282.38
257.754	271.38
257.987	264.38
258.22	297.38
258.452	283.38
258.685	304.38
258.918	312.38
259.151	299.38
259.383	287.38
259.616	293.38
259.849	287.38
260.081	282.38
260.314	302.38
260.547	278.38
260.779	283.38
261.012	282.38
261.244	302.38
261.477	322.38
261.71	298.38
261.942	288.38
262.175	298.38
262.407	296.38
262.64	317.38
262.872	312.38
263.105	288.38
263.337	314.38
263.57	306.38
263.802	330.38
264.035	323.38
264.267	319.38
264.499	319.38
264.732	319.38
264.964	307.38
265.197	321.38
265.429	321.38
265.661	316.38
265.894	344.38
266.126	325.38
266.358	326.38
266.591	349.38
266.823	354.38
267.055	335.38
267.287	338.38
267.52	360.38
267.752	346.38
267.984	351.38
268.216	351.38
268.448	341.38
268.681	346.38
268.913	343.38
269.145	336.38
269.377	321.38
269.609	354.38
269.841	350.38
270.073	357.38
270.306	335.38
270.538	350.38
270.77	349.38
271.002	337.38
271.234	353.38
271.466	369.38
271.698	342.38
271.93	368.38
272.162	370.38
272.394	368.38
272.626	351.38
272.858	366.38
273.09	367.38
273.322	371.38
273.553	384.38
273.785	375.38
274.017	350.38
274.249	382.38
274.481	384.38
274.713	402.38
274.945	376.38
275.176	390.38
275.408	379.38
275.64	376.38
275.872	403.38
276.104	394.38
276.335	378.38
276.567	386.38
276.799	402.38
277.031	418.38
277.262	404.38
277.494	393.38
277.726	398.38
277.957	396.38
278.189	414.38
278.421	398.38
278.652	415.38
278.884	410.38
279.115	416.38
279.347	419.38
279.579	410.38
279.81	405.38
280.042	403.38
280.273	444.38
280.505	430.38
280.736	437.38
280.968	410.38
281.199	434.38
281.431	418.38
281.662	403.38
281.894	399.38
282.125	438.38
282.356	435.38
282.588	450.38
282.819	443.38
283.051	441.38
283.282	435.38
283.513	451.38
283.745	445.38
283.976	447.38
284.207	428.38
284.439	445.38
284.67	465.38
284.901	452.38
285.132	476.38
285.364	459.38
285.595	442.38
285.826	434.38
286.057	468.38
286.288	454.38
286.52	455.38
286.751	467.38
286.982	477.38
287.213	464.38
287.444	463.38
287.675	479.38
287.906	467.38
288.138	477.38
288.369	466.38
288.6	475.38
288.831	483.38
289.062	474.38
289.293	479.38
289.524	471.38
289.755	477.38
289.986	472.38
290.217	487.38
290.448	498.38
290.679	478.38
290.91	497.38
291.141	513.38
291.371	482.38
291.602	484.38
291.833	483.38
292.064	502.38
292.295	483.38
292.526	497.38
292.757	497.38
292.987	495.38
293.218	488.38
293.449	492.38
293.68	500.38
293.91	501.38
294.141	504.38
294.372	486.38
294.603	487.38
294.833	511.38
295.064	498.38
295.295	514.38
295.525	495.38
295.756	502.38
295.987	490.38
296.217	514.38
296.448	514.38
296.679	507.38
296.909	500.38
297.14	533.38
297.37	521.38
297.601	527.38
297.831	532.38
298.062	536.38
298.292	542.38
298.523	550.38
298.753	520.38
298.984	537.38
299.214	548.38
299.445	548.38
299.675	524.38
299.905	515.38
300.136	527.38
300.366	534.38
300.597	542.38
300.827	571.38
301.057	562.38
301.288	558.38
301.518	556.38
301.748	562.38
301.979	575.38
302.209	579.38
302.439	551.38
302.669	560.38
302.9	547.38
303.13	568.38
303.36	553.38
303.59	556.38
303.82	562.38
304.051	554.38
304.281	568.38
304.511	568.38
304.741	580.38
304.971	545.38
305.201	566.38
305.431	547.38
305.661	541.38
305.891	559.38
306.121	552.38
306.352	562.38
306.582	548.38
306.812	562.38
307.042	536.38
307.272	542.38
307.502	539.38
307.731	544.38
307.961	542.38
308.191	556.38
308.421	558.38
308.651	549.38
308.881	536.38
309.111	544.38
309.341	567.38
309.571	558.38
309.8	552.38
310.03	538.38
310.26	531.38
310.49	532.38
310.72	580.38
310.949	546.38
311.179	560.38
311.409	546.38
311.639	571.38
311.868	576.38
312.098	580.38
312.328	561.38
312.557	570.38
312.787	552.38
313.017	568.38
313.246	588.38
313.476	577.38
313.706	586.38
313.935	570.38
314.165	611.38
314.394	595.38
314.624	623.38
314.853	577.38
315.083	594.38
315.312	569.38
315.542	599.38
315.771	586.38
316.001	588.38
316.23	571.38
316.46	588.38
316.689	577.38
316.919	572.38
317.148	577.38
317.377	573.38
317.607	563.38
317.836	578.38
318.065	567.38
318.295	585.38
318.524	563.38
318.753	560.38
318.983	608.38
319.212	596.38
319.441	591.38
319.67	564.38
319.9	583.38
320.129	585.38
320.358	593.38
320.587	594.38
320.816	591.38
321.046	555.38
321.275	571.38
321.504	612.38
321.733	593.38
321.962	608.38
322.191	609.38
322.42	614.38
322.649	611.38
322.878	593.38
323.108	612.38
323.337	619.38
323.566	595.38
323.795	623.38
324.024	610.38
324.253	611.38
324.482	632.38
324.71	612.38
324.939	619.38
325.168	619.38
325.397	616.38
325.626	628.38
325.855	610.38
326.084	618.38
326.313	651.38
326.542	638.38
326.77	655.38
326.999	671.38
327.228	648.38
327.457	641.38
327.686	652.38
327.914	644.38
328.143	666.38
328.372	648.38
328.6	640.38
328.829	628.38
329.058	624.38
329.287	639.38
329.515	644.38
329.744	647.38
329.972	670.38
330.201	677.38
330.43	676.38
330.658	657.38
330.887	669.38
331.115	650.38
331.344	678.38
331.572	681.38
331.801	695.38
332.03	728.38
332.258	742.38
332.486	773.38
332.715	796.38
332.943	818.38
333.172	841.38
333.4	899.38
333.629	878.38
333.857	888.38
334.085	885.38
334.314	874.38
334.542	868.38
334.771	857.38
334.999	822.38
335.227	818.38
335.455	817.38
335.684	810.38
335.912	806.38
336.14	821.38
336.369	775.38
336.597	774.38
336.825	770.38
337.053	778.38
337.281	776.38
337.51	759.38
337.738	732.38
337.966	721.38
338.194	701.38
338.422	707.38
338.65	711.38
338.878	731.38
339.106	706.38
339.334	731.38
339.562	675.38
339.79	687.38
340.018	680.38
340.246	650.38
340.474	670.38
340.702	685.38
340.93	681.38
341.158	705.38
341.386	694.38
341.614	661.38
341.842	681.38
342.07	700.38
342.298	649.38
342.526	678.38
342.754	687.38
342.981	686.38
343.209	680.38
343.437	722.38
343.665	777.38
343.893	822.38
344.12	872.38
344.348	808.38
344.576	773.38
344.804	756.38
345.031	702.38
345.259	702.38
345.487	671.38
345.714	680.38
345.942	672.38
346.17	672.38
346.397	643.38
346.625	651.38
346.853	688.38
347.08	641.38
347.308	658.38
347.535	680.38
347.763	679.38
347.99	661.38
348.218	691.38
348.445	653.38
348.673	666.38
348.9	672.38
349.128	663.38
349.355	646.38
349.583	675.38
349.81	645.38
350.037	621.38
350.265	624.38
350.492	645.38
350.72	628.38
350.947	618.38
351.174	618.38
351.402	635.38
351.629	647.38
351.856	629.38
352.083	628.38
352.311	623.38
352.538	651.38
352.765	620.38
352.992	611.38
353.22	628.38
353.447	646.38
353.674	628.38
353.901	650.38
354.128	634.38
354.355	630.38
354.583	615.38
354.81	624.38
355.037	656.38
355.264	632.38
355.491	659.38
355.718	656.38
355.945	656.38
356.172	651.38
356.399	646.38
356.626	625.38
356.853	631.38
357.08	639.38
357.307	641.38
357.534	651.38
357.761	630.38
357.988	632.38
358.215	633.38
358.441	639.38
358.668	631.38
358.895	638.38
359.122	638.38
359.349	638.38
359.576	650.38
359.802	628.38
360.029	656.38
360.256	611.38
360.483	644.38
360.709	626.38
360.936	638.38
361.163	640.38
361.39	645.38
361.616	631.38
361.843	656.38
362.07	656.38
362.296	617.38
362.523	627.38
362.749	646.38
362.976	644.38
363.203	640.38
363.429	608.38
363.656	632.38
363.882	636.38
364.109	633.38
364.335	624.38
364.562	640.38
364.788	635.38
365.015	632.38
365.241	632.38
365.468	636.38
365.694	651.38
365.92	628.38
366.147	622.38
366.373	612.38
366.599	617.38
366.826	631.38
367.052	625.38
367.278	639.38
367.505	637.38
367.731	652.38
367.957	628.38
368.184	643.38
368.41	638.38
368.636	648.38
368.862	658.38
369.089	636.38
369.315	656.38
369.541	672.38
369.767	688.38
369.993	657.38
370.219	666.38
370.445	675.38
370.672	696.38
370.898	686.38
371.124	678.38
371.35	689.38
371.576	697.38
371.802	678.38
372.028	671.38
372.254	709.38
372.48	698.38
372.706	706.38
372.932	729.38
373.158	724.38
373.384	726.38
373.61	714.38
373.835	715.38
374.061	697.38
374.287	712.38
374.513	707.38
374.739	731.38
374.965	771.38
375.191	770.38
375.416	762.38
375.642	767.38
375.868	737.38
376.094	717.38
376.319	707.38
376.545	689.38
376.771	711.38
376.997	716.38
377.222	688.38
377.448	705.38
377.674	714.38
377.899	697.38
378.125	685.38
378.35	696.38
378.576	685.38
378.802	665.38
379.027	696.38
379.253	678.38
379.478	712.38
379.704	687.38
379.929	702.38
380.155	692.38
380.38	665.38
380.606	667.38
380.831	663.38
381.057	679.38
381.282	709.38
381.507	687.38
381.733	680.38
381.958	688.38
382.184	694.38
382.409	689.38
382.634	747.38
382.86	714.38
383.085	735.38
383.31	750.38
383.535	758.38
383.761	794.38
383.986	796.38
384.211	798.38
384.436	822.38
384.662	827.38
384.887	844.38
385.112	843.38
385.337	822.38
385.562	848.38
385.787	832.38
386.013	866.38
386.238	848.38
386.463	842.38
386.688	846.38
386.913	826.38
387.138	835.38
387.363	820.38
387.588	850.38
387.813	815.38
388.038	819.38
388.263	831.38
388.488	809.38
388.713	845.38
388.938	800.38
389.163	814.38
389.387	847.38
389.612	826.38
389.837	816.38
390.062	828.38
390.287	822.38
390.512	832.38
390.736	822.38
390.961	827.38
391.186	812.38
391.411	871.38
391.636	902.38
391.86	930.38
392.085	948.38
392.31	953.38
392.534	921.38
392.759	881.38
392.984	894.38
393.208	877.38
393.433	887.38
393.658	888.38
393.882	858.38
394.107	892.38
394.331	898.38
394.556	880.38
394.78	894.38
395.005	872.38
395.229	903.38
395.454	927.38
395.678	960.38
395.903	956.38
396.127	916.38
396.352	904.38
396.576	894.38
396.801	897.38
397.025	887.38
397.249	908.38
397.474	914.38
397.698	898.38
397.922	903.38
398.147	912.38
398.371	955.38
398.595	993.38
398.82	1027.38
399.044	1111.38
399.268	1220.38
399.492	1456.38
399.717	1640.38
399.941	1625.38
400.165	1410.38
400.389	1243.38
400.613	1170.38
400.837	1090.38
401.062	1037.38
401.286	1031.38
401.51	1054.38
401.734	1065.38
401.958	1074.38
402.182	1073.38
402.406	1082.38
402.63	1112.38
402.854	1120.38
403.078	1119.38
403.302	1184.38
403.526	1192.38
403.75	1210.38
403.974	1253.38
404.198	1232.38
404.422	1242.38
404.645	1232.38
404.869	1207.38
405.093	1199.38
405.317	1179.38
405.541	1160.38
405.765	1153.38
405.988	1116.38
406.212	1136.38
406.436	1145.38
406.66	1154.38
406.883	1183.38
407.107	1271.38
407.331	1341.38
407.555	1366.38
407.778	1360.38
408.002	1369.38
408.226	1278.38
408.449	1264.38
408.673	1175.38
408.896	1202.38
409.12	1174.38
409.344	1205.38
409.567	1190.38
409.791	1200.38
410.014	1185.38
410.238	1178.38
410.461	1181.38
410.685	1156.38
410.908	1113.38
411.132	1132.38
411.355	1076.38
411.578	1099.38
411.802	1081.38
412.025	1105.38
412.249	1117.38
412.472	1092.38
412.695	1051.38
412.919	1026.38
413.142	1056.38
413.365	1028.38
413.589	1051.38
413.812	1046.38
414.035	1057.38
414.258	1035.38
414.482	1066.38
414.705	1061.38
414.928	1057.38
415.151	1051.38
415.374	1054.38
415.597	1061.38
415.821	1004.38
416.044	996.38
416.267	1011.38
416.49	1033.38
416.713	1032.38
416.936	1024.38
417.159	1023.38
417.382	1001.38
417.605	1016.38
417.828	1003.38
418.051	1044.38
418.274	1033.38
418.497	1051.38
418.72	1076.38
418.943	1074.38
419.166	1123.38
419.389	1182.38
419.611	1168.38
419.834	1147.38
420.057	1105.38
420.28	1035.38
420.503	1033.38
420.726	1024.38
420.948	1010.38
421.171	1013.38
421.394	1024.38
421.617	1030.38
421.839	1061.38
422.062	1062.38
422.285	1026.38
422.507	1089.38
422.73	1079.38
422.953	1067.38
423.175	1084.38
423.398	1123.38
423.621	1146.38
423.843	1139.38
424.066	1118.38
424.288	1122.38
424.511	1086.38
424.733	1095.38
424.956	1064.38
425.178	1063.38
425.401	1031.38
425.623	1036.38
425.846	1015.38
426.068	1006.38
426.291	972.38
426.513	970.38
426.735	967.38
426.958	973.38
427.18	951.38
427.402	938.38
427.625	924.38
427.847	911.38
428.069	889.38
428.292	942.38
428.514	917.38
428.736	928.38
428.958	891.38
429.181	879.38
429.403	869.38
429.625	882.38
429.847	868.38
430.069	882.38
430.292	888.38
430.514	888.38
430.736	895.38
430.958	890.38
431.18	876.38
431.402	894.38
431.624	899.38
431.846	911.38
432.068	934.38
432.29	912.38
432.512	919.38
432.734	944.38
432.956	901.38
433.178	924.38
433.4	916.38
433.622	924.38
433.844	929.38
434.066	946.38
434.287	918.38
434.509	969.38
434.731	990.38
434.953	1049.38
435.175	1030.38
435.397	1019.38
435.618	932.38
435.84	946.38
436.062	929.38
436.284	913.38
436.505	908.38
436.727	894.38
436.949	956.38
437.17	935.38
437.392	928.38
437.614	896.38
437.835	864.38
438.057	889.38
438.278	867.38
438.5	854.38
438.721	855.38
438.943	897.38
439.165	888.38
439.386	902.38
439.608	898.38
439.829	894.38
440.05	914.38
440.272	921.38
440.493	931.38
440.715	960.38
440.936	915.38
441.158	956.38
441.379	972.38
441.6	1066.38
441.822	1091.38
442.043	1051.38
442.264	1032.38
442.486	1028.38
442.707	1016.38
442.928	1040.38
443.149	1056.38
443.371	1037.38
443.592	1008.38
443.813	1055.38
444.034	1052.38
444.255	1080.38
444.476	1136.38
444.698	1235.38
444.919	1280.38
445.14	1268.38
445.361	1194.38
445.582	1075.38
445.803	995.38
446.024	954.38
446.245	960.38
446.466	976.38
446.687	972.38
446.908	923.38
447.129	894.38
447.35	887.38
447.571	908.38
447.792	888.38
448.013	864.38
448.234	855.38
448.455	834.38
448.675	843.38
448.896	837.38
449.117	859.38
449.338	860.38
449.559	831.38
449.779	853.38
450	843.38
450.221	822.38
450.442	855.38
450.662	849.38
450.883	856.38
451.104	869.38
451.324	855.38
451.545	858.38
451.766	849.38
451.986	838.38
452.207	836.38
452.428	820.38
452.648	849.38
452.869	823.38
453.089	826.38
453.31	851.38
453.53	828.38
453.751	810.38
453.971	828.38
454.192	804.38
454.412	781.38
454.633	780.38
454.853	813.38
455.073	828.38
455.294	776.38
455.514	794.38
455.734	782.38
455.955	768.38
456.175	758.38
456.395	808.38
456.616	781.38
456.836	812.38
457.056	794.38
457.276	785.38
457.497	782.38
457.717	777.38
457.937	780.38
458.157	786.38
458.377	806.38
458.598	816.38
458.818	843.38
459.038	868.38
459.258	899.38
459.478	922.38
459.698	952.38
459.918	988.38
460.138	1034.38
460.358	1095.38
460.578	1089.38
460.798	1070.38
461.018	1113.38
461.238	1091.38
461.458	1066.38
461.678	1050.38
461.898	1078.38
462.118	1090.38
462.338	1145.38
462.558	1191.38
462.777	1248.38
462.997	1354.38
463.217	1521.38
463.437	1505.38
463.657	1360.38
463.876	1282.38
464.096	1306.38
464.316	1276.38
464.536	1310.38
464.755	1210.38
464.975	1168.38
465.195	1141.38
465.414	1048.38
465.634	970.38
465.854	975.38
466.073	938.38
466.293	928.38
466.512	909.38
466.732	896.38
466.951	896.38
467.171	886.38
467.391	890.38
467.61	863.38
467.829	896.38
468.049	886.38
468.268	838.38
468.488	855.38
468.707	840.38
468.927	830.38
469.146	850.38
469.365	837.38
469.585	844.38
469.804	863.38
470.023	898.38
470.243	914.38
470.462	920.38
470.681	914.38
470.901	913.38
471.12	895.38
471.339	906.38
471.558	866.38
471.777	866.38
471.997	850.38
472.216	826.38
472.435	812.38
472.654	825.38
472.873	822.38
473.092	810.38
473.311	820.38
473.53	818.38
473.749	811.38
473.968	792.38
474.187	787.38
474.406	784.38
474.625	810.38
474.844	795.38
475.063	826.38
475.282	822.38
475.501	808.38
475.72	799.38
475.939	827.38
476.158	851.38
476.377	849.38
476.596	855.38
476.814	870.38
477.033	890.38
477.252	887.38
477.471	901.38
477.69	928.38
477.908	930.38
478.127	971.38
478.346	990.38
478.564	962.38
478.783	978.38
479.002	1027.38
479.22	1029.38
479.439	1024.38
479.658	1001.38
479.876	1011.38
480.095	1042.38
480.313	1059.38
480.532	1104.38
480.751	1142.38
480.969	1053.38
481.188	972.38
481.406	968.38
481.624	963.38
481.843	943.38
482.061	924.38
482.28	894.38
482.498	934.38
482.717	890.38
482.935	910.38
483.153	924.38
483.372	942.38
483.59	902.38
483.808	906.38
484.027	915.38
484.245	927.38
484.463	944.38
484.681	959.38
484.9	931.38
485.118	970.38
485.336	978.38
485.554	988.38
485.772	990.38
485.99	970.38
486.209	962.38
486.427	985.38
486.645	992.38
486.863	964.38
487.081	1004.38
487.299	996.38
487.517	975.38
487.735	962.38
487.953	981.38
488.171	963.38
488.389	986.38
488.607	935.38
488.825	964.38
489.043	959.38
489.261	948.38
489.479	962.38
489.696	962.38
489.914	956.38
490.132	976.38
490.35	970.38
490.568	942.38
490.786	976.38
491.003	962.38
491.221	944.38
491.439	954.38
491.657	961.38
491.874	1029.38
492.092	996.38
492.31	997.38
492.527	991.38
492.745	987.38
492.963	1029.38
493.18	1019.38
493.398	985.38
493.615	1057.38
493.833	1022.38
494.05	1043.38
494.268	1019.38
494.485	1015.38
494.703	1012.38
494.92	1027.38
495.138	1031.38
495.355	1030.38
495.573	1027.38
495.79	1041.38
496.008	1032.38
496.225	1058.38
496.442	1032.38
496.66	1052.38
496.877	1063.38
497.094	1095.38
497.312	1141.38
497.529	1156.38
497.746	1169.38
497.963	1193.38
498.181	1255.38
498.398	1264.38
498.615	1376.38
498.832	1498.38
