Data from Ni(NO3)2@0.0625M.TitratingCurve.Agarose3%dH2O.NegLispCup.LampEnergy10.LIBS07252019_HRD10591_18-16-08-570.txt Node
Date: Thu Jul 25 18:16:08 EDT 2019
User: cochatt
Spectrometer: HR+D1059
Trigger mode: 1
Integration Time (sec): 1.000000E-1
Scans to average: 1
Electric dark correction enabled: true
Nonlinearity correction enabled: false
Boxcar width: 0
XAxis mode: Wavelengths
Number of Pixels in Spectrum: 2048
>>>>>Begin Spectral Data<<<<<
223.165	-16.38
223.4	-16.38
223.635	-16.38
223.869	-16.38
224.104	-15.38
224.338	-20.38
224.573	-13.38
224.808	-21.38
225.042	-12.38
225.277	2.62
225.511	10.62
225.746	12.62
225.98	-2.38
226.215	6.62
226.449	3.62
226.683	19.62
226.918	32.62
227.152	29.62
227.387	35.62
227.621	46.62
227.856	42.62
228.09	37.62
228.324	41.62
228.559	53.62
228.793	61.62
229.027	82.62
229.262	83.62
229.496	95.62
229.73	98.62
229.964	104.62
230.199	114.62
230.433	105.62
230.667	86.62
230.901	106.62
231.136	112.62
231.37	105.62
231.604	112.62
231.838	140.62
232.072	124.62
232.306	128.62
232.541	124.62
232.775	138.62
233.009	117.62
233.243	126.62
233.477	117.62
233.711	112.62
233.945	129.62
234.179	108.62
234.413	125.62
234.647	135.62
234.881	121.62
235.115	143.62
235.349	131.62
235.583	127.62
235.817	139.62
236.051	116.62
236.285	133.62
236.519	127.62
236.753	132.62
236.987	119.62
237.221	128.62
237.455	112.62
237.689	118.62
237.922	124.62
238.156	139.62
238.39	131.62
238.624	124.62
238.858	137.62
239.091	133.62
239.325	133.62
239.559	130.62
239.793	126.62
240.027	126.62
240.26	147.62
240.494	142.62
240.728	139.62
240.961	141.62
241.195	133.62
241.429	155.62
241.662	146.62
241.896	132.62
242.13	160.62
242.363	145.62
242.597	148.62
242.83	142.62
243.064	153.62
243.298	143.62
243.531	152.62
243.765	154.62
243.998	165.62
244.232	164.62
244.465	171.62
244.699	154.62
244.932	177.62
245.166	180.62
245.399	166.62
245.633	155.62
245.866	168.62
246.099	162.62
246.333	166.62
246.566	168.62
246.8	164.62
247.033	160.62
247.266	168.62
247.5	175.62
247.733	179.62
247.966	170.62
248.2	186.62
248.433	172.62
248.666	192.62
248.899	195.62
249.133	184.62
249.366	191.62
249.599	176.62
249.832	178.62
250.066	192.62
250.299	184.62
250.532	189.62
250.765	198.62
250.998	189.62
251.231	185.62
251.465	181.62
251.698	188.62
251.931	208.62
252.164	181.62
252.397	199.62
252.63	174.62
252.863	215.62
253.096	188.62
253.329	199.62
253.562	200.62
253.795	209.62
254.028	213.62
254.261	215.62
254.494	203.62
254.727	217.62
254.96	214.62
255.193	203.62
255.426	218.62
255.659	216.62
255.892	208.62
256.124	215.62
256.357	223.62
256.59	213.62
256.823	213.62
257.056	227.62
257.289	214.62
257.521	211.62
257.754	219.62
257.987	223.62
258.22	206.62
258.452	218.62
258.685	204.62
258.918	214.62
259.151	204.62
259.383	236.62
259.616	224.62
259.849	240.62
260.081	215.62
260.314	233.62
260.547	231.62
260.779	233.62
261.012	233.62
261.244	227.62
261.477	245.62
261.71	233.62
261.942	230.62
262.175	232.62
262.407	241.62
262.64	241.62
262.872	250.62
263.105	245.62
263.337	235.62
263.57	248.62
263.802	259.62
264.035	259.62
264.267	242.62
264.499	256.62
264.732	248.62
264.964	242.62
265.197	258.62
265.429	263.62
265.661	238.62
265.894	247.62
266.126	276.62
266.358	242.62
266.591	254.62
266.823	265.62
267.055	273.62
267.287	271.62
267.52	246.62
267.752	258.62
267.984	272.62
268.216	273.62
268.448	275.62
268.681	264.62
268.913	275.62
269.145	268.62
269.377	275.62
269.609	282.62
269.841	278.62
270.073	270.62
270.306	278.62
270.538	274.62
270.77	271.62
271.002	266.62
271.234	274.62
271.466	291.62
271.698	272.62
271.93	281.62
272.162	259.62
272.394	290.62
272.626	288.62
272.858	269.62
273.09	284.62
273.322	286.62
273.553	290.62
273.785	308.62
274.017	288.62
274.249	285.62
274.481	275.62
274.713	286.62
274.945	320.62
275.176	300.62
275.408	305.62
275.64	289.62
275.872	285.62
276.104	288.62
276.335	277.62
276.567	285.62
276.799	289.62
277.031	308.62
277.262	315.62
277.494	304.62
277.726	300.62
277.957	303.62
278.189	292.62
278.421	305.62
278.652	292.62
278.884	298.62
279.115	304.62
279.347	322.62
279.579	309.62
279.81	311.62
280.042	339.62
280.273	313.62
280.505	319.62
280.736	317.62
280.968	337.62
281.199	325.62
281.431	326.62
281.662	334.62
281.894	337.62
282.125	332.62
282.356	346.62
282.588	339.62
282.819	338.62
283.051	338.62
283.282	338.62
283.513	338.62
283.745	351.62
283.976	362.62
284.207	354.62
284.439	339.62
284.67	341.62
284.901	338.62
285.132	355.62
285.364	333.62
285.595	358.62
285.826	339.62
286.057	343.62
286.288	356.62
286.52	334.62
286.751	350.62
286.982	373.62
287.213	330.62
287.444	371.62
287.675	346.62
287.906	369.62
288.138	349.62
288.369	359.62
288.6	375.62
288.831	360.62
289.062	377.62
289.293	375.62
289.524	348.62
289.755	377.62
289.986	381.62
290.217	372.62
290.448	374.62
290.679	391.62
290.91	373.62
291.141	340.62
291.371	370.62
291.602	383.62
291.833	381.62
292.064	378.62
292.295	377.62
292.526	381.62
292.757	377.62
292.987	374.62
293.218	369.62
293.449	385.62
293.68	372.62
293.91	374.62
294.141	371.62
294.372	354.62
294.603	372.62
294.833	362.62
295.064	389.62
295.295	397.62
295.525	385.62
295.756	389.62
295.987	392.62
296.217	396.62
296.448	401.62
296.679	405.62
296.909	396.62
297.14	395.62
297.37	396.62
297.601	412.62
297.831	417.62
298.062	409.62
298.292	411.62
298.523	422.62
298.753	403.62
298.984	425.62
299.214	401.62
299.445	423.62
299.675	415.62
299.905	431.62
300.136	404.62
300.366	432.62
300.597	418.62
300.827	410.62
301.057	423.62
301.288	440.62
301.518	439.62
301.748	446.62
301.979	430.62
302.209	423.62
302.439	426.62
302.669	425.62
302.9	424.62
303.13	431.62
303.36	401.62
303.59	421.62
303.82	412.62
304.051	429.62
304.281	429.62
304.511	414.62
304.741	448.62
304.971	434.62
305.201	421.62
305.431	422.62
305.661	425.62
305.891	421.62
306.121	415.62
306.352	417.62
306.582	408.62
306.812	432.62
307.042	430.62
307.272	430.62
307.502	402.62
307.731	424.62
307.961	395.62
308.191	404.62
308.421	420.62
308.651	407.62
308.881	406.62
309.111	409.62
309.341	415.62
309.571	424.62
309.8	435.62
310.03	413.62
310.26	425.62
310.49	423.62
310.72	413.62
310.949	386.62
311.179	430.62
311.409	425.62
311.639	424.62
311.868	440.62
312.098	427.62
312.328	424.62
312.557	451.62
312.787	419.62
313.017	432.62
313.246	435.62
313.476	425.62
313.706	452.62
313.935	440.62
314.165	456.62
314.394	433.62
314.624	431.62
314.853	417.62
315.083	439.62
315.312	451.62
315.542	434.62
315.771	426.62
316.001	436.62
316.23	425.62
316.46	426.62
316.689	441.62
316.919	430.62
317.148	427.62
317.377	439.62
317.607	446.62
317.836	435.62
318.065	406.62
318.295	429.62
318.524	427.62
318.753	439.62
318.983	419.62
319.212	409.62
319.441	434.62
319.67	448.62
319.9	449.62
320.129	433.62
320.358	425.62
320.587	444.62
320.816	445.62
321.046	448.62
321.275	434.62
321.504	429.62
321.733	436.62
321.962	451.62
322.191	456.62
322.42	427.62
322.649	460.62
322.878	439.62
323.108	432.62
323.337	447.62
323.566	446.62
323.795	450.62
324.024	444.62
324.253	440.62
324.482	483.62
324.71	457.62
324.939	447.62
325.168	454.62
325.397	457.62
325.626	473.62
325.855	470.62
326.084	473.62
326.313	473.62
326.542	486.62
326.77	507.62
326.999	494.62
327.228	495.62
327.457	473.62
327.686	468.62
327.914	470.62
328.143	482.62
328.372	477.62
328.6	463.62
328.829	457.62
329.058	490.62
329.287	489.62
329.515	484.62
329.744	517.62
329.972	493.62
330.201	481.62
330.43	493.62
330.658	477.62
330.887	500.62
331.115	488.62
331.344	501.62
331.572	504.62
331.801	498.62
332.03	525.62
332.258	546.62
332.486	563.62
332.715	588.62
332.943	606.62
333.172	612.62
333.4	629.62
333.629	661.62
333.857	670.62
334.085	641.62
334.314	641.62
334.542	612.62
334.771	605.62
334.999	601.62
335.227	581.62
335.455	586.62
335.684	600.62
335.912	573.62
336.14	597.62
336.369	578.62
336.597	594.62
336.825	560.62
337.053	568.62
337.281	565.62
337.51	543.62
337.738	529.62
337.966	541.62
338.194	544.62
338.422	529.62
338.65	525.62
338.878	534.62
339.106	531.62
339.334	536.62
339.562	513.62
339.79	498.62
340.018	493.62
340.246	497.62
340.474	502.62
340.702	512.62
340.93	503.62
341.158	486.62
341.386	518.62
341.614	520.62
341.842	499.62
342.07	483.62
342.298	482.62
342.526	482.62
342.754	494.62
342.981	503.62
343.209	521.62
343.437	558.62
343.665	570.62
343.893	595.62
344.12	614.62
344.348	594.62
344.576	554.62
344.804	562.62
345.031	534.62
345.259	539.62
345.487	532.62
345.714	523.62
345.942	509.62
346.17	528.62
346.397	521.62
346.625	481.62
346.853	501.62
347.08	478.62
347.308	489.62
347.535	493.62
347.763	511.62
347.99	505.62
348.218	511.62
348.445	514.62
348.673	487.62
348.9	501.62
349.128	477.62
349.355	488.62
349.583	490.62
349.81	482.62
350.037	481.62
350.265	466.62
350.492	487.62
350.72	484.62
350.947	482.62
351.174	487.62
351.402	505.62
351.629	485.62
351.856	478.62
352.083	466.62
352.311	479.62
352.538	501.62
352.765	483.62
352.992	484.62
353.22	461.62
353.447	457.62
353.674	481.62
353.901	464.62
354.128	472.62
354.355	465.62
354.583	478.62
354.81	482.62
355.037	465.62
355.264	473.62
355.491	486.62
355.718	483.62
355.945	499.62
356.172	488.62
356.399	458.62
356.626	499.62
356.853	483.62
357.08	480.62
357.307	482.62
357.534	471.62
357.761	473.62
357.988	497.62
358.215	489.62
358.441	480.62
358.668	474.62
358.895	462.62
359.122	471.62
359.349	476.62
359.576	489.62
359.802	490.62
360.029	471.62
360.256	475.62
360.483	469.62
360.709	466.62
360.936	472.62
361.163	457.62
361.39	480.62
361.616	485.62
361.843	461.62
362.07	488.62
362.296	496.62
362.523	452.62
362.749	488.62
362.976	455.62
363.203	482.62
363.429	458.62
363.656	478.62
363.882	479.62
364.109	490.62
364.335	482.62
364.562	470.62
364.788	477.62
365.015	469.62
365.241	474.62
365.468	483.62
365.694	459.62
365.92	466.62
366.147	470.62
366.373	485.62
366.599	454.62
366.826	469.62
367.052	452.62
367.278	489.62
367.505	462.62
367.731	470.62
367.957	489.62
368.184	482.62
368.41	478.62
368.636	507.62
368.862	489.62
369.089	469.62
369.315	469.62
369.541	502.62
369.767	502.62
369.993	490.62
370.219	486.62
370.445	512.62
370.672	513.62
370.898	518.62
371.124	529.62
371.35	519.62
371.576	531.62
371.802	508.62
372.028	513.62
372.254	520.62
372.48	524.62
372.706	545.62
372.932	545.62
373.158	538.62
373.384	541.62
373.61	522.62
373.835	522.62
374.061	536.62
374.287	537.62
374.513	528.62
374.739	552.62
374.965	575.62
375.191	582.62
375.416	573.62
375.642	567.62
375.868	550.62
376.094	534.62
376.319	528.62
376.545	531.62
376.771	517.62
376.997	533.62
377.222	541.62
377.448	538.62
377.674	525.62
377.899	515.62
378.125	523.62
378.35	521.62
378.576	516.62
378.802	508.62
379.027	510.62
379.253	501.62
379.478	496.62
379.704	528.62
379.929	510.62
380.155	508.62
380.38	519.62
380.606	531.62
380.831	508.62
381.057	526.62
381.282	526.62
381.507	519.62
381.733	523.62
381.958	509.62
382.184	516.62
382.409	534.62
382.634	563.62
382.86	552.62
383.085	543.62
383.31	569.62
383.535	567.62
383.761	585.62
383.986	566.62
384.211	617.62
384.436	601.62
384.662	647.62
384.887	615.62
385.112	618.62
385.337	628.62
385.562	635.62
385.787	622.62
386.013	625.62
386.238	634.62
386.463	613.62
386.688	604.62
386.913	574.62
387.138	596.62
387.363	605.62
387.588	602.62
387.813	617.62
388.038	633.62
388.263	603.62
388.488	631.62
388.713	612.62
388.938	604.62
389.163	581.62
389.387	594.62
389.612	598.62
389.837	608.62
390.062	597.62
390.287	597.62
390.512	600.62
390.736	609.62
390.961	597.62
391.186	622.62
391.411	631.62
391.636	666.62
391.86	686.62
392.085	708.62
392.31	679.62
392.534	699.62
392.759	671.62
392.984	655.62
393.208	671.62
393.433	651.62
393.658	651.62
393.882	666.62
394.107	664.62
394.331	643.62
394.556	669.62
394.78	664.62
395.005	677.62
395.229	673.62
395.454	680.62
395.678	673.62
395.903	709.62
396.127	658.62
396.352	677.62
396.576	618.62
396.801	653.62
397.025	637.62
397.249	659.62
397.474	699.62
397.698	674.62
397.922	681.62
398.147	673.62
398.371	695.62
398.595	711.62
398.82	739.62
399.044	790.62
399.268	858.62
399.492	1027.62
399.717	1157.62
399.941	1160.62
400.165	1015.62
400.389	878.62
400.613	843.62
400.837	799.62
401.062	758.62
401.286	785.62
401.51	773.62
401.734	739.62
401.958	789.62
402.182	770.62
402.406	801.62
402.63	817.62
402.854	826.62
403.078	839.62
403.302	852.62
403.526	876.62
403.75	857.62
403.974	901.62
404.198	905.62
404.422	911.62
404.645	891.62
404.869	897.62
405.093	881.62
405.317	887.62
405.541	847.62
405.765	840.62
405.988	825.62
406.212	840.62
406.436	829.62
406.66	877.62
406.883	860.62
407.107	931.62
407.331	961.62
407.555	1010.62
407.778	962.62
408.002	944.62
408.226	929.62
408.449	917.62
408.673	872.62
408.896	849.62
409.12	886.62
409.344	867.62
409.567	874.62
409.791	899.62
410.014	906.62
410.238	889.62
410.461	860.62
410.685	863.62
410.908	861.62
411.132	836.62
411.355	770.62
411.578	809.62
411.802	768.62
412.025	771.62
412.249	801.62
412.472	796.62
412.695	783.62
412.919	751.62
413.142	769.62
413.365	798.62
413.589	771.62
413.812	756.62
414.035	744.62
414.258	744.62
414.482	757.62
414.705	791.62
414.928	764.62
415.151	806.62
415.374	763.62
415.597	774.62
415.821	738.62
416.044	738.62
416.267	727.62
416.49	731.62
416.713	732.62
416.936	773.62
417.159	733.62
417.382	769.62
417.605	727.62
417.828	756.62
418.051	759.62
418.274	770.62
418.497	749.62
418.72	804.62
418.943	783.62
419.166	809.62
419.389	859.62
419.611	853.62
419.834	814.62
420.057	798.62
420.28	773.62
420.503	727.62
420.726	741.62
420.948	754.62
421.171	760.62
421.394	745.62
421.617	768.62
421.839	749.62
422.062	769.62
422.285	747.62
422.507	779.62
422.73	801.62
422.953	792.62
423.175	773.62
423.398	788.62
423.621	801.62
423.843	813.62
424.066	825.62
424.288	807.62
424.511	799.62
424.733	805.62
424.956	784.62
425.178	796.62
425.401	745.62
425.623	738.62
425.846	737.62
426.068	739.62
426.291	705.62
426.513	721.62
426.735	700.62
426.958	709.62
427.18	700.62
427.402	707.62
427.625	689.62
427.847	666.62
428.069	674.62
428.292	703.62
428.514	701.62
428.736	657.62
428.958	687.62
429.181	668.62
429.403	663.62
429.625	675.62
429.847	671.62
430.069	642.62
430.292	661.62
430.514	662.62
430.736	656.62
430.958	656.62
431.18	665.62
431.402	690.62
431.624	680.62
431.846	709.62
432.068	701.62
432.29	711.62
432.512	703.62
432.734	699.62
432.956	687.62
433.178	689.62
433.4	690.62
433.622	704.62
433.844	708.62
434.066	697.62
434.287	721.62
434.509	749.62
434.731	765.62
434.953	796.62
435.175	772.62
435.397	778.62
435.618	725.62
435.84	721.62
436.062	703.62
436.284	682.62
436.505	682.62
436.727	719.62
436.949	696.62
437.17	679.62
437.392	671.62
437.614	670.62
437.835	652.62
438.057	666.62
438.278	664.62
438.5	669.62
438.721	644.62
438.943	659.62
439.165	665.62
439.386	688.62
439.608	678.62
439.829	682.62
440.05	676.62
440.272	682.62
440.493	694.62
440.715	704.62
440.936	725.62
441.158	740.62
441.379	732.62
441.6	753.62
441.822	818.62
442.043	787.62
442.264	747.62
442.486	732.62
442.707	765.62
442.928	769.62
443.149	747.62
443.371	767.62
443.592	774.62
443.813	789.62
444.034	791.62
444.255	833.62
444.476	866.62
444.698	890.62
444.919	937.62
445.14	977.62
445.361	869.62
445.582	797.62
445.803	752.62
446.024	737.62
446.245	707.62
446.466	687.62
446.687	718.62
446.908	707.62
447.129	682.62
447.35	646.62
447.571	666.62
447.792	637.62
448.013	646.62
448.234	630.62
448.455	646.62
448.675	628.62
448.896	637.62
449.117	634.62
449.338	606.62
449.559	618.62
449.779	612.62
450	632.62
450.221	631.62
450.442	655.62
450.662	645.62
450.883	653.62
451.104	656.62
451.324	672.62
451.545	655.62
451.766	651.62
451.986	634.62
452.207	649.62
452.428	641.62
452.648	632.62
452.869	624.62
453.089	629.62
453.31	629.62
453.53	627.62
453.751	651.62
453.971	620.62
454.192	617.62
454.412	615.62
454.633	614.62
454.853	609.62
455.073	612.62
455.294	601.62
455.514	621.62
455.734	602.62
455.955	603.62
456.175	585.62
456.395	618.62
456.616	575.62
456.836	599.62
457.056	606.62
457.276	608.62
457.497	612.62
457.717	600.62
457.937	599.62
458.157	595.62
458.377	619.62
458.598	613.62
458.818	631.62
459.038	646.62
459.258	709.62
459.478	736.62
459.698	744.62
459.918	732.62
460.138	766.62
460.358	824.62
460.578	822.62
460.798	809.62
461.018	809.62
461.238	799.62
461.458	812.62
461.678	799.62
461.898	826.62
462.118	824.62
462.338	871.62
462.558	869.62
462.777	924.62
462.997	1005.62
463.217	1122.62
463.437	1122.62
463.657	1044.62
463.876	961.62
464.096	977.62
464.316	970.62
464.536	976.62
464.755	930.62
464.975	899.62
465.195	837.62
465.414	763.62
465.634	726.62
465.854	710.62
466.073	704.62
466.293	678.62
466.512	695.62
466.732	668.62
466.951	667.62
467.171	657.62
467.391	675.62
467.61	662.62
467.829	661.62
468.049	648.62
468.268	639.62
468.488	653.62
468.707	637.62
468.927	645.62
469.146	655.62
469.365	672.62
469.585	679.62
469.804	649.62
470.023	658.62
470.243	668.62
470.462	678.62
470.681	698.62
470.901	696.62
471.12	666.62
471.339	656.62
471.558	669.62
471.777	654.62
471.997	642.62
472.216	663.62
472.435	622.62
472.654	622.62
472.873	623.62
473.092	613.62
473.311	619.62
473.53	640.62
473.749	634.62
473.968	609.62
474.187	627.62
474.406	625.62
474.625	613.62
474.844	643.62
475.063	617.62
475.282	651.62
475.501	635.62
475.72	649.62
475.939	636.62
476.158	641.62
476.377	647.62
476.596	647.62
476.814	697.62
477.033	678.62
477.252	679.62
477.471	685.62
477.69	717.62
477.908	730.62
478.127	731.62
478.346	752.62
478.564	758.62
478.783	778.62
479.002	819.62
479.22	781.62
479.439	736.62
479.658	769.62
479.876	792.62
480.095	773.62
480.313	845.62
480.532	853.62
480.751	835.62
480.969	806.62
481.188	773.62
481.406	776.62
481.624	726.62
481.843	734.62
482.061	721.62
482.28	718.62
482.498	702.62
482.717	698.62
482.935	722.62
483.153	740.62
483.372	714.62
483.59	741.62
483.808	691.62
484.027	741.62
484.245	725.62
484.463	764.62
484.681	770.62
484.9	757.62
485.118	767.62
485.336	757.62
485.554	780.62
485.772	755.62
485.99	783.62
486.209	814.62
486.427	804.62
486.645	788.62
486.863	776.62
487.081	760.62
487.299	758.62
487.517	730.62
487.735	759.62
487.953	741.62
488.171	778.62
488.389	734.62
488.607	755.62
488.825	750.62
489.043	734.62
489.261	741.62
489.479	737.62
489.696	750.62
489.914	765.62
490.132	738.62
490.35	753.62
490.568	739.62
490.786	776.62
491.003	771.62
491.221	789.62
491.439	762.62
491.657	747.62
491.874	755.62
492.092	771.62
492.31	742.62
492.527	769.62
492.745	765.62
492.963	784.62
493.18	786.62
493.398	772.62
493.615	822.62
493.833	780.62
494.05	800.62
494.268	811.62
494.485	790.62
494.703	803.62
494.92	774.62
495.138	765.62
495.355	775.62
495.573	797.62
495.79	795.62
496.008	802.62
496.225	798.62
496.442	828.62
496.66	830.62
496.877	848.62
497.094	841.62
497.312	850.62
497.529	862.62
497.746	881.62
497.963	903.62
498.181	929.62
498.398	992.62
498.615	1018.62
498.832	1098.62
499.049	1203.62
499.267	1280.62
499.484	1429.62
499.701	1574.62
499.918	1735.62
500.135	2052.62
500.352	2293.62
500.569	2401.62
500.786	2391.62
501.003	2202.62
501.22	1981.62
