Data from Ni(NO3)2@0.25M.TitratingCurve.Agarose3%dH2O.NegLispCup.LampEnergy10.LIBS07252019_HRD10591_18-02-44-565.txt Node
Date: Thu Jul 25 18:02:44 EDT 2019
User: cochatt
Spectrometer: HR+D1059
Trigger mode: 1
Integration Time (sec): 1.000000E-1
Scans to average: 1
Electric dark correction enabled: true
Nonlinearity correction enabled: false
Boxcar width: 0
XAxis mode: Wavelengths
Number of Pixels in Spectrum: 2048
>>>>>Begin Spectral Data<<<<<
223.165	-23.06
223.4	-23.06
223.635	-23.06
223.869	-21.06
224.104	-19.06
224.338	-0.06
224.573	-24.06
224.808	-19.06
225.042	-7.06
225.277	-4.06
225.511	12.94
225.746	10.94
225.98	12.94
226.215	-2.06
226.449	6.94
226.683	28.94
226.918	22.94
227.152	23.94
227.387	26.94
227.621	39.94
227.856	49.94
228.09	38.94
228.324	60.94
228.559	54.94
228.793	73.94
229.027	100.94
229.262	99.94
229.496	108.94
229.73	126.94
229.964	126.94
230.199	148.94
230.433	144.94
230.667	150.94
230.901	147.94
231.136	132.94
231.37	115.94
231.604	139.94
231.838	153.94
232.072	154.94
232.306	151.94
232.541	143.94
232.775	144.94
233.009	136.94
233.243	143.94
233.477	144.94
233.711	142.94
233.945	144.94
234.179	147.94
234.413	148.94
234.647	146.94
234.881	146.94
235.115	146.94
235.349	141.94
235.583	133.94
235.817	136.94
236.051	149.94
236.285	154.94
236.519	149.94
236.753	147.94
236.987	137.94
237.221	137.94
237.455	138.94
237.689	134.94
237.922	166.94
238.156	152.94
238.39	136.94
238.624	142.94
238.858	155.94
239.091	157.94
239.325	160.94
239.559	164.94
239.793	172.94
240.027	189.94
240.26	151.94
240.494	157.94
240.728	158.94
240.961	158.94
241.195	161.94
241.429	165.94
241.662	168.94
241.896	201.94
242.13	179.94
242.363	167.94
242.597	178.94
242.83	161.94
243.064	165.94
243.298	183.94
243.531	167.94
243.765	194.94
243.998	188.94
244.232	197.94
244.465	185.94
244.699	183.94
244.932	190.94
245.166	194.94
245.399	185.94
245.633	197.94
245.866	197.94
246.099	198.94
246.333	205.94
246.566	186.94
246.8	199.94
247.033	201.94
247.266	220.94
247.5	191.94
247.733	200.94
247.966	209.94
248.2	207.94
248.433	207.94
248.666	236.94
248.899	245.94
249.133	213.94
249.366	238.94
249.599	218.94
249.832	225.94
250.066	226.94
250.299	249.94
250.532	251.94
250.765	265.94
250.998	257.94
251.231	281.94
251.465	280.94
251.698	269.94
251.931	268.94
252.164	287.94
252.397	263.94
252.63	273.94
252.863	273.94
253.096	280.94
253.329	269.94
253.562	288.94
253.795	285.94
254.028	294.94
254.261	295.94
254.494	307.94
254.727	298.94
254.96	317.94
255.193	304.94
255.426	311.94
255.659	315.94
255.892	319.94
256.124	304.94
256.357	332.94
256.59	328.94
256.823	328.94
257.056	325.94
257.289	328.94
257.521	334.94
257.754	353.94
257.987	343.94
258.22	334.94
258.452	344.94
258.685	344.94
258.918	349.94
259.151	348.94
259.383	362.94
259.616	366.94
259.849	376.94
260.081	368.94
260.314	369.94
260.547	360.94
260.779	376.94
261.012	354.94
261.244	371.94
261.477	371.94
261.71	402.94
261.942	392.94
262.175	366.94
262.407	379.94
262.64	400.94
262.872	404.94
263.105	390.94
263.337	409.94
263.57	393.94
263.802	409.94
264.035	400.94
264.267	390.94
264.499	388.94
264.732	409.94
264.964	415.94
265.197	409.94
265.429	418.94
265.661	397.94
265.894	404.94
266.126	414.94
266.358	431.94
266.591	416.94
266.823	435.94
267.055	438.94
267.287	419.94
267.52	420.94
267.752	423.94
267.984	417.94
268.216	431.94
268.448	420.94
268.681	423.94
268.913	431.94
269.145	424.94
269.377	428.94
269.609	423.94
269.841	436.94
270.073	431.94
270.306	440.94
270.538	429.94
270.77	465.94
271.002	423.94
271.234	428.94
271.466	432.94
271.698	432.94
271.93	467.94
272.162	446.94
272.394	453.94
272.626	446.94
272.858	454.94
273.09	460.94
273.322	462.94
273.553	476.94
273.785	462.94
274.017	471.94
274.249	485.94
274.481	457.94
274.713	463.94
274.945	459.94
275.176	474.94
275.408	470.94
275.64	469.94
275.872	488.94
276.104	486.94
276.335	481.94
276.567	481.94
276.799	462.94
277.031	484.94
277.262	483.94
277.494	489.94
277.726	499.94
277.957	488.94
278.189	474.94
278.421	512.94
278.652	477.94
278.884	493.94
279.115	492.94
279.347	504.94
279.579	505.94
279.81	498.94
280.042	473.94
280.273	497.94
280.505	504.94
280.736	511.94
280.968	495.94
281.199	509.94
281.431	520.94
281.662	501.94
281.894	517.94
282.125	489.94
282.356	516.94
282.588	518.94
282.819	511.94
283.051	512.94
283.282	498.94
283.513	525.94
283.745	521.94
283.976	524.94
284.207	512.94
284.439	527.94
284.67	521.94
284.901	534.94
285.132	507.94
285.364	518.94
285.595	536.94
285.826	522.94
286.057	534.94
286.288	537.94
286.52	536.94
286.751	551.94
286.982	536.94
287.213	529.94
287.444	536.94
287.675	530.94
287.906	543.94
288.138	533.94
288.369	532.94
288.6	540.94
288.831	540.94
289.062	514.94
289.293	550.94
289.524	536.94
289.755	536.94
289.986	560.94
290.217	534.94
290.448	514.94
290.679	547.94
290.91	545.94
291.141	519.94
291.371	529.94
291.602	532.94
291.833	526.94
292.064	515.94
292.295	547.94
292.526	529.94
292.757	547.94
292.987	546.94
293.218	512.94
293.449	538.94
293.68	537.94
293.91	540.94
294.141	545.94
294.372	538.94
294.603	526.94
294.833	536.94
295.064	580.94
295.295	568.94
295.525	550.94
295.756	566.94
295.987	548.94
296.217	546.94
296.448	536.94
296.679	556.94
296.909	553.94
297.14	565.94
297.37	541.94
297.601	581.94
297.831	572.94
298.062	560.94
298.292	551.94
298.523	590.94
298.753	600.94
298.984	573.94
299.214	532.94
299.445	601.94
299.675	575.94
299.905	607.94
300.136	588.94
300.366	601.94
300.597	615.94
300.827	574.94
301.057	585.94
301.288	604.94
301.518	592.94
301.748	611.94
301.979	613.94
302.209	607.94
302.439	610.94
302.669	602.94
302.9	591.94
303.13	602.94
303.36	599.94
303.59	619.94
303.82	631.94
304.051	606.94
304.281	618.94
304.511	617.94
304.741	616.94
304.971	611.94
305.201	621.94
305.431	644.94
305.661	618.94
305.891	636.94
306.121	644.94
306.352	638.94
306.582	629.94
306.812	615.94
307.042	603.94
307.272	638.94
307.502	615.94
307.731	611.94
307.961	626.94
308.191	634.94
308.421	639.94
308.651	627.94
308.881	638.94
309.111	615.94
309.341	636.94
309.571	639.94
309.8	661.94
310.03	660.94
310.26	706.94
310.49	660.94
310.72	692.94
310.949	651.94
311.179	675.94
311.409	660.94
311.639	670.94
311.868	678.94
312.098	688.94
312.328	690.94
312.557	707.94
312.787	690.94
313.017	682.94
313.246	699.94
313.476	700.94
313.706	723.94
313.935	705.94
314.165	698.94
314.394	703.94
314.624	705.94
314.853	707.94
315.083	739.94
315.312	748.94
315.542	740.94
315.771	741.94
316.001	715.94
316.23	746.94
316.46	749.94
316.689	776.94
316.919	749.94
317.148	782.94
317.377	784.94
317.607	786.94
317.836	764.94
318.065	763.94
318.295	755.94
318.524	788.94
318.753	796.94
318.983	777.94
319.212	750.94
319.441	764.94
319.67	800.94
319.9	829.94
320.129	794.94
320.358	778.94
320.587	800.94
320.816	809.94
321.046	804.94
321.275	845.94
321.504	860.94
321.733	847.94
321.962	840.94
322.191	844.94
322.42	859.94
322.649	858.94
322.878	846.94
323.108	829.94
323.337	877.94
323.566	862.94
323.795	874.94
324.024	901.94
324.253	877.94
324.482	855.94
324.71	904.94
324.939	918.94
325.168	915.94
325.397	911.94
325.626	917.94
325.855	895.94
326.084	940.94
326.313	937.94
326.542	928.94
326.77	949.94
326.999	952.94
327.228	928.94
327.457	952.94
327.686	931.94
327.914	983.94
328.143	974.94
328.372	959.94
328.6	987.94
328.829	953.94
329.058	966.94
329.287	978.94
329.515	950.94
329.744	1022.94
329.972	986.94
330.201	969.94
330.43	1020.94
330.658	996.94
330.887	1005.94
331.115	1007.94
331.344	1045.94
331.572	1033.94
331.801	1040.94
332.03	1021.94
332.258	1052.94
332.486	1073.94
332.715	1082.94
332.943	1052.94
333.172	1078.94
333.4	1098.94
333.629	1102.94
333.857	1106.94
334.085	1119.94
334.314	1133.94
334.542	1142.94
334.771	1158.94
334.999	1157.94
335.227	1176.94
335.455	1170.94
335.684	1170.94
335.912	1168.94
336.14	1157.94
336.369	1169.94
336.597	1194.94
336.825	1184.94
337.053	1185.94
337.281	1152.94
337.51	1139.94
337.738	1165.94
337.966	1177.94
338.194	1145.94
338.422	1146.94
338.65	1122.94
338.878	1129.94
339.106	1142.94
339.334	1191.94
339.562	1123.94
339.79	1146.94
340.018	1093.94
340.246	1127.94
340.474	1113.94
340.702	1128.94
340.93	1114.94
341.158	1104.94
341.386	1118.94
341.614	1127.94
341.842	1106.94
342.07	1105.94
342.298	1140.94
342.526	1108.94
342.754	1110.94
342.981	1107.94
343.209	1111.94
343.437	1091.94
343.665	1127.94
343.893	1165.94
344.12	1179.94
344.348	1175.94
344.576	1148.94
344.804	1168.94
345.031	1152.94
345.259	1130.94
345.487	1131.94
345.714	1133.94
345.942	1125.94
346.17	1160.94
346.397	1108.94
346.625	1103.94
346.853	1092.94
347.08	1116.94
347.308	1092.94
347.535	1104.94
347.763	1084.94
347.99	1086.94
348.218	1081.94
348.445	1090.94
348.673	1072.94
348.9	1075.94
349.128	1071.94
349.355	1072.94
349.583	1108.94
349.81	1069.94
350.037	1044.94
350.265	1037.94
350.492	1066.94
350.72	1069.94
350.947	1057.94
351.174	1089.94
351.402	1094.94
351.629	1092.94
351.856	1058.94
352.083	1048.94
352.311	1064.94
352.538	1085.94
352.765	1065.94
352.992	1034.94
353.22	1033.94
353.447	1011.94
353.674	1040.94
353.901	1045.94
354.128	1020.94
354.355	1054.94
354.583	1034.94
354.81	1045.94
355.037	1041.94
355.264	1029.94
355.491	1032.94
355.718	1037.94
355.945	1068.94
356.172	1066.94
356.399	1074.94
356.626	1059.94
356.853	1076.94
357.08	1030.94
357.307	1026.94
357.534	1041.94
357.761	1040.94
357.988	1040.94
358.215	1022.94
358.441	1026.94
358.668	1075.94
358.895	1031.94
359.122	1021.94
359.349	1015.94
359.576	1022.94
359.802	1078.94
360.029	1024.94
360.256	1041.94
360.483	1080.94
360.709	1055.94
360.936	1035.94
361.163	1037.94
361.39	1047.94
361.616	1027.94
361.843	1056.94
362.07	1069.94
362.296	1049.94
362.523	1025.94
362.749	1047.94
362.976	1030.94
363.203	1031.94
363.429	1017.94
363.656	1032.94
363.882	1021.94
364.109	1045.94
364.335	1042.94
364.562	1028.94
364.788	1036.94
365.015	1051.94
365.241	1001.94
365.468	1040.94
365.694	1000.94
365.92	1021.94
366.147	1044.94
366.373	1050.94
366.599	1020.94
366.826	1027.94
367.052	1038.94
367.278	1057.94
367.505	1041.94
367.731	1060.94
367.957	1029.94
368.184	1015.94
368.41	1038.94
368.636	1044.94
368.862	1054.94
369.089	1008.94
369.315	1009.94
369.541	1035.94
369.767	1049.94
369.993	1069.94
370.219	1049.94
370.445	1059.94
370.672	1054.94
370.898	1031.94
371.124	1059.94
371.35	1042.94
371.576	1076.94
371.802	1054.94
372.028	1065.94
372.254	1054.94
372.48	1063.94
372.706	1053.94
372.932	1069.94
373.158	1056.94
373.384	1042.94
373.61	1041.94
373.835	1040.94
374.061	1049.94
374.287	1056.94
374.513	1041.94
374.739	1072.94
374.965	1049.94
375.191	1068.94
375.416	1068.94
375.642	1048.94
375.868	1097.94
376.094	1084.94
376.319	1073.94
376.545	1061.94
376.771	1014.94
376.997	1027.94
377.222	1028.94
377.448	1004.94
377.674	1025.94
377.899	1020.94
378.125	1031.94
378.35	1026.94
378.576	1030.94
378.802	1013.94
379.027	1024.94
379.253	970.94
379.478	988.94
379.704	988.94
379.929	988.94
380.155	1026.94
380.38	1026.94
380.606	1003.94
380.831	1006.94
381.057	1013.94
381.282	986.94
381.507	1029.94
381.733	1020.94
381.958	1019.94
382.184	1001.94
382.409	1017.94
382.634	1052.94
382.86	1012.94
383.085	1023.94
383.31	1038.94
383.535	1028.94
383.761	1078.94
383.986	1054.94
384.211	1043.94
384.436	1056.94
384.662	1069.94
384.887	1078.94
385.112	1036.94
385.337	1079.94
385.562	1080.94
385.787	1121.94
386.013	1111.94
386.238	1089.94
386.463	1065.94
386.688	1104.94
386.913	1057.94
387.138	1076.94
387.363	1127.94
387.588	1100.94
387.813	1107.94
388.038	1101.94
388.263	1102.94
388.488	1132.94
388.713	1126.94
388.938	1099.94
389.163	1121.94
389.387	1120.94
389.612	1115.94
389.837	1126.94
390.062	1123.94
390.287	1097.94
390.512	1118.94
390.736	1113.94
390.961	1128.94
391.186	1128.94
391.411	1143.94
391.636	1136.94
391.86	1166.94
392.085	1169.94
392.31	1135.94
392.534	1148.94
392.759	1176.94
392.984	1160.94
393.208	1148.94
393.433	1186.94
393.658	1182.94
393.882	1190.94
394.107	1149.94
394.331	1135.94
394.556	1138.94
394.78	1164.94
395.005	1168.94
395.229	1150.94
395.454	1153.94
395.678	1174.94
395.903	1153.94
396.127	1186.94
396.352	1180.94
396.576	1193.94
396.801	1193.94
397.025	1204.94
397.249	1202.94
397.474	1225.94
397.698	1251.94
397.922	1237.94
398.147	1230.94
398.371	1253.94
398.595	1263.94
398.82	1297.94
399.044	1324.94
399.268	1358.94
399.492	1375.94
399.717	1375.94
399.941	1378.94
400.165	1403.94
400.389	1399.94
400.613	1352.94
400.837	1349.94
401.062	1329.94
401.286	1304.94
401.51	1321.94
401.734	1300.94
401.958	1300.94
402.182	1276.94
402.406	1280.94
402.63	1287.94
402.854	1299.94
403.078	1310.94
403.302	1303.94
403.526	1272.94
403.75	1303.94
403.974	1321.94
404.198	1299.94
404.422	1298.94
404.645	1309.94
404.869	1297.94
405.093	1330.94
405.317	1336.94
405.541	1344.94
405.765	1347.94
405.988	1320.94
406.212	1366.94
406.436	1354.94
406.66	1365.94
406.883	1375.94
407.107	1394.94
407.331	1438.94
407.555	1513.94
407.778	1465.94
408.002	1440.94
408.226	1434.94
408.449	1438.94
408.673	1442.94
408.896	1383.94
409.12	1410.94
409.344	1412.94
409.567	1383.94
409.791	1434.94
410.014	1381.94
410.238	1395.94
410.461	1394.94
410.685	1392.94
410.908	1389.94
411.132	1372.94
411.355	1351.94
411.578	1346.94
411.802	1368.94
412.025	1347.94
412.249	1388.94
412.472	1333.94
412.695	1344.94
412.919	1308.94
413.142	1339.94
413.365	1352.94
413.589	1353.94
413.812	1325.94
414.035	1313.94
414.258	1314.94
414.482	1341.94
414.705	1326.94
414.928	1324.94
415.151	1344.94
415.374	1354.94
415.597	1316.94
415.821	1290.94
416.044	1340.94
416.267	1335.94
416.49	1298.94
416.713	1322.94
416.936	1295.94
417.159	1316.94
417.382	1322.94
417.605	1262.94
417.828	1270.94
418.051	1285.94
418.274	1311.94
418.497	1262.94
418.72	1308.94
418.943	1276.94
419.166	1327.94
419.389	1423.94
419.611	1408.94
419.834	1357.94
420.057	1363.94
420.28	1330.94
420.503	1263.94
420.726	1282.94
420.948	1308.94
421.171	1310.94
421.394	1305.94
421.617	1312.94
421.839	1308.94
422.062	1340.94
422.285	1320.94
422.507	1317.94
422.73	1307.94
422.953	1301.94
423.175	1256.94
423.398	1308.94
423.621	1281.94
423.843	1336.94
424.066	1311.94
424.288	1286.94
424.511	1321.94
424.733	1313.94
424.956	1311.94
425.178	1296.94
425.401	1313.94
425.623	1340.94
425.846	1280.94
426.068	1314.94
426.291	1326.94
426.513	1297.94
426.735	1278.94
426.958	1337.94
427.18	1282.94
427.402	1330.94
427.625	1308.94
427.847	1316.94
428.069	1311.94
428.292	1339.94
428.514	1308.94
428.736	1269.94
428.958	1327.94
429.181	1305.94
429.403	1297.94
429.625	1297.94
429.847	1301.94
430.069	1319.94
430.292	1282.94
430.514	1298.94
430.736	1313.94
430.958	1317.94
431.18	1287.94
431.402	1282.94
431.624	1273.94
431.846	1273.94
432.068	1253.94
432.29	1336.94
432.512	1326.94
432.734	1324.94
432.956	1327.94
433.178	1338.94
433.4	1317.94
433.622	1344.94
433.844	1327.94
434.066	1353.94
434.287	1315.94
434.509	1313.94
434.731	1343.94
434.953	1341.94
435.175	1353.94
435.397	1370.94
435.618	1356.94
435.84	1326.94
436.062	1307.94
436.284	1338.94
436.505	1300.94
436.727	1319.94
436.949	1303.94
437.17	1303.94
437.392	1322.94
437.614	1288.94
437.835	1273.94
438.057	1291.94
438.278	1284.94
438.5	1279.94
438.721	1276.94
438.943	1297.94
439.165	1317.94
439.386	1261.94
439.608	1313.94
439.829	1294.94
440.05	1272.94
440.272	1332.94
440.493	1326.94
440.715	1326.94
440.936	1314.94
441.158	1311.94
441.379	1310.94
441.6	1352.94
441.822	1340.94
442.043	1385.94
442.264	1340.94
442.486	1353.94
442.707	1357.94
442.928	1360.94
443.149	1386.94
443.371	1366.94
443.592	1437.94
443.813	1399.94
444.034	1368.94
444.255	1366.94
444.476	1412.94
444.698	1382.94
444.919	1396.94
445.14	1519.94
445.361	1466.94
445.582	1396.94
445.803	1350.94
446.024	1348.94
446.245	1338.94
446.466	1350.94
446.687	1317.94
446.908	1321.94
447.129	1257.94
447.35	1286.94
447.571	1261.94
447.792	1261.94
448.013	1238.94
448.234	1249.94
448.455	1281.94
448.675	1191.94
448.896	1252.94
449.117	1225.94
449.338	1212.94
449.559	1190.94
449.779	1218.94
450	1209.94
450.221	1187.94
450.442	1213.94
450.662	1213.94
450.883	1230.94
451.104	1224.94
451.324	1171.94
451.545	1203.94
451.766	1204.94
451.986	1177.94
452.207	1198.94
452.428	1196.94
452.648	1191.94
452.869	1178.94
453.089	1180.94
453.31	1200.94
453.53	1154.94
453.751	1151.94
453.971	1174.94
454.192	1192.94
454.412	1198.94
454.633	1170.94
454.853	1176.94
455.073	1157.94
455.294	1192.94
455.514	1174.94
455.734	1183.94
455.955	1199.94
456.175	1190.94
456.395	1136.94
456.616	1154.94
456.836	1181.94
457.056	1166.94
457.276	1147.94
457.497	1195.94
457.717	1194.94
457.937	1192.94
458.157	1210.94
458.377	1184.94
458.598	1200.94
458.818	1201.94
459.038	1222.94
459.258	1246.94
459.478	1297.94
459.698	1354.94
459.918	1346.94
460.138	1346.94
460.358	1374.94
460.578	1349.94
460.798	1386.94
461.018	1405.94
461.238	1366.94
461.458	1369.94
461.678	1354.94
461.898	1389.94
462.118	1376.94
462.338	1436.94
462.558	1432.94
462.777	1489.94
462.997	1482.94
463.217	1541.94
463.437	1576.94
463.657	1560.94
463.876	1489.94
464.096	1475.94
464.316	1467.94
464.536	1498.94
464.755	1454.94
464.975	1409.94
465.195	1385.94
465.414	1397.94
465.634	1324.94
465.854	1329.94
466.073	1346.94
466.293	1334.94
466.512	1262.94
466.732	1275.94
466.951	1304.94
467.171	1260.94
467.391	1256.94
467.61	1280.94
467.829	1268.94
468.049	1255.94
468.268	1249.94
468.488	1288.94
468.707	1276.94
468.927	1279.94
469.146	1251.94
469.365	1311.94
469.585	1272.94
469.804	1299.94
470.023	1272.94
470.243	1255.94
470.462	1228.94
470.681	1290.94
470.901	1279.94
471.12	1279.94
471.339	1247.94
471.558	1282.94
471.777	1317.94
471.997	1284.94
472.216	1241.94
472.435	1277.94
472.654	1276.94
472.873	1257.94
473.092	1271.94
473.311	1268.94
473.53	1298.94
473.749	1280.94
473.968	1298.94
474.187	1297.94
474.406	1274.94
474.625	1300.94
474.844	1288.94
475.063	1311.94
475.282	1297.94
475.501	1303.94
475.72	1310.94
475.939	1342.94
476.158	1358.94
476.377	1345.94
476.596	1309.94
476.814	1354.94
477.033	1338.94
477.252	1358.94
477.471	1393.94
477.69	1437.94
477.908	1403.94
478.127	1449.94
478.346	1417.94
478.564	1457.94
478.783	1471.94
479.002	1509.94
479.22	1528.94
479.439	1538.94
479.658	1533.94
479.876	1468.94
480.095	1510.94
480.313	1527.94
480.532	1500.94
480.751	1500.94
480.969	1522.94
481.188	1488.94
481.406	1485.94
481.624	1502.94
481.843	1448.94
482.061	1484.94
482.28	1492.94
482.498	1494.94
482.717	1455.94
482.935	1513.94
483.153	1533.94
483.372	1527.94
483.59	1566.94
483.808	1538.94
484.027	1556.94
484.245	1545.94
484.463	1505.94
484.681	1527.94
484.9	1541.94
485.118	1542.94
485.336	1538.94
485.554	1515.94
485.772	1521.94
485.99	1541.94
486.209	1568.94
486.427	1528.94
486.645	1533.94
486.863	1566.94
487.081	1576.94
487.299	1552.94
487.517	1574.94
487.735	1588.94
487.953	1616.94
488.171	1606.94
488.389	1569.94
488.607	1570.94
488.825	1552.94
489.043	1555.94
489.261	1548.94
489.479	1577.94
489.696	1571.94
489.914	1572.94
490.132	1564.94
490.35	1605.94
490.568	1596.94
490.786	1615.94
491.003	1598.94
491.221	1637.94
491.439	1620.94
491.657	1577.94
