Data from Ni(NO3)2@0.125M.TitratingCurve.Agarose3%dH2O.NegLispCup.LampEnergy10.LIBS07252019_HRD10591_18-09-09-569.txt Node
Date: Thu Jul 25 18:09:09 EDT 2019
User: cochatt
Spectrometer: HR+D1059
Trigger mode: 1
Integration Time (sec): 1.000000E-1
Scans to average: 1
Electric dark correction enabled: true
Nonlinearity correction enabled: false
Boxcar width: 0
XAxis mode: Wavelengths
Number of Pixels in Spectrum: 2048
>>>>>Begin Spectral Data<<<<<
223.165	-23.25
223.4	-23.25
223.635	-23.25
223.869	-15.25
224.104	-5.25
224.338	-30.25
224.573	-13.25
224.808	-15.25
225.042	-11.25
225.277	-10.25
225.511	-11.25
225.746	13.75
225.98	10.75
226.215	14.75
226.449	22.75
226.683	29.75
226.918	6.75
227.152	36.75
227.387	24.75
227.621	31.75
227.856	33.75
228.09	46.75
228.324	57.75
228.559	47.75
228.793	74.75
229.027	106.75
229.262	108.75
229.496	100.75
229.73	101.75
229.964	128.75
230.199	138.75
230.433	125.75
230.667	134.75
230.901	118.75
231.136	118.75
231.37	117.75
231.604	129.75
231.838	144.75
232.072	123.75
232.306	136.75
232.541	133.75
232.775	142.75
233.009	139.75
233.243	126.75
233.477	127.75
233.711	131.75
233.945	130.75
234.179	114.75
234.413	149.75
234.647	142.75
234.881	126.75
235.115	138.75
235.349	134.75
235.583	152.75
235.817	122.75
236.051	129.75
236.285	125.75
236.519	129.75
236.753	132.75
236.987	135.75
237.221	155.75
237.455	157.75
237.689	160.75
237.922	145.75
238.156	156.75
238.39	124.75
238.624	155.75
238.858	159.75
239.091	148.75
239.325	145.75
239.559	153.75
239.793	147.75
240.027	156.75
240.26	163.75
240.494	146.75
240.728	150.75
240.961	166.75
241.195	158.75
241.429	174.75
241.662	163.75
241.896	167.75
242.13	159.75
242.363	161.75
242.597	172.75
242.83	162.75
243.064	184.75
243.298	181.75
243.531	170.75
243.765	197.75
243.998	159.75
244.232	171.75
244.465	182.75
244.699	178.75
244.932	181.75
245.166	197.75
245.399	182.75
245.633	173.75
245.866	177.75
246.099	179.75
246.333	181.75
246.566	187.75
246.8	180.75
247.033	196.75
247.266	180.75
247.5	209.75
247.733	198.75
247.966	207.75
248.2	206.75
248.433	201.75
248.666	203.75
248.899	180.75
249.133	185.75
249.366	224.75
249.599	205.75
249.832	202.75
250.066	210.75
250.299	215.75
250.532	224.75
250.765	207.75
250.998	221.75
251.231	229.75
251.465	217.75
251.698	213.75
251.931	224.75
252.164	222.75
252.397	230.75
252.63	239.75
252.863	213.75
253.096	246.75
253.329	226.75
253.562	232.75
253.795	222.75
254.028	239.75
254.261	248.75
254.494	246.75
254.727	247.75
254.96	249.75
255.193	245.75
255.426	253.75
255.659	244.75
255.892	257.75
256.124	236.75
256.357	271.75
256.59	260.75
256.823	264.75
257.056	249.75
257.289	244.75
257.521	243.75
257.754	254.75
257.987	261.75
258.22	262.75
258.452	263.75
258.685	275.75
258.918	267.75
259.151	277.75
259.383	284.75
259.616	268.75
259.849	262.75
260.081	274.75
260.314	282.75
260.547	283.75
260.779	268.75
261.012	277.75
261.244	273.75
261.477	284.75
261.71	287.75
261.942	263.75
262.175	279.75
262.407	272.75
262.64	278.75
262.872	280.75
263.105	276.75
263.337	292.75
263.57	280.75
263.802	290.75
264.035	278.75
264.267	292.75
264.499	294.75
264.732	314.75
264.964	308.75
265.197	294.75
265.429	301.75
265.661	301.75
265.894	290.75
266.126	304.75
266.358	300.75
266.591	303.75
266.823	310.75
267.055	318.75
267.287	300.75
267.52	321.75
267.752	319.75
267.984	318.75
268.216	331.75
268.448	326.75
268.681	310.75
268.913	324.75
269.145	327.75
269.377	308.75
269.609	314.75
269.841	309.75
270.073	314.75
270.306	323.75
270.538	307.75
270.77	320.75
271.002	332.75
271.234	324.75
271.466	314.75
271.698	327.75
271.93	320.75
272.162	332.75
272.394	317.75
272.626	318.75
272.858	326.75
273.09	352.75
273.322	333.75
273.553	326.75
273.785	335.75
274.017	328.75
274.249	345.75
274.481	340.75
274.713	351.75
274.945	355.75
275.176	364.75
275.408	347.75
275.64	339.75
275.872	343.75
276.104	345.75
276.335	354.75
276.567	353.75
276.799	350.75
277.031	362.75
277.262	359.75
277.494	376.75
277.726	332.75
277.957	383.75
278.189	340.75
278.421	348.75
278.652	372.75
278.884	382.75
279.115	364.75
279.347	361.75
279.579	370.75
279.81	367.75
280.042	378.75
280.273	385.75
280.505	378.75
280.736	386.75
280.968	391.75
281.199	366.75
281.431	370.75
281.662	382.75
281.894	368.75
282.125	391.75
282.356	398.75
282.588	386.75
282.819	392.75
283.051	382.75
283.282	376.75
283.513	406.75
283.745	397.75
283.976	400.75
284.207	403.75
284.439	400.75
284.67	401.75
284.901	403.75
285.132	419.75
285.364	400.75
285.595	408.75
285.826	399.75
286.057	418.75
286.288	417.75
286.52	418.75
286.751	426.75
286.982	411.75
287.213	434.75
287.444	414.75
287.675	415.75
287.906	421.75
288.138	418.75
288.369	419.75
288.6	437.75
288.831	438.75
289.062	426.75
289.293	415.75
289.524	421.75
289.755	438.75
289.986	438.75
290.217	442.75
290.448	432.75
290.679	434.75
290.91	408.75
291.141	438.75
291.371	454.75
291.602	443.75
291.833	438.75
292.064	439.75
292.295	420.75
292.526	450.75
292.757	448.75
292.987	424.75
293.218	419.75
293.449	435.75
293.68	447.75
293.91	441.75
294.141	427.75
294.372	442.75
294.603	461.75
294.833	451.75
295.064	438.75
295.295	445.75
295.525	427.75
295.756	446.75
295.987	452.75
296.217	447.75
296.448	470.75
296.679	461.75
296.909	464.75
297.14	461.75
297.37	476.75
297.601	483.75
297.831	470.75
298.062	472.75
298.292	495.75
298.523	484.75
298.753	487.75
298.984	474.75
299.214	486.75
299.445	509.75
299.675	498.75
299.905	459.75
300.136	474.75
300.366	494.75
300.597	494.75
300.827	507.75
301.057	510.75
301.288	500.75
301.518	507.75
301.748	499.75
301.979	498.75
302.209	501.75
302.439	520.75
302.669	494.75
302.9	491.75
303.13	485.75
303.36	490.75
303.59	482.75
303.82	485.75
304.051	481.75
304.281	522.75
304.511	485.75
304.741	495.75
304.971	501.75
305.201	484.75
305.431	485.75
305.661	493.75
305.891	510.75
306.121	516.75
306.352	485.75
306.582	479.75
306.812	475.75
307.042	487.75
307.272	495.75
307.502	483.75
307.731	475.75
307.961	487.75
308.191	469.75
308.421	487.75
308.651	498.75
308.881	482.75
309.111	471.75
309.341	458.75
309.571	476.75
309.8	490.75
310.03	496.75
310.26	497.75
310.49	470.75
310.72	485.75
310.949	485.75
311.179	475.75
311.409	493.75
311.639	487.75
311.868	490.75
312.098	511.75
312.328	514.75
312.557	483.75
312.787	498.75
313.017	511.75
313.246	534.75
313.476	539.75
313.706	510.75
313.935	521.75
314.165	527.75
314.394	526.75
314.624	529.75
314.853	509.75
315.083	526.75
315.312	541.75
315.542	511.75
315.771	512.75
316.001	514.75
316.23	531.75
316.46	499.75
316.689	501.75
316.919	503.75
317.148	534.75
317.377	531.75
317.607	516.75
317.836	523.75
318.065	508.75
318.295	493.75
318.524	497.75
318.753	499.75
318.983	522.75
319.212	509.75
319.441	492.75
319.67	528.75
319.9	539.75
320.129	518.75
320.358	494.75
320.587	488.75
320.816	536.75
321.046	520.75
321.275	494.75
321.504	526.75
321.733	526.75
321.962	521.75
322.191	515.75
322.42	524.75
322.649	518.75
322.878	532.75
323.108	509.75
323.337	531.75
323.566	529.75
323.795	542.75
324.024	564.75
324.253	530.75
324.482	533.75
324.71	536.75
324.939	537.75
325.168	549.75
325.397	548.75
325.626	571.75
325.855	572.75
326.084	568.75
326.313	570.75
326.542	554.75
326.77	572.75
326.999	584.75
327.228	567.75
327.457	570.75
327.686	579.75
327.914	578.75
328.143	598.75
328.372	557.75
328.6	580.75
328.829	564.75
329.058	574.75
329.287	560.75
329.515	594.75
329.744	599.75
329.972	603.75
330.201	589.75
330.43	612.75
330.658	590.75
330.887	626.75
331.115	595.75
331.344	622.75
331.572	615.75
331.801	626.75
332.03	639.75
332.258	680.75
332.486	680.75
332.715	682.75
332.943	713.75
333.172	742.75
333.4	766.75
333.629	803.75
333.857	834.75
334.085	794.75
334.314	797.75
334.542	746.75
334.771	721.75
334.999	737.75
335.227	715.75
335.455	735.75
335.684	726.75
335.912	741.75
336.14	707.75
336.369	707.75
336.597	706.75
336.825	710.75
337.053	730.75
337.281	664.75
337.51	676.75
337.738	670.75
337.966	664.75
338.194	650.75
338.422	653.75
338.65	630.75
338.878	630.75
339.106	623.75
339.334	649.75
339.562	637.75
339.79	605.75
340.018	627.75
340.246	604.75
340.474	607.75
340.702	605.75
340.93	628.75
341.158	613.75
341.386	636.75
341.614	637.75
341.842	624.75
342.07	607.75
342.298	597.75
342.526	594.75
342.754	628.75
342.981	591.75
343.209	642.75
343.437	664.75
343.665	678.75
343.893	737.75
344.12	782.75
344.348	716.75
344.576	679.75
344.804	659.75
345.031	631.75
345.259	650.75
345.487	608.75
345.714	628.75
345.942	606.75
346.17	633.75
346.397	593.75
346.625	609.75
346.853	630.75
347.08	604.75
347.308	604.75
347.535	610.75
347.763	624.75
347.99	625.75
348.218	630.75
348.445	625.75
348.673	604.75
348.9	592.75
349.128	580.75
349.355	588.75
349.583	597.75
349.81	572.75
350.037	579.75
350.265	567.75
350.492	563.75
350.72	582.75
350.947	559.75
351.174	572.75
351.402	551.75
351.629	568.75
351.856	571.75
352.083	575.75
352.311	564.75
352.538	563.75
352.765	588.75
352.992	557.75
353.22	570.75
353.447	578.75
353.674	578.75
353.901	590.75
354.128	573.75
354.355	559.75
354.583	571.75
354.81	571.75
355.037	590.75
355.264	599.75
355.491	570.75
355.718	571.75
355.945	580.75
356.172	564.75
356.399	586.75
356.626	572.75
356.853	586.75
357.08	573.75
357.307	582.75
357.534	576.75
357.761	575.75
357.988	576.75
358.215	594.75
358.441	569.75
358.668	586.75
358.895	570.75
359.122	571.75
359.349	564.75
359.576	593.75
359.802	586.75
360.029	580.75
360.256	572.75
360.483	592.75
360.709	588.75
360.936	556.75
361.163	573.75
361.39	562.75
361.616	574.75
361.843	597.75
362.07	568.75
362.296	592.75
362.523	564.75
362.749	572.75
362.976	582.75
363.203	565.75
363.429	573.75
363.656	571.75
363.882	566.75
364.109	557.75
364.335	565.75
364.562	564.75
364.788	552.75
365.015	565.75
365.241	563.75
365.468	546.75
365.694	567.75
365.92	562.75
366.147	555.75
366.373	565.75
366.599	582.75
366.826	569.75
367.052	566.75
367.278	575.75
367.505	587.75
367.731	563.75
367.957	567.75
368.184	588.75
368.41	601.75
368.636	565.75
368.862	600.75
369.089	582.75
369.315	605.75
369.541	576.75
369.767	579.75
369.993	616.75
370.219	611.75
370.445	603.75
370.672	620.75
370.898	602.75
371.124	619.75
371.35	619.75
371.576	618.75
371.802	627.75
372.028	616.75
372.254	616.75
372.48	615.75
372.706	629.75
372.932	639.75
373.158	626.75
373.384	616.75
373.61	622.75
373.835	616.75
374.061	618.75
374.287	644.75
374.513	659.75
374.739	662.75
374.965	694.75
375.191	674.75
375.416	688.75
375.642	656.75
375.868	649.75
376.094	658.75
376.319	630.75
376.545	617.75
376.771	644.75
376.997	636.75
377.222	609.75
377.448	626.75
377.674	592.75
377.899	610.75
378.125	637.75
378.35	614.75
378.576	593.75
378.802	622.75
379.027	613.75
379.253	602.75
379.478	591.75
379.704	603.75
379.929	626.75
380.155	595.75
380.38	606.75
380.606	608.75
380.831	621.75
381.057	618.75
381.282	608.75
381.507	635.75
381.733	615.75
381.958	614.75
382.184	638.75
382.409	657.75
382.634	647.75
382.86	650.75
383.085	670.75
383.31	668.75
383.535	663.75
383.761	687.75
383.986	681.75
384.211	713.75
384.436	733.75
384.662	755.75
384.887	722.75
385.112	758.75
385.337	746.75
385.562	755.75
385.787	744.75
386.013	755.75
386.238	747.75
386.463	766.75
386.688	758.75
386.913	712.75
387.138	724.75
387.363	724.75
387.588	699.75
387.813	710.75
388.038	721.75
388.263	729.75
388.488	719.75
388.713	743.75
388.938	709.75
389.163	690.75
389.387	706.75
389.612	703.75
389.837	727.75
390.062	703.75
390.287	716.75
390.512	718.75
390.736	703.75
390.961	725.75
391.186	732.75
391.411	773.75
391.636	820.75
391.86	803.75
392.085	806.75
392.31	808.75
392.534	803.75
392.759	806.75
392.984	781.75
393.208	774.75
393.433	763.75
393.658	809.75
393.882	783.75
394.107	804.75
394.331	776.75
394.556	798.75
394.78	788.75
395.005	818.75
395.229	781.75
395.454	814.75
395.678	856.75
395.903	847.75
396.127	821.75
396.352	766.75
396.576	798.75
396.801	742.75
397.025	765.75
397.249	794.75
397.474	835.75
397.698	828.75
397.922	824.75
398.147	800.75
398.371	850.75
398.595	872.75
398.82	905.75
399.044	948.75
399.268	1054.75
399.492	1282.75
399.717	1464.75
399.941	1428.75
400.165	1227.75
400.389	1084.75
400.613	990.75
400.837	943.75
401.062	924.75
401.286	922.75
401.51	917.75
401.734	917.75
401.958	927.75
402.182	927.75
402.406	946.75
402.63	998.75
402.854	985.75
403.078	996.75
403.302	1022.75
403.526	1055.75
403.75	1088.75
403.974	1094.75
404.198	1127.75
404.422	1096.75
404.645	1100.75
404.869	1047.75
405.093	1070.75
405.317	1044.75
405.541	1053.75
405.765	1026.75
405.988	1026.75
406.212	1043.75
406.436	990.75
406.66	1032.75
406.883	1010.75
407.107	1109.75
407.331	1183.75
407.555	1215.75
407.778	1222.75
408.002	1200.75
408.226	1105.75
408.449	1154.75
408.673	1093.75
408.896	1082.75
409.12	1067.75
409.344	1081.75
409.567	1051.75
409.791	1086.75
410.014	1078.75
410.238	1072.75
410.461	1085.75
410.685	1039.75
410.908	1065.75
411.132	979.75
411.355	967.75
411.578	960.75
411.802	964.75
412.025	978.75
412.249	1007.75
412.472	989.75
412.695	976.75
412.919	920.75
413.142	937.75
413.365	943.75
413.589	935.75
413.812	922.75
414.035	920.75
414.258	942.75
414.482	948.75
414.705	972.75
414.928	956.75
415.151	947.75
415.374	958.75
415.597	948.75
415.821	918.75
416.044	903.75
416.267	894.75
416.49	880.75
416.713	932.75
416.936	930.75
417.159	902.75
417.382	909.75
417.605	920.75
417.828	916.75
418.051	957.75
418.274	943.75
418.497	932.75
418.72	963.75
418.943	964.75
419.166	1014.75
419.389	1088.75
419.611	1051.75
419.834	1015.75
420.057	986.75
420.28	950.75
420.503	931.75
420.726	926.75
420.948	923.75
421.171	936.75
421.394	918.75
421.617	934.75
421.839	921.75
422.062	954.75
422.285	911.75
422.507	975.75
422.73	963.75
422.953	958.75
423.175	962.75
423.398	987.75
423.621	1023.75
423.843	1029.75
424.066	1005.75
424.288	1006.75
424.511	1006.75
424.733	984.75
424.956	983.75
425.178	955.75
425.401	934.75
425.623	948.75
425.846	927.75
426.068	889.75
426.291	931.75
426.513	893.75
426.735	900.75
426.958	882.75
427.18	834.75
427.402	878.75
427.625	852.75
427.847	802.75
428.069	817.75
428.292	850.75
428.514	831.75
428.736	811.75
428.958	841.75
429.181	825.75
429.403	814.75
429.625	822.75
429.847	792.75
430.069	810.75
430.292	800.75
430.514	822.75
430.736	814.75
430.958	815.75
431.18	820.75
431.402	815.75
431.624	823.75
431.846	855.75
432.068	840.75
432.29	866.75
432.512	824.75
432.734	852.75
432.956	815.75
433.178	843.75
433.4	871.75
433.622	868.75
433.844	857.75
434.066	854.75
434.287	849.75
434.509	892.75
434.731	936.75
434.953	966.75
435.175	958.75
435.397	935.75
435.618	884.75
435.84	860.75
436.062	848.75
436.284	852.75
436.505	811.75
436.727	869.75
436.949	876.75
437.17	833.75
437.392	822.75
437.614	809.75
437.835	819.75
438.057	810.75
438.278	794.75
438.5	811.75
438.721	787.75
438.943	819.75
439.165	813.75
439.386	823.75
439.608	840.75
439.829	843.75
440.05	855.75
440.272	864.75
440.493	860.75
440.715	879.75
440.936	900.75
441.158	899.75
441.379	946.75
441.6	976.75
441.822	975.75
442.043	985.75
442.264	937.75
442.486	928.75
442.707	923.75
442.928	929.75
443.149	969.75
443.371	936.75
443.592	950.75
443.813	953.75
444.034	993.75
444.255	994.75
444.476	1051.75
444.698	1130.75
444.919	1184.75
445.14	1252.75
445.361	1084.75
445.582	996.75
445.803	943.75
446.024	914.75
446.245	918.75
446.466	888.75
446.687	829.75
446.908	874.75
447.129	854.75
447.35	818.75
447.571	832.75
447.792	796.75
448.013	827.75
448.234	798.75
448.455	797.75
448.675	784.75
448.896	818.75
449.117	773.75
449.338	820.75
449.559	780.75
449.779	779.75
450	772.75
450.221	780.75
450.442	806.75
450.662	804.75
450.883	818.75
451.104	812.75
451.324	818.75
451.545	823.75
451.766	808.75
451.986	792.75
452.207	801.75
452.428	781.75
452.648	774.75
452.869	788.75
453.089	779.75
453.31	771.75
453.53	759.75
453.751	776.75
453.971	768.75
454.192	772.75
454.412	764.75
454.633	712.75
454.853	728.75
455.073	741.75
455.294	720.75
455.514	743.75
455.734	733.75
455.955	714.75
456.175	720.75
456.395	714.75
456.616	720.75
456.836	704.75
457.056	725.75
457.276	742.75
457.497	739.75
457.717	766.75
457.937	735.75
458.157	730.75
458.377	757.75
458.598	758.75
458.818	767.75
459.038	771.75
459.258	831.75
459.478	857.75
459.698	890.75
459.918	899.75
460.138	926.75
460.358	1026.75
460.578	1023.75
460.798	1006.75
461.018	1038.75
461.238	992.75
461.458	1007.75
461.678	1000.75
461.898	989.75
462.118	1007.75
462.338	1065.75
462.558	1095.75
462.777	1149.75
462.997	1240.75
463.217	1346.75
463.437	1381.75
463.657	1247.75
463.876	1188.75
464.096	1170.75
464.316	1172.75
464.536	1191.75
464.755	1156.75
464.975	1077.75
465.195	1024.75
465.414	984.75
465.634	907.75
465.854	863.75
466.073	879.75
466.293	870.75
466.512	843.75
466.732	822.75
466.951	811.75
467.171	830.75
467.391	818.75
467.61	797.75
467.829	820.75
468.049	802.75
468.268	784.75
468.488	764.75
468.707	778.75
468.927	805.75
469.146	825.75
469.365	784.75
469.585	785.75
469.804	802.75
470.023	830.75
470.243	824.75
470.462	849.75
470.681	835.75
470.901	845.75
471.12	813.75
471.339	815.75
471.558	783.75
471.777	800.75
471.997	791.75
472.216	768.75
472.435	747.75
472.654	758.75
472.873	754.75
473.092	749.75
473.311	768.75
473.53	754.75
473.749	762.75
473.968	740.75
474.187	739.75
474.406	772.75
474.625	779.75
474.844	751.75
475.063	782.75
475.282	761.75
475.501	779.75
475.72	759.75
475.939	776.75
476.158	789.75
476.377	797.75
476.596	792.75
476.814	797.75
477.033	818.75
477.252	811.75
477.471	838.75
477.69	846.75
477.908	917.75
478.127	911.75
478.346	921.75
478.564	943.75
478.783	920.75
479.002	942.75
479.22	980.75
479.439	968.75
479.658	927.75
479.876	946.75
480.095	954.75
480.313	1011.75
480.532	1051.75
480.751	1007.75
480.969	950.75
481.188	933.75
481.406	900.75
481.624	903.75
481.843	877.75
482.061	872.75
482.28	856.75
482.498	848.75
482.717	862.75
482.935	889.75
483.153	856.75
483.372	868.75
483.59	861.75
483.808	884.75
484.027	864.75
484.245	873.75
484.463	876.75
484.681	919.75
484.9	898.75
485.118	908.75
485.336	896.75
485.554	934.75
485.772	914.75
485.99	930.75
486.209	934.75
486.427	939.75
486.645	943.75
486.863	956.75
487.081	914.75
487.299	922.75
487.517	901.75
487.735	911.75
487.953	917.75
488.171	914.75
488.389	916.75
488.607	910.75
488.825	893.75
489.043	874.75
489.261	891.75
489.479	896.75
489.696	911.75
489.914	931.75
490.132	894.75
490.35	927.75
490.568	905.75
490.786	938.75
491.003	931.75
491.221	928.75
491.439	924.75
491.657	898.75
491.874	915.75
492.092	937.75
492.31	963.75
492.527	935.75
492.745	942.75
492.963	934.75
493.18	939.75
493.398	940.75
493.615	971.75
493.833	955.75
494.05	959.75
494.268	993.75
494.485	974.75
494.703	980.75
494.92	949.75
495.138	969.75
495.355	998.75
495.573	969.75
495.79	990.75
496.008	976.75
496.225	978.75
496.442	972.75
496.66	1000.75
496.877	1035.75
497.094	1039.75
497.312	1029.75
497.529	1043.75
497.746	1068.75
497.963	1125.75
498.181	1147.75
498.398	1197.75
498.615	1264.75
498.832	1368.75
499.049	1454.75
499.267	1590.75
499.484	1758.75
499.701	1968.75
499.918	2222.75
500.135	2470.75
