Data from Ni(NO3)2Standard.Agarose3%.GreenCap.LampEnergy5.5.E.O_HRD10591_14-43-06-188.txt Node
Date: Mon Jul 22 14:43:06 EDT 2019
User: cochatt
Spectrometer: HR+D1059
Trigger mode: 1
Integration Time (sec): 1.000000E-1
Scans to average: 1
Electric dark correction enabled: true
Nonlinearity correction enabled: false
Boxcar width: 0
XAxis mode: Wavelengths
Number of Pixels in Spectrum: 2048
>>>>>Begin Spectral Data<<<<<
223.165	-11.69
223.4	-11.69
223.635	-11.69
223.869	-3.69
224.104	-27.69
224.338	-12.69
224.573	-23.69
224.808	-15.69
225.042	-7.69
225.277	3.31
225.511	-8.69
225.746	-5.69
225.98	11.31
226.215	-1.69
226.449	29.31
226.683	24.31
226.918	21.31
227.152	29.31
227.387	40.31
227.621	31.31
227.856	46.31
228.09	39.31
228.324	35.31
228.559	61.31
228.793	55.31
229.027	57.31
229.262	67.31
229.496	68.31
229.73	77.31
229.964	71.31
230.199	62.31
230.433	64.31
230.667	71.31
230.901	80.31
231.136	85.31
231.37	76.31
231.604	84.31
231.838	75.31
232.072	84.31
232.306	88.31
232.541	78.31
232.775	77.31
233.009	71.31
233.243	68.31
233.477	81.31
233.711	78.31
233.945	85.31
234.179	95.31
234.413	81.31
234.647	83.31
234.881	76.31
235.115	85.31
235.349	73.31
235.583	90.31
235.817	57.31
236.051	81.31
236.285	85.31
236.519	79.31
236.753	82.31
236.987	94.31
237.221	79.31
237.455	78.31
237.689	99.31
237.922	84.31
238.156	95.31
238.39	74.31
238.624	69.31
238.858	66.31
239.091	93.31
239.325	86.31
239.559	76.31
239.793	71.31
240.027	79.31
240.26	71.31
240.494	81.31
240.728	88.31
240.961	76.31
241.195	82.31
241.429	87.31
241.662	91.31
241.896	92.31
242.13	81.31
242.363	92.31
242.597	78.31
242.83	78.31
243.064	49.31
243.298	79.31
243.531	72.31
243.765	85.31
243.998	69.31
244.232	72.31
244.465	81.31
244.699	82.31
244.932	85.31
245.166	83.31
245.399	76.31
245.633	98.31
245.866	77.31
246.099	85.31
246.333	80.31
246.566	95.31
246.8	84.31
247.033	69.31
247.266	75.31
247.5	81.31
247.733	104.31
247.966	88.31
248.2	86.31
248.433	81.31
248.666	91.31
248.899	86.31
249.133	103.31
249.366	84.31
249.599	87.31
249.832	79.31
250.066	80.31
250.299	87.31
250.532	78.31
250.765	88.31
250.998	81.31
251.231	63.31
251.465	70.31
251.698	87.31
251.931	80.31
252.164	90.31
252.397	81.31
252.63	80.31
252.863	85.31
253.096	97.31
253.329	69.31
253.562	85.31
253.795	97.31
254.028	83.31
254.261	72.31
254.494	83.31
254.727	85.31
254.96	83.31
255.193	76.31
255.426	91.31
255.659	78.31
255.892	87.31
256.124	77.31
256.357	88.31
256.59	83.31
256.823	95.31
257.056	74.31
257.289	85.31
257.521	81.31
257.754	85.31
257.987	90.31
258.22	85.31
258.452	86.31
258.685	83.31
258.918	64.31
259.151	77.31
259.383	74.31
259.616	85.31
259.849	85.31
260.081	72.31
260.314	79.31
260.547	83.31
260.779	85.31
261.012	80.31
261.244	77.31
261.477	90.31
261.71	89.31
261.942	88.31
262.175	88.31
262.407	74.31
262.64	88.31
262.872	84.31
263.105	84.31
263.337	86.31
263.57	76.31
263.802	87.31
264.035	76.31
264.267	84.31
264.499	96.31
264.732	89.31
264.964	99.31
265.197	76.31
265.429	78.31
265.661	85.31
265.894	105.31
266.126	74.31
266.358	74.31
266.591	91.31
266.823	93.31
267.055	83.31
267.287	90.31
267.52	83.31
267.752	80.31
267.984	78.31
268.216	97.31
268.448	85.31
268.681	88.31
268.913	89.31
269.145	87.31
269.377	94.31
269.609	78.31
269.841	79.31
270.073	75.31
270.306	85.31
270.538	75.31
270.77	88.31
271.002	79.31
271.234	80.31
271.466	81.31
271.698	87.31
271.93	89.31
272.162	75.31
272.394	94.31
272.626	90.31
272.858	80.31
273.09	84.31
273.322	86.31
273.553	88.31
273.785	80.31
274.017	89.31
274.249	75.31
274.481	90.31
274.713	93.31
274.945	88.31
275.176	84.31
275.408	93.31
275.64	83.31
275.872	91.31
276.104	105.31
276.335	94.31
276.567	85.31
276.799	84.31
277.031	87.31
277.262	86.31
277.494	88.31
277.726	103.31
277.957	95.31
278.189	85.31
278.421	85.31
278.652	78.31
278.884	95.31
279.115	96.31
279.347	78.31
279.579	74.31
279.81	95.31
280.042	87.31
280.273	76.31
280.505	97.31
280.736	82.31
280.968	83.31
281.199	78.31
281.431	91.31
281.662	96.31
281.894	96.31
282.125	81.31
282.356	79.31
282.588	92.31
282.819	86.31
283.051	90.31
283.282	103.31
283.513	86.31
283.745	85.31
283.976	91.31
284.207	78.31
284.439	85.31
284.67	89.31
284.901	80.31
285.132	87.31
285.364	89.31
285.595	95.31
285.826	105.31
286.057	84.31
286.288	79.31
286.52	93.31
286.751	93.31
286.982	84.31
287.213	69.31
287.444	94.31
287.675	91.31
287.906	79.31
288.138	97.31
288.369	87.31
288.6	89.31
288.831	91.31
289.062	101.31
289.293	89.31
289.524	86.31
289.755	103.31
289.986	89.31
290.217	95.31
290.448	100.31
290.679	76.31
290.91	81.31
291.141	87.31
291.371	108.31
291.602	91.31
291.833	99.31
292.064	81.31
292.295	81.31
292.526	88.31
292.757	85.31
292.987	89.31
293.218	82.31
293.449	86.31
293.68	71.31
293.91	86.31
294.141	92.31
294.372	81.31
294.603	79.31
294.833	82.31
295.064	80.31
295.295	77.31
295.525	79.31
295.756	89.31
295.987	95.31
296.217	94.31
296.448	88.31
296.679	70.31
296.909	76.31
297.14	79.31
297.37	95.31
297.601	88.31
297.831	78.31
298.062	89.31
298.292	102.31
298.523	71.31
298.753	96.31
298.984	78.31
299.214	83.31
299.445	81.31
299.675	110.31
299.905	82.31
300.136	93.31
300.366	101.31
300.597	81.31
300.827	81.31
301.057	90.31
301.288	82.31
301.518	81.31
301.748	84.31
301.979	85.31
302.209	87.31
302.439	84.31
302.669	87.31
302.9	72.31
303.13	100.31
303.36	91.31
303.59	81.31
303.82	83.31
304.051	82.31
304.281	87.31
304.511	91.31
304.741	77.31
304.971	96.31
305.201	92.31
305.431	85.31
305.661	88.31
305.891	85.31
306.121	92.31
306.352	96.31
306.582	83.31
306.812	78.31
307.042	82.31
307.272	76.31
307.502	81.31
307.731	86.31
307.961	103.31
308.191	99.31
308.421	100.31
308.651	84.31
308.881	78.31
309.111	89.31
309.341	87.31
309.571	85.31
309.8	77.31
310.03	88.31
310.26	91.31
310.49	88.31
310.72	96.31
310.949	96.31
311.179	84.31
311.409	96.31
311.639	73.31
311.868	94.31
312.098	99.31
312.328	99.31
312.557	83.31
312.787	103.31
313.017	103.31
313.246	83.31
313.476	84.31
313.706	95.31
313.935	81.31
314.165	76.31
314.394	90.31
314.624	81.31
314.853	82.31
315.083	81.31
315.312	94.31
315.542	79.31
315.771	87.31
316.001	78.31
316.23	73.31
316.46	104.31
316.689	94.31
316.919	80.31
317.148	99.31
317.377	95.31
317.607	81.31
317.836	76.31
318.065	91.31
318.295	97.31
318.524	94.31
318.753	96.31
318.983	93.31
319.212	85.31
319.441	89.31
319.67	99.31
319.9	88.31
320.129	82.31
320.358	80.31
320.587	109.31
320.816	93.31
321.046	89.31
321.275	96.31
321.504	79.31
321.733	83.31
321.962	86.31
322.191	84.31
322.42	77.31
322.649	95.31
322.878	86.31
323.108	84.31
323.337	79.31
323.566	83.31
323.795	89.31
324.024	83.31
324.253	95.31
324.482	85.31
324.71	81.31
324.939	87.31
325.168	91.31
325.397	83.31
325.626	84.31
325.855	95.31
326.084	89.31
326.313	91.31
326.542	80.31
326.77	74.31
326.999	86.31
327.228	98.31
327.457	101.31
327.686	83.31
327.914	99.31
328.143	103.31
328.372	102.31
328.6	99.31
328.829	92.31
329.058	87.31
329.287	93.31
329.515	75.31
329.744	89.31
329.972	91.31
330.201	79.31
330.43	103.31
330.658	95.31
330.887	101.31
331.115	87.31
331.344	98.31
331.572	95.31
331.801	93.31
332.03	91.31
332.258	80.31
332.486	89.31
332.715	84.31
332.943	89.31
333.172	75.31
333.4	93.31
333.629	82.31
333.857	81.31
334.085	82.31
334.314	90.31
334.542	104.31
334.771	93.31
334.999	96.31
335.227	88.31
335.455	92.31
335.684	90.31
335.912	80.31
336.14	94.31
336.369	81.31
336.597	84.31
336.825	87.31
337.053	96.31
337.281	99.31
337.51	105.31
337.738	93.31
337.966	91.31
338.194	98.31
338.422	95.31
338.65	91.31
338.878	83.31
339.106	95.31
339.334	93.31
339.562	86.31
339.79	90.31
340.018	94.31
340.246	84.31
340.474	77.31
340.702	94.31
340.93	93.31
341.158	79.31
341.386	84.31
341.614	82.31
341.842	89.31
342.07	84.31
342.298	82.31
342.526	91.31
342.754	78.31
342.981	77.31
343.209	89.31
343.437	97.31
343.665	84.31
343.893	87.31
344.12	84.31
344.348	95.31
344.576	97.31
344.804	79.31
345.031	92.31
345.259	89.31
345.487	83.31
345.714	86.31
345.942	83.31
346.17	85.31
346.397	86.31
346.625	91.31
346.853	87.31
347.08	93.31
347.308	91.31
347.535	84.31
347.763	90.31
347.99	86.31
348.218	94.31
348.445	87.31
348.673	81.31
348.9	75.31
349.128	99.31
349.355	88.31
349.583	93.31
349.81	79.31
350.037	80.31
350.265	85.31
350.492	84.31
350.72	81.31
350.947	91.31
351.174	93.31
351.402	85.31
351.629	84.31
351.856	86.31
352.083	103.31
352.311	87.31
352.538	96.31
352.765	100.31
352.992	71.31
353.22	77.31
353.447	101.31
353.674	94.31
353.901	88.31
354.128	91.31
354.355	81.31
354.583	83.31
354.81	85.31
355.037	90.31
355.264	87.31
355.491	86.31
355.718	84.31
355.945	88.31
356.172	89.31
356.399	91.31
356.626	80.31
356.853	83.31
357.08	89.31
357.307	90.31
357.534	97.31
357.761	89.31
357.988	93.31
358.215	103.31
358.441	96.31
358.668	100.31
358.895	85.31
359.122	93.31
359.349	77.31
359.576	85.31
359.802	90.31
360.029	77.31
360.256	79.31
360.483	86.31
360.709	83.31
360.936	95.31
361.163	83.31
361.39	82.31
361.616	89.31
361.843	83.31
362.07	82.31
362.296	81.31
362.523	102.31
362.749	93.31
362.976	69.31
363.203	91.31
363.429	85.31
363.656	87.31
363.882	80.31
364.109	91.31
364.335	94.31
364.562	84.31
364.788	92.31
365.015	96.31
365.241	84.31
365.468	87.31
365.694	85.31
365.92	96.31
366.147	94.31
366.373	89.31
366.599	84.31
366.826	82.31
367.052	98.31
367.278	101.31
367.505	90.31
367.731	87.31
367.957	81.31
368.184	79.31
368.41	96.31
368.636	99.31
368.862	89.31
369.089	93.31
369.315	89.31
369.541	97.31
369.767	82.31
369.993	98.31
370.219	87.31
370.445	101.31
370.672	80.31
370.898	73.31
371.124	90.31
371.35	75.31
371.576	81.31
371.802	85.31
372.028	86.31
372.254	83.31
372.48	85.31
372.706	107.31
372.932	87.31
373.158	77.31
373.384	96.31
373.61	91.31
373.835	101.31
374.061	88.31
374.287	101.31
374.513	97.31
374.739	79.31
374.965	92.31
375.191	96.31
375.416	96.31
375.642	92.31
375.868	73.31
376.094	78.31
376.319	81.31
376.545	81.31
376.771	85.31
376.997	67.31
377.222	96.31
377.448	84.31
377.674	83.31
377.899	87.31
378.125	93.31
378.35	94.31
378.576	98.31
378.802	86.31
379.027	90.31
379.253	94.31
379.478	84.31
379.704	95.31
379.929	99.31
380.155	84.31
380.38	88.31
380.606	91.31
380.831	91.31
381.057	96.31
381.282	103.31
381.507	92.31
381.733	80.31
381.958	83.31
382.184	86.31
382.409	85.31
382.634	99.31
382.86	82.31
383.085	91.31
383.31	85.31
383.535	88.31
383.761	81.31
383.986	98.31
384.211	85.31
384.436	103.31
384.662	86.31
384.887	90.31
385.112	80.31
385.337	81.31
385.562	90.31
385.787	91.31
386.013	95.31
386.238	89.31
386.463	82.31
386.688	89.31
386.913	92.31
387.138	88.31
387.363	89.31
387.588	88.31
387.813	79.31
388.038	91.31
388.263	83.31
388.488	106.31
388.713	93.31
388.938	89.31
389.163	75.31
389.387	77.31
389.612	98.31
389.837	95.31
390.062	102.31
390.287	84.31
390.512	95.31
390.736	89.31
390.961	102.31
391.186	84.31
391.411	83.31
391.636	82.31
391.86	92.31
392.085	97.31
392.31	79.31
392.534	85.31
392.759	87.31
392.984	85.31
393.208	88.31
393.433	91.31
393.658	73.31
393.882	90.31
394.107	88.31
394.331	76.31
394.556	102.31
394.78	103.31
395.005	82.31
395.229	78.31
395.454	97.31
395.678	94.31
395.903	79.31
396.127	84.31
396.352	93.31
396.576	77.31
396.801	101.31
397.025	90.31
397.249	96.31
397.474	94.31
397.698	80.31
397.922	85.31
398.147	75.31
398.371	87.31
398.595	87.31
398.82	102.31
399.044	94.31
399.268	86.31
399.492	100.31
399.717	97.31
399.941	89.31
400.165	103.31
400.389	97.31
400.613	86.31
400.837	96.31
401.062	91.31
401.286	76.31
401.51	84.31
401.734	100.31
401.958	66.31
402.182	88.31
402.406	96.31
402.63	93.31
402.854	90.31
403.078	87.31
403.302	86.31
403.526	92.31
403.75	97.31
403.974	92.31
404.198	84.31
404.422	89.31
404.645	88.31
404.869	94.31
405.093	88.31
405.317	89.31
405.541	95.31
405.765	93.31
405.988	92.31
406.212	108.31
406.436	93.31
406.66	90.31
406.883	95.31
407.107	108.31
407.331	87.31
407.555	100.31
407.778	74.31
408.002	111.31
408.226	91.31
408.449	108.31
408.673	89.31
408.896	82.31
409.12	91.31
409.344	81.31
409.567	96.31
409.791	94.31
410.014	88.31
410.238	102.31
410.461	83.31
410.685	83.31
410.908	94.31
411.132	84.31
411.355	80.31
411.578	90.31
411.802	79.31
412.025	91.31
412.249	94.31
412.472	92.31
412.695	94.31
412.919	90.31
413.142	87.31
413.365	89.31
413.589	96.31
413.812	88.31
414.035	94.31
414.258	96.31
414.482	85.31
414.705	92.31
414.928	87.31
415.151	86.31
415.374	86.31
415.597	100.31
415.821	102.31
416.044	93.31
416.267	72.31
416.49	78.31
416.713	75.31
416.936	71.31
417.159	90.31
417.382	98.31
417.605	83.31
417.828	93.31
418.051	89.31
418.274	99.31
418.497	93.31
418.72	93.31
418.943	100.31
419.166	95.31
419.389	92.31
419.611	81.31
419.834	79.31
420.057	82.31
420.28	92.31
420.503	77.31
420.726	69.31
420.948	89.31
421.171	85.31
421.394	87.31
421.617	97.31
421.839	95.31
422.062	103.31
422.285	86.31
422.507	87.31
422.73	82.31
422.953	71.31
423.175	79.31
423.398	88.31
423.621	79.31
423.843	80.31
424.066	87.31
424.288	93.31
424.511	87.31
424.733	94.31
424.956	76.31
425.178	70.31
425.401	84.31
425.623	79.31
425.846	94.31
426.068	88.31
426.291	94.31
426.513	87.31
426.735	94.31
426.958	98.31
427.18	89.31
427.402	84.31
427.625	94.31
427.847	88.31
428.069	79.31
428.292	91.31
428.514	95.31
428.736	94.31
428.958	91.31
429.181	81.31
429.403	85.31
429.625	105.31
429.847	87.31
430.069	99.31
430.292	87.31
430.514	84.31
430.736	88.31
430.958	97.31
431.18	88.31
431.402	99.31
431.624	91.31
431.846	92.31
432.068	91.31
432.29	95.31
432.512	84.31
432.734	87.31
432.956	84.31
433.178	82.31
433.4	85.31
433.622	84.31
433.844	86.31
434.066	82.31
434.287	80.31
434.509	77.31
434.731	84.31
434.953	89.31
435.175	87.31
435.397	99.31
435.618	83.31
435.84	92.31
436.062	95.31
436.284	92.31
436.505	88.31
436.727	100.31
436.949	85.31
437.17	88.31
437.392	83.31
437.614	91.31
437.835	88.31
438.057	83.31
438.278	75.31
438.5	84.31
438.721	85.31
438.943	94.31
439.165	78.31
439.386	75.31
439.608	92.31
439.829	78.31
440.05	81.31
440.272	85.31
440.493	85.31
440.715	92.31
440.936	100.31
441.158	90.31
441.379	82.31
441.6	85.31
441.822	96.31
442.043	97.31
442.264	91.31
442.486	86.31
442.707	85.31
442.928	93.31
443.149	93.31
443.371	90.31
443.592	87.31
443.813	101.31
444.034	88.31
444.255	82.31
444.476	84.31
444.698	99.31
444.919	82.31
445.14	205.31
445.361	144.31
445.582	105.31
445.803	100.31
446.024	95.31
446.245	94.31
446.466	91.31
446.687	98.31
446.908	85.31
447.129	87.31
447.35	85.31
447.571	83.31
447.792	77.31
448.013	73.31
448.234	94.31
448.455	93.31
448.675	94.31
448.896	90.31
449.117	87.31
449.338	85.31
449.559	85.31
449.779	93.31
450	97.31
450.221	85.31
450.442	96.31
450.662	91.31
450.883	77.31
451.104	89.31
451.324	85.31
451.545	96.31
451.766	85.31
451.986	90.31
452.207	94.31
452.428	78.31
452.648	100.31
452.869	79.31
453.089	92.31
453.31	87.31
453.53	90.31
453.751	87.31
453.971	96.31
454.192	88.31
454.412	83.31
454.633	92.31
454.853	87.31
455.073	79.31
455.294	78.31
455.514	85.31
455.734	92.31
455.955	88.31
456.175	97.31
456.395	89.31
456.616	94.31
456.836	93.31
457.056	86.31
457.276	78.31
457.497	93.31
457.717	80.31
457.937	89.31
458.157	91.31
458.377	97.31
458.598	89.31
458.818	89.31
459.038	89.31
459.258	91.31
459.478	77.31
459.698	88.31
459.918	94.31
460.138	75.31
460.358	87.31
460.578	89.31
460.798	92.31
461.018	79.31
461.238	87.31
461.458	103.31
461.678	100.31
461.898	106.31
462.118	98.31
462.338	95.31
462.558	82.31
462.777	97.31
462.997	87.31
463.217	97.31
463.437	86.31
463.657	91.31
463.876	102.31
464.096	98.31
464.316	78.31
464.536	87.31
464.755	92.31
464.975	86.31
465.195	93.31
465.414	98.31
465.634	87.31
465.854	84.31
466.073	76.31
466.293	91.31
466.512	95.31
466.732	98.31
466.951	82.31
467.171	89.31
467.391	95.31
467.61	88.31
467.829	96.31
468.049	100.31
468.268	93.31
468.488	94.31
468.707	82.31
468.927	67.31
469.146	88.31
469.365	89.31
469.585	96.31
469.804	89.31
470.023	81.31
470.243	105.31
470.462	91.31
470.681	89.31
470.901	99.31
471.12	94.31
471.339	106.31
471.558	98.31
471.777	92.31
471.997	88.31
472.216	95.31
472.435	94.31
472.654	87.31
472.873	87.31
473.092	75.31
473.311	97.31
473.53	93.31
473.749	87.31
473.968	88.31
474.187	79.31
474.406	91.31
474.625	101.31
474.844	95.31
475.063	90.31
475.282	93.31
475.501	82.31
475.72	91.31
475.939	107.31
476.158	95.31
476.377	79.31
476.596	85.31
476.814	83.31
477.033	84.31
477.252	79.31
477.471	88.31
477.69	104.31
477.908	86.31
478.127	90.31
478.346	90.31
478.564	86.31
478.783	96.31
479.002	93.31
479.22	86.31
479.439	96.31
479.658	87.31
479.876	93.31
480.095	97.31
480.313	85.31
480.532	99.31
480.751	83.31
480.969	106.31
481.188	94.31
481.406	94.31
481.624	81.31
481.843	90.31
482.061	87.31
482.28	91.31
482.498	94.31
482.717	97.31
482.935	94.31
483.153	79.31
483.372	83.31
483.59	82.31
483.808	94.31
484.027	92.31
484.245	88.31
484.463	93.31
484.681	101.31
484.9	85.31
485.118	90.31
485.336	85.31
485.554	97.31
485.772	89.31
485.99	94.31
486.209	86.31
486.427	111.31
486.645	89.31
486.863	92.31
487.081	91.31
487.299	99.31
487.517	85.31
487.735	103.31
487.953	94.31
488.171	80.31
488.389	105.31
488.607	90.31
488.825	110.31
489.043	90.31
489.261	83.31
489.479	100.31
489.696	93.31
489.914	85.31
490.132	102.31
490.35	88.31
490.568	96.31
490.786	90.31
491.003	101.31
491.221	103.31
491.439	93.31
491.657	103.31
491.874	105.31
492.092	96.31
492.31	96.31
492.527	95.31
492.745	115.31
492.963	113.31
493.18	89.31
493.398	85.31
493.615	93.31
493.833	98.31
494.05	84.31
494.268	91.31
494.485	97.31
494.703	94.31
494.92	87.31
495.138	97.31
495.355	95.31
495.573	95.31
495.79	108.31
496.008	101.31
496.225	100.31
496.442	101.31
496.66	94.31
496.877	106.31
497.094	118.31
497.312	91.31
497.529	92.31
497.746	92.31
497.963	103.31
498.181	95.31
498.398	102.31
498.615	96.31
498.832	93.31
499.049	95.31
499.267	89.31
499.484	104.31
499.701	109.31
499.918	105.31
500.135	117.31
500.352	121.31
500.569	106.31
500.786	133.31
501.003	122.31
501.22	104.31
501.437	120.31
501.654	104.31
501.871	89.31
502.088	100.31
502.305	99.31
502.522	101.31
502.739	90.31
502.956	95.31
503.172	107.31
503.389	100.31
503.606	100.31
503.823	80.31
504.04	94.31
504.256	104.31
504.473	88.31
504.69	98.31
504.907	86.31
505.123	108.31
505.34	108.31
505.557	97.31
505.773	83.31
505.99	89.31
506.207	84.31
506.423	104.31
506.64	90.31
506.856	88.31
507.073	94.31
507.289	88.31
507.506	105.31
507.722	95.31
507.939	92.31
508.155	95.31
508.372	88.31
508.588	80.31
508.805	94.31
509.021	83.31
509.238	86.31
509.454	87.31
509.67	85.31
509.887	89.31
510.103	81.31
510.319	93.31
510.536	95.31
510.752	99.31
510.968	99.31
511.184	89.31
511.401	79.31
511.617	92.31
511.833	81.31
512.049	96.31
512.265	77.31
512.481	104.31
512.698	100.31
512.914	96.31
513.13	99.31
513.346	99.31
513.562	87.31
513.778	99.31
513.994	81.31
514.21	87.31
514.426	85.31
514.642	89.31
514.858	87.31
515.074	94.31
515.29	105.31
515.506	97.31
515.721	83.31
515.937	86.31
516.153	94.31
516.369	89.31
516.585	95.31
516.801	84.31
517.016	96.31
517.232	89.31
517.448	81.31
517.664	103.31
