Data from Ni(NO3)2@0.125M.TitratingCurve.Agarose3%dH2O.NegLispCup.LampEnergy10.LIBS07252019_HRD10591_18-09-24-570.txt Node
Date: Thu Jul 25 18:09:24 EDT 2019
User: cochatt
Spectrometer: HR+D1059
Trigger mode: 1
Integration Time (sec): 1.000000E-1
Scans to average: 1
Electric dark correction enabled: true
Nonlinearity correction enabled: false
Boxcar width: 0
XAxis mode: Wavelengths
Number of Pixels in Spectrum: 2048
>>>>>Begin Spectral Data<<<<<
223.165	-8.81
223.4	-8.81
223.635	-8.81
223.869	-19.81
224.104	-24.81
224.338	-29.81
224.573	-0.81
224.808	3.19
225.042	-7.81
225.277	-1.81
225.511	1.19
225.746	-1.81
225.98	13.19
226.215	1.19
226.449	14.19
226.683	25.19
226.918	16.19
227.152	21.19
227.387	32.19
227.621	36.19
227.856	48.19
228.09	50.19
228.324	36.19
228.559	68.19
228.793	83.19
229.027	111.19
229.262	111.19
229.496	116.19
229.73	130.19
229.964	125.19
230.199	138.19
230.433	140.19
230.667	138.19
230.901	140.19
231.136	137.19
231.37	130.19
231.604	140.19
231.838	160.19
232.072	148.19
232.306	158.19
232.541	141.19
232.775	148.19
233.009	159.19
233.243	158.19
233.477	156.19
233.711	155.19
233.945	150.19
234.179	155.19
234.413	158.19
234.647	150.19
234.881	161.19
235.115	157.19
235.349	172.19
235.583	148.19
235.817	162.19
236.051	156.19
236.285	149.19
236.519	155.19
236.753	160.19
236.987	169.19
237.221	156.19
237.455	159.19
237.689	172.19
237.922	156.19
238.156	157.19
238.39	166.19
238.624	168.19
238.858	166.19
239.091	177.19
239.325	186.19
239.559	173.19
239.793	175.19
240.027	207.19
240.26	191.19
240.494	182.19
240.728	182.19
240.961	190.19
241.195	190.19
241.429	211.19
241.662	196.19
241.896	188.19
242.13	207.19
242.363	203.19
242.597	194.19
242.83	200.19
243.064	195.19
243.298	196.19
243.531	212.19
243.765	213.19
243.998	218.19
244.232	198.19
244.465	221.19
244.699	217.19
244.932	221.19
245.166	201.19
245.399	212.19
245.633	229.19
245.866	210.19
246.099	215.19
246.333	229.19
246.566	224.19
246.8	232.19
247.033	240.19
247.266	248.19
247.5	248.19
247.733	236.19
247.966	234.19
248.2	242.19
248.433	227.19
248.666	237.19
248.899	233.19
249.133	235.19
249.366	249.19
249.599	278.19
249.832	271.19
250.066	263.19
250.299	244.19
250.532	261.19
250.765	252.19
250.998	263.19
251.231	270.19
251.465	291.19
251.698	294.19
251.931	277.19
252.164	277.19
252.397	278.19
252.63	282.19
252.863	291.19
253.096	269.19
253.329	280.19
253.562	280.19
253.795	298.19
254.028	287.19
254.261	288.19
254.494	289.19
254.727	281.19
254.96	296.19
255.193	281.19
255.426	282.19
255.659	289.19
255.892	300.19
256.124	291.19
256.357	312.19
256.59	310.19
256.823	298.19
257.056	306.19
257.289	302.19
257.521	313.19
257.754	322.19
257.987	313.19
258.22	309.19
258.452	309.19
258.685	330.19
258.918	322.19
259.151	317.19
259.383	342.19
259.616	331.19
259.849	328.19
260.081	333.19
260.314	324.19
260.547	318.19
260.779	344.19
261.012	343.19
261.244	331.19
261.477	335.19
261.71	355.19
261.942	330.19
262.175	344.19
262.407	335.19
262.64	342.19
262.872	351.19
263.105	353.19
263.337	347.19
263.57	347.19
263.802	350.19
264.035	365.19
264.267	356.19
264.499	344.19
264.732	371.19
264.964	368.19
265.197	359.19
265.429	357.19
265.661	371.19
265.894	362.19
266.126	386.19
266.358	379.19
266.591	359.19
266.823	384.19
267.055	386.19
267.287	370.19
267.52	387.19
267.752	388.19
267.984	389.19
268.216	387.19
268.448	367.19
268.681	378.19
268.913	378.19
269.145	392.19
269.377	411.19
269.609	391.19
269.841	396.19
270.073	399.19
270.306	396.19
270.538	409.19
270.77	404.19
271.002	395.19
271.234	402.19
271.466	403.19
271.698	393.19
271.93	388.19
272.162	400.19
272.394	404.19
272.626	404.19
272.858	400.19
273.09	415.19
273.322	436.19
273.553	413.19
273.785	411.19
274.017	414.19
274.249	416.19
274.481	419.19
274.713	429.19
274.945	426.19
275.176	433.19
275.408	420.19
275.64	428.19
275.872	434.19
276.104	437.19
276.335	414.19
276.567	433.19
276.799	456.19
277.031	438.19
277.262	461.19
277.494	454.19
277.726	445.19
277.957	447.19
278.189	430.19
278.421	453.19
278.652	439.19
278.884	478.19
279.115	465.19
279.347	461.19
279.579	492.19
279.81	448.19
280.042	454.19
280.273	481.19
280.505	473.19
280.736	468.19
280.968	479.19
281.199	467.19
281.431	475.19
281.662	468.19
281.894	475.19
282.125	464.19
282.356	476.19
282.588	478.19
282.819	474.19
283.051	478.19
283.282	511.19
283.513	501.19
283.745	495.19
283.976	500.19
284.207	495.19
284.439	527.19
284.67	490.19
284.901	516.19
285.132	502.19
285.364	509.19
285.595	522.19
285.826	500.19
286.057	505.19
286.288	488.19
286.52	514.19
286.751	516.19
286.982	539.19
287.213	538.19
287.444	512.19
287.675	520.19
287.906	528.19
288.138	540.19
288.369	490.19
288.6	527.19
288.831	531.19
289.062	534.19
289.293	539.19
289.524	549.19
289.755	525.19
289.986	533.19
290.217	547.19
290.448	541.19
290.679	559.19
290.91	543.19
291.141	552.19
291.371	550.19
291.602	563.19
291.833	521.19
292.064	535.19
292.295	549.19
292.526	549.19
292.757	543.19
292.987	531.19
293.218	558.19
293.449	559.19
293.68	566.19
293.91	539.19
294.141	543.19
294.372	567.19
294.603	550.19
294.833	531.19
295.064	559.19
295.295	565.19
295.525	557.19
295.756	556.19
295.987	566.19
296.217	577.19
296.448	584.19
296.679	578.19
296.909	554.19
297.14	575.19
297.37	598.19
297.601	613.19
297.831	599.19
298.062	595.19
298.292	591.19
298.523	614.19
298.753	627.19
298.984	616.19
299.214	609.19
299.445	599.19
299.675	600.19
299.905	614.19
300.136	607.19
300.366	616.19
300.597	620.19
300.827	604.19
301.057	628.19
301.288	638.19
301.518	610.19
301.748	626.19
301.979	632.19
302.209	633.19
302.439	636.19
302.669	606.19
302.9	611.19
303.13	607.19
303.36	637.19
303.59	608.19
303.82	629.19
304.051	582.19
304.281	623.19
304.511	622.19
304.741	606.19
304.971	612.19
305.201	604.19
305.431	602.19
305.661	638.19
305.891	600.19
306.121	621.19
306.352	616.19
306.582	620.19
306.812	577.19
307.042	622.19
307.272	614.19
307.502	602.19
307.731	622.19
307.961	589.19
308.191	591.19
308.421	596.19
308.651	602.19
308.881	588.19
309.111	587.19
309.341	590.19
309.571	607.19
309.8	607.19
310.03	594.19
310.26	598.19
310.49	619.19
310.72	617.19
310.949	595.19
311.179	621.19
311.409	610.19
311.639	636.19
311.868	614.19
312.098	632.19
312.328	634.19
312.557	656.19
312.787	617.19
313.017	635.19
313.246	629.19
313.476	646.19
313.706	662.19
313.935	652.19
314.165	657.19
314.394	632.19
314.624	651.19
314.853	662.19
315.083	644.19
315.312	618.19
315.542	647.19
315.771	658.19
316.001	634.19
316.23	623.19
316.46	637.19
316.689	644.19
316.919	640.19
317.148	639.19
317.377	628.19
317.607	633.19
317.836	623.19
318.065	630.19
318.295	638.19
318.524	661.19
318.753	629.19
318.983	640.19
319.212	636.19
319.441	646.19
319.67	632.19
319.9	649.19
320.129	626.19
320.358	630.19
320.587	627.19
320.816	641.19
321.046	654.19
321.275	646.19
321.504	632.19
321.733	661.19
321.962	660.19
322.191	662.19
322.42	640.19
322.649	659.19
322.878	675.19
323.108	635.19
323.337	652.19
323.566	653.19
323.795	682.19
324.024	663.19
324.253	662.19
324.482	664.19
324.71	674.19
324.939	664.19
325.168	652.19
325.397	695.19
325.626	671.19
325.855	681.19
326.084	704.19
326.313	713.19
326.542	727.19
326.77	717.19
326.999	713.19
327.228	702.19
327.457	717.19
327.686	695.19
327.914	700.19
328.143	727.19
328.372	723.19
328.6	724.19
328.829	733.19
329.058	710.19
329.287	732.19
329.515	732.19
329.744	707.19
329.972	715.19
330.201	715.19
330.43	722.19
330.658	723.19
330.887	727.19
331.115	748.19
331.344	759.19
331.572	748.19
331.801	783.19
332.03	794.19
332.258	804.19
332.486	835.19
332.715	861.19
332.943	903.19
333.172	926.19
333.4	975.19
333.629	1022.19
333.857	995.19
334.085	987.19
334.314	938.19
334.542	947.19
334.771	934.19
334.999	892.19
335.227	893.19
335.455	926.19
335.684	925.19
335.912	910.19
336.14	876.19
336.369	889.19
336.597	866.19
336.825	878.19
337.053	853.19
337.281	850.19
337.51	833.19
337.738	854.19
337.966	818.19
338.194	819.19
338.422	811.19
338.65	789.19
338.878	797.19
339.106	793.19
339.334	802.19
339.562	802.19
339.79	759.19
340.018	756.19
340.246	752.19
340.474	765.19
340.702	750.19
340.93	734.19
341.158	763.19
341.386	803.19
341.614	781.19
341.842	775.19
342.07	728.19
342.298	741.19
342.526	735.19
342.754	734.19
342.981	764.19
343.209	776.19
343.437	823.19
343.665	866.19
343.893	917.19
344.12	964.19
344.348	916.19
344.576	882.19
344.804	854.19
345.031	808.19
345.259	776.19
345.487	748.19
345.714	752.19
345.942	738.19
346.17	758.19
346.397	760.19
346.625	743.19
346.853	735.19
347.08	732.19
347.308	733.19
347.535	743.19
347.763	759.19
347.99	740.19
348.218	744.19
348.445	726.19
348.673	742.19
348.9	732.19
349.128	743.19
349.355	720.19
349.583	713.19
349.81	725.19
350.037	705.19
350.265	715.19
350.492	718.19
350.72	725.19
350.947	704.19
351.174	706.19
351.402	718.19
351.629	697.19
351.856	702.19
352.083	696.19
352.311	708.19
352.538	716.19
352.765	697.19
352.992	688.19
353.22	686.19
353.447	707.19
353.674	685.19
353.901	687.19
354.128	707.19
354.355	701.19
354.583	703.19
354.81	693.19
355.037	699.19
355.264	710.19
355.491	704.19
355.718	725.19
355.945	699.19
356.172	710.19
356.399	715.19
356.626	709.19
356.853	724.19
357.08	700.19
357.307	713.19
357.534	715.19
357.761	701.19
357.988	719.19
358.215	676.19
358.441	710.19
358.668	711.19
358.895	702.19
359.122	706.19
359.349	681.19
359.576	738.19
359.802	731.19
360.029	711.19
360.256	728.19
360.483	733.19
360.709	728.19
360.936	699.19
361.163	719.19
361.39	692.19
361.616	708.19
361.843	697.19
362.07	711.19
362.296	716.19
362.523	695.19
362.749	685.19
362.976	700.19
363.203	690.19
363.429	680.19
363.656	686.19
363.882	667.19
364.109	696.19
364.335	707.19
364.562	704.19
364.788	671.19
365.015	665.19
365.241	704.19
365.468	676.19
365.694	708.19
365.92	698.19
366.147	706.19
366.373	685.19
366.599	698.19
366.826	684.19
367.052	718.19
367.278	701.19
367.505	708.19
367.731	704.19
367.957	720.19
368.184	707.19
368.41	703.19
368.636	707.19
368.862	707.19
369.089	726.19
369.315	733.19
369.541	695.19
369.767	711.19
369.993	735.19
370.219	699.19
370.445	746.19
370.672	746.19
370.898	754.19
371.124	758.19
371.35	755.19
371.576	746.19
371.802	760.19
372.028	756.19
372.254	730.19
372.48	766.19
372.706	784.19
372.932	801.19
373.158	797.19
373.384	761.19
373.61	739.19
373.835	778.19
374.061	746.19
374.287	767.19
374.513	808.19
374.739	818.19
374.965	830.19
375.191	851.19
375.416	871.19
375.642	839.19
375.868	804.19
376.094	813.19
376.319	797.19
376.545	773.19
376.771	774.19
376.997	766.19
377.222	764.19
377.448	784.19
377.674	780.19
377.899	737.19
378.125	727.19
378.35	758.19
378.576	764.19
378.802	738.19
379.027	740.19
379.253	776.19
379.478	752.19
379.704	746.19
379.929	746.19
380.155	746.19
380.38	749.19
380.606	733.19
380.831	754.19
381.057	749.19
381.282	726.19
381.507	759.19
381.733	774.19
381.958	748.19
382.184	776.19
382.409	787.19
382.634	795.19
382.86	815.19
383.085	810.19
383.31	800.19
383.535	821.19
383.761	834.19
383.986	864.19
384.211	825.19
384.436	884.19
384.662	891.19
384.887	900.19
385.112	942.19
385.337	917.19
385.562	918.19
385.787	934.19
386.013	909.19
386.238	936.19
386.463	920.19
386.688	913.19
386.913	901.19
387.138	898.19
387.363	893.19
387.588	909.19
387.813	879.19
388.038	922.19
388.263	900.19
388.488	936.19
388.713	931.19
388.938	905.19
389.163	883.19
389.387	912.19
389.612	848.19
389.837	876.19
390.062	882.19
390.287	876.19
390.512	866.19
390.736	909.19
390.961	918.19
391.186	914.19
391.411	979.19
391.636	961.19
391.86	1016.19
392.085	1033.19
392.31	1055.19
392.534	1003.19
392.759	992.19
392.984	959.19
393.208	955.19
393.433	966.19
393.658	1004.19
393.882	943.19
394.107	947.19
394.331	972.19
394.556	988.19
394.78	1004.19
395.005	977.19
395.229	971.19
395.454	1032.19
395.678	1022.19
395.903	1008.19
396.127	979.19
396.352	967.19
396.576	961.19
396.801	956.19
397.025	964.19
397.249	986.19
397.474	996.19
397.698	1016.19
397.922	1015.19
398.147	1007.19
398.371	1025.19
398.595	1051.19
398.82	1080.19
399.044	1183.19
399.268	1291.19
399.492	1551.19
399.717	1742.19
399.941	1757.19
400.165	1531.19
400.389	1367.19
400.613	1252.19
400.837	1182.19
401.062	1174.19
401.286	1155.19
401.51	1120.19
401.734	1108.19
401.958	1178.19
402.182	1148.19
402.406	1168.19
402.63	1182.19
402.854	1221.19
403.078	1266.19
403.302	1291.19
403.526	1314.19
403.75	1341.19
403.974	1355.19
404.198	1342.19
404.422	1347.19
404.645	1325.19
404.869	1291.19
405.093	1344.19
405.317	1282.19
405.541	1315.19
405.765	1248.19
405.988	1228.19
406.212	1251.19
406.436	1236.19
406.66	1267.19
406.883	1277.19
407.107	1363.19
407.331	1420.19
407.555	1520.19
407.778	1520.19
408.002	1432.19
408.226	1392.19
408.449	1362.19
408.673	1311.19
408.896	1310.19
409.12	1286.19
409.344	1299.19
409.567	1297.19
409.791	1331.19
410.014	1281.19
410.238	1285.19
410.461	1306.19
410.685	1292.19
410.908	1241.19
411.132	1239.19
411.355	1223.19
411.578	1172.19
411.802	1210.19
412.025	1238.19
412.249	1228.19
412.472	1208.19
412.695	1160.19
412.919	1155.19
413.142	1122.19
413.365	1144.19
413.589	1166.19
413.812	1170.19
414.035	1126.19
414.258	1126.19
414.482	1141.19
414.705	1170.19
414.928	1138.19
415.151	1167.19
415.374	1140.19
415.597	1195.19
415.821	1140.19
416.044	1095.19
416.267	1093.19
416.49	1090.19
416.713	1097.19
416.936	1169.19
417.159	1152.19
417.382	1138.19
417.605	1110.19
417.828	1122.19
418.051	1128.19
418.274	1116.19
418.497	1142.19
418.72	1176.19
418.943	1169.19
419.166	1286.19
419.389	1331.19
419.611	1284.19
419.834	1239.19
420.057	1184.19
420.28	1163.19
420.503	1149.19
420.726	1113.19
420.948	1138.19
421.171	1158.19
421.394	1153.19
421.617	1129.19
421.839	1166.19
422.062	1150.19
422.285	1113.19
422.507	1151.19
422.73	1184.19
422.953	1186.19
423.175	1214.19
423.398	1203.19
423.621	1244.19
423.843	1259.19
424.066	1226.19
424.288	1232.19
424.511	1211.19
424.733	1197.19
424.956	1167.19
425.178	1202.19
425.401	1150.19
425.623	1148.19
425.846	1121.19
426.068	1105.19
426.291	1086.19
426.513	1071.19
426.735	1047.19
426.958	1055.19
427.18	1038.19
427.402	1045.19
427.625	1057.19
427.847	1036.19
428.069	1026.19
428.292	1059.19
428.514	1014.19
428.736	1012.19
428.958	1025.19
429.181	975.19
429.403	976.19
429.625	1007.19
429.847	993.19
430.069	981.19
430.292	998.19
430.514	990.19
430.736	1004.19
430.958	983.19
431.18	926.19
431.402	959.19
431.624	1011.19
431.846	988.19
432.068	990.19
432.29	1048.19
432.512	1001.19
432.734	1038.19
432.956	1013.19
433.178	1014.19
433.4	1020.19
433.622	1022.19
433.844	1041.19
434.066	1004.19
434.287	1039.19
434.509	1071.19
434.731	1129.19
434.953	1146.19
435.175	1175.19
435.397	1139.19
435.618	1090.19
435.84	1063.19
436.062	1040.19
436.284	1002.19
436.505	1013.19
436.727	1037.19
436.949	1034.19
437.17	1062.19
437.392	1017.19
437.614	991.19
437.835	986.19
438.057	972.19
438.278	962.19
438.5	958.19
438.721	982.19
438.943	994.19
439.165	953.19
439.386	995.19
439.608	1021.19
439.829	1016.19
440.05	1027.19
440.272	1033.19
440.493	1033.19
440.715	1053.19
440.936	1064.19
441.158	1075.19
441.379	1112.19
441.6	1185.19
441.822	1156.19
442.043	1168.19
442.264	1140.19
442.486	1130.19
442.707	1148.19
442.928	1116.19
443.149	1127.19
443.371	1148.19
443.592	1184.19
443.813	1180.19
444.034	1182.19
444.255	1230.19
444.476	1276.19
444.698	1335.19
444.919	1402.19
445.14	1487.19
445.361	1302.19
445.582	1190.19
445.803	1140.19
446.024	1106.19
446.245	1056.19
446.466	1080.19
446.687	1040.19
446.908	1038.19
447.129	1037.19
447.35	994.19
447.571	986.19
447.792	966.19
448.013	967.19
448.234	965.19
448.455	967.19
448.675	948.19
448.896	940.19
449.117	912.19
449.338	947.19
449.559	932.19
449.779	948.19
450	927.19
450.221	930.19
450.442	936.19
450.662	936.19
450.883	967.19
451.104	970.19
451.324	962.19
451.545	962.19
451.766	944.19
451.986	969.19
452.207	939.19
452.428	964.19
452.648	923.19
452.869	920.19
453.089	948.19
453.31	912.19
453.53	905.19
453.751	922.19
453.971	906.19
454.192	902.19
454.412	903.19
454.633	891.19
454.853	880.19
455.073	888.19
455.294	892.19
455.514	872.19
455.734	882.19
455.955	838.19
456.175	851.19
456.395	855.19
456.616	848.19
456.836	877.19
457.056	887.19
457.276	840.19
457.497	893.19
457.717	884.19
457.937	893.19
458.157	902.19
458.377	895.19
458.598	914.19
458.818	950.19
459.038	975.19
459.258	963.19
459.478	1037.19
459.698	1040.19
459.918	1074.19
460.138	1143.19
460.358	1181.19
460.578	1231.19
460.798	1215.19
461.018	1250.19
461.238	1206.19
461.458	1183.19
461.678	1221.19
461.898	1209.19
462.118	1203.19
462.338	1336.19
462.558	1344.19
462.777	1359.19
462.997	1511.19
463.217	1673.19
463.437	1700.19
463.657	1502.19
463.876	1404.19
464.096	1429.19
464.316	1446.19
464.536	1458.19
464.755	1354.19
464.975	1343.19
465.195	1278.19
465.414	1181.19
465.634	1109.19
465.854	1067.19
466.073	1045.19
466.293	1069.19
466.512	983.19
466.732	1006.19
466.951	1004.19
467.171	967.19
467.391	989.19
467.61	982.19
467.829	991.19
468.049	970.19
468.268	941.19
468.488	919.19
468.707	916.19
468.927	926.19
469.146	942.19
469.365	953.19
469.585	933.19
469.804	988.19
470.023	995.19
470.243	1018.19
470.462	1019.19
470.681	1008.19
470.901	1030.19
471.12	983.19
471.339	972.19
471.558	958.19
471.777	954.19
471.997	940.19
472.216	948.19
472.435	933.19
472.654	904.19
472.873	897.19
473.092	901.19
473.311	921.19
473.53	900.19
473.749	912.19
473.968	897.19
474.187	910.19
474.406	884.19
474.625	902.19
474.844	921.19
475.063	908.19
475.282	938.19
475.501	919.19
475.72	932.19
475.939	923.19
476.158	950.19
476.377	938.19
476.596	928.19
476.814	947.19
477.033	977.19
477.252	963.19
477.471	990.19
477.69	1044.19
477.908	1055.19
478.127	1074.19
478.346	1110.19
478.564	1129.19
478.783	1100.19
479.002	1186.19
479.22	1166.19
479.439	1124.19
479.658	1143.19
479.876	1150.19
480.095	1149.19
480.313	1201.19
480.532	1271.19
480.751	1235.19
480.969	1143.19
481.188	1125.19
481.406	1097.19
481.624	1084.19
481.843	1070.19
482.061	1039.19
482.28	1039.19
482.498	1021.19
482.717	1040.19
482.935	1028.19
483.153	1034.19
483.372	1043.19
483.59	1039.19
483.808	1055.19
484.027	1035.19
484.245	1031.19
484.463	1043.19
484.681	1075.19
484.9	1045.19
485.118	1066.19
485.336	1068.19
485.554	1098.19
485.772	1118.19
485.99	1105.19
486.209	1106.19
486.427	1113.19
486.645	1102.19
486.863	1086.19
487.081	1119.19
487.299	1100.19
487.517	1091.19
487.735	1059.19
487.953	1091.19
488.171	1096.19
488.389	1068.19
488.607	1061.19
488.825	1075.19
489.043	1070.19
489.261	1068.19
489.479	1084.19
489.696	1084.19
489.914	1076.19
490.132	1119.19
490.35	1107.19
490.568	1112.19
490.786	1096.19
491.003	1099.19
491.221	1130.19
491.439	1133.19
491.657	1094.19
491.874	1135.19
492.092	1143.19
492.31	1125.19
492.527	1117.19
492.745	1126.19
492.963	1114.19
493.18	1149.19
493.398	1133.19
493.615	1144.19
493.833	1142.19
494.05	1175.19
494.268	1199.19
494.485	1160.19
494.703	1163.19
494.92	1150.19
495.138	1167.19
495.355	1181.19
495.573	1149.19
495.79	1143.19
496.008	1190.19
496.225	1206.19
496.442	1189.19
496.66	1234.19
496.877	1207.19
497.094	1239.19
