Data from Ni(NO3)2@0.125M.TitratingCurve.Agarose3%dH2O.NegLispCup.LampEnergy10.LIBS07252019_HRD10591_18-10-36-568.txt Node
Date: Thu Jul 25 18:10:36 EDT 2019
User: cochatt
Spectrometer: HR+D1059
Trigger mode: 1
Integration Time (sec): 1.000000E-1
Scans to average: 1
Electric dark correction enabled: true
Nonlinearity correction enabled: false
Boxcar width: 0
XAxis mode: Wavelengths
Number of Pixels in Spectrum: 2048
>>>>>Begin Spectral Data<<<<<
223.165	-13.38
223.4	-13.38
223.635	-13.38
223.869	-20.38
224.104	-32.38
224.338	-22.38
224.573	-16.38
224.808	-14.38
225.042	-3.38
225.277	-5.38
225.511	8.62
225.746	13.62
225.98	15.62
226.215	16.62
226.449	4.62
226.683	21.62
226.918	24.62
227.152	22.62
227.387	23.62
227.621	36.62
227.856	39.62
228.09	45.62
228.324	45.62
228.559	33.62
228.793	55.62
229.027	82.62
229.262	72.62
229.496	80.62
229.73	82.62
229.964	93.62
230.199	105.62
230.433	94.62
230.667	98.62
230.901	101.62
231.136	100.62
231.37	99.62
231.604	96.62
231.838	108.62
232.072	112.62
232.306	100.62
232.541	104.62
232.775	117.62
233.009	102.62
233.243	119.62
233.477	109.62
233.711	95.62
233.945	97.62
234.179	98.62
234.413	117.62
234.647	116.62
234.881	117.62
235.115	94.62
235.349	114.62
235.583	103.62
235.817	113.62
236.051	107.62
236.285	128.62
236.519	109.62
236.753	119.62
236.987	115.62
237.221	114.62
237.455	126.62
237.689	115.62
237.922	113.62
238.156	119.62
238.39	115.62
238.624	114.62
238.858	114.62
239.091	116.62
239.325	111.62
239.559	114.62
239.793	109.62
240.027	134.62
240.26	112.62
240.494	120.62
240.728	114.62
240.961	126.62
241.195	130.62
241.429	126.62
241.662	136.62
241.896	122.62
242.13	131.62
242.363	114.62
242.597	133.62
242.83	131.62
243.064	132.62
243.298	137.62
243.531	132.62
243.765	123.62
243.998	133.62
244.232	130.62
244.465	139.62
244.699	138.62
244.932	141.62
245.166	147.62
245.399	137.62
245.633	151.62
245.866	138.62
246.099	142.62
246.333	150.62
246.566	162.62
246.8	159.62
247.033	156.62
247.266	159.62
247.5	155.62
247.733	148.62
247.966	155.62
248.2	139.62
248.433	159.62
248.666	153.62
248.899	146.62
249.133	165.62
249.366	151.62
249.599	147.62
249.832	158.62
250.066	158.62
250.299	173.62
250.532	151.62
250.765	145.62
250.998	161.62
251.231	173.62
251.465	185.62
251.698	179.62
251.931	176.62
252.164	173.62
252.397	167.62
252.63	179.62
252.863	165.62
253.096	191.62
253.329	183.62
253.562	182.62
253.795	173.62
254.028	191.62
254.261	183.62
254.494	173.62
254.727	191.62
254.96	180.62
255.193	185.62
255.426	165.62
255.659	184.62
255.892	192.62
256.124	194.62
256.357	180.62
256.59	191.62
256.823	168.62
257.056	198.62
257.289	184.62
257.521	184.62
257.754	183.62
257.987	197.62
258.22	202.62
258.452	201.62
258.685	181.62
258.918	200.62
259.151	192.62
259.383	195.62
259.616	197.62
259.849	194.62
260.081	197.62
260.314	208.62
260.547	201.62
260.779	185.62
261.012	201.62
261.244	196.62
261.477	205.62
261.71	185.62
261.942	198.62
262.175	212.62
262.407	198.62
262.64	205.62
262.872	192.62
263.105	206.62
263.337	207.62
263.57	202.62
263.802	197.62
264.035	214.62
264.267	214.62
264.499	222.62
264.732	207.62
264.964	202.62
265.197	211.62
265.429	197.62
265.661	218.62
265.894	241.62
266.126	226.62
266.358	220.62
266.591	212.62
266.823	223.62
267.055	222.62
267.287	220.62
267.52	209.62
267.752	222.62
267.984	216.62
268.216	226.62
268.448	222.62
268.681	229.62
268.913	238.62
269.145	218.62
269.377	225.62
269.609	235.62
269.841	235.62
270.073	215.62
270.306	232.62
270.538	231.62
270.77	240.62
271.002	226.62
271.234	226.62
271.466	233.62
271.698	244.62
271.93	248.62
272.162	259.62
272.394	241.62
272.626	239.62
272.858	237.62
273.09	241.62
273.322	232.62
273.553	236.62
273.785	255.62
274.017	244.62
274.249	245.62
274.481	244.62
274.713	259.62
274.945	254.62
275.176	261.62
275.408	264.62
275.64	247.62
275.872	247.62
276.104	244.62
276.335	240.62
276.567	258.62
276.799	239.62
277.031	245.62
277.262	254.62
277.494	236.62
277.726	255.62
277.957	249.62
278.189	264.62
278.421	265.62
278.652	276.62
278.884	262.62
279.115	258.62
279.347	260.62
279.579	253.62
279.81	266.62
280.042	276.62
280.273	278.62
280.505	273.62
280.736	279.62
280.968	243.62
281.199	269.62
281.431	284.62
281.662	263.62
281.894	271.62
282.125	286.62
282.356	286.62
282.588	278.62
282.819	274.62
283.051	285.62
283.282	276.62
283.513	270.62
283.745	270.62
283.976	282.62
284.207	286.62
284.439	296.62
284.67	295.62
284.901	289.62
285.132	294.62
285.364	265.62
285.595	272.62
285.826	291.62
286.057	287.62
286.288	294.62
286.52	300.62
286.751	311.62
286.982	288.62
287.213	286.62
287.444	315.62
287.675	312.62
287.906	310.62
288.138	294.62
288.369	286.62
288.6	307.62
288.831	307.62
289.062	294.62
289.293	296.62
289.524	308.62
289.755	315.62
289.986	325.62
290.217	310.62
290.448	300.62
290.679	312.62
290.91	304.62
291.141	309.62
291.371	310.62
291.602	308.62
291.833	301.62
292.064	312.62
292.295	309.62
292.526	317.62
292.757	307.62
292.987	304.62
293.218	310.62
293.449	311.62
293.68	299.62
293.91	322.62
294.141	306.62
294.372	325.62
294.603	318.62
294.833	334.62
295.064	319.62
295.295	310.62
295.525	308.62
295.756	332.62
295.987	325.62
296.217	318.62
296.448	314.62
296.679	344.62
296.909	330.62
297.14	322.62
297.37	348.62
297.601	349.62
297.831	329.62
298.062	333.62
298.292	346.62
298.523	342.62
298.753	347.62
298.984	337.62
299.214	344.62
299.445	322.62
299.675	337.62
299.905	339.62
300.136	325.62
300.366	344.62
300.597	348.62
300.827	343.62
301.057	349.62
301.288	358.62
301.518	344.62
301.748	348.62
301.979	344.62
302.209	342.62
302.439	352.62
302.669	342.62
302.9	347.62
303.13	348.62
303.36	352.62
303.59	335.62
303.82	358.62
304.051	352.62
304.281	342.62
304.511	352.62
304.741	353.62
304.971	363.62
305.201	361.62
305.431	338.62
305.661	352.62
305.891	330.62
306.121	352.62
306.352	351.62
306.582	336.62
306.812	326.62
307.042	343.62
307.272	336.62
307.502	336.62
307.731	343.62
307.961	336.62
308.191	321.62
308.421	333.62
308.651	357.62
308.881	313.62
309.111	346.62
309.341	335.62
309.571	358.62
309.8	347.62
310.03	347.62
310.26	363.62
310.49	351.62
310.72	337.62
310.949	345.62
311.179	357.62
311.409	342.62
311.639	349.62
311.868	335.62
312.098	335.62
312.328	345.62
312.557	376.62
312.787	354.62
313.017	351.62
313.246	374.62
313.476	371.62
313.706	359.62
313.935	366.62
314.165	375.62
314.394	384.62
314.624	383.62
314.853	384.62
315.083	342.62
315.312	366.62
315.542	367.62
315.771	364.62
316.001	365.62
316.23	369.62
316.46	357.62
316.689	336.62
316.919	350.62
317.148	361.62
317.377	366.62
317.607	352.62
317.836	351.62
318.065	327.62
318.295	350.62
318.524	375.62
318.753	372.62
318.983	344.62
319.212	375.62
319.441	349.62
319.67	352.62
319.9	356.62
320.129	358.62
320.358	370.62
320.587	369.62
320.816	361.62
321.046	355.62
321.275	348.62
321.504	357.62
321.733	344.62
321.962	365.62
322.191	377.62
322.42	376.62
322.649	367.62
322.878	375.62
323.108	377.62
323.337	363.62
323.566	367.62
323.795	396.62
324.024	372.62
324.253	355.62
324.482	383.62
324.71	383.62
324.939	372.62
325.168	385.62
325.397	401.62
325.626	362.62
325.855	391.62
326.084	382.62
326.313	403.62
326.542	402.62
326.77	415.62
326.999	399.62
327.228	399.62
327.457	404.62
327.686	392.62
327.914	392.62
328.143	384.62
328.372	390.62
328.6	383.62
328.829	385.62
329.058	380.62
329.287	405.62
329.515	400.62
329.744	395.62
329.972	391.62
330.201	405.62
330.43	421.62
330.658	406.62
330.887	409.62
331.115	429.62
331.344	435.62
331.572	417.62
331.801	415.62
332.03	451.62
332.258	435.62
332.486	466.62
332.715	485.62
332.943	510.62
333.172	501.62
333.4	551.62
333.629	528.62
333.857	555.62
334.085	549.62
334.314	521.62
334.542	513.62
334.771	512.62
334.999	497.62
335.227	506.62
335.455	495.62
335.684	514.62
335.912	494.62
336.14	492.62
336.369	445.62
336.597	486.62
336.825	502.62
337.053	494.62
337.281	473.62
337.51	483.62
337.738	461.62
337.966	447.62
338.194	442.62
338.422	423.62
338.65	419.62
338.878	435.62
339.106	429.62
339.334	426.62
339.562	423.62
339.79	421.62
340.018	409.62
340.246	431.62
340.474	403.62
340.702	438.62
340.93	415.62
341.158	413.62
341.386	404.62
341.614	416.62
341.842	411.62
342.07	416.62
342.298	405.62
342.526	417.62
342.754	418.62
342.981	411.62
343.209	423.62
343.437	437.62
343.665	476.62
343.893	512.62
344.12	531.62
344.348	476.62
344.576	461.62
344.804	465.62
345.031	422.62
345.259	431.62
345.487	427.62
345.714	439.62
345.942	422.62
346.17	433.62
346.397	420.62
346.625	418.62
346.853	405.62
347.08	409.62
347.308	428.62
347.535	424.62
347.763	419.62
347.99	425.62
348.218	428.62
348.445	418.62
348.673	405.62
348.9	406.62
349.128	416.62
349.355	375.62
349.583	402.62
349.81	396.62
350.037	379.62
350.265	389.62
350.492	396.62
350.72	402.62
350.947	403.62
351.174	416.62
351.402	387.62
351.629	408.62
351.856	397.62
352.083	406.62
352.311	409.62
352.538	386.62
352.765	385.62
352.992	400.62
353.22	402.62
353.447	399.62
353.674	392.62
353.901	383.62
354.128	404.62
354.355	377.62
354.583	403.62
354.81	392.62
355.037	415.62
355.264	402.62
355.491	400.62
355.718	415.62
355.945	393.62
356.172	407.62
356.399	385.62
356.626	389.62
356.853	384.62
357.08	389.62
357.307	407.62
357.534	404.62
357.761	402.62
357.988	390.62
358.215	389.62
358.441	393.62
358.668	374.62
358.895	393.62
359.122	391.62
359.349	381.62
359.576	406.62
359.802	393.62
360.029	369.62
360.256	381.62
360.483	399.62
360.709	400.62
360.936	392.62
361.163	390.62
361.39	405.62
361.616	405.62
361.843	385.62
362.07	412.62
362.296	387.62
362.523	379.62
362.749	388.62
362.976	374.62
363.203	403.62
363.429	380.62
363.656	401.62
363.882	381.62
364.109	395.62
364.335	397.62
364.562	390.62
364.788	395.62
365.015	385.62
365.241	381.62
365.468	401.62
365.694	393.62
365.92	388.62
366.147	374.62
366.373	399.62
366.599	393.62
366.826	391.62
367.052	403.62
367.278	379.62
367.505	378.62
367.731	402.62
367.957	383.62
368.184	394.62
368.41	393.62
368.636	393.62
368.862	390.62
369.089	409.62
369.315	409.62
369.541	394.62
369.767	394.62
369.993	402.62
370.219	397.62
370.445	406.62
370.672	420.62
370.898	418.62
371.124	410.62
371.35	402.62
371.576	423.62
371.802	438.62
372.028	417.62
372.254	420.62
372.48	449.62
372.706	451.62
372.932	439.62
373.158	430.62
373.384	431.62
373.61	412.62
373.835	417.62
374.061	429.62
374.287	434.62
374.513	427.62
374.739	439.62
374.965	465.62
375.191	484.62
375.416	462.62
375.642	446.62
375.868	479.62
376.094	451.62
376.319	437.62
376.545	434.62
376.771	435.62
376.997	413.62
377.222	429.62
377.448	447.62
377.674	439.62
377.899	440.62
378.125	440.62
378.35	415.62
378.576	407.62
378.802	416.62
379.027	424.62
379.253	415.62
379.478	429.62
379.704	412.62
379.929	435.62
380.155	444.62
380.38	412.62
380.606	431.62
380.831	412.62
381.057	423.62
381.282	428.62
381.507	414.62
381.733	439.62
381.958	413.62
382.184	423.62
382.409	440.62
382.634	438.62
382.86	458.62
383.085	456.62
383.31	449.62
383.535	464.62
383.761	460.62
383.986	464.62
384.211	465.62
384.436	512.62
384.662	481.62
384.887	492.62
385.112	513.62
385.337	517.62
385.562	516.62
385.787	510.62
386.013	539.62
386.238	517.62
386.463	514.62
386.688	513.62
386.913	490.62
387.138	476.62
387.363	498.62
387.588	525.62
387.813	480.62
388.038	476.62
388.263	527.62
388.488	509.62
388.713	480.62
388.938	477.62
389.163	475.62
389.387	477.62
389.612	486.62
389.837	485.62
390.062	487.62
390.287	477.62
390.512	481.62
390.736	511.62
390.961	502.62
391.186	502.62
391.411	515.62
391.636	563.62
391.86	551.62
392.085	565.62
392.31	573.62
392.534	545.62
392.759	541.62
392.984	533.62
393.208	537.62
393.433	521.62
393.658	531.62
393.882	526.62
394.107	538.62
394.331	520.62
394.556	515.62
394.78	539.62
395.005	540.62
395.229	538.62
395.454	555.62
395.678	554.62
395.903	561.62
396.127	564.62
396.352	518.62
396.576	529.62
396.801	518.62
397.025	522.62
397.249	562.62
397.474	559.62
397.698	564.62
397.922	553.62
398.147	563.62
398.371	563.62
398.595	587.62
398.82	595.62
399.044	657.62
399.268	712.62
399.492	821.62
399.717	929.62
399.941	953.62
400.165	800.62
400.389	731.62
400.613	686.62
400.837	616.62
401.062	631.62
401.286	639.62
401.51	616.62
401.734	611.62
401.958	604.62
402.182	626.62
402.406	649.62
402.63	665.62
402.854	664.62
403.078	669.62
403.302	674.62
403.526	710.62
403.75	717.62
403.974	749.62
404.198	732.62
404.422	732.62
404.645	709.62
404.869	689.62
405.093	703.62
405.317	685.62
405.541	685.62
405.765	704.62
405.988	684.62
406.212	677.62
406.436	661.62
406.66	710.62
406.883	699.62
407.107	733.62
407.331	785.62
407.555	807.62
407.778	813.62
408.002	789.62
408.226	736.62
408.449	769.62
408.673	727.62
408.896	707.62
409.12	717.62
409.344	725.62
409.567	702.62
409.791	731.62
410.014	733.62
410.238	735.62
410.461	711.62
410.685	695.62
410.908	683.62
411.132	668.62
411.355	630.62
411.578	659.62
411.802	655.62
412.025	664.62
412.249	656.62
412.472	672.62
412.695	650.62
412.919	613.62
413.142	627.62
413.365	635.62
413.589	608.62
413.812	639.62
414.035	626.62
414.258	624.62
414.482	606.62
414.705	647.62
414.928	649.62
415.151	616.62
415.374	629.62
415.597	639.62
415.821	640.62
416.044	629.62
416.267	607.62
416.49	599.62
416.713	623.62
416.936	621.62
417.159	619.62
417.382	623.62
417.605	640.62
417.828	625.62
418.051	609.62
418.274	625.62
418.497	622.62
418.72	648.62
418.943	643.62
419.166	688.62
419.389	709.62
419.611	702.62
419.834	669.62
420.057	658.62
420.28	656.62
420.503	620.62
420.726	626.62
420.948	616.62
421.171	600.62
421.394	630.62
421.617	613.62
421.839	645.62
422.062	639.62
422.285	638.62
422.507	631.62
422.73	657.62
422.953	663.62
423.175	649.62
423.398	658.62
423.621	669.62
423.843	692.62
424.066	673.62
424.288	680.62
424.511	680.62
424.733	670.62
424.956	648.62
425.178	628.62
425.401	646.62
425.623	621.62
425.846	619.62
426.068	616.62
426.291	596.62
426.513	599.62
426.735	596.62
426.958	578.62
427.18	597.62
427.402	588.62
427.625	569.62
427.847	549.62
428.069	588.62
428.292	584.62
428.514	550.62
428.736	552.62
428.958	557.62
429.181	567.62
429.403	536.62
429.625	541.62
429.847	543.62
430.069	550.62
430.292	567.62
430.514	546.62
430.736	559.62
430.958	552.62
431.18	557.62
431.402	562.62
431.624	576.62
431.846	580.62
432.068	574.62
432.29	599.62
432.512	569.62
432.734	565.62
432.956	555.62
433.178	569.62
433.4	594.62
433.622	584.62
433.844	600.62
434.066	558.62
434.287	588.62
434.509	602.62
434.731	626.62
434.953	670.62
435.175	674.62
435.397	648.62
435.618	603.62
435.84	585.62
436.062	606.62
436.284	573.62
436.505	558.62
436.727	568.62
436.949	574.62
437.17	558.62
437.392	573.62
437.614	557.62
437.835	530.62
438.057	545.62
438.278	555.62
438.5	567.62
438.721	569.62
438.943	561.62
439.165	566.62
439.386	551.62
439.608	588.62
439.829	565.62
440.05	576.62
440.272	565.62
440.493	580.62
440.715	594.62
440.936	585.62
441.158	634.62
441.379	623.62
441.6	665.62
441.822	683.62
442.043	659.62
442.264	640.62
442.486	627.62
442.707	633.62
442.928	663.62
443.149	640.62
443.371	653.62
443.592	646.62
443.813	662.62
444.034	638.62
444.255	672.62
444.476	707.62
444.698	739.62
444.919	769.62
445.14	863.62
445.361	738.62
445.582	675.62
445.803	614.62
446.024	599.62
446.245	619.62
446.466	611.62
446.687	608.62
446.908	600.62
447.129	599.62
447.35	541.62
447.571	566.62
447.792	539.62
448.013	572.62
448.234	540.62
448.455	551.62
448.675	535.62
448.896	551.62
449.117	555.62
449.338	534.62
449.559	547.62
449.779	548.62
450	541.62
450.221	535.62
450.442	539.62
450.662	563.62
450.883	551.62
451.104	577.62
451.324	576.62
451.545	585.62
451.766	568.62
451.986	537.62
452.207	550.62
452.428	551.62
452.648	539.62
452.869	552.62
453.089	527.62
453.31	528.62
453.53	550.62
453.751	556.62
453.971	516.62
454.192	521.62
454.412	513.62
454.633	534.62
454.853	516.62
455.073	495.62
455.294	517.62
455.514	521.62
455.734	493.62
455.955	511.62
456.175	489.62
456.395	493.62
456.616	499.62
456.836	485.62
457.056	495.62
457.276	499.62
457.497	519.62
457.717	495.62
457.937	509.62
458.157	515.62
458.377	509.62
458.598	511.62
458.818	545.62
459.038	551.62
459.258	583.62
459.478	582.62
459.698	595.62
459.918	611.62
460.138	637.62
460.358	659.62
460.578	663.62
460.798	699.62
461.018	684.62
461.238	665.62
461.458	691.62
461.678	643.62
461.898	691.62
462.118	703.62
462.338	708.62
462.558	751.62
462.777	775.62
462.997	837.62
463.217	911.62
463.437	933.62
463.657	857.62
463.876	803.62
464.096	808.62
464.316	812.62
464.536	813.62
464.755	759.62
464.975	729.62
465.195	702.62
465.414	687.62
465.634	615.62
465.854	605.62
466.073	598.62
466.293	596.62
466.512	585.62
466.732	541.62
466.951	565.62
467.171	573.62
467.391	586.62
467.61	590.62
467.829	564.62
468.049	548.62
468.268	541.62
468.488	534.62
468.707	551.62
468.927	547.62
469.146	547.62
469.365	545.62
469.585	533.62
469.804	569.62
470.023	601.62
470.243	583.62
470.462	592.62
470.681	593.62
470.901	564.62
471.12	566.62
471.339	571.62
471.558	559.62
471.777	536.62
471.997	551.62
472.216	530.62
472.435	532.62
472.654	516.62
472.873	514.62
473.092	521.62
473.311	541.62
473.53	520.62
473.749	509.62
473.968	525.62
474.187	524.62
474.406	528.62
474.625	535.62
474.844	540.62
475.063	531.62
475.282	542.62
475.501	509.62
475.72	520.62
475.939	537.62
476.158	536.62
476.377	535.62
476.596	540.62
476.814	528.62
477.033	560.62
477.252	537.62
477.471	573.62
477.69	567.62
477.908	597.62
478.127	613.62
478.346	628.62
478.564	635.62
478.783	633.62
479.002	648.62
479.22	651.62
479.439	639.62
479.658	629.62
479.876	623.62
480.095	630.62
480.313	685.62
480.532	704.62
480.751	713.62
480.969	656.62
481.188	632.62
481.406	608.62
481.624	612.62
481.843	610.62
482.061	594.62
482.28	589.62
482.498	581.62
482.717	566.62
482.935	592.62
483.153	597.62
483.372	592.62
483.59	584.62
483.808	603.62
484.027	607.62
484.245	584.62
484.463	587.62
484.681	600.62
484.9	624.62
485.118	618.62
485.336	618.62
485.554	607.62
485.772	626.62
485.99	643.62
486.209	630.62
486.427	628.62
486.645	648.62
486.863	633.62
487.081	630.62
487.299	632.62
487.517	647.62
487.735	630.62
487.953	654.62
488.171	623.62
488.389	634.62
488.607	603.62
488.825	619.62
489.043	612.62
489.261	597.62
489.479	623.62
489.696	596.62
489.914	609.62
490.132	599.62
490.35	620.62
490.568	629.62
490.786	639.62
491.003	643.62
491.221	612.62
491.439	641.62
491.657	634.62
491.874	636.62
492.092	636.62
492.31	643.62
492.527	673.62
492.745	649.62
492.963	653.62
493.18	662.62
493.398	624.62
493.615	652.62
493.833	659.62
494.05	663.62
494.268	687.62
494.485	650.62
494.703	659.62
494.92	656.62
495.138	677.62
495.355	636.62
495.573	639.62
495.79	681.62
496.008	672.62
496.225	678.62
496.442	691.62
496.66	673.62
496.877	683.62
497.094	707.62
497.312	732.62
497.529	744.62
497.746	740.62
497.963	762.62
498.181	767.62
498.398	803.62
498.615	844.62
498.832	947.62
499.049	978.62
499.267	1082.62
499.484	1187.62
499.701	1287.62
499.918	1421.62
500.135	1630.62
500.352	1902.62
500.569	2063.62
500.786	2003.62
501.003	1807.62
501.22	1629.62
501.437	1422.62
501.654	1249.62
