Data from Ni(NO3)2@0.25M.TitratingCurve.Agarose3%dH2O.NegLispCup.LampEnergy10.LIBS07252019_HRD10591_18-04-17-565.txt Node
Date: Thu Jul 25 18:04:17 EDT 2019
User: cochatt
Spectrometer: HR+D1059
Trigger mode: 1
Integration Time (sec): 1.000000E-1
Scans to average: 1
Electric dark correction enabled: true
Nonlinearity correction enabled: false
Boxcar width: 0
XAxis mode: Wavelengths
Number of Pixels in Spectrum: 2048
>>>>>Begin Spectral Data<<<<<
223.165	-15
223.4	-15
223.635	-15
223.869	-19
224.104	-8
224.338	-22
224.573	-18
224.808	-3
225.042	-17
225.277	-7
225.511	-10
225.746	-1
225.98	7
226.215	14
226.449	21
226.683	25
226.918	23
227.152	30
227.387	32
227.621	23
227.856	36
228.09	50
228.324	49
228.559	39
228.793	62
229.027	95
229.262	102
229.496	106
229.73	103
229.964	115
230.199	125
230.433	115
230.667	120
230.901	154
231.136	129
231.37	130
231.604	126
231.838	131
232.072	162
232.306	142
232.541	144
232.775	144
233.009	123
233.243	130
233.477	137
233.711	127
233.945	149
234.179	144
234.413	139
234.647	144
234.881	127
235.115	131
235.349	157
235.583	127
235.817	141
236.051	142
236.285	138
236.519	137
236.753	135
236.987	132
237.221	151
237.455	147
237.689	155
237.922	151
238.156	148
238.39	141
238.624	155
238.858	137
239.091	170
239.325	165
239.559	162
239.793	153
240.027	158
240.26	168
240.494	155
240.728	152
240.961	157
241.195	160
241.429	166
241.662	168
241.896	170
242.13	187
242.363	163
242.597	169
242.83	187
243.064	182
243.298	183
243.531	187
243.765	189
243.998	200
244.232	183
244.465	193
244.699	185
244.932	179
245.166	186
245.399	210
245.633	194
245.866	187
246.099	197
246.333	204
246.566	187
246.8	201
247.033	204
247.266	206
247.5	217
247.733	211
247.966	189
248.2	200
248.433	219
248.666	211
248.899	210
249.133	227
249.366	208
249.599	232
249.832	223
250.066	234
250.299	226
250.532	238
250.765	237
250.998	236
251.231	233
251.465	234
251.698	254
251.931	247
252.164	251
252.397	264
252.63	243
252.863	254
253.096	255
253.329	258
253.562	253
253.795	268
254.028	274
254.261	280
254.494	265
254.727	267
254.96	270
255.193	282
255.426	262
255.659	268
255.892	280
256.124	284
256.357	277
256.59	284
256.823	279
257.056	271
257.289	303
257.521	287
257.754	276
257.987	304
258.22	287
258.452	266
258.685	288
258.918	309
259.151	290
259.383	287
259.616	296
259.849	288
260.081	309
260.314	274
260.547	286
260.779	308
261.012	315
261.244	337
261.477	323
261.71	296
261.942	302
262.175	322
262.407	311
262.64	326
262.872	325
263.105	321
263.337	341
263.57	329
263.802	319
264.035	321
264.267	330
264.499	328
264.732	329
264.964	348
265.197	355
265.429	355
265.661	340
265.894	346
266.126	350
266.358	353
266.591	356
266.823	339
267.055	355
267.287	349
267.52	343
267.752	343
267.984	357
268.216	360
268.448	365
268.681	364
268.913	365
269.145	363
269.377	356
269.609	358
269.841	395
270.073	373
270.306	357
270.538	345
270.77	357
271.002	371
271.234	355
271.466	378
271.698	377
271.93	374
272.162	393
272.394	376
272.626	388
272.858	384
273.09	393
273.322	365
273.553	383
273.785	383
274.017	399
274.249	389
274.481	382
274.713	378
274.945	406
275.176	366
275.408	378
275.64	412
275.872	397
276.104	409
276.335	418
276.567	395
276.799	421
277.031	417
277.262	404
277.494	393
277.726	420
277.957	420
278.189	411
278.421	407
278.652	407
278.884	416
279.115	416
279.347	423
279.579	427
279.81	433
280.042	418
280.273	433
280.505	427
280.736	421
280.968	437
281.199	421
281.431	453
281.662	411
281.894	427
282.125	444
282.356	449
282.588	449
282.819	427
283.051	449
283.282	438
283.513	443
283.745	451
283.976	444
284.207	444
284.439	426
284.67	461
284.901	450
285.132	449
285.364	447
285.595	451
285.826	461
286.057	438
286.288	454
286.52	472
286.751	451
286.982	463
287.213	464
287.444	458
287.675	474
287.906	472
288.138	454
288.369	477
288.6	471
288.831	491
289.062	478
289.293	471
289.524	472
289.755	475
289.986	471
290.217	475
290.448	491
290.679	470
290.91	460
291.141	479
291.371	476
291.602	486
291.833	491
292.064	487
292.295	474
292.526	485
292.757	479
292.987	488
293.218	476
293.449	509
293.68	505
293.91	485
294.141	467
294.372	467
294.603	478
294.833	485
295.064	489
295.295	498
295.525	495
295.756	483
295.987	489
296.217	493
296.448	492
296.679	488
296.909	489
297.14	493
297.37	518
297.601	508
297.831	533
298.062	532
298.292	516
298.523	528
298.753	543
298.984	513
299.214	514
299.445	531
299.675	524
299.905	526
300.136	527
300.366	550
300.597	533
300.827	551
301.057	545
301.288	551
301.518	571
301.748	552
301.979	563
302.209	567
302.439	548
302.669	536
302.9	557
303.13	544
303.36	574
303.59	560
303.82	559
304.051	575
304.281	564
304.511	547
304.741	561
304.971	563
305.201	566
305.431	559
305.661	553
305.891	544
306.121	564
306.352	541
306.582	546
306.812	537
307.042	565
307.272	541
307.502	546
307.731	543
307.961	539
308.191	550
308.421	532
308.651	547
308.881	549
309.111	557
309.341	528
309.571	549
309.8	546
310.03	577
310.26	574
310.49	581
310.72	553
310.949	546
311.179	566
311.409	555
311.639	571
311.868	576
312.098	567
312.328	565
312.557	583
312.787	595
313.017	582
313.246	588
313.476	611
313.706	590
313.935	600
314.165	603
314.394	589
314.624	616
314.853	597
315.083	596
315.312	602
315.542	618
315.771	584
316.001	605
316.23	613
316.46	582
316.689	606
316.919	606
317.148	605
317.377	614
317.607	591
317.836	605
318.065	602
318.295	617
318.524	599
318.753	592
318.983	612
319.212	613
319.441	622
319.67	630
319.9	611
320.129	641
320.358	646
320.587	616
320.816	641
321.046	637
321.275	614
321.504	630
321.733	646
321.962	627
322.191	642
322.42	655
322.649	639
322.878	653
323.108	675
323.337	651
323.566	628
323.795	635
324.024	647
324.253	651
324.482	674
324.71	663
324.939	678
325.168	678
325.397	664
325.626	675
325.855	679
326.084	681
326.313	670
326.542	722
326.77	710
326.999	711
327.228	690
327.457	729
327.686	700
327.914	698
328.143	691
328.372	729
328.6	682
328.829	717
329.058	724
329.287	723
329.515	713
329.744	719
329.972	740
330.201	745
330.43	737
330.658	760
330.887	765
331.115	744
331.344	744
331.572	795
331.801	769
332.03	806
332.258	811
332.486	833
332.715	835
332.943	874
333.172	878
333.4	902
333.629	921
333.857	964
334.085	918
334.314	922
334.542	946
334.771	936
334.999	933
335.227	934
335.455	901
335.684	905
335.912	910
336.14	901
336.369	887
336.597	903
336.825	877
337.053	876
337.281	897
337.51	859
337.738	875
337.966	839
338.194	838
338.422	842
338.65	810
338.878	822
339.106	828
339.334	823
339.562	846
339.79	803
340.018	790
340.246	805
340.474	789
340.702	791
340.93	798
341.158	803
341.386	801
341.614	821
341.842	799
342.07	765
342.298	776
342.526	798
342.754	783
342.981	796
343.209	819
343.437	841
343.665	896
343.893	931
344.12	928
344.348	930
344.576	894
344.804	861
345.031	858
345.259	828
345.487	808
345.714	788
345.942	810
346.17	817
346.397	792
346.625	769
346.853	764
347.08	755
347.308	781
347.535	793
347.763	778
347.99	766
348.218	753
348.445	748
348.673	754
348.9	769
349.128	775
349.355	794
349.583	774
349.81	734
350.037	757
350.265	738
350.492	753
350.72	763
350.947	754
351.174	738
351.402	732
351.629	761
351.856	754
352.083	733
352.311	727
352.538	753
352.765	751
352.992	733
353.22	734
353.447	756
353.674	727
353.901	715
354.128	765
354.355	732
354.583	752
354.81	731
355.037	726
355.264	716
355.491	741
355.718	735
355.945	735
356.172	726
356.399	739
356.626	743
356.853	782
357.08	747
357.307	754
357.534	744
357.761	753
357.988	726
358.215	695
358.441	734
358.668	740
358.895	748
359.122	727
359.349	701
359.576	735
359.802	775
360.029	747
360.256	746
360.483	727
360.709	736
360.936	745
361.163	772
361.39	755
361.616	757
361.843	748
362.07	793
362.296	738
362.523	731
362.749	745
362.976	730
363.203	744
363.429	743
363.656	724
363.882	755
364.109	748
364.335	747
364.562	726
364.788	707
365.015	741
365.241	710
365.468	743
365.694	724
365.92	740
366.147	743
366.373	755
366.599	708
366.826	741
367.052	722
367.278	730
367.505	743
367.731	738
367.957	718
368.184	747
368.41	741
368.636	746
368.862	732
369.089	721
369.315	744
369.541	735
369.767	767
369.993	743
370.219	768
370.445	759
370.672	764
370.898	777
371.124	769
371.35	762
371.576	775
371.802	798
372.028	792
372.254	790
372.48	787
372.706	784
372.932	787
373.158	787
373.384	785
373.61	800
373.835	811
374.061	799
374.287	795
374.513	782
374.739	808
374.965	836
375.191	821
375.416	827
375.642	827
375.868	787
376.094	791
376.319	779
376.545	809
376.771	778
376.997	767
377.222	775
377.448	788
377.674	781
377.899	745
378.125	773
378.35	776
378.576	787
378.802	805
379.027	737
379.253	769
379.478	777
379.704	780
379.929	781
380.155	740
380.38	756
380.606	774
380.831	769
381.057	765
381.282	751
381.507	757
381.733	769
381.958	763
382.184	801
382.409	805
382.634	781
382.86	782
383.085	784
383.31	806
383.535	812
383.761	846
383.986	813
384.211	847
384.436	829
384.662	846
384.887	874
385.112	864
385.337	870
385.562	891
385.787	883
386.013	911
386.238	914
386.463	887
386.688	907
386.913	919
387.138	883
387.363	889
387.588	874
387.813	897
388.038	927
388.263	880
388.488	899
388.713	914
388.938	896
389.163	877
389.387	897
389.612	891
389.837	901
390.062	920
390.287	919
390.512	895
390.736	899
390.961	931
391.186	945
391.411	956
391.636	968
391.86	954
392.085	993
392.31	995
392.534	1000
392.759	1006
392.984	973
393.208	941
393.433	942
393.658	985
393.882	956
394.107	961
394.331	972
394.556	965
394.78	989
395.005	950
395.229	1023
395.454	984
395.678	1003
395.903	1021
396.127	1003
396.352	997
396.576	1000
396.801	995
397.025	986
397.249	985
397.474	1053
397.698	1053
397.922	1047
398.147	1020
398.371	1045
398.595	1098
398.82	1159
399.044	1211
399.268	1296
399.492	1403
399.717	1494
399.941	1566
400.165	1424
400.389	1357
400.613	1265
400.837	1246
401.062	1211
401.286	1165
401.51	1158
401.734	1149
401.958	1142
402.182	1177
402.406	1171
402.63	1194
402.854	1205
403.078	1189
403.302	1182
403.526	1199
403.75	1215
403.974	1237
404.198	1262
404.422	1237
404.645	1239
404.869	1211
405.093	1199
405.317	1221
405.541	1244
405.765	1209
405.988	1243
406.212	1217
406.436	1216
406.66	1302
406.883	1298
407.107	1331
407.331	1385
407.555	1419
407.778	1410
408.002	1395
408.226	1371
408.449	1365
408.673	1337
408.896	1314
409.12	1309
409.344	1269
409.567	1243
409.791	1281
410.014	1267
410.238	1275
410.461	1276
410.685	1244
410.908	1248
411.132	1230
411.355	1180
411.578	1191
411.802	1164
412.025	1177
412.249	1219
412.472	1173
412.695	1183
412.919	1144
413.142	1177
413.365	1177
413.589	1150
413.812	1150
414.035	1130
414.258	1176
414.482	1147
414.705	1164
414.928	1191
415.151	1137
415.374	1171
415.597	1139
415.821	1115
416.044	1157
416.267	1122
416.49	1126
416.713	1124
416.936	1149
417.159	1129
417.382	1109
417.605	1095
417.828	1123
418.051	1145
418.274	1157
418.497	1144
418.72	1158
418.943	1180
419.166	1241
419.389	1323
419.611	1299
419.834	1246
420.057	1214
420.28	1177
420.503	1141
420.726	1134
420.948	1145
421.171	1138
421.394	1135
421.617	1126
421.839	1156
422.062	1157
422.285	1112
422.507	1143
422.73	1169
422.953	1165
423.175	1148
423.398	1174
423.621	1159
423.843	1161
424.066	1210
424.288	1175
424.511	1196
424.733	1181
424.956	1163
425.178	1177
425.401	1183
425.623	1176
425.846	1111
426.068	1123
426.291	1122
426.513	1125
426.735	1106
426.958	1079
427.18	1069
427.402	1087
427.625	1085
427.847	1049
428.069	1079
428.292	1089
428.514	1054
428.736	1043
428.958	1062
429.181	1065
429.403	1049
429.625	1055
429.847	1048
430.069	1057
430.292	1070
430.514	1081
430.736	1083
430.958	1061
431.18	1079
431.402	1064
431.624	1069
431.846	1043
432.068	1046
432.29	1075
432.512	1056
432.734	1073
432.956	1082
433.178	1092
433.4	1073
433.622	1104
433.844	1130
434.066	1080
434.287	1109
434.509	1128
434.731	1157
434.953	1163
435.175	1153
435.397	1168
435.618	1117
435.84	1089
436.062	1106
436.284	1089
436.505	1062
436.727	1063
436.949	1062
437.17	1049
437.392	1036
437.614	1022
437.835	1008
438.057	1043
438.278	1012
438.5	1004
438.721	998
438.943	1043
439.165	1047
439.386	1067
439.608	1065
439.829	1063
440.05	1045
440.272	1089
440.493	1075
440.715	1094
440.936	1097
441.158	1123
441.379	1141
441.6	1181
441.822	1178
442.043	1183
442.264	1179
442.486	1204
442.707	1151
442.928	1171
443.149	1185
443.371	1150
443.592	1217
443.813	1187
444.034	1207
444.255	1213
444.476	1310
444.698	1276
444.919	1316
445.14	1413
445.361	1308
445.582	1195
445.803	1177
446.024	1145
446.245	1103
446.466	1121
446.687	1114
446.908	1104
447.129	1070
447.35	1063
447.571	1069
447.792	1049
448.013	1014
448.234	1045
448.455	1006
448.675	1007
448.896	1010
449.117	1009
449.338	1019
449.559	1006
449.779	981
450	994
450.221	980
450.442	1013
450.662	1031
450.883	993
451.104	1015
451.324	1000
451.545	987
451.766	968
451.986	989
452.207	993
452.428	961
452.648	975
452.869	978
453.089	927
453.31	949
453.53	949
453.751	961
453.971	926
454.192	910
454.412	920
454.633	924
454.853	911
455.073	919
455.294	931
455.514	927
455.734	952
455.955	916
456.175	932
456.395	919
456.616	891
456.836	929
457.056	915
457.276	928
457.497	961
457.717	923
457.937	939
458.157	963
458.377	974
458.598	1010
458.818	1009
459.038	1004
459.258	1032
459.478	1070
459.698	1097
459.918	1143
460.138	1152
460.358	1189
460.578	1219
460.798	1256
461.018	1244
461.238	1246
461.458	1255
461.678	1258
461.898	1261
462.118	1277
462.338	1305
462.558	1352
462.777	1353
462.997	1431
463.217	1507
463.437	1525
463.657	1463
463.876	1417
464.096	1431
464.316	1412
464.536	1400
464.755	1360
464.975	1326
465.195	1268
465.414	1207
465.634	1161
465.854	1133
466.073	1110
466.293	1101
466.512	1073
466.732	1049
466.951	1045
467.171	1020
467.391	1037
467.61	1037
467.829	985
468.049	1017
468.268	1005
468.488	1019
468.707	1005
468.927	1005
469.146	976
469.365	1000
469.585	1013
469.804	1055
470.023	1029
470.243	1051
470.462	1045
470.681	1069
470.901	1065
471.12	1055
471.339	1025
471.558	1018
471.777	1037
471.997	1009
472.216	1002
472.435	1004
472.654	989
472.873	983
473.092	978
473.311	979
473.53	998
473.749	991
473.968	1014
474.187	964
474.406	950
474.625	975
474.844	989
475.063	987
475.282	985
475.501	1006
475.72	1006
475.939	1002
476.158	1019
476.377	1053
476.596	995
476.814	1045
477.033	1044
477.252	1063
477.471	1063
477.69	1107
477.908	1113
478.127	1162
478.346	1169
478.564	1185
478.783	1184
479.002	1218
479.22	1229
479.439	1199
479.658	1212
479.876	1185
480.095	1174
480.313	1256
480.532	1253
480.751	1259
480.969	1197
481.188	1196
481.406	1164
481.624	1142
481.843	1112
482.061	1153
482.28	1149
482.498	1107
482.717	1105
482.935	1109
483.153	1107
483.372	1121
483.59	1123
483.808	1144
484.027	1104
484.245	1130
484.463	1142
484.681	1171
484.9	1146
485.118	1146
485.336	1142
485.554	1151
485.772	1132
485.99	1122
486.209	1158
486.427	1114
486.645	1181
486.863	1123
487.081	1168
487.299	1129
487.517	1177
487.735	1159
487.953	1201
488.171	1169
488.389	1159
488.607	1188
488.825	1154
489.043	1120
489.261	1143
489.479	1159
489.696	1127
489.914	1148
490.132	1175
490.35	1195
490.568	1198
490.786	1178
491.003	1236
491.221	1233
491.439	1207
491.657	1197
491.874	1214
492.092	1186
492.31	1259
492.527	1208
492.745	1204
492.963	1258
493.18	1228
493.398	1241
493.615	1225
493.833	1219
494.05	1226
494.268	1243
494.485	1271
494.703	1292
494.92	1254
495.138	1251
495.355	1257
495.573	1261
495.79	1297
496.008	1321
496.225	1315
496.442	1348
496.66	1339
496.877	1391
497.094	1374
497.312	1397
497.529	1405
497.746	1472
497.963	1529
498.181	1581
498.398	1625
498.615	1689
498.832	1831
499.049	1947
499.267	2033
499.484	2199
499.701	2367
499.918	2550
500.135	2802
500.352	3082
500.569	3112
500.786	3076
501.003	2944
501.22	2766
501.437	2553
501.654	2299
501.871	2192
502.088	2002
502.305	1945
502.522	1833
502.739	1740
502.956	1651
503.172	1594
503.389	1544
503.606	1492
503.823	1480
504.04	1471
504.256	1464
504.473	1468
504.69	1457
504.907	1430
505.123	1377
505.34	1324
505.557	1287
505.773	1229
505.99	1244
506.207	1185
506.423	1153
506.64	1152
506.856	1148
507.073	1137
507.289	1145
507.506	1118
507.722	1117
507.939	1106
508.155	1081
508.372	1051
508.588	1067
508.805	1071
509.021	1061
509.238	1058
509.454	1078
509.67	1044
509.887	1046
510.103	1019
510.319	1015
510.536	1016
510.752	1030
510.968	1011
511.184	1005
511.401	1002
511.617	1009
511.833	1026
512.049	993
512.265	983
512.481	1007
512.698	1002
512.914	1007
513.13	1028
513.346	993
513.562	997
513.778	1018
513.994	1039
514.21	1042
514.426	1015
514.642	1021
514.858	1027
515.074	1047
515.29	1056
515.506	1065
515.721	1083
515.937	1124
516.153	1097
516.369	1134
516.585	1126
516.801	1149
517.016	1219
517.232	1242
517.448	1265
517.664	1324
517.879	1287
518.095	1294
518.311	1278
518.527	1241
518.742	1201
518.958	1171
519.173	1155
519.389	1127
519.605	1115
519.82	1099
520.036	1053
520.251	1019
520.467	1001
520.682	1037
520.898	1015
521.113	1015
521.329	986
521.544	945
521.76	1002
521.975	960
522.19	930
522.406	951
522.621	944
522.836	943
523.052	943
523.267	935
523.482	931
523.698	943
523.913	935
524.128	924
524.343	927
524.559	939
524.774	913
524.989	924
525.204	931
525.419	885
525.634	927
525.849	925
526.064	923
526.28	894
526.495	911
526.71	911
526.925	938
527.14	884
527.355	889
527.57	925
527.785	871
527.999	877
528.214	906
528.429	882
528.644	901
528.859	905
529.074	889
529.289	910
529.503	911
529.718	912
529.933	885
530.148	902
530.363	869
530.577	874
530.792	891
531.007	893
531.221	909
531.436	899
531.651	896
531.865	893
532.08	890
532.295	872
532.509	894
532.724	901
532.938	893
533.153	914
533.367	879
533.582	890
533.796	859
534.011	892
534.225	862
534.44	874
534.654	846
534.868	872
535.083	881
535.297	886
535.511	857
535.726	875
535.94	851
536.154	837
536.369	814
536.583	836
536.797	815
537.011	808
537.225	817
537.44	817
537.654	834
537.868	823
538.082	817
538.296	802
538.51	851
538.724	820
538.938	819
539.153	830
539.367	821
539.581	821
539.795	819
540.009	773
540.222	805
540.436	786
540.65	795
540.864	798
541.078	808
541.292	812
541.506	806
541.72	807
541.934	820
542.147	835
542.361	807
542.575	826
542.789	799
543.002	787
543.216	786
543.43	804
543.644	779
543.857	795
544.071	817
544.285	844
544.498	829
544.712	828
544.925	839
545.139	866
545.352	815
545.566	830
545.779	812
545.993	824
546.206	845
546.42	835
546.633	830
546.847	837
547.06	839
547.274	831
547.487	836
547.7	838
547.914	851
548.127	840
548.34	856
548.554	844
548.767	837
548.98	838
549.193	830
549.407	846
549.62	838
549.833	822
550.046	826
550.259	853
550.473	829
550.686	821
550.899	836
551.112	812
551.325	816
551.538	822
551.751	797
551.964	819
552.177	835
552.39	833
552.603	833
552.816	873
553.029	879
553.242	862
553.455	886
553.667	899
553.88	886
554.093	871
554.306	849
554.519	831
554.732	825
