Data from Ni(NO3)2@0.5M.TitratingCurve.Agarose3%dH2O.NegLispCup.LampEnergy10.LIBS07252019_HRD10591_17-59-42-564.txt Node
Date: Thu Jul 25 17:59:42 EDT 2019
User: cochatt
Spectrometer: HR+D1059
Trigger mode: 1
Integration Time (sec): 1.000000E-1
Scans to average: 1
Electric dark correction enabled: true
Nonlinearity correction enabled: false
Boxcar width: 0
XAxis mode: Wavelengths
Number of Pixels in Spectrum: 2048
>>>>>Begin Spectral Data<<<<<
223.165	-13.81
223.4	-13.81
223.635	-13.81
223.869	-15.81
224.104	-5.81
224.338	-12.81
224.573	-15.81
224.808	-10.81
225.042	-18.81
225.277	-12.81
225.511	-14.81
225.746	-0.81
225.98	16.19
226.215	11.19
226.449	27.19
226.683	27.19
226.918	6.19
227.152	34.19
227.387	29.19
227.621	37.19
227.856	42.19
228.09	42.19
228.324	50.19
228.559	59.19
228.793	76.19
229.027	91.19
229.262	121.19
229.496	123.19
229.73	133.19
229.964	139.19
230.199	170.19
230.433	170.19
230.667	159.19
230.901	160.19
231.136	137.19
231.37	135.19
231.604	158.19
231.838	189.19
232.072	175.19
232.306	180.19
232.541	159.19
232.775	141.19
233.009	141.19
233.243	137.19
233.477	138.19
233.711	135.19
233.945	155.19
234.179	151.19
234.413	141.19
234.647	156.19
234.881	151.19
235.115	154.19
235.349	139.19
235.583	151.19
235.817	133.19
236.051	131.19
236.285	151.19
236.519	139.19
236.753	162.19
236.987	141.19
237.221	143.19
237.455	147.19
237.689	148.19
237.922	140.19
238.156	159.19
238.39	138.19
238.624	128.19
238.858	149.19
239.091	154.19
239.325	140.19
239.559	156.19
239.793	200.19
240.027	168.19
240.26	150.19
240.494	140.19
240.728	162.19
240.961	167.19
241.195	159.19
241.429	164.19
241.662	167.19
241.896	184.19
242.13	200.19
242.363	180.19
242.597	160.19
242.83	152.19
243.064	177.19
243.298	163.19
243.531	171.19
243.765	182.19
243.998	188.19
244.232	210.19
244.465	183.19
244.699	183.19
244.932	178.19
245.166	161.19
245.399	168.19
245.633	164.19
245.866	188.19
246.099	186.19
246.333	191.19
246.566	179.19
246.8	170.19
247.033	195.19
247.266	189.19
247.5	187.19
247.733	185.19
247.966	194.19
248.2	213.19
248.433	197.19
248.666	186.19
248.899	196.19
249.133	208.19
249.366	216.19
249.599	212.19
249.832	207.19
250.066	214.19
250.299	207.19
250.532	221.19
250.765	216.19
250.998	215.19
251.231	235.19
251.465	243.19
251.698	241.19
251.931	212.19
252.164	213.19
252.397	220.19
252.63	232.19
252.863	225.19
253.096	224.19
253.329	220.19
253.562	232.19
253.795	237.19
254.028	240.19
254.261	241.19
254.494	218.19
254.727	237.19
254.96	247.19
255.193	250.19
255.426	231.19
255.659	249.19
255.892	241.19
256.124	244.19
256.357	234.19
256.59	259.19
256.823	249.19
257.056	243.19
257.289	236.19
257.521	243.19
257.754	233.19
257.987	253.19
258.22	252.19
258.452	251.19
258.685	268.19
258.918	268.19
259.151	238.19
259.383	257.19
259.616	262.19
259.849	266.19
260.081	253.19
260.314	273.19
260.547	267.19
260.779	281.19
261.012	255.19
261.244	289.19
261.477	301.19
261.71	274.19
261.942	275.19
262.175	280.19
262.407	272.19
262.64	269.19
262.872	287.19
263.105	280.19
263.337	282.19
263.57	283.19
263.802	294.19
264.035	285.19
264.267	280.19
264.499	281.19
264.732	281.19
264.964	279.19
265.197	297.19
265.429	294.19
265.661	306.19
265.894	284.19
266.126	289.19
266.358	315.19
266.591	311.19
266.823	298.19
267.055	308.19
267.287	314.19
267.52	307.19
267.752	295.19
267.984	314.19
268.216	314.19
268.448	306.19
268.681	318.19
268.913	330.19
269.145	316.19
269.377	305.19
269.609	319.19
269.841	314.19
270.073	306.19
270.306	321.19
270.538	322.19
270.77	334.19
271.002	337.19
271.234	314.19
271.466	344.19
271.698	330.19
271.93	322.19
272.162	344.19
272.394	329.19
272.626	325.19
272.858	339.19
273.09	327.19
273.322	327.19
273.553	337.19
273.785	340.19
274.017	341.19
274.249	331.19
274.481	333.19
274.713	333.19
274.945	361.19
275.176	341.19
275.408	362.19
275.64	359.19
275.872	357.19
276.104	355.19
276.335	345.19
276.567	341.19
276.799	355.19
277.031	358.19
277.262	356.19
277.494	356.19
277.726	352.19
277.957	364.19
278.189	370.19
278.421	355.19
278.652	360.19
278.884	355.19
279.115	363.19
279.347	376.19
279.579	353.19
279.81	371.19
280.042	370.19
280.273	369.19
280.505	378.19
280.736	373.19
280.968	377.19
281.199	361.19
281.431	377.19
281.662	389.19
281.894	374.19
282.125	379.19
282.356	396.19
282.588	377.19
282.819	385.19
283.051	388.19
283.282	393.19
283.513	406.19
283.745	395.19
283.976	401.19
284.207	392.19
284.439	403.19
284.67	382.19
284.901	409.19
285.132	391.19
285.364	404.19
285.595	414.19
285.826	409.19
286.057	419.19
286.288	404.19
286.52	418.19
286.751	430.19
286.982	397.19
287.213	413.19
287.444	424.19
287.675	421.19
287.906	421.19
288.138	419.19
288.369	430.19
288.6	420.19
288.831	411.19
289.062	412.19
289.293	419.19
289.524	416.19
289.755	408.19
289.986	432.19
290.217	416.19
290.448	412.19
290.679	441.19
290.91	431.19
291.141	429.19
291.371	431.19
291.602	407.19
291.833	414.19
292.064	423.19
292.295	412.19
292.526	429.19
292.757	429.19
292.987	441.19
293.218	437.19
293.449	438.19
293.68	435.19
293.91	416.19
294.141	409.19
294.372	421.19
294.603	435.19
294.833	431.19
295.064	445.19
295.295	415.19
295.525	417.19
295.756	437.19
295.987	450.19
296.217	427.19
296.448	415.19
296.679	447.19
296.909	465.19
297.14	461.19
297.37	465.19
297.601	443.19
297.831	455.19
298.062	456.19
298.292	449.19
298.523	448.19
298.753	467.19
298.984	471.19
299.214	449.19
299.445	477.19
299.675	462.19
299.905	482.19
300.136	480.19
300.366	502.19
300.597	473.19
300.827	473.19
301.057	470.19
301.288	481.19
301.518	495.19
301.748	491.19
301.979	496.19
302.209	492.19
302.439	504.19
302.669	496.19
302.9	479.19
303.13	480.19
303.36	490.19
303.59	505.19
303.82	499.19
304.051	529.19
304.281	502.19
304.511	479.19
304.741	492.19
304.971	496.19
305.201	529.19
305.431	516.19
305.661	506.19
305.891	515.19
306.121	506.19
306.352	503.19
306.582	485.19
306.812	499.19
307.042	490.19
307.272	482.19
307.502	496.19
307.731	485.19
307.961	491.19
308.191	507.19
308.421	508.19
308.651	509.19
308.881	499.19
309.111	489.19
309.341	490.19
309.571	488.19
309.8	517.19
310.03	525.19
310.26	548.19
310.49	551.19
310.72	520.19
310.949	490.19
311.179	494.19
311.409	492.19
311.639	527.19
311.868	523.19
312.098	515.19
312.328	519.19
312.557	505.19
312.787	501.19
313.017	533.19
313.246	557.19
313.476	546.19
313.706	540.19
313.935	514.19
314.165	542.19
314.394	536.19
314.624	541.19
314.853	512.19
315.083	491.19
315.312	539.19
315.542	521.19
315.771	523.19
316.001	555.19
316.23	530.19
316.46	555.19
316.689	542.19
316.919	535.19
317.148	541.19
317.377	553.19
317.607	550.19
317.836	550.19
318.065	541.19
318.295	550.19
318.524	550.19
318.753	530.19
318.983	542.19
319.212	538.19
319.441	552.19
319.67	543.19
319.9	544.19
320.129	572.19
320.358	556.19
320.587	553.19
320.816	567.19
321.046	563.19
321.275	569.19
321.504	551.19
321.733	564.19
321.962	567.19
322.191	551.19
322.42	554.19
322.649	588.19
322.878	554.19
323.108	575.19
323.337	553.19
323.566	569.19
323.795	579.19
324.024	581.19
324.253	583.19
324.482	574.19
324.71	588.19
324.939	602.19
325.168	587.19
325.397	581.19
325.626	582.19
325.855	593.19
326.084	575.19
326.313	596.19
326.542	592.19
326.77	599.19
326.999	598.19
327.228	577.19
327.457	599.19
327.686	618.19
327.914	632.19
328.143	592.19
328.372	595.19
328.6	609.19
328.829	594.19
329.058	598.19
329.287	623.19
329.515	620.19
329.744	627.19
329.972	608.19
330.201	627.19
330.43	619.19
330.658	615.19
330.887	631.19
331.115	647.19
331.344	632.19
331.572	628.19
331.801	629.19
332.03	649.19
332.258	652.19
332.486	639.19
332.715	655.19
332.943	688.19
333.172	682.19
333.4	684.19
333.629	723.19
333.857	703.19
334.085	699.19
334.314	728.19
334.542	672.19
334.771	697.19
334.999	687.19
335.227	687.19
335.455	692.19
335.684	702.19
335.912	714.19
336.14	721.19
336.369	703.19
336.597	728.19
336.825	724.19
337.053	706.19
337.281	725.19
337.51	702.19
337.738	698.19
337.966	715.19
338.194	694.19
338.422	712.19
338.65	662.19
338.878	677.19
339.106	675.19
339.334	693.19
339.562	703.19
339.79	688.19
340.018	677.19
340.246	651.19
340.474	647.19
340.702	654.19
340.93	661.19
341.158	689.19
341.386	695.19
341.614	713.19
341.842	710.19
342.07	635.19
342.298	657.19
342.526	641.19
342.754	651.19
342.981	665.19
343.209	668.19
343.437	687.19
343.665	721.19
343.893	706.19
344.12	733.19
344.348	698.19
344.576	715.19
344.804	742.19
345.031	712.19
345.259	690.19
345.487	679.19
345.714	664.19
345.942	692.19
346.17	719.19
346.397	690.19
346.625	656.19
346.853	651.19
347.08	641.19
347.308	627.19
347.535	641.19
347.763	639.19
347.99	644.19
348.218	636.19
348.445	638.19
348.673	626.19
348.9	619.19
349.128	645.19
349.355	663.19
349.583	665.19
349.81	635.19
350.037	627.19
350.265	631.19
350.492	632.19
350.72	615.19
350.947	636.19
351.174	647.19
351.402	671.19
351.629	671.19
351.856	664.19
352.083	640.19
352.311	697.19
352.538	698.19
352.765	688.19
352.992	625.19
353.22	601.19
353.447	608.19
353.674	588.19
353.901	628.19
354.128	627.19
354.355	600.19
354.583	633.19
354.81	640.19
355.037	622.19
355.264	609.19
355.491	611.19
355.718	608.19
355.945	602.19
356.172	605.19
356.399	624.19
356.626	639.19
356.853	655.19
357.08	654.19
357.307	623.19
357.534	643.19
357.761	611.19
357.988	629.19
358.215	630.19
358.441	619.19
358.668	633.19
358.895	634.19
359.122	597.19
359.349	626.19
359.576	629.19
359.802	647.19
360.029	630.19
360.256	635.19
360.483	630.19
360.709	619.19
360.936	610.19
361.163	633.19
361.39	635.19
361.616	648.19
361.843	663.19
362.07	672.19
362.296	677.19
362.523	635.19
362.749	630.19
362.976	631.19
363.203	622.19
363.429	628.19
363.656	623.19
363.882	632.19
364.109	636.19
364.335	616.19
364.562	583.19
364.788	618.19
365.015	627.19
365.241	615.19
365.468	615.19
365.694	624.19
365.92	639.19
366.147	629.19
366.373	636.19
366.599	640.19
366.826	607.19
367.052	613.19
367.278	629.19
367.505	634.19
367.731	664.19
367.957	634.19
368.184	613.19
368.41	620.19
368.636	633.19
368.862	630.19
369.089	647.19
369.315	645.19
369.541	620.19
369.767	641.19
369.993	627.19
370.219	625.19
370.445	648.19
370.672	654.19
370.898	672.19
371.124	673.19
371.35	667.19
371.576	664.19
371.802	660.19
372.028	680.19
372.254	649.19
372.48	681.19
372.706	673.19
372.932	692.19
373.158	703.19
373.384	679.19
373.61	675.19
373.835	694.19
374.061	680.19
374.287	665.19
374.513	708.19
374.739	689.19
374.965	691.19
375.191	689.19
375.416	700.19
375.642	679.19
375.868	709.19
376.094	683.19
376.319	687.19
376.545	674.19
376.771	664.19
376.997	684.19
377.222	670.19
377.448	664.19
377.674	656.19
377.899	652.19
378.125	663.19
378.35	675.19
378.576	663.19
378.802	648.19
379.027	653.19
379.253	670.19
379.478	666.19
379.704	664.19
379.929	657.19
380.155	663.19
380.38	628.19
380.606	651.19
380.831	642.19
381.057	672.19
381.282	665.19
381.507	657.19
381.733	688.19
381.958	674.19
382.184	665.19
382.409	673.19
382.634	683.19
382.86	683.19
383.085	727.19
383.31	715.19
383.535	700.19
383.761	693.19
383.986	669.19
384.211	717.19
384.436	727.19
384.662	722.19
384.887	739.19
385.112	726.19
385.337	754.19
385.562	723.19
385.787	737.19
386.013	772.19
386.238	770.19
386.463	730.19
386.688	751.19
386.913	737.19
387.138	746.19
387.363	741.19
387.588	768.19
387.813	763.19
388.038	737.19
388.263	746.19
388.488	760.19
388.713	756.19
388.938	753.19
389.163	725.19
389.387	762.19
389.612	757.19
389.837	756.19
390.062	754.19
390.287	756.19
390.512	722.19
390.736	765.19
390.961	775.19
391.186	788.19
391.411	781.19
391.636	802.19
391.86	783.19
392.085	803.19
392.31	803.19
392.534	796.19
392.759	813.19
392.984	777.19
393.208	788.19
393.433	791.19
393.658	779.19
393.882	786.19
394.107	815.19
394.331	790.19
394.556	769.19
394.78	763.19
395.005	788.19
395.229	785.19
395.454	802.19
395.678	815.19
395.903	804.19
396.127	817.19
396.352	796.19
396.576	792.19
396.801	819.19
397.025	852.19
397.249	847.19
397.474	852.19
397.698	804.19
397.922	858.19
398.147	833.19
398.371	867.19
398.595	869.19
398.82	907.19
399.044	907.19
399.268	981.19
399.492	1010.19
399.717	1055.19
399.941	1075.19
400.165	1041.19
400.389	983.19
400.613	955.19
400.837	940.19
401.062	916.19
401.286	886.19
401.51	915.19
401.734	885.19
401.958	889.19
402.182	888.19
402.406	926.19
402.63	905.19
402.854	907.19
403.078	902.19
403.302	880.19
403.526	908.19
403.75	916.19
403.974	931.19
404.198	924.19
404.422	919.19
404.645	957.19
404.869	927.19
405.093	948.19
405.317	923.19
405.541	937.19
405.765	935.19
405.988	930.19
406.212	947.19
406.436	953.19
406.66	965.19
406.883	987.19
407.107	1010.19
407.331	1012.19
407.555	1058.19
407.778	1035.19
408.002	1064.19
408.226	1012.19
408.449	1005.19
408.673	983.19
408.896	968.19
409.12	986.19
409.344	994.19
409.567	1000.19
409.791	967.19
410.014	976.19
410.238	959.19
410.461	949.19
410.685	963.19
410.908	955.19
411.132	928.19
411.355	917.19
411.578	921.19
411.802	935.19
412.025	972.19
412.249	939.19
412.472	926.19
412.695	929.19
412.919	949.19
413.142	945.19
413.365	917.19
413.589	906.19
413.812	897.19
414.035	901.19
414.258	914.19
414.482	897.19
414.705	915.19
414.928	867.19
415.151	892.19
415.374	901.19
415.597	880.19
415.821	875.19
416.044	883.19
416.267	871.19
416.49	873.19
416.713	880.19
416.936	869.19
417.159	859.19
417.382	865.19
417.605	851.19
417.828	863.19
418.051	892.19
418.274	899.19
418.497	882.19
418.72	886.19
418.943	877.19
419.166	905.19
419.389	964.19
419.611	959.19
419.834	932.19
420.057	925.19
420.28	897.19
420.503	895.19
420.726	844.19
420.948	862.19
421.171	844.19
421.394	874.19
421.617	849.19
421.839	828.19
422.062	861.19
422.285	851.19
422.507	900.19
422.73	879.19
422.953	859.19
423.175	860.19
423.398	853.19
423.621	831.19
423.843	859.19
424.066	871.19
424.288	863.19
424.511	866.19
424.733	844.19
424.956	856.19
425.178	845.19
425.401	860.19
425.623	865.19
425.846	792.19
426.068	831.19
426.291	831.19
426.513	837.19
426.735	851.19
426.958	852.19
427.18	803.19
427.402	846.19
427.625	837.19
427.847	833.19
428.069	834.19
428.292	848.19
428.514	826.19
428.736	806.19
428.958	862.19
429.181	796.19
429.403	815.19
429.625	795.19
429.847	812.19
430.069	808.19
430.292	826.19
430.514	781.19
430.736	817.19
430.958	815.19
431.18	825.19
431.402	829.19
431.624	815.19
431.846	813.19
432.068	827.19
432.29	826.19
432.512	839.19
432.734	849.19
432.956	864.19
433.178	857.19
433.4	886.19
433.622	899.19
433.844	860.19
434.066	881.19
434.287	847.19
434.509	850.19
434.731	891.19
434.953	901.19
435.175	939.19
435.397	915.19
435.618	887.19
435.84	860.19
436.062	872.19
436.284	853.19
436.505	820.19
436.727	838.19
436.949	851.19
437.17	851.19
437.392	828.19
437.614	838.19
437.835	825.19
438.057	801.19
438.278	787.19
438.5	805.19
438.721	804.19
438.943	803.19
439.165	785.19
439.386	794.19
439.608	807.19
439.829	794.19
440.05	859.19
440.272	826.19
440.493	845.19
440.715	828.19
440.936	838.19
441.158	865.19
441.379	859.19
441.6	892.19
441.822	870.19
442.043	871.19
442.264	870.19
442.486	874.19
442.707	871.19
442.928	857.19
443.149	875.19
443.371	900.19
443.592	957.19
443.813	925.19
444.034	880.19
444.255	877.19
444.476	903.19
444.698	951.19
444.919	957.19
445.14	1050.19
445.361	976.19
445.582	913.19
445.803	864.19
446.024	843.19
446.245	838.19
446.466	829.19
446.687	799.19
446.908	833.19
447.129	815.19
447.35	811.19
447.571	802.19
447.792	779.19
448.013	793.19
448.234	741.19
448.455	755.19
448.675	768.19
448.896	772.19
449.117	752.19
449.338	756.19
449.559	754.19
449.779	778.19
450	743.19
450.221	724.19
450.442	740.19
450.662	762.19
450.883	776.19
451.104	770.19
451.324	753.19
451.545	763.19
451.766	743.19
451.986	730.19
452.207	741.19
452.428	720.19
452.648	733.19
452.869	728.19
453.089	760.19
453.31	750.19
453.53	712.19
453.751	757.19
453.971	733.19
454.192	744.19
454.412	771.19
454.633	748.19
454.853	714.19
455.073	725.19
455.294	731.19
455.514	730.19
455.734	759.19
455.955	746.19
456.175	743.19
456.395	727.19
456.616	707.19
456.836	728.19
457.056	728.19
457.276	713.19
457.497	721.19
457.717	748.19
457.937	747.19
458.157	757.19
458.377	732.19
458.598	746.19
458.818	741.19
459.038	780.19
459.258	822.19
459.478	872.19
459.698	963.19
459.918	924.19
460.138	901.19
460.358	919.19
460.578	927.19
460.798	986.19
461.018	955.19
461.238	903.19
461.458	884.19
461.678	883.19
461.898	917.19
462.118	922.19
462.338	932.19
462.558	978.19
462.777	1018.19
462.997	1009.19
463.217	1043.19
463.437	1087.19
463.657	1075.19
463.876	1030.19
464.096	996.19
464.316	965.19
464.536	979.19
464.755	981.19
464.975	944.19
465.195	905.19
465.414	898.19
465.634	856.19
465.854	821.19
466.073	808.19
466.293	820.19
466.512	797.19
466.732	805.19
466.951	796.19
467.171	809.19
467.391	781.19
467.61	781.19
467.829	784.19
468.049	813.19
468.268	759.19
468.488	751.19
468.707	769.19
468.927	784.19
469.146	780.19
469.365	819.19
469.585	779.19
469.804	804.19
470.023	826.19
470.243	815.19
470.462	794.19
470.681	825.19
470.901	799.19
471.12	826.19
471.339	821.19
471.558	812.19
471.777	801.19
471.997	805.19
472.216	764.19
472.435	778.19
472.654	762.19
472.873	776.19
473.092	787.19
473.311	769.19
473.53	771.19
473.749	780.19
473.968	803.19
474.187	780.19
474.406	764.19
474.625	799.19
474.844	806.19
475.063	795.19
475.282	799.19
475.501	835.19
475.72	783.19
475.939	830.19
476.158	809.19
476.377	821.19
476.596	825.19
476.814	840.19
477.033	817.19
477.252	851.19
477.471	861.19
477.69	869.19
477.908	869.19
478.127	903.19
478.346	917.19
478.564	920.19
478.783	940.19
479.002	974.19
479.22	986.19
479.439	967.19
479.658	967.19
479.876	936.19
480.095	927.19
480.313	964.19
480.532	960.19
480.751	961.19
480.969	963.19
481.188	948.19
481.406	925.19
481.624	917.19
481.843	939.19
482.061	919.19
482.28	925.19
482.498	947.19
482.717	919.19
482.935	958.19
483.153	961.19
483.372	1030.19
483.59	1028.19
483.808	959.19
484.027	947.19
484.245	986.19
484.463	946.19
484.681	965.19
484.9	981.19
485.118	976.19
485.336	991.19
485.554	997.19
485.772	968.19
485.99	991.19
486.209	981.19
486.427	949.19
486.645	980.19
486.863	1002.19
487.081	971.19
487.299	990.19
487.517	981.19
487.735	985.19
487.953	1011.19
488.171	979.19
488.389	1012.19
488.607	983.19
488.825	991.19
489.043	977.19
489.261	949.19
489.479	973.19
489.696	974.19
489.914	980.19
490.132	994.19
490.35	964.19
490.568	1004.19
490.786	1008.19
491.003	996.19
491.221	977.19
491.439	1007.19
491.657	984.19
491.874	1016.19
492.092	968.19
492.31	988.19
492.527	992.19
492.745	973.19
492.963	1007.19
493.18	993.19
493.398	981.19
493.615	1007.19
493.833	992.19
494.05	969.19
494.268	1021.19
494.485	986.19
494.703	1019.19
494.92	977.19
495.138	1012.19
495.355	1027.19
495.573	999.19
495.79	1020.19
496.008	1026.19
496.225	1001.19
496.442	1027.19
496.66	1051.19
496.877	1062.19
497.094	1040.19
497.312	1056.19
497.529	1093.19
497.746	1079.19
497.963	1109.19
498.181	1121.19
498.398	1169.19
498.615	1188.19
498.832	1263.19
499.049	1314.19
499.267	1367.19
499.484	1433.19
499.701	1529.19
499.918	1561.19
500.135	1682.19
500.352	1773.19
500.569	1803.19
500.786	1756.19
