Data from Ni(NO3)2@0.125M.TitratingCurve.Agarose3%dH2O.NegLispCup.LampEnergy10.LIBS07252019_HRD10591_18-10-16-568.txt Node
Date: Thu Jul 25 18:10:16 EDT 2019
User: cochatt
Spectrometer: HR+D1059
Trigger mode: 1
Integration Time (sec): 1.000000E-1
Scans to average: 1
Electric dark correction enabled: true
Nonlinearity correction enabled: false
Boxcar width: 0
XAxis mode: Wavelengths
Number of Pixels in Spectrum: 2048
>>>>>Begin Spectral Data<<<<<
223.165	-19.81
223.4	-19.81
223.635	-19.81
223.869	-15.81
224.104	-16.81
224.338	-14.81
224.573	-13.81
224.808	-1.81
225.042	-10.81
225.277	-9.81
225.511	7.19
225.746	6.19
225.98	7.19
226.215	7.19
226.449	18.19
226.683	18.19
226.918	23.19
227.152	16.19
227.387	35.19
227.621	24.19
227.856	47.19
228.09	43.19
228.324	56.19
228.559	51.19
228.793	68.19
229.027	97.19
229.262	90.19
229.496	105.19
229.73	94.19
229.964	95.19
230.199	102.19
230.433	110.19
230.667	115.19
230.901	117.19
231.136	118.19
231.37	108.19
231.604	121.19
231.838	108.19
232.072	101.19
232.306	117.19
232.541	120.19
232.775	124.19
233.009	103.19
233.243	122.19
233.477	101.19
233.711	132.19
233.945	126.19
234.179	129.19
234.413	117.19
234.647	120.19
234.881	122.19
235.115	123.19
235.349	122.19
235.583	127.19
235.817	105.19
236.051	135.19
236.285	126.19
236.519	138.19
236.753	118.19
236.987	129.19
237.221	128.19
237.455	135.19
237.689	129.19
237.922	133.19
238.156	133.19
238.39	131.19
238.624	131.19
238.858	131.19
239.091	121.19
239.325	136.19
239.559	139.19
239.793	130.19
240.027	134.19
240.26	125.19
240.494	140.19
240.728	135.19
240.961	140.19
241.195	150.19
241.429	155.19
241.662	144.19
241.896	148.19
242.13	144.19
242.363	132.19
242.597	143.19
242.83	162.19
243.064	146.19
243.298	158.19
243.531	155.19
243.765	163.19
243.998	136.19
244.232	163.19
244.465	144.19
244.699	146.19
244.932	146.19
245.166	157.19
245.399	151.19
245.633	169.19
245.866	157.19
246.099	166.19
246.333	167.19
246.566	155.19
246.8	157.19
247.033	172.19
247.266	162.19
247.5	170.19
247.733	160.19
247.966	166.19
248.2	175.19
248.433	176.19
248.666	179.19
248.899	190.19
249.133	180.19
249.366	184.19
249.599	184.19
249.832	175.19
250.066	191.19
250.299	172.19
250.532	182.19
250.765	192.19
250.998	194.19
251.231	179.19
251.465	189.19
251.698	201.19
251.931	193.19
252.164	197.19
252.397	198.19
252.63	197.19
252.863	190.19
253.096	204.19
253.329	207.19
253.562	200.19
253.795	200.19
254.028	186.19
254.261	194.19
254.494	193.19
254.727	201.19
254.96	216.19
255.193	199.19
255.426	208.19
255.659	211.19
255.892	217.19
256.124	200.19
256.357	216.19
256.59	214.19
256.823	203.19
257.056	209.19
257.289	208.19
257.521	211.19
257.754	220.19
257.987	223.19
258.22	238.19
258.452	217.19
258.685	211.19
258.918	209.19
259.151	227.19
259.383	202.19
259.616	211.19
259.849	239.19
260.081	231.19
260.314	217.19
260.547	226.19
260.779	223.19
261.012	238.19
261.244	240.19
261.477	241.19
261.71	228.19
261.942	238.19
262.175	227.19
262.407	242.19
262.64	236.19
262.872	224.19
263.105	226.19
263.337	255.19
263.57	256.19
263.802	259.19
264.035	230.19
264.267	248.19
264.499	235.19
264.732	269.19
264.964	251.19
265.197	260.19
265.429	272.19
265.661	256.19
265.894	243.19
266.126	251.19
266.358	249.19
266.591	256.19
266.823	271.19
267.055	254.19
267.287	276.19
267.52	264.19
267.752	267.19
267.984	267.19
268.216	265.19
268.448	261.19
268.681	251.19
268.913	263.19
269.145	264.19
269.377	271.19
269.609	278.19
269.841	263.19
270.073	267.19
270.306	282.19
270.538	263.19
270.77	281.19
271.002	278.19
271.234	277.19
271.466	268.19
271.698	282.19
271.93	262.19
272.162	263.19
272.394	283.19
272.626	285.19
272.858	280.19
273.09	291.19
273.322	285.19
273.553	264.19
273.785	281.19
274.017	284.19
274.249	280.19
274.481	280.19
274.713	282.19
274.945	280.19
275.176	288.19
275.408	298.19
275.64	294.19
275.872	265.19
276.104	310.19
276.335	281.19
276.567	289.19
276.799	302.19
277.031	295.19
277.262	322.19
277.494	299.19
277.726	308.19
277.957	307.19
278.189	308.19
278.421	299.19
278.652	315.19
278.884	308.19
279.115	302.19
279.347	315.19
279.579	307.19
279.81	313.19
280.042	307.19
280.273	315.19
280.505	306.19
280.736	320.19
280.968	298.19
281.199	330.19
281.431	337.19
281.662	324.19
281.894	314.19
282.125	323.19
282.356	323.19
282.588	327.19
282.819	332.19
283.051	313.19
283.282	322.19
283.513	328.19
283.745	330.19
283.976	335.19
284.207	351.19
284.439	327.19
284.67	328.19
284.901	333.19
285.132	340.19
285.364	312.19
285.595	342.19
285.826	340.19
286.057	338.19
286.288	355.19
286.52	336.19
286.751	354.19
286.982	367.19
287.213	332.19
287.444	333.19
287.675	362.19
287.906	341.19
288.138	355.19
288.369	351.19
288.6	353.19
288.831	351.19
289.062	335.19
289.293	375.19
289.524	379.19
289.755	363.19
289.986	356.19
290.217	367.19
290.448	344.19
290.679	356.19
290.91	359.19
291.141	376.19
291.371	378.19
291.602	353.19
291.833	359.19
292.064	374.19
292.295	367.19
292.526	359.19
292.757	372.19
292.987	375.19
293.218	376.19
293.449	364.19
293.68	370.19
293.91	374.19
294.141	362.19
294.372	362.19
294.603	376.19
294.833	376.19
295.064	374.19
295.295	380.19
295.525	382.19
295.756	385.19
295.987	379.19
296.217	390.19
296.448	392.19
296.679	385.19
296.909	376.19
297.14	386.19
297.37	413.19
297.601	398.19
297.831	388.19
298.062	399.19
298.292	390.19
298.523	424.19
298.753	397.19
298.984	395.19
299.214	387.19
299.445	403.19
299.675	389.19
299.905	406.19
300.136	366.19
300.366	392.19
300.597	412.19
300.827	432.19
301.057	417.19
301.288	418.19
301.518	424.19
301.748	417.19
301.979	427.19
302.209	422.19
302.439	422.19
302.669	405.19
302.9	404.19
303.13	394.19
303.36	413.19
303.59	378.19
303.82	409.19
304.051	400.19
304.281	412.19
304.511	401.19
304.741	408.19
304.971	396.19
305.201	428.19
305.431	414.19
305.661	407.19
305.891	414.19
306.121	403.19
306.352	390.19
306.582	395.19
306.812	406.19
307.042	408.19
307.272	431.19
307.502	397.19
307.731	387.19
307.961	410.19
308.191	405.19
308.421	392.19
308.651	396.19
308.881	415.19
309.111	388.19
309.341	404.19
309.571	382.19
309.8	390.19
310.03	400.19
310.26	400.19
310.49	411.19
310.72	396.19
310.949	408.19
311.179	424.19
311.409	401.19
311.639	419.19
311.868	416.19
312.098	425.19
312.328	417.19
312.557	414.19
312.787	425.19
313.017	434.19
313.246	430.19
313.476	428.19
313.706	430.19
313.935	420.19
314.165	448.19
314.394	424.19
314.624	440.19
314.853	443.19
315.083	430.19
315.312	446.19
315.542	452.19
315.771	420.19
316.001	447.19
316.23	416.19
316.46	414.19
316.689	418.19
316.919	426.19
317.148	431.19
317.377	417.19
317.607	435.19
317.836	419.19
318.065	423.19
318.295	435.19
318.524	423.19
318.753	417.19
318.983	414.19
319.212	420.19
319.441	413.19
319.67	422.19
319.9	414.19
320.129	401.19
320.358	427.19
320.587	418.19
320.816	431.19
321.046	444.19
321.275	424.19
321.504	426.19
321.733	433.19
321.962	416.19
322.191	425.19
322.42	418.19
322.649	426.19
322.878	441.19
323.108	432.19
323.337	451.19
323.566	428.19
323.795	431.19
324.024	438.19
324.253	455.19
324.482	432.19
324.71	430.19
324.939	438.19
325.168	450.19
325.397	438.19
325.626	448.19
325.855	436.19
326.084	484.19
326.313	467.19
326.542	458.19
326.77	480.19
326.999	468.19
327.228	463.19
327.457	473.19
327.686	478.19
327.914	491.19
328.143	470.19
328.372	467.19
328.6	469.19
328.829	480.19
329.058	473.19
329.287	466.19
329.515	501.19
329.744	467.19
329.972	479.19
330.201	476.19
330.43	474.19
330.658	472.19
330.887	466.19
331.115	482.19
331.344	490.19
331.572	476.19
331.801	481.19
332.03	528.19
332.258	539.19
332.486	549.19
332.715	565.19
332.943	614.19
333.172	615.19
333.4	651.19
333.629	675.19
333.857	676.19
334.085	632.19
334.314	619.19
334.542	641.19
334.771	591.19
334.999	583.19
335.227	609.19
335.455	596.19
335.684	579.19
335.912	575.19
336.14	538.19
336.369	536.19
336.597	578.19
336.825	566.19
337.053	568.19
337.281	579.19
337.51	538.19
337.738	552.19
337.966	530.19
338.194	540.19
338.422	525.19
338.65	504.19
338.878	516.19
339.106	510.19
339.334	546.19
339.562	508.19
339.79	494.19
340.018	503.19
340.246	478.19
340.474	501.19
340.702	488.19
340.93	502.19
341.158	498.19
341.386	505.19
341.614	490.19
341.842	491.19
342.07	473.19
342.298	475.19
342.526	493.19
342.754	487.19
342.981	480.19
343.209	521.19
343.437	561.19
343.665	590.19
343.893	615.19
344.12	635.19
344.348	587.19
344.576	565.19
344.804	526.19
345.031	513.19
345.259	512.19
345.487	490.19
345.714	500.19
345.942	480.19
346.17	488.19
346.397	512.19
346.625	500.19
346.853	463.19
347.08	475.19
347.308	502.19
347.535	496.19
347.763	504.19
347.99	495.19
348.218	485.19
348.445	494.19
348.673	494.19
348.9	483.19
349.128	482.19
349.355	481.19
349.583	461.19
349.81	459.19
350.037	482.19
350.265	465.19
350.492	472.19
350.72	455.19
350.947	460.19
351.174	462.19
351.402	476.19
351.629	457.19
351.856	458.19
352.083	479.19
352.311	451.19
352.538	463.19
352.765	464.19
352.992	442.19
353.22	459.19
353.447	449.19
353.674	436.19
353.901	470.19
354.128	465.19
354.355	472.19
354.583	462.19
354.81	461.19
355.037	468.19
355.264	485.19
355.491	472.19
355.718	464.19
355.945	456.19
356.172	461.19
356.399	449.19
356.626	510.19
356.853	483.19
357.08	450.19
357.307	481.19
357.534	467.19
357.761	472.19
357.988	470.19
358.215	438.19
358.441	466.19
358.668	453.19
358.895	463.19
359.122	481.19
359.349	465.19
359.576	474.19
359.802	465.19
360.029	451.19
360.256	466.19
360.483	444.19
360.709	467.19
360.936	457.19
361.163	427.19
361.39	467.19
361.616	483.19
361.843	456.19
362.07	459.19
362.296	476.19
362.523	472.19
362.749	463.19
362.976	440.19
363.203	472.19
363.429	471.19
363.656	472.19
363.882	474.19
364.109	458.19
364.335	466.19
364.562	452.19
364.788	452.19
365.015	446.19
365.241	459.19
365.468	471.19
365.694	461.19
365.92	460.19
366.147	456.19
366.373	463.19
366.599	434.19
366.826	454.19
367.052	454.19
367.278	453.19
367.505	430.19
367.731	461.19
367.957	463.19
368.184	467.19
368.41	465.19
368.636	486.19
368.862	457.19
369.089	470.19
369.315	475.19
369.541	472.19
369.767	491.19
369.993	493.19
370.219	462.19
370.445	467.19
370.672	488.19
370.898	490.19
371.124	513.19
371.35	511.19
371.576	499.19
371.802	510.19
372.028	508.19
372.254	492.19
372.48	496.19
372.706	521.19
372.932	526.19
373.158	525.19
373.384	539.19
373.61	516.19
373.835	503.19
374.061	490.19
374.287	529.19
374.513	528.19
374.739	570.19
374.965	565.19
375.191	564.19
375.416	575.19
375.642	544.19
375.868	551.19
376.094	536.19
376.319	515.19
376.545	519.19
376.771	512.19
376.997	500.19
377.222	511.19
377.448	517.19
377.674	517.19
377.899	503.19
378.125	513.19
378.35	502.19
378.576	486.19
378.802	494.19
379.027	499.19
379.253	513.19
379.478	519.19
379.704	506.19
379.929	504.19
380.155	502.19
380.38	475.19
380.606	500.19
380.831	512.19
381.057	515.19
381.282	483.19
381.507	519.19
381.733	520.19
381.958	503.19
382.184	523.19
382.409	527.19
382.634	518.19
382.86	520.19
383.085	549.19
383.31	559.19
383.535	574.19
383.761	588.19
383.986	564.19
384.211	577.19
384.436	586.19
384.662	594.19
384.887	588.19
385.112	599.19
385.337	618.19
385.562	618.19
385.787	612.19
386.013	611.19
386.238	627.19
386.463	595.19
386.688	604.19
386.913	607.19
387.138	594.19
387.363	582.19
387.588	601.19
387.813	596.19
388.038	593.19
388.263	596.19
388.488	617.19
388.713	588.19
388.938	597.19
389.163	594.19
389.387	554.19
389.612	588.19
389.837	615.19
390.062	588.19
390.287	583.19
390.512	609.19
390.736	601.19
390.961	604.19
391.186	611.19
391.411	634.19
391.636	658.19
391.86	647.19
392.085	694.19
392.31	686.19
392.534	663.19
392.759	652.19
392.984	662.19
393.208	635.19
393.433	656.19
393.658	644.19
393.882	672.19
394.107	647.19
394.331	658.19
394.556	636.19
394.78	627.19
395.005	655.19
395.229	637.19
395.454	663.19
395.678	676.19
395.903	669.19
396.127	655.19
396.352	628.19
396.576	632.19
396.801	608.19
397.025	620.19
397.249	644.19
397.474	657.19
397.698	662.19
397.922	668.19
398.147	666.19
398.371	676.19
398.595	707.19
398.82	739.19
399.044	797.19
399.268	879.19
399.492	1043.19
399.717	1187.19
399.941	1186.19
400.165	1011.19
400.389	900.19
400.613	850.19
400.837	772.19
401.062	782.19
401.286	781.19
401.51	743.19
401.734	746.19
401.958	773.19
402.182	765.19
402.406	766.19
402.63	777.19
402.854	814.19
403.078	803.19
403.302	849.19
403.526	874.19
403.75	889.19
403.974	896.19
404.198	894.19
404.422	914.19
404.645	890.19
404.869	855.19
405.093	873.19
405.317	844.19
405.541	838.19
405.765	841.19
405.988	823.19
406.212	825.19
406.436	819.19
406.66	841.19
406.883	864.19
407.107	920.19
407.331	936.19
407.555	1000.19
407.778	1000.19
408.002	945.19
408.226	920.19
408.449	879.19
408.673	879.19
408.896	875.19
409.12	859.19
409.344	890.19
409.567	898.19
409.791	879.19
410.014	921.19
410.238	881.19
410.461	899.19
410.685	869.19
410.908	822.19
411.132	844.19
411.355	788.19
411.578	789.19
411.802	785.19
412.025	802.19
412.249	814.19
412.472	815.19
412.695	776.19
412.919	764.19
413.142	747.19
413.365	753.19
413.589	758.19
413.812	718.19
414.035	748.19
414.258	771.19
414.482	768.19
414.705	755.19
414.928	770.19
415.151	744.19
415.374	778.19
415.597	773.19
415.821	753.19
416.044	738.19
416.267	764.19
416.49	736.19
416.713	755.19
416.936	774.19
417.159	756.19
417.382	756.19
417.605	745.19
417.828	768.19
418.051	760.19
418.274	775.19
418.497	761.19
418.72	777.19
418.943	754.19
419.166	841.19
419.389	894.19
419.611	864.19
419.834	818.19
420.057	802.19
420.28	772.19
420.503	735.19
420.726	760.19
420.948	743.19
421.171	759.19
421.394	767.19
421.617	760.19
421.839	738.19
422.062	775.19
422.285	754.19
422.507	800.19
422.73	795.19
422.953	803.19
423.175	806.19
423.398	837.19
423.621	821.19
423.843	831.19
424.066	829.19
424.288	839.19
424.511	802.19
424.733	798.19
424.956	817.19
425.178	773.19
425.401	760.19
425.623	782.19
425.846	740.19
426.068	741.19
426.291	724.19
426.513	743.19
426.735	719.19
426.958	714.19
427.18	698.19
427.402	673.19
427.625	681.19
427.847	689.19
428.069	678.19
428.292	682.19
428.514	678.19
428.736	672.19
428.958	690.19
429.181	656.19
429.403	660.19
429.625	643.19
429.847	646.19
430.069	679.19
430.292	676.19
430.514	656.19
430.736	678.19
430.958	667.19
431.18	680.19
431.402	670.19
431.624	667.19
431.846	694.19
432.068	698.19
432.29	708.19
432.512	646.19
432.734	671.19
432.956	661.19
433.178	682.19
433.4	695.19
433.622	681.19
433.844	707.19
434.066	719.19
434.287	706.19
434.509	724.19
434.731	766.19
434.953	791.19
435.175	787.19
435.397	763.19
435.618	718.19
435.84	728.19
436.062	679.19
436.284	693.19
436.505	695.19
436.727	676.19
436.949	692.19
437.17	702.19
437.392	670.19
437.614	642.19
437.835	641.19
438.057	661.19
438.278	655.19
438.5	647.19
438.721	692.19
438.943	677.19
439.165	655.19
439.386	681.19
439.608	679.19
439.829	694.19
440.05	702.19
440.272	701.19
440.493	686.19
440.715	675.19
440.936	728.19
441.158	745.19
441.379	737.19
441.6	806.19
441.822	799.19
442.043	816.19
442.264	770.19
442.486	773.19
442.707	807.19
442.928	760.19
443.149	780.19
443.371	770.19
443.592	800.19
443.813	787.19
444.034	798.19
444.255	828.19
444.476	870.19
444.698	959.19
444.919	942.19
445.14	1007.19
445.361	915.19
445.582	839.19
445.803	765.19
446.024	757.19
446.245	750.19
446.466	720.19
446.687	714.19
446.908	706.19
447.129	702.19
447.35	659.19
447.571	681.19
447.792	672.19
448.013	663.19
448.234	636.19
448.455	644.19
448.675	652.19
448.896	678.19
449.117	636.19
449.338	644.19
449.559	649.19
449.779	623.19
450	623.19
450.221	645.19
450.442	647.19
450.662	659.19
450.883	642.19
451.104	665.19
451.324	657.19
451.545	661.19
451.766	663.19
451.986	635.19
452.207	650.19
452.428	668.19
452.648	660.19
452.869	650.19
453.089	638.19
453.31	641.19
453.53	634.19
453.751	656.19
453.971	602.19
454.192	611.19
454.412	592.19
454.633	607.19
454.853	618.19
455.073	615.19
455.294	611.19
455.514	616.19
455.734	613.19
455.955	593.19
456.175	627.19
456.395	601.19
456.616	578.19
456.836	600.19
457.056	591.19
457.276	586.19
457.497	582.19
457.717	600.19
457.937	598.19
458.157	603.19
458.377	606.19
458.598	631.19
458.818	646.19
459.038	664.19
459.258	668.19
459.478	707.19
459.698	728.19
459.918	739.19
460.138	771.19
460.358	848.19
460.578	819.19
460.798	814.19
461.018	830.19
461.238	864.19
461.458	823.19
461.678	812.19
461.898	819.19
462.118	850.19
462.338	904.19
462.558	900.19
462.777	928.19
462.997	1045.19
463.217	1172.19
463.437	1160.19
463.657	1018.19
463.876	978.19
464.096	978.19
464.316	996.19
464.536	997.19
464.755	926.19
464.975	897.19
465.195	874.19
465.414	814.19
465.634	768.19
465.854	732.19
466.073	720.19
466.293	694.19
466.512	682.19
466.732	677.19
466.951	678.19
467.171	660.19
467.391	672.19
467.61	682.19
467.829	664.19
468.049	686.19
468.268	636.19
468.488	642.19
468.707	648.19
468.927	648.19
469.146	651.19
469.365	664.19
469.585	647.19
469.804	684.19
470.023	678.19
470.243	726.19
470.462	699.19
470.681	683.19
470.901	712.19
471.12	696.19
471.339	645.19
471.558	661.19
471.777	664.19
471.997	635.19
472.216	631.19
472.435	637.19
472.654	630.19
472.873	618.19
473.092	640.19
473.311	614.19
473.53	644.19
473.749	617.19
473.968	606.19
474.187	600.19
474.406	623.19
474.625	647.19
474.844	604.19
475.063	614.19
475.282	615.19
475.501	631.19
475.72	625.19
475.939	657.19
476.158	648.19
476.377	646.19
476.596	648.19
476.814	643.19
477.033	648.19
477.252	638.19
477.471	685.19
477.69	698.19
477.908	712.19
478.127	720.19
478.346	760.19
478.564	762.19
478.783	786.19
479.002	804.19
479.22	815.19
479.439	788.19
479.658	768.19
479.876	770.19
480.095	778.19
480.313	822.19
480.532	870.19
480.751	844.19
480.969	797.19
481.188	768.19
481.406	753.19
481.624	721.19
481.843	715.19
482.061	715.19
482.28	719.19
482.498	689.19
482.717	691.19
482.935	700.19
483.153	707.19
483.372	729.19
483.59	722.19
483.808	697.19
484.027	722.19
484.245	725.19
484.463	723.19
484.681	741.19
484.9	754.19
485.118	747.19
485.336	772.19
485.554	762.19
485.772	748.19
485.99	779.19
486.209	732.19
486.427	756.19
486.645	758.19
486.863	758.19
487.081	738.19
487.299	742.19
487.517	755.19
487.735	760.19
487.953	762.19
488.171	743.19
488.389	747.19
488.607	747.19
488.825	714.19
489.043	730.19
489.261	729.19
489.479	738.19
489.696	735.19
489.914	759.19
490.132	739.19
490.35	767.19
490.568	735.19
490.786	745.19
491.003	736.19
491.221	770.19
491.439	764.19
491.657	772.19
491.874	756.19
492.092	815.19
492.31	780.19
492.527	768.19
492.745	752.19
492.963	783.19
493.18	768.19
493.398	821.19
493.615	786.19
493.833	784.19
494.05	806.19
494.268	784.19
494.485	804.19
494.703	797.19
494.92	771.19
495.138	777.19
495.355	791.19
495.573	802.19
495.79	807.19
496.008	800.19
496.225	793.19
496.442	789.19
496.66	833.19
496.877	829.19
497.094	844.19
497.312	859.19
497.529	847.19
497.746	884.19
497.963	894.19
498.181	956.19
498.398	959.19
498.615	1057.19
498.832	1123.19
499.049	1178.19
499.267	1290.19
499.484	1428.19
499.701	1578.19
499.918	1812.19
500.135	2080.19
500.352	2420.19
500.569	2523.19
500.786	2561.19
501.003	2294.19
501.22	2011.19
