Data from Ni(NO3)2Standard.Agarose3%.GreenCap.LampEnergy5.5.E.O_HRD10591_14-40-13-188.txt Node
Date: Mon Jul 22 14:40:13 EDT 2019
User: cochatt
Spectrometer: HR+D1059
Trigger mode: 1
Integration Time (sec): 1.000000E-1
Scans to average: 1
Electric dark correction enabled: true
Nonlinearity correction enabled: false
Boxcar width: 0
XAxis mode: Wavelengths
Number of Pixels in Spectrum: 2048
>>>>>Begin Spectral Data<<<<<
223.165	-12.25
223.4	-12.25
223.635	-12.25
223.869	-24.25
224.104	-20.25
224.338	-26.25
224.573	-13.25
224.808	-12.25
225.042	3.75
225.277	-6.25
225.511	5.75
225.746	-2.25
225.98	-0.25
226.215	16.75
226.449	13.75
226.683	17.75
226.918	19.75
227.152	39.75
227.387	37.75
227.621	34.75
227.856	50.75
228.09	44.75
228.324	52.75
228.559	57.75
228.793	70.75
229.027	72.75
229.262	58.75
229.496	68.75
229.73	65.75
229.964	61.75
230.199	75.75
230.433	85.75
230.667	82.75
230.901	88.75
231.136	71.75
231.37	72.75
231.604	81.75
231.838	77.75
232.072	82.75
232.306	80.75
232.541	90.75
232.775	85.75
233.009	67.75
233.243	82.75
233.477	75.75
233.711	74.75
233.945	69.75
234.179	85.75
234.413	91.75
234.647	86.75
234.881	83.75
235.115	84.75
235.349	82.75
235.583	70.75
235.817	84.75
236.051	69.75
236.285	81.75
236.519	58.75
236.753	80.75
236.987	87.75
237.221	72.75
237.455	74.75
237.689	79.75
237.922	76.75
238.156	71.75
238.39	73.75
238.624	80.75
238.858	74.75
239.091	87.75
239.325	76.75
239.559	71.75
239.793	89.75
240.027	79.75
240.26	79.75
240.494	83.75
240.728	73.75
240.961	84.75
241.195	65.75
241.429	66.75
241.662	69.75
241.896	80.75
242.13	86.75
242.363	81.75
242.597	88.75
242.83	84.75
243.064	86.75
243.298	87.75
243.531	72.75
243.765	72.75
243.998	77.75
244.232	76.75
244.465	89.75
244.699	71.75
244.932	75.75
245.166	81.75
245.399	76.75
245.633	76.75
245.866	77.75
246.099	67.75
246.333	80.75
246.566	73.75
246.8	91.75
247.033	81.75
247.266	61.75
247.5	91.75
247.733	84.75
247.966	68.75
248.2	74.75
248.433	83.75
248.666	74.75
248.899	66.75
249.133	81.75
249.366	83.75
249.599	84.75
249.832	83.75
250.066	58.75
250.299	74.75
250.532	85.75
250.765	83.75
250.998	83.75
251.231	78.75
251.465	89.75
251.698	72.75
251.931	73.75
252.164	74.75
252.397	96.75
252.63	75.75
252.863	73.75
253.096	84.75
253.329	77.75
253.562	70.75
253.795	77.75
254.028	86.75
254.261	79.75
254.494	76.75
254.727	83.75
254.96	83.75
255.193	74.75
255.426	76.75
255.659	74.75
255.892	80.75
256.124	74.75
256.357	70.75
256.59	85.75
256.823	75.75
257.056	86.75
257.289	78.75
257.521	77.75
257.754	84.75
257.987	85.75
258.22	86.75
258.452	80.75
258.685	81.75
258.918	73.75
259.151	85.75
259.383	78.75
259.616	67.75
259.849	80.75
260.081	69.75
260.314	85.75
260.547	83.75
260.779	81.75
261.012	72.75
261.244	74.75
261.477	84.75
261.71	78.75
261.942	89.75
262.175	83.75
262.407	86.75
262.64	67.75
262.872	85.75
263.105	82.75
263.337	85.75
263.57	75.75
263.802	76.75
264.035	76.75
264.267	74.75
264.499	82.75
264.732	75.75
264.964	83.75
265.197	89.75
265.429	70.75
265.661	83.75
265.894	73.75
266.126	88.75
266.358	70.75
266.591	74.75
266.823	86.75
267.055	70.75
267.287	73.75
267.52	64.75
267.752	85.75
267.984	89.75
268.216	84.75
268.448	90.75
268.681	87.75
268.913	80.75
269.145	76.75
269.377	65.75
269.609	65.75
269.841	60.75
270.073	78.75
270.306	69.75
270.538	75.75
270.77	76.75
271.002	80.75
271.234	77.75
271.466	76.75
271.698	71.75
271.93	96.75
272.162	81.75
272.394	81.75
272.626	77.75
272.858	86.75
273.09	77.75
273.322	86.75
273.553	91.75
273.785	81.75
274.017	92.75
274.249	79.75
274.481	75.75
274.713	76.75
274.945	80.75
275.176	76.75
275.408	72.75
275.64	88.75
275.872	97.75
276.104	90.75
276.335	85.75
276.567	89.75
276.799	80.75
277.031	88.75
277.262	89.75
277.494	83.75
277.726	77.75
277.957	91.75
278.189	82.75
278.421	76.75
278.652	89.75
278.884	71.75
279.115	75.75
279.347	80.75
279.579	71.75
279.81	83.75
280.042	90.75
280.273	67.75
280.505	75.75
280.736	80.75
280.968	68.75
281.199	87.75
281.431	91.75
281.662	69.75
281.894	87.75
282.125	99.75
282.356	96.75
282.588	75.75
282.819	81.75
283.051	71.75
283.282	89.75
283.513	87.75
283.745	107.75
283.976	76.75
284.207	75.75
284.439	77.75
284.67	81.75
284.901	97.75
285.132	87.75
285.364	76.75
285.595	92.75
285.826	82.75
286.057	90.75
286.288	80.75
286.52	83.75
286.751	80.75
286.982	83.75
287.213	81.75
287.444	81.75
287.675	86.75
287.906	84.75
288.138	89.75
288.369	89.75
288.6	76.75
288.831	77.75
289.062	85.75
289.293	68.75
289.524	81.75
289.755	79.75
289.986	83.75
290.217	80.75
290.448	65.75
290.679	73.75
290.91	84.75
291.141	70.75
291.371	75.75
291.602	88.75
291.833	79.75
292.064	78.75
292.295	93.75
292.526	83.75
292.757	87.75
292.987	75.75
293.218	88.75
293.449	91.75
293.68	93.75
293.91	81.75
294.141	88.75
294.372	67.75
294.603	93.75
294.833	89.75
295.064	84.75
295.295	79.75
295.525	94.75
295.756	88.75
295.987	73.75
296.217	78.75
296.448	83.75
296.679	79.75
296.909	78.75
297.14	81.75
297.37	89.75
297.601	67.75
297.831	92.75
298.062	91.75
298.292	89.75
298.523	81.75
298.753	76.75
298.984	92.75
299.214	84.75
299.445	91.75
299.675	97.75
299.905	74.75
300.136	73.75
300.366	78.75
300.597	77.75
300.827	82.75
301.057	85.75
301.288	73.75
301.518	96.75
301.748	74.75
301.979	81.75
302.209	76.75
302.439	97.75
302.669	77.75
302.9	66.75
303.13	85.75
303.36	80.75
303.59	83.75
303.82	82.75
304.051	91.75
304.281	77.75
304.511	91.75
304.741	81.75
304.971	92.75
305.201	89.75
305.431	101.75
305.661	89.75
305.891	72.75
306.121	84.75
306.352	77.75
306.582	87.75
306.812	91.75
307.042	77.75
307.272	93.75
307.502	76.75
307.731	99.75
307.961	84.75
308.191	71.75
308.421	87.75
308.651	74.75
308.881	77.75
309.111	86.75
309.341	67.75
309.571	88.75
309.8	82.75
310.03	89.75
310.26	97.75
310.49	81.75
310.72	74.75
310.949	81.75
311.179	86.75
311.409	89.75
311.639	84.75
311.868	93.75
312.098	87.75
312.328	86.75
312.557	79.75
312.787	92.75
313.017	67.75
313.246	97.75
313.476	80.75
313.706	66.75
313.935	77.75
314.165	84.75
314.394	89.75
314.624	93.75
314.853	88.75
315.083	89.75
315.312	88.75
315.542	88.75
315.771	72.75
316.001	90.75
316.23	96.75
316.46	89.75
316.689	83.75
316.919	82.75
317.148	85.75
317.377	92.75
317.607	72.75
317.836	80.75
318.065	85.75
318.295	72.75
318.524	72.75
318.753	88.75
318.983	83.75
319.212	105.75
319.441	84.75
319.67	84.75
319.9	85.75
320.129	75.75
320.358	89.75
320.587	77.75
320.816	85.75
321.046	72.75
321.275	77.75
321.504	86.75
321.733	83.75
321.962	95.75
322.191	75.75
322.42	80.75
322.649	80.75
322.878	102.75
323.108	84.75
323.337	88.75
323.566	92.75
323.795	95.75
324.024	92.75
324.253	80.75
324.482	90.75
324.71	86.75
324.939	72.75
325.168	79.75
325.397	79.75
325.626	80.75
325.855	85.75
326.084	81.75
326.313	92.75
326.542	99.75
326.77	87.75
326.999	87.75
327.228	72.75
327.457	99.75
327.686	78.75
327.914	71.75
328.143	92.75
328.372	89.75
328.6	96.75
328.829	75.75
329.058	82.75
329.287	101.75
329.515	89.75
329.744	90.75
329.972	80.75
330.201	85.75
330.43	90.75
330.658	93.75
330.887	100.75
331.115	82.75
331.344	81.75
331.572	81.75
331.801	71.75
332.03	89.75
332.258	75.75
332.486	81.75
332.715	87.75
332.943	86.75
333.172	69.75
333.4	85.75
333.629	70.75
333.857	78.75
334.085	86.75
334.314	81.75
334.542	90.75
334.771	92.75
334.999	84.75
335.227	72.75
335.455	86.75
335.684	91.75
335.912	90.75
336.14	93.75
336.369	84.75
336.597	81.75
336.825	77.75
337.053	86.75
337.281	88.75
337.51	90.75
337.738	81.75
337.966	98.75
338.194	89.75
338.422	83.75
338.65	88.75
338.878	88.75
339.106	93.75
339.334	86.75
339.562	85.75
339.79	96.75
340.018	82.75
340.246	86.75
340.474	87.75
340.702	86.75
340.93	80.75
341.158	92.75
341.386	94.75
341.614	84.75
341.842	73.75
342.07	90.75
342.298	90.75
342.526	90.75
342.754	84.75
342.981	83.75
343.209	76.75
343.437	79.75
343.665	82.75
343.893	80.75
344.12	84.75
344.348	92.75
344.576	82.75
344.804	85.75
345.031	80.75
345.259	81.75
345.487	74.75
345.714	94.75
345.942	95.75
346.17	85.75
346.397	93.75
346.625	85.75
346.853	92.75
347.08	87.75
347.308	83.75
347.535	91.75
347.763	98.75
347.99	96.75
348.218	85.75
348.445	96.75
348.673	72.75
348.9	99.75
349.128	85.75
349.355	81.75
349.583	86.75
349.81	78.75
350.037	80.75
350.265	87.75
350.492	90.75
350.72	68.75
350.947	88.75
351.174	93.75
351.402	72.75
351.629	73.75
351.856	92.75
352.083	89.75
352.311	90.75
352.538	87.75
352.765	76.75
352.992	83.75
353.22	84.75
353.447	96.75
353.674	90.75
353.901	76.75
354.128	82.75
354.355	82.75
354.583	88.75
354.81	76.75
355.037	77.75
355.264	86.75
355.491	87.75
355.718	87.75
355.945	77.75
356.172	92.75
356.399	90.75
356.626	97.75
356.853	89.75
357.08	84.75
357.307	92.75
357.534	91.75
357.761	84.75
357.988	75.75
358.215	87.75
358.441	81.75
358.668	88.75
358.895	80.75
359.122	81.75
359.349	83.75
359.576	96.75
359.802	89.75
360.029	78.75
360.256	84.75
360.483	84.75
360.709	102.75
360.936	96.75
361.163	74.75
361.39	83.75
361.616	90.75
361.843	84.75
362.07	86.75
362.296	85.75
362.523	81.75
362.749	83.75
362.976	81.75
363.203	100.75
363.429	100.75
363.656	88.75
363.882	86.75
364.109	92.75
364.335	85.75
364.562	75.75
364.788	90.75
365.015	84.75
365.241	78.75
365.468	81.75
365.694	83.75
365.92	79.75
366.147	88.75
366.373	74.75
366.599	77.75
366.826	80.75
367.052	91.75
367.278	83.75
367.505	85.75
367.731	93.75
367.957	90.75
368.184	86.75
368.41	83.75
368.636	86.75
368.862	73.75
369.089	87.75
369.315	86.75
369.541	83.75
369.767	88.75
369.993	84.75
370.219	70.75
370.445	87.75
370.672	68.75
370.898	85.75
371.124	89.75
371.35	74.75
371.576	87.75
371.802	93.75
372.028	80.75
372.254	91.75
372.48	66.75
372.706	76.75
372.932	79.75
373.158	86.75
373.384	87.75
373.61	88.75
373.835	88.75
374.061	83.75
374.287	75.75
374.513	76.75
374.739	70.75
374.965	82.75
375.191	84.75
375.416	84.75
375.642	84.75
375.868	97.75
376.094	76.75
376.319	74.75
376.545	80.75
376.771	79.75
376.997	89.75
377.222	67.75
377.448	82.75
377.674	83.75
377.899	89.75
378.125	91.75
378.35	73.75
378.576	76.75
378.802	89.75
379.027	81.75
379.253	70.75
379.478	84.75
379.704	100.75
379.929	70.75
380.155	83.75
380.38	81.75
380.606	80.75
380.831	73.75
381.057	92.75
381.282	89.75
381.507	77.75
381.733	93.75
381.958	88.75
382.184	90.75
382.409	77.75
382.634	77.75
382.86	75.75
383.085	81.75
383.31	98.75
383.535	87.75
383.761	87.75
383.986	96.75
384.211	86.75
384.436	82.75
384.662	74.75
384.887	79.75
385.112	76.75
385.337	79.75
385.562	76.75
385.787	79.75
386.013	98.75
386.238	67.75
386.463	68.75
386.688	95.75
386.913	70.75
387.138	78.75
387.363	90.75
387.588	85.75
387.813	87.75
388.038	85.75
388.263	94.75
388.488	93.75
388.713	94.75
388.938	75.75
389.163	100.75
389.387	99.75
389.612	88.75
389.837	76.75
390.062	74.75
390.287	87.75
390.512	91.75
390.736	81.75
390.961	84.75
391.186	81.75
391.411	86.75
391.636	76.75
391.86	90.75
392.085	83.75
392.31	81.75
392.534	76.75
392.759	90.75
392.984	81.75
393.208	96.75
393.433	89.75
393.658	82.75
393.882	80.75
394.107	83.75
394.331	100.75
394.556	97.75
394.78	64.75
395.005	79.75
395.229	91.75
395.454	88.75
395.678	84.75
395.903	77.75
396.127	93.75
396.352	79.75
396.576	82.75
396.801	77.75
397.025	87.75
397.249	85.75
397.474	89.75
397.698	101.75
397.922	93.75
398.147	94.75
398.371	85.75
398.595	93.75
398.82	89.75
399.044	82.75
399.268	96.75
399.492	109.75
399.717	91.75
399.941	101.75
400.165	77.75
400.389	76.75
400.613	84.75
400.837	83.75
401.062	80.75
401.286	84.75
401.51	84.75
401.734	90.75
401.958	88.75
402.182	79.75
402.406	95.75
402.63	80.75
402.854	86.75
403.078	81.75
403.302	86.75
403.526	75.75
403.75	93.75
403.974	90.75
404.198	80.75
404.422	77.75
404.645	82.75
404.869	91.75
405.093	88.75
405.317	83.75
405.541	84.75
405.765	78.75
405.988	78.75
406.212	94.75
406.436	78.75
406.66	82.75
406.883	100.75
407.107	77.75
407.331	86.75
407.555	85.75
407.778	94.75
408.002	85.75
408.226	68.75
408.449	81.75
408.673	68.75
408.896	86.75
409.12	81.75
409.344	91.75
409.567	88.75
409.791	83.75
410.014	80.75
410.238	92.75
410.461	80.75
410.685	84.75
410.908	87.75
411.132	82.75
411.355	77.75
411.578	86.75
411.802	82.75
412.025	75.75
412.249	71.75
412.472	86.75
412.695	68.75
412.919	83.75
413.142	85.75
413.365	97.75
413.589	75.75
413.812	95.75
414.035	89.75
414.258	84.75
414.482	85.75
414.705	82.75
414.928	82.75
415.151	83.75
415.374	88.75
415.597	77.75
415.821	80.75
416.044	90.75
416.267	89.75
416.49	71.75
416.713	96.75
416.936	87.75
417.159	86.75
417.382	87.75
417.605	72.75
417.828	105.75
418.051	75.75
418.274	86.75
418.497	87.75
418.72	68.75
418.943	104.75
419.166	95.75
419.389	90.75
419.611	84.75
419.834	85.75
420.057	97.75
420.28	84.75
420.503	87.75
420.726	92.75
420.948	90.75
421.171	86.75
421.394	96.75
421.617	85.75
421.839	86.75
422.062	66.75
422.285	71.75
422.507	69.75
422.73	91.75
422.953	76.75
423.175	92.75
423.398	77.75
423.621	80.75
423.843	99.75
424.066	80.75
424.288	70.75
424.511	92.75
424.733	90.75
424.956	85.75
425.178	95.75
425.401	79.75
425.623	84.75
425.846	83.75
426.068	89.75
426.291	67.75
426.513	83.75
426.735	86.75
426.958	81.75
427.18	83.75
427.402	83.75
427.625	75.75
427.847	83.75
428.069	78.75
428.292	96.75
428.514	80.75
428.736	86.75
428.958	98.75
429.181	89.75
429.403	68.75
429.625	83.75
429.847	80.75
430.069	85.75
430.292	73.75
430.514	70.75
430.736	90.75
430.958	71.75
431.18	88.75
431.402	95.75
431.624	85.75
431.846	88.75
432.068	77.75
432.29	87.75
432.512	83.75
432.734	67.75
432.956	83.75
433.178	80.75
433.4	86.75
433.622	76.75
433.844	81.75
434.066	85.75
434.287	87.75
434.509	88.75
434.731	83.75
434.953	85.75
435.175	93.75
435.397	67.75
435.618	85.75
435.84	86.75
436.062	76.75
436.284	95.75
436.505	83.75
436.727	90.75
436.949	89.75
437.17	97.75
437.392	83.75
437.614	90.75
437.835	84.75
438.057	80.75
438.278	78.75
438.5	93.75
438.721	89.75
438.943	80.75
439.165	77.75
439.386	87.75
439.608	84.75
439.829	72.75
440.05	71.75
440.272	84.75
440.493	85.75
440.715	96.75
440.936	94.75
441.158	87.75
441.379	100.75
441.6	79.75
441.822	73.75
442.043	95.75
442.264	95.75
442.486	80.75
442.707	80.75
442.928	78.75
443.149	89.75
443.371	96.75
443.592	84.75
443.813	93.75
444.034	86.75
444.255	87.75
444.476	96.75
444.698	81.75
444.919	86.75
445.14	205.75
445.361	128.75
445.582	90.75
445.803	82.75
446.024	101.75
446.245	103.75
446.466	87.75
446.687	78.75
446.908	88.75
447.129	84.75
447.35	88.75
447.571	89.75
447.792	100.75
448.013	75.75
448.234	83.75
448.455	84.75
448.675	83.75
448.896	70.75
449.117	89.75
449.338	91.75
449.559	77.75
449.779	85.75
450	85.75
450.221	88.75
450.442	84.75
450.662	84.75
450.883	84.75
451.104	85.75
451.324	83.75
451.545	87.75
451.766	79.75
451.986	84.75
452.207	97.75
452.428	74.75
452.648	89.75
452.869	84.75
453.089	81.75
453.31	103.75
453.53	84.75
453.751	89.75
453.971	82.75
454.192	88.75
454.412	75.75
454.633	68.75
454.853	78.75
455.073	83.75
455.294	81.75
455.514	81.75
455.734	70.75
455.955	83.75
456.175	77.75
456.395	78.75
456.616	96.75
456.836	99.75
457.056	84.75
457.276	81.75
457.497	87.75
457.717	77.75
457.937	89.75
458.157	88.75
458.377	65.75
458.598	76.75
458.818	86.75
459.038	84.75
459.258	103.75
459.478	89.75
459.698	81.75
459.918	91.75
460.138	96.75
460.358	83.75
460.578	79.75
460.798	97.75
461.018	89.75
461.238	91.75
461.458	78.75
461.678	81.75
461.898	94.75
462.118	80.75
462.338	86.75
462.558	99.75
462.777	98.75
462.997	76.75
463.217	93.75
463.437	95.75
463.657	83.75
463.876	83.75
464.096	77.75
464.316	91.75
464.536	88.75
464.755	95.75
464.975	87.75
465.195	79.75
465.414	75.75
465.634	86.75
465.854	78.75
466.073	87.75
466.293	85.75
466.512	77.75
466.732	82.75
466.951	81.75
467.171	91.75
467.391	81.75
467.61	77.75
467.829	81.75
468.049	82.75
468.268	79.75
468.488	87.75
468.707	100.75
468.927	77.75
469.146	90.75
469.365	85.75
469.585	74.75
469.804	99.75
470.023	90.75
470.243	82.75
470.462	88.75
470.681	80.75
470.901	86.75
471.12	78.75
471.339	91.75
471.558	88.75
471.777	86.75
471.997	71.75
472.216	90.75
472.435	89.75
472.654	80.75
472.873	85.75
473.092	92.75
473.311	98.75
473.53	90.75
473.749	92.75
473.968	99.75
474.187	86.75
474.406	94.75
474.625	79.75
474.844	92.75
475.063	76.75
475.282	84.75
475.501	89.75
475.72	96.75
475.939	89.75
476.158	99.75
476.377	74.75
476.596	83.75
476.814	77.75
477.033	87.75
477.252	97.75
477.471	83.75
477.69	89.75
477.908	84.75
478.127	89.75
478.346	79.75
478.564	96.75
478.783	102.75
479.002	74.75
479.22	92.75
479.439	85.75
479.658	83.75
479.876	91.75
480.095	81.75
480.313	77.75
480.532	93.75
480.751	96.75
480.969	87.75
481.188	83.75
481.406	102.75
481.624	96.75
481.843	70.75
482.061	75.75
482.28	80.75
482.498	92.75
482.717	100.75
482.935	85.75
483.153	79.75
483.372	104.75
483.59	92.75
483.808	98.75
484.027	91.75
484.245	91.75
484.463	86.75
484.681	108.75
484.9	88.75
485.118	90.75
485.336	86.75
485.554	87.75
485.772	81.75
485.99	93.75
486.209	89.75
486.427	91.75
486.645	92.75
486.863	77.75
487.081	94.75
487.299	91.75
487.517	71.75
487.735	95.75
487.953	92.75
488.171	102.75
488.389	99.75
488.607	99.75
488.825	77.75
489.043	81.75
489.261	95.75
489.479	90.75
489.696	98.75
489.914	101.75
490.132	86.75
490.35	100.75
490.568	89.75
490.786	89.75
491.003	79.75
491.221	90.75
491.439	97.75
491.657	97.75
491.874	87.75
492.092	105.75
492.31	117.75
492.527	83.75
492.745	90.75
492.963	90.75
493.18	100.75
493.398	93.75
493.615	89.75
493.833	98.75
494.05	92.75
494.268	93.75
494.485	99.75
494.703	84.75
494.92	84.75
495.138	107.75
495.355	85.75
495.573	91.75
495.79	97.75
496.008	105.75
496.225	92.75
496.442	100.75
496.66	84.75
496.877	87.75
497.094	86.75
497.312	96.75
497.529	82.75
497.746	98.75
497.963	77.75
498.181	90.75
498.398	96.75
498.615	92.75
498.832	80.75
499.049	91.75
499.267	105.75
499.484	89.75
499.701	99.75
499.918	111.75
500.135	110.75
500.352	116.75
500.569	100.75
500.786	106.75
501.003	101.75
501.22	102.75
501.437	92.75
501.654	105.75
501.871	99.75
502.088	102.75
502.305	101.75
502.522	98.75
502.739	101.75
502.956	95.75
503.172	106.75
503.389	94.75
503.606	100.75
503.823	85.75
504.04	83.75
504.256	99.75
504.473	85.75
504.69	96.75
504.907	97.75
505.123	87.75
505.34	87.75
505.557	97.75
505.773	90.75
505.99	81.75
506.207	98.75
506.423	93.75
506.64	89.75
506.856	101.75
507.073	92.75
507.289	88.75
507.506	95.75
507.722	90.75
507.939	86.75
508.155	93.75
508.372	91.75
508.588	98.75
508.805	95.75
509.021	85.75
509.238	98.75
509.454	97.75
509.67	91.75
509.887	96.75
510.103	86.75
510.319	86.75
510.536	79.75
510.752	91.75
510.968	102.75
511.184	85.75
511.401	89.75
511.617	92.75
511.833	98.75
512.049	91.75
512.265	91.75
512.481	95.75
512.698	93.75
512.914	84.75
513.13	89.75
513.346	90.75
513.562	89.75
513.778	87.75
513.994	109.75
514.21	84.75
514.426	98.75
514.642	106.75
514.858	84.75
515.074	83.75
515.29	92.75
515.506	99.75
515.721	104.75
515.937	90.75
516.153	87.75
516.369	89.75
516.585	92.75
516.801	85.75
517.016	98.75
517.232	90.75
517.448	89.75
517.664	93.75
517.879	95.75
518.095	81.75
518.311	89.75
518.527	89.75
