Data from Ni(NO3)2@0.125M.TitratingCurve.Agarose3%dH2O.NegLispCup.LampEnergy10.LIBS07252019_HRD10591_18-09-47-567.txt Node
Date: Thu Jul 25 18:09:47 EDT 2019
User: cochatt
Spectrometer: HR+D1059
Trigger mode: 1
Integration Time (sec): 1.000000E-1
Scans to average: 1
Electric dark correction enabled: true
Nonlinearity correction enabled: false
Boxcar width: 0
XAxis mode: Wavelengths
Number of Pixels in Spectrum: 2048
>>>>>Begin Spectral Data<<<<<
223.165	-21.06
223.4	-21.06
223.635	-21.06
223.869	-21.06
224.104	-27.06
224.338	-20.06
224.573	-6.06
224.808	-11.06
225.042	-9.06
225.277	-9.06
225.511	1.94
225.746	8.94
225.98	11.94
226.215	12.94
226.449	16.94
226.683	14.94
226.918	22.94
227.152	33.94
227.387	28.94
227.621	42.94
227.856	61.94
228.09	45.94
228.324	51.94
228.559	51.94
228.793	66.94
229.027	88.94
229.262	99.94
229.496	90.94
229.73	107.94
229.964	114.94
230.199	106.94
230.433	113.94
230.667	128.94
230.901	114.94
231.136	101.94
231.37	118.94
231.604	114.94
231.838	131.94
232.072	117.94
232.306	118.94
232.541	144.94
232.775	135.94
233.009	137.94
233.243	124.94
233.477	118.94
233.711	132.94
233.945	128.94
234.179	108.94
234.413	132.94
234.647	138.94
234.881	130.94
235.115	151.94
235.349	134.94
235.583	144.94
235.817	126.94
236.051	126.94
236.285	133.94
236.519	138.94
236.753	124.94
236.987	158.94
237.221	145.94
237.455	141.94
237.689	139.94
237.922	144.94
238.156	135.94
238.39	133.94
238.624	131.94
238.858	136.94
239.091	153.94
239.325	140.94
239.559	146.94
239.793	154.94
240.027	151.94
240.26	137.94
240.494	147.94
240.728	156.94
240.961	169.94
241.195	155.94
241.429	146.94
241.662	154.94
241.896	169.94
242.13	165.94
242.363	170.94
242.597	152.94
242.83	168.94
243.064	170.94
243.298	151.94
243.531	170.94
243.765	180.94
243.998	170.94
244.232	163.94
244.465	178.94
244.699	185.94
244.932	174.94
245.166	163.94
245.399	178.94
245.633	184.94
245.866	179.94
246.099	182.94
246.333	162.94
246.566	195.94
246.8	180.94
247.033	181.94
247.266	189.94
247.5	188.94
247.733	180.94
247.966	180.94
248.2	190.94
248.433	183.94
248.666	188.94
248.899	195.94
249.133	188.94
249.366	196.94
249.599	213.94
249.832	205.94
250.066	209.94
250.299	201.94
250.532	189.94
250.765	202.94
250.998	198.94
251.231	207.94
251.465	202.94
251.698	213.94
251.931	220.94
252.164	235.94
252.397	216.94
252.63	213.94
252.863	223.94
253.096	226.94
253.329	233.94
253.562	206.94
253.795	227.94
254.028	225.94
254.261	224.94
254.494	224.94
254.727	222.94
254.96	226.94
255.193	229.94
255.426	233.94
255.659	241.94
255.892	224.94
256.124	218.94
256.357	228.94
256.59	243.94
256.823	240.94
257.056	229.94
257.289	241.94
257.521	243.94
257.754	246.94
257.987	240.94
258.22	252.94
258.452	250.94
258.685	232.94
258.918	239.94
259.151	242.94
259.383	241.94
259.616	242.94
259.849	254.94
260.081	266.94
260.314	268.94
260.547	246.94
260.779	254.94
261.012	244.94
261.244	254.94
261.477	265.94
261.71	265.94
261.942	275.94
262.175	274.94
262.407	287.94
262.64	265.94
262.872	264.94
263.105	266.94
263.337	283.94
263.57	264.94
263.802	271.94
264.035	268.94
264.267	274.94
264.499	268.94
264.732	280.94
264.964	279.94
265.197	262.94
265.429	289.94
265.661	280.94
265.894	285.94
266.126	282.94
266.358	284.94
266.591	295.94
266.823	305.94
267.055	279.94
267.287	285.94
267.52	279.94
267.752	283.94
267.984	284.94
268.216	305.94
268.448	293.94
268.681	283.94
268.913	285.94
269.145	307.94
269.377	313.94
269.609	286.94
269.841	295.94
270.073	295.94
270.306	298.94
270.538	289.94
270.77	320.94
271.002	290.94
271.234	300.94
271.466	301.94
271.698	300.94
271.93	307.94
272.162	301.94
272.394	313.94
272.626	309.94
272.858	320.94
273.09	304.94
273.322	309.94
273.553	314.94
273.785	317.94
274.017	328.94
274.249	308.94
274.481	321.94
274.713	318.94
274.945	329.94
275.176	319.94
275.408	328.94
275.64	315.94
275.872	307.94
276.104	318.94
276.335	341.94
276.567	319.94
276.799	341.94
277.031	343.94
277.262	345.94
277.494	333.94
277.726	334.94
277.957	334.94
278.189	329.94
278.421	347.94
278.652	341.94
278.884	330.94
279.115	346.94
279.347	339.94
279.579	344.94
279.81	341.94
280.042	345.94
280.273	351.94
280.505	348.94
280.736	363.94
280.968	352.94
281.199	376.94
281.431	362.94
281.662	365.94
281.894	344.94
282.125	354.94
282.356	377.94
282.588	389.94
282.819	377.94
283.051	363.94
283.282	378.94
283.513	396.94
283.745	364.94
283.976	388.94
284.207	379.94
284.439	378.94
284.67	387.94
284.901	366.94
285.132	378.94
285.364	374.94
285.595	376.94
285.826	378.94
286.057	388.94
286.288	376.94
286.52	395.94
286.751	397.94
286.982	387.94
287.213	399.94
287.444	411.94
287.675	391.94
287.906	406.94
288.138	408.94
288.369	407.94
288.6	402.94
288.831	392.94
289.062	422.94
289.293	409.94
289.524	403.94
289.755	398.94
289.986	402.94
290.217	399.94
290.448	417.94
290.679	421.94
290.91	432.94
291.141	390.94
291.371	405.94
291.602	402.94
291.833	423.94
292.064	429.94
292.295	405.94
292.526	410.94
292.757	413.94
292.987	417.94
293.218	411.94
293.449	421.94
293.68	399.94
293.91	402.94
294.141	418.94
294.372	434.94
294.603	429.94
294.833	426.94
295.064	409.94
295.295	405.94
295.525	414.94
295.756	420.94
295.987	399.94
296.217	442.94
296.448	432.94
296.679	409.94
296.909	413.94
297.14	422.94
297.37	438.94
297.601	452.94
297.831	439.94
298.062	442.94
298.292	447.94
298.523	470.94
298.753	458.94
298.984	447.94
299.214	440.94
299.445	451.94
299.675	433.94
299.905	445.94
300.136	439.94
300.366	444.94
300.597	463.94
300.827	474.94
301.057	461.94
301.288	474.94
301.518	477.94
301.748	473.94
301.979	461.94
302.209	469.94
302.439	454.94
302.669	449.94
302.9	464.94
303.13	466.94
303.36	472.94
303.59	446.94
303.82	458.94
304.051	480.94
304.281	454.94
304.511	453.94
304.741	462.94
304.971	453.94
305.201	467.94
305.431	455.94
305.661	467.94
305.891	455.94
306.121	465.94
306.352	439.94
306.582	445.94
306.812	457.94
307.042	431.94
307.272	446.94
307.502	454.94
307.731	448.94
307.961	454.94
308.191	460.94
308.421	451.94
308.651	464.94
308.881	430.94
309.111	445.94
309.341	443.94
309.571	448.94
309.8	449.94
310.03	447.94
310.26	472.94
310.49	459.94
310.72	427.94
310.949	449.94
311.179	467.94
311.409	459.94
311.639	475.94
311.868	446.94
312.098	445.94
312.328	454.94
312.557	448.94
312.787	476.94
313.017	470.94
313.246	489.94
313.476	481.94
313.706	480.94
313.935	462.94
314.165	486.94
314.394	487.94
314.624	490.94
314.853	492.94
315.083	492.94
315.312	470.94
315.542	487.94
315.771	457.94
316.001	490.94
316.23	477.94
316.46	492.94
316.689	491.94
316.919	477.94
317.148	470.94
317.377	486.94
317.607	483.94
317.836	470.94
318.065	461.94
318.295	493.94
318.524	475.94
318.753	475.94
318.983	477.94
319.212	473.94
319.441	479.94
319.67	477.94
319.9	468.94
320.129	482.94
320.358	472.94
320.587	465.94
320.816	469.94
321.046	472.94
321.275	488.94
321.504	499.94
321.733	466.94
321.962	466.94
322.191	502.94
322.42	478.94
322.649	481.94
322.878	506.94
323.108	483.94
323.337	498.94
323.566	506.94
323.795	499.94
324.024	498.94
324.253	497.94
324.482	496.94
324.71	495.94
324.939	505.94
325.168	507.94
325.397	504.94
325.626	496.94
325.855	526.94
326.084	539.94
326.313	532.94
326.542	504.94
326.77	517.94
326.999	516.94
327.228	524.94
327.457	540.94
327.686	521.94
327.914	524.94
328.143	552.94
328.372	538.94
328.6	537.94
328.829	541.94
329.058	525.94
329.287	548.94
329.515	537.94
329.744	545.94
329.972	563.94
330.201	557.94
330.43	536.94
330.658	525.94
330.887	546.94
331.115	573.94
331.344	557.94
331.572	567.94
331.801	552.94
332.03	588.94
332.258	599.94
332.486	641.94
332.715	632.94
332.943	685.94
333.172	694.94
333.4	730.94
333.629	730.94
333.857	755.94
334.085	729.94
334.314	683.94
334.542	700.94
334.771	701.94
334.999	668.94
335.227	682.94
335.455	645.94
335.684	655.94
335.912	658.94
336.14	627.94
336.369	652.94
336.597	646.94
336.825	631.94
337.053	639.94
337.281	648.94
337.51	608.94
337.738	631.94
337.966	584.94
338.194	598.94
338.422	576.94
338.65	585.94
338.878	590.94
339.106	589.94
339.334	587.94
339.562	571.94
339.79	567.94
340.018	575.94
340.246	550.94
340.474	555.94
340.702	566.94
340.93	536.94
341.158	562.94
341.386	559.94
341.614	576.94
341.842	561.94
342.07	542.94
342.298	554.94
342.526	558.94
342.754	569.94
342.981	568.94
343.209	579.94
343.437	584.94
343.665	632.94
343.893	679.94
344.12	696.94
344.348	689.94
344.576	642.94
344.804	624.94
345.031	581.94
345.259	577.94
345.487	562.94
345.714	548.94
345.942	552.94
346.17	554.94
346.397	527.94
346.625	544.94
346.853	547.94
347.08	530.94
347.308	540.94
347.535	550.94
347.763	561.94
347.99	556.94
348.218	554.94
348.445	536.94
348.673	545.94
348.9	557.94
349.128	564.94
349.355	524.94
349.583	540.94
349.81	549.94
350.037	532.94
350.265	517.94
350.492	518.94
350.72	530.94
350.947	521.94
351.174	529.94
351.402	511.94
351.629	518.94
351.856	505.94
352.083	506.94
352.311	523.94
352.538	496.94
352.765	508.94
352.992	536.94
353.22	512.94
353.447	510.94
353.674	514.94
353.901	532.94
354.128	514.94
354.355	533.94
354.583	527.94
354.81	530.94
355.037	518.94
355.264	520.94
355.491	524.94
355.718	537.94
355.945	529.94
356.172	534.94
356.399	527.94
356.626	551.94
356.853	492.94
357.08	528.94
357.307	516.94
357.534	533.94
357.761	540.94
357.988	521.94
358.215	520.94
358.441	522.94
358.668	537.94
358.895	542.94
359.122	515.94
359.349	530.94
359.576	513.94
359.802	540.94
360.029	522.94
360.256	513.94
360.483	497.94
360.709	487.94
360.936	514.94
361.163	537.94
361.39	523.94
361.616	518.94
361.843	527.94
362.07	527.94
362.296	535.94
362.523	513.94
362.749	534.94
362.976	526.94
363.203	503.94
363.429	514.94
363.656	519.94
363.882	517.94
364.109	524.94
364.335	506.94
364.562	514.94
364.788	500.94
365.015	502.94
365.241	514.94
365.468	531.94
365.694	516.94
365.92	531.94
366.147	494.94
366.373	518.94
366.599	530.94
366.826	508.94
367.052	509.94
367.278	511.94
367.505	512.94
367.731	521.94
367.957	526.94
368.184	519.94
368.41	544.94
368.636	519.94
368.862	532.94
369.089	532.94
369.315	519.94
369.541	557.94
369.767	538.94
369.993	541.94
370.219	558.94
370.445	554.94
370.672	581.94
370.898	550.94
371.124	553.94
371.35	572.94
371.576	562.94
371.802	569.94
372.028	576.94
372.254	588.94
372.48	579.94
372.706	572.94
372.932	589.94
373.158	588.94
373.384	572.94
373.61	582.94
373.835	572.94
374.061	567.94
374.287	565.94
374.513	585.94
374.739	609.94
374.965	618.94
375.191	635.94
375.416	614.94
375.642	610.94
375.868	615.94
376.094	598.94
376.319	589.94
376.545	584.94
376.771	582.94
376.997	588.94
377.222	574.94
377.448	581.94
377.674	555.94
377.899	566.94
378.125	553.94
378.35	572.94
378.576	552.94
378.802	578.94
379.027	550.94
379.253	564.94
379.478	572.94
379.704	584.94
379.929	558.94
380.155	576.94
380.38	573.94
380.606	554.94
380.831	542.94
381.057	579.94
381.282	571.94
381.507	584.94
381.733	569.94
381.958	561.94
382.184	569.94
382.409	591.94
382.634	597.94
382.86	589.94
383.085	621.94
383.31	594.94
383.535	611.94
383.761	630.94
383.986	631.94
384.211	657.94
384.436	685.94
384.662	673.94
384.887	690.94
385.112	684.94
385.337	710.94
385.562	655.94
385.787	703.94
386.013	683.94
386.238	677.94
386.463	691.94
386.688	686.94
386.913	665.94
387.138	682.94
387.363	679.94
387.588	650.94
387.813	663.94
388.038	665.94
388.263	672.94
388.488	669.94
388.713	692.94
388.938	649.94
389.163	676.94
389.387	677.94
389.612	645.94
389.837	679.94
390.062	705.94
390.287	679.94
390.512	653.94
390.736	699.94
390.961	667.94
391.186	702.94
391.411	720.94
391.636	762.94
391.86	748.94
392.085	754.94
392.31	774.94
392.534	724.94
392.759	715.94
392.984	700.94
393.208	695.94
393.433	721.94
393.658	696.94
393.882	730.94
394.107	722.94
394.331	712.94
394.556	713.94
394.78	723.94
395.005	720.94
395.229	756.94
395.454	741.94
395.678	786.94
395.903	756.94
396.127	753.94
396.352	740.94
396.576	729.94
396.801	716.94
397.025	713.94
397.249	756.94
397.474	773.94
397.698	745.94
397.922	759.94
398.147	745.94
398.371	772.94
398.595	813.94
398.82	854.94
399.044	909.94
399.268	984.94
399.492	1152.94
399.717	1309.94
399.941	1306.94
400.165	1114.94
400.389	1009.94
400.613	948.94
400.837	874.94
401.062	864.94
401.286	853.94
401.51	865.94
401.734	813.94
401.958	869.94
402.182	902.94
402.406	871.94
402.63	909.94
402.854	898.94
403.078	958.94
403.302	940.94
403.526	1004.94
403.75	1014.94
403.974	1021.94
404.198	1034.94
404.422	1032.94
404.645	985.94
404.869	967.94
405.093	1009.94
405.317	980.94
405.541	956.94
405.765	947.94
405.988	928.94
406.212	960.94
406.436	951.94
406.66	957.94
406.883	954.94
407.107	1033.94
407.331	1083.94
407.555	1121.94
407.778	1116.94
408.002	1090.94
408.226	1048.94
408.449	1012.94
408.673	1003.94
408.896	994.94
409.12	944.94
409.344	980.94
409.567	974.94
409.791	990.94
410.014	977.94
410.238	950.94
410.461	980.94
410.685	955.94
410.908	923.94
411.132	910.94
411.355	900.94
411.578	893.94
411.802	888.94
412.025	902.94
412.249	929.94
412.472	882.94
412.695	893.94
412.919	846.94
413.142	846.94
413.365	863.94
413.589	854.94
413.812	876.94
414.035	865.94
414.258	861.94
414.482	870.94
414.705	880.94
414.928	848.94
415.151	878.94
415.374	862.94
415.597	846.94
415.821	842.94
416.044	842.94
416.267	831.94
416.49	843.94
416.713	848.94
416.936	857.94
417.159	801.94
417.382	841.94
417.605	830.94
417.828	853.94
418.051	841.94
418.274	848.94
418.497	878.94
418.72	892.94
418.943	893.94
419.166	946.94
419.389	1008.94
419.611	989.94
419.834	955.94
420.057	882.94
420.28	888.94
420.503	862.94
420.726	842.94
420.948	845.94
421.171	850.94
421.394	841.94
421.617	840.94
421.839	860.94
422.062	866.94
422.285	846.94
422.507	892.94
422.73	896.94
422.953	862.94
423.175	880.94
423.398	902.94
423.621	929.94
423.843	938.94
424.066	935.94
424.288	933.94
424.511	924.94
424.733	892.94
424.956	892.94
425.178	867.94
425.401	865.94
425.623	864.94
425.846	834.94
426.068	808.94
426.291	794.94
426.513	797.94
426.735	817.94
426.958	803.94
427.18	822.94
427.402	782.94
427.625	773.94
427.847	765.94
428.069	770.94
428.292	752.94
428.514	732.94
428.736	773.94
428.958	745.94
429.181	723.94
429.403	731.94
429.625	745.94
429.847	770.94
430.069	756.94
430.292	769.94
430.514	737.94
430.736	737.94
430.958	762.94
431.18	738.94
431.402	723.94
431.624	738.94
431.846	769.94
432.068	765.94
432.29	758.94
432.512	740.94
432.734	769.94
432.956	739.94
433.178	766.94
433.4	775.94
433.622	777.94
433.844	765.94
434.066	789.94
434.287	791.94
434.509	820.94
434.731	836.94
434.953	846.94
435.175	857.94
435.397	837.94
435.618	806.94
435.84	795.94
436.062	786.94
436.284	754.94
436.505	755.94
436.727	776.94
436.949	785.94
437.17	789.94
437.392	766.94
437.614	744.94
437.835	729.94
438.057	726.94
438.278	713.94
438.5	732.94
438.721	743.94
438.943	746.94
439.165	745.94
439.386	742.94
439.608	774.94
439.829	772.94
440.05	756.94
440.272	775.94
440.493	804.94
440.715	788.94
440.936	797.94
441.158	819.94
441.379	832.94
441.6	885.94
441.822	902.94
442.043	893.94
442.264	870.94
442.486	842.94
442.707	836.94
442.928	844.94
443.149	858.94
443.371	870.94
443.592	854.94
443.813	876.94
444.034	900.94
444.255	921.94
444.476	938.94
444.698	1006.94
444.919	1052.94
445.14	1099.94
445.361	995.94
445.582	896.94
445.803	866.94
446.024	811.94
446.245	809.94
446.466	820.94
446.687	783.94
446.908	761.94
447.129	731.94
447.35	749.94
447.571	744.94
447.792	766.94
448.013	739.94
448.234	709.94
448.455	710.94
448.675	728.94
448.896	693.94
449.117	691.94
449.338	697.94
449.559	714.94
449.779	719.94
450	711.94
450.221	725.94
450.442	708.94
450.662	715.94
450.883	703.94
451.104	735.94
451.324	730.94
451.545	717.94
451.766	733.94
451.986	716.94
452.207	693.94
452.428	703.94
452.648	711.94
452.869	701.94
453.089	729.94
453.31	718.94
453.53	718.94
453.751	698.94
453.971	693.94
454.192	675.94
454.412	666.94
454.633	692.94
454.853	683.94
455.073	658.94
455.294	686.94
455.514	650.94
455.734	673.94
455.955	668.94
456.175	633.94
456.395	640.94
456.616	658.94
456.836	647.94
457.056	652.94
457.276	660.94
457.497	679.94
457.717	669.94
457.937	666.94
458.157	677.94
458.377	678.94
458.598	678.94
458.818	706.94
459.038	727.94
459.258	778.94
459.478	765.94
459.698	800.94
459.918	801.94
460.138	870.94
460.358	916.94
460.578	916.94
460.798	899.94
461.018	919.94
461.238	884.94
461.458	886.94
461.678	889.94
461.898	910.94
462.118	933.94
462.338	981.94
462.558	1006.94
462.777	1049.94
462.997	1132.94
463.217	1197.94
463.437	1229.94
463.657	1144.94
463.876	1056.94
464.096	1042.94
464.316	1067.94
464.536	1089.94
464.755	1014.94
464.975	998.94
465.195	955.94
465.414	862.94
465.634	850.94
465.854	831.94
466.073	773.94
466.293	793.94
466.512	763.94
466.732	749.94
466.951	749.94
467.171	735.94
467.391	748.94
467.61	752.94
467.829	735.94
468.049	766.94
468.268	704.94
468.488	722.94
468.707	705.94
468.927	698.94
469.146	718.94
469.365	714.94
469.585	743.94
469.804	728.94
470.023	732.94
470.243	770.94
470.462	794.94
470.681	802.94
470.901	770.94
471.12	762.94
471.339	755.94
471.558	733.94
471.777	765.94
471.997	727.94
472.216	710.94
472.435	694.94
472.654	691.94
472.873	695.94
473.092	696.94
473.311	681.94
473.53	674.94
473.749	673.94
473.968	693.94
474.187	669.94
474.406	681.94
474.625	697.94
474.844	701.94
475.063	690.94
475.282	704.94
475.501	707.94
475.72	713.94
475.939	697.94
476.158	689.94
476.377	703.94
476.596	716.94
476.814	719.94
477.033	734.94
477.252	753.94
477.471	747.94
477.69	800.94
477.908	788.94
478.127	770.94
478.346	802.94
478.564	836.94
478.783	845.94
479.002	853.94
479.22	850.94
479.439	861.94
479.658	883.94
479.876	842.94
480.095	860.94
480.313	885.94
480.532	949.94
480.751	947.94
480.969	888.94
481.188	820.94
481.406	824.94
481.624	816.94
481.843	779.94
482.061	758.94
482.28	765.94
482.498	780.94
482.717	772.94
482.935	780.94
483.153	794.94
483.372	790.94
483.59	758.94
483.808	780.94
484.027	753.94
484.245	786.94
484.463	816.94
484.681	790.94
484.9	801.94
485.118	807.94
485.336	808.94
485.554	820.94
485.772	812.94
485.99	824.94
486.209	827.94
486.427	829.94
486.645	826.94
486.863	808.94
487.081	830.94
487.299	827.94
487.517	812.94
487.735	812.94
487.953	802.94
488.171	829.94
488.389	827.94
488.607	802.94
488.825	800.94
489.043	764.94
489.261	818.94
489.479	808.94
489.696	828.94
489.914	820.94
490.132	836.94
490.35	797.94
490.568	821.94
490.786	825.94
491.003	819.94
491.221	818.94
491.439	835.94
491.657	842.94
491.874	833.94
492.092	839.94
492.31	818.94
492.527	826.94
492.745	848.94
492.963	849.94
493.18	839.94
493.398	861.94
493.615	850.94
493.833	851.94
494.05	861.94
494.268	866.94
494.485	860.94
494.703	868.94
494.92	855.94
495.138	871.94
495.355	853.94
495.573	842.94
495.79	861.94
496.008	869.94
496.225	856.94
496.442	890.94
496.66	916.94
496.877	939.94
497.094	920.94
497.312	920.94
497.529	935.94
497.746	972.94
497.963	1008.94
498.181	1057.94
498.398	1092.94
498.615	1156.94
498.832	1253.94
499.049	1319.94
499.267	1417.94
499.484	1584.94
499.701	1772.94
499.918	1948.94
500.135	2258.94
500.352	2625.94
500.569	2794.94
500.786	2749.94
501.003	2524.94
