Data from Ni(NO3)2Standard.Agarose3%.GreenCap.LampEnergy5.5.E.O_HRD10591_14-40-53-188.txt Node
Date: Mon Jul 22 14:40:53 EDT 2019
User: cochatt
Spectrometer: HR+D1059
Trigger mode: 1
Integration Time (sec): 1.000000E-1
Scans to average: 1
Electric dark correction enabled: true
Nonlinearity correction enabled: false
Boxcar width: 0
XAxis mode: Wavelengths
Number of Pixels in Spectrum: 2048
>>>>>Begin Spectral Data<<<<<
223.165	-6.44
223.4	-6.44
223.635	-6.44
223.869	-11.44
224.104	-23.44
224.338	-9.44
224.573	-13.44
224.808	-17.44
225.042	-1.44
225.277	-9.44
225.511	-3.44
225.746	1.56
225.98	0.56
226.215	7.56
226.449	5.56
226.683	23.56
226.918	22.56
227.152	34.56
227.387	43.56
227.621	27.56
227.856	31.56
228.09	53.56
228.324	44.56
228.559	51.56
228.793	52.56
229.027	63.56
229.262	56.56
229.496	61.56
229.73	52.56
229.964	72.56
230.199	66.56
230.433	70.56
230.667	80.56
230.901	97.56
231.136	71.56
231.37	76.56
231.604	88.56
231.838	72.56
232.072	76.56
232.306	79.56
232.541	75.56
232.775	65.56
233.009	67.56
233.243	66.56
233.477	83.56
233.711	70.56
233.945	65.56
234.179	80.56
234.413	80.56
234.647	74.56
234.881	70.56
235.115	68.56
235.349	78.56
235.583	85.56
235.817	79.56
236.051	75.56
236.285	72.56
236.519	86.56
236.753	69.56
236.987	76.56
237.221	58.56
237.455	70.56
237.689	65.56
237.922	80.56
238.156	70.56
238.39	71.56
238.624	83.56
238.858	81.56
239.091	65.56
239.325	85.56
239.559	61.56
239.793	71.56
240.027	63.56
240.26	73.56
240.494	77.56
240.728	67.56
240.961	73.56
241.195	67.56
241.429	61.56
241.662	59.56
241.896	82.56
242.13	72.56
242.363	75.56
242.597	73.56
242.83	84.56
243.064	102.56
243.298	79.56
243.531	75.56
243.765	70.56
243.998	64.56
244.232	87.56
244.465	74.56
244.699	65.56
244.932	83.56
245.166	71.56
245.399	96.56
245.633	79.56
245.866	70.56
246.099	87.56
246.333	69.56
246.566	77.56
246.8	63.56
247.033	71.56
247.266	79.56
247.5	83.56
247.733	93.56
247.966	71.56
248.2	84.56
248.433	74.56
248.666	84.56
248.899	84.56
249.133	81.56
249.366	69.56
249.599	72.56
249.832	76.56
250.066	67.56
250.299	84.56
250.532	83.56
250.765	80.56
250.998	76.56
251.231	80.56
251.465	83.56
251.698	70.56
251.931	72.56
252.164	63.56
252.397	71.56
252.63	79.56
252.863	85.56
253.096	73.56
253.329	71.56
253.562	70.56
253.795	70.56
254.028	68.56
254.261	68.56
254.494	73.56
254.727	92.56
254.96	79.56
255.193	61.56
255.426	73.56
255.659	80.56
255.892	82.56
256.124	91.56
256.357	76.56
256.59	79.56
256.823	80.56
257.056	92.56
257.289	85.56
257.521	86.56
257.754	74.56
257.987	84.56
258.22	81.56
258.452	78.56
258.685	81.56
258.918	82.56
259.151	74.56
259.383	78.56
259.616	73.56
259.849	76.56
260.081	78.56
260.314	92.56
260.547	74.56
260.779	82.56
261.012	77.56
261.244	88.56
261.477	79.56
261.71	83.56
261.942	75.56
262.175	75.56
262.407	73.56
262.64	88.56
262.872	78.56
263.105	65.56
263.337	87.56
263.57	85.56
263.802	76.56
264.035	90.56
264.267	72.56
264.499	84.56
264.732	96.56
264.964	73.56
265.197	76.56
265.429	93.56
265.661	91.56
265.894	83.56
266.126	82.56
266.358	85.56
266.591	98.56
266.823	87.56
267.055	83.56
267.287	73.56
267.52	86.56
267.752	91.56
267.984	84.56
268.216	74.56
268.448	73.56
268.681	86.56
268.913	70.56
269.145	79.56
269.377	79.56
269.609	80.56
269.841	82.56
270.073	87.56
270.306	69.56
270.538	74.56
270.77	82.56
271.002	78.56
271.234	82.56
271.466	84.56
271.698	100.56
271.93	91.56
272.162	95.56
272.394	81.56
272.626	96.56
272.858	83.56
273.09	92.56
273.322	66.56
273.553	74.56
273.785	87.56
274.017	91.56
274.249	66.56
274.481	72.56
274.713	83.56
274.945	88.56
275.176	74.56
275.408	79.56
275.64	73.56
275.872	82.56
276.104	84.56
276.335	89.56
276.567	77.56
276.799	84.56
277.031	74.56
277.262	81.56
277.494	75.56
277.726	91.56
277.957	81.56
278.189	88.56
278.421	82.56
278.652	84.56
278.884	79.56
279.115	84.56
279.347	86.56
279.579	80.56
279.81	86.56
280.042	87.56
280.273	80.56
280.505	71.56
280.736	97.56
280.968	78.56
281.199	84.56
281.431	82.56
281.662	77.56
281.894	71.56
282.125	91.56
282.356	73.56
282.588	92.56
282.819	80.56
283.051	89.56
283.282	76.56
283.513	75.56
283.745	88.56
283.976	74.56
284.207	92.56
284.439	78.56
284.67	83.56
284.901	89.56
285.132	86.56
285.364	89.56
285.595	96.56
285.826	92.56
286.057	89.56
286.288	85.56
286.52	84.56
286.751	85.56
286.982	98.56
287.213	102.56
287.444	66.56
287.675	74.56
287.906	87.56
288.138	90.56
288.369	77.56
288.6	80.56
288.831	86.56
289.062	81.56
289.293	82.56
289.524	81.56
289.755	84.56
289.986	69.56
290.217	91.56
290.448	77.56
290.679	85.56
290.91	94.56
291.141	84.56
291.371	82.56
291.602	83.56
291.833	78.56
292.064	81.56
292.295	79.56
292.526	74.56
292.757	79.56
292.987	80.56
293.218	97.56
293.449	84.56
293.68	76.56
293.91	80.56
294.141	76.56
294.372	80.56
294.603	104.56
294.833	89.56
295.064	73.56
295.295	95.56
295.525	70.56
295.756	75.56
295.987	99.56
296.217	80.56
296.448	77.56
296.679	89.56
296.909	88.56
297.14	89.56
297.37	80.56
297.601	70.56
297.831	91.56
298.062	86.56
298.292	75.56
298.523	83.56
298.753	78.56
298.984	83.56
299.214	97.56
299.445	84.56
299.675	84.56
299.905	84.56
300.136	86.56
300.366	97.56
300.597	91.56
300.827	87.56
301.057	81.56
301.288	84.56
301.518	91.56
301.748	88.56
301.979	87.56
302.209	75.56
302.439	91.56
302.669	85.56
302.9	107.56
303.13	89.56
303.36	101.56
303.59	86.56
303.82	80.56
304.051	91.56
304.281	96.56
304.511	88.56
304.741	86.56
304.971	77.56
305.201	71.56
305.431	82.56
305.661	83.56
305.891	74.56
306.121	97.56
306.352	89.56
306.582	82.56
306.812	87.56
307.042	72.56
307.272	83.56
307.502	79.56
307.731	76.56
307.961	74.56
308.191	72.56
308.421	78.56
308.651	100.56
308.881	97.56
309.111	86.56
309.341	87.56
309.571	71.56
309.8	104.56
310.03	89.56
310.26	72.56
310.49	87.56
310.72	84.56
310.949	75.56
311.179	82.56
311.409	84.56
311.639	76.56
311.868	90.56
312.098	73.56
312.328	73.56
312.557	83.56
312.787	78.56
313.017	86.56
313.246	99.56
313.476	94.56
313.706	86.56
313.935	98.56
314.165	71.56
314.394	93.56
314.624	75.56
314.853	93.56
315.083	88.56
315.312	103.56
315.542	86.56
315.771	90.56
316.001	72.56
316.23	91.56
316.46	78.56
316.689	83.56
316.919	75.56
317.148	86.56
317.377	103.56
317.607	85.56
317.836	71.56
318.065	93.56
318.295	92.56
318.524	79.56
318.753	88.56
318.983	93.56
319.212	90.56
319.441	79.56
319.67	101.56
319.9	104.56
320.129	101.56
320.358	83.56
320.587	81.56
320.816	84.56
321.046	102.56
321.275	93.56
321.504	73.56
321.733	95.56
321.962	73.56
322.191	81.56
322.42	75.56
322.649	95.56
322.878	91.56
323.108	89.56
323.337	91.56
323.566	100.56
323.795	89.56
324.024	79.56
324.253	77.56
324.482	90.56
324.71	95.56
324.939	91.56
325.168	104.56
325.397	90.56
325.626	68.56
325.855	90.56
326.084	86.56
326.313	84.56
326.542	93.56
326.77	95.56
326.999	88.56
327.228	73.56
327.457	78.56
327.686	79.56
327.914	83.56
328.143	92.56
328.372	84.56
328.6	74.56
328.829	71.56
329.058	77.56
329.287	81.56
329.515	67.56
329.744	95.56
329.972	92.56
330.201	100.56
330.43	68.56
330.658	81.56
330.887	81.56
331.115	76.56
331.344	75.56
331.572	80.56
331.801	79.56
332.03	67.56
332.258	81.56
332.486	88.56
332.715	83.56
332.943	82.56
333.172	92.56
333.4	87.56
333.629	87.56
333.857	78.56
334.085	85.56
334.314	91.56
334.542	77.56
334.771	84.56
334.999	90.56
335.227	98.56
335.455	92.56
335.684	98.56
335.912	78.56
336.14	87.56
336.369	90.56
336.597	76.56
336.825	76.56
337.053	93.56
337.281	74.56
337.51	99.56
337.738	95.56
337.966	89.56
338.194	88.56
338.422	83.56
338.65	69.56
338.878	80.56
339.106	99.56
339.334	91.56
339.562	88.56
339.79	93.56
340.018	77.56
340.246	85.56
340.474	87.56
340.702	81.56
340.93	86.56
341.158	86.56
341.386	86.56
341.614	82.56
341.842	84.56
342.07	93.56
342.298	82.56
342.526	89.56
342.754	76.56
342.981	90.56
343.209	91.56
343.437	95.56
343.665	77.56
343.893	75.56
344.12	90.56
344.348	74.56
344.576	95.56
344.804	78.56
345.031	97.56
345.259	79.56
345.487	79.56
345.714	98.56
345.942	80.56
346.17	84.56
346.397	91.56
346.625	91.56
346.853	85.56
347.08	71.56
347.308	77.56
347.535	88.56
347.763	89.56
347.99	86.56
348.218	79.56
348.445	82.56
348.673	82.56
348.9	93.56
349.128	96.56
349.355	86.56
349.583	81.56
349.81	97.56
350.037	97.56
350.265	75.56
350.492	76.56
350.72	104.56
350.947	85.56
351.174	85.56
351.402	77.56
351.629	85.56
351.856	82.56
352.083	90.56
352.311	87.56
352.538	89.56
352.765	83.56
352.992	91.56
353.22	81.56
353.447	82.56
353.674	91.56
353.901	70.56
354.128	87.56
354.355	85.56
354.583	82.56
354.81	84.56
355.037	86.56
355.264	91.56
355.491	91.56
355.718	80.56
355.945	77.56
356.172	96.56
356.399	84.56
356.626	72.56
356.853	81.56
357.08	80.56
357.307	84.56
357.534	89.56
357.761	102.56
357.988	79.56
358.215	101.56
358.441	75.56
358.668	95.56
358.895	76.56
359.122	89.56
359.349	76.56
359.576	57.56
359.802	79.56
360.029	75.56
360.256	89.56
360.483	85.56
360.709	72.56
360.936	76.56
361.163	83.56
361.39	84.56
361.616	87.56
361.843	86.56
362.07	70.56
362.296	83.56
362.523	83.56
362.749	97.56
362.976	82.56
363.203	91.56
363.429	75.56
363.656	90.56
363.882	94.56
364.109	88.56
364.335	84.56
364.562	72.56
364.788	91.56
365.015	91.56
365.241	91.56
365.468	91.56
365.694	75.56
365.92	88.56
366.147	85.56
366.373	88.56
366.599	82.56
366.826	70.56
367.052	86.56
367.278	86.56
367.505	87.56
367.731	84.56
367.957	86.56
368.184	95.56
368.41	66.56
368.636	86.56
368.862	93.56
369.089	88.56
369.315	89.56
369.541	78.56
369.767	77.56
369.993	97.56
370.219	90.56
370.445	78.56
370.672	79.56
370.898	84.56
371.124	91.56
371.35	80.56
371.576	79.56
371.802	67.56
372.028	93.56
372.254	90.56
372.48	88.56
372.706	83.56
372.932	78.56
373.158	84.56
373.384	89.56
373.61	88.56
373.835	75.56
374.061	74.56
374.287	89.56
374.513	83.56
374.739	78.56
374.965	78.56
375.191	87.56
375.416	94.56
375.642	82.56
375.868	89.56
376.094	87.56
376.319	85.56
376.545	76.56
376.771	89.56
376.997	68.56
377.222	75.56
377.448	87.56
377.674	80.56
377.899	75.56
378.125	76.56
378.35	81.56
378.576	84.56
378.802	78.56
379.027	82.56
379.253	85.56
379.478	82.56
379.704	83.56
379.929	82.56
380.155	80.56
380.38	75.56
380.606	83.56
380.831	89.56
381.057	94.56
381.282	83.56
381.507	74.56
381.733	89.56
381.958	92.56
382.184	90.56
382.409	84.56
382.634	90.56
382.86	97.56
383.085	83.56
383.31	84.56
383.535	86.56
383.761	84.56
383.986	88.56
384.211	73.56
384.436	75.56
384.662	88.56
384.887	82.56
385.112	82.56
385.337	93.56
385.562	80.56
385.787	72.56
386.013	91.56
386.238	82.56
386.463	87.56
386.688	77.56
386.913	82.56
387.138	81.56
387.363	86.56
387.588	82.56
387.813	81.56
388.038	68.56
388.263	70.56
388.488	86.56
388.713	83.56
388.938	79.56
389.163	70.56
389.387	89.56
389.612	78.56
389.837	94.56
390.062	82.56
390.287	78.56
390.512	88.56
390.736	88.56
390.961	81.56
391.186	86.56
391.411	85.56
391.636	89.56
391.86	73.56
392.085	78.56
392.31	90.56
392.534	88.56
392.759	93.56
392.984	86.56
393.208	75.56
393.433	82.56
393.658	75.56
393.882	89.56
394.107	93.56
394.331	96.56
394.556	78.56
394.78	83.56
395.005	93.56
395.229	88.56
395.454	86.56
395.678	93.56
395.903	74.56
396.127	88.56
396.352	82.56
396.576	79.56
396.801	86.56
397.025	83.56
397.249	73.56
397.474	71.56
397.698	82.56
397.922	79.56
398.147	82.56
398.371	90.56
398.595	91.56
398.82	90.56
399.044	81.56
399.268	87.56
399.492	90.56
399.717	94.56
399.941	79.56
400.165	83.56
400.389	80.56
400.613	94.56
400.837	87.56
401.062	94.56
401.286	78.56
401.51	88.56
401.734	89.56
401.958	82.56
402.182	74.56
402.406	79.56
402.63	102.56
402.854	77.56
403.078	88.56
403.302	78.56
403.526	85.56
403.75	75.56
403.974	83.56
404.198	82.56
404.422	84.56
404.645	78.56
404.869	98.56
405.093	93.56
405.317	97.56
405.541	88.56
405.765	88.56
405.988	93.56
406.212	92.56
406.436	90.56
406.66	76.56
406.883	74.56
407.107	90.56
407.331	83.56
407.555	79.56
407.778	83.56
408.002	80.56
408.226	94.56
408.449	94.56
408.673	84.56
408.896	70.56
409.12	88.56
409.344	89.56
409.567	92.56
409.791	80.56
410.014	85.56
410.238	98.56
410.461	94.56
410.685	76.56
410.908	76.56
411.132	94.56
411.355	87.56
411.578	87.56
411.802	82.56
412.025	90.56
412.249	83.56
412.472	79.56
412.695	89.56
412.919	86.56
413.142	73.56
413.365	72.56
413.589	82.56
413.812	79.56
414.035	93.56
414.258	84.56
414.482	90.56
414.705	82.56
414.928	77.56
415.151	88.56
415.374	83.56
415.597	75.56
415.821	95.56
416.044	98.56
416.267	90.56
416.49	84.56
416.713	81.56
416.936	79.56
417.159	76.56
417.382	97.56
417.605	92.56
417.828	87.56
418.051	83.56
418.274	86.56
418.497	74.56
418.72	85.56
418.943	83.56
419.166	81.56
419.389	92.56
419.611	81.56
419.834	94.56
420.057	79.56
420.28	79.56
420.503	84.56
420.726	96.56
420.948	82.56
421.171	80.56
421.394	80.56
421.617	70.56
421.839	76.56
422.062	94.56
422.285	85.56
422.507	86.56
422.73	84.56
422.953	82.56
423.175	83.56
423.398	75.56
423.621	82.56
423.843	84.56
424.066	99.56
424.288	85.56
424.511	85.56
424.733	86.56
424.956	74.56
425.178	84.56
425.401	84.56
425.623	76.56
425.846	82.56
426.068	83.56
426.291	95.56
426.513	88.56
426.735	82.56
426.958	86.56
427.18	71.56
427.402	82.56
427.625	83.56
427.847	74.56
428.069	102.56
428.292	87.56
428.514	59.56
428.736	94.56
428.958	79.56
429.181	78.56
429.403	78.56
429.625	84.56
429.847	84.56
430.069	85.56
430.292	87.56
430.514	78.56
430.736	89.56
430.958	86.56
431.18	83.56
431.402	90.56
431.624	95.56
431.846	97.56
432.068	88.56
432.29	80.56
432.512	87.56
432.734	90.56
432.956	97.56
433.178	88.56
433.4	93.56
433.622	88.56
433.844	76.56
434.066	95.56
434.287	92.56
434.509	86.56
434.731	78.56
434.953	79.56
435.175	66.56
435.397	87.56
435.618	80.56
435.84	89.56
436.062	93.56
436.284	92.56
436.505	79.56
436.727	77.56
436.949	76.56
437.17	71.56
437.392	105.56
437.614	88.56
437.835	86.56
438.057	87.56
438.278	89.56
438.5	78.56
438.721	89.56
438.943	73.56
439.165	67.56
439.386	89.56
439.608	84.56
439.829	65.56
440.05	83.56
440.272	81.56
440.493	70.56
440.715	72.56
440.936	79.56
441.158	76.56
441.379	86.56
441.6	85.56
441.822	107.56
442.043	88.56
442.264	79.56
442.486	89.56
442.707	76.56
442.928	101.56
443.149	85.56
443.371	85.56
443.592	80.56
443.813	80.56
444.034	85.56
444.255	88.56
444.476	75.56
444.698	74.56
444.919	85.56
445.14	206.56
445.361	138.56
445.582	101.56
445.803	69.56
446.024	71.56
446.245	105.56
446.466	62.56
446.687	84.56
446.908	98.56
447.129	90.56
447.35	74.56
447.571	79.56
447.792	86.56
448.013	81.56
448.234	92.56
448.455	77.56
448.675	85.56
448.896	83.56
449.117	87.56
449.338	79.56
449.559	84.56
449.779	87.56
450	74.56
450.221	79.56
450.442	83.56
450.662	93.56
450.883	83.56
451.104	91.56
451.324	81.56
451.545	92.56
451.766	81.56
451.986	90.56
452.207	112.56
452.428	93.56
452.648	91.56
452.869	80.56
453.089	95.56
453.31	91.56
453.53	94.56
453.751	74.56
453.971	72.56
454.192	72.56
454.412	89.56
454.633	71.56
454.853	69.56
455.073	82.56
455.294	86.56
455.514	75.56
455.734	75.56
455.955	83.56
456.175	83.56
456.395	90.56
456.616	83.56
456.836	85.56
457.056	81.56
457.276	80.56
457.497	102.56
457.717	79.56
457.937	77.56
458.157	79.56
458.377	79.56
458.598	76.56
458.818	79.56
459.038	83.56
459.258	83.56
459.478	91.56
459.698	87.56
459.918	90.56
460.138	71.56
460.358	71.56
460.578	80.56
460.798	90.56
461.018	83.56
461.238	90.56
461.458	84.56
461.678	78.56
461.898	83.56
462.118	89.56
462.338	94.56
462.558	82.56
462.777	74.56
462.997	81.56
463.217	84.56
463.437	88.56
463.657	72.56
463.876	88.56
464.096	91.56
464.316	75.56
464.536	83.56
464.755	90.56
464.975	82.56
465.195	75.56
465.414	84.56
465.634	78.56
465.854	97.56
466.073	74.56
466.293	72.56
466.512	82.56
466.732	82.56
466.951	78.56
467.171	71.56
467.391	74.56
467.61	85.56
467.829	84.56
468.049	84.56
468.268	67.56
468.488	84.56
468.707	84.56
468.927	81.56
469.146	83.56
469.365	75.56
469.585	82.56
469.804	69.56
470.023	84.56
470.243	90.56
470.462	90.56
470.681	104.56
470.901	83.56
471.12	76.56
471.339	80.56
471.558	89.56
471.777	75.56
471.997	91.56
472.216	94.56
472.435	73.56
472.654	93.56
472.873	87.56
473.092	91.56
473.311	86.56
473.53	71.56
473.749	78.56
473.968	90.56
474.187	98.56
474.406	82.56
474.625	85.56
474.844	97.56
475.063	80.56
475.282	82.56
475.501	93.56
475.72	86.56
475.939	81.56
476.158	86.56
476.377	75.56
476.596	68.56
476.814	88.56
477.033	88.56
477.252	84.56
477.471	70.56
477.69	78.56
477.908	82.56
478.127	100.56
478.346	87.56
478.564	91.56
478.783	89.56
479.002	83.56
479.22	88.56
479.439	87.56
479.658	100.56
479.876	82.56
480.095	90.56
480.313	73.56
480.532	82.56
480.751	92.56
480.969	95.56
481.188	79.56
481.406	67.56
481.624	75.56
481.843	95.56
482.061	103.56
482.28	96.56
482.498	88.56
482.717	95.56
482.935	94.56
483.153	88.56
483.372	88.56
483.59	96.56
483.808	89.56
484.027	84.56
484.245	86.56
484.463	92.56
484.681	102.56
484.9	96.56
485.118	94.56
485.336	91.56
485.554	85.56
485.772	86.56
485.99	99.56
486.209	100.56
486.427	88.56
486.645	94.56
486.863	91.56
487.081	96.56
487.299	83.56
487.517	92.56
487.735	87.56
487.953	91.56
488.171	95.56
488.389	95.56
488.607	96.56
488.825	81.56
489.043	88.56
489.261	74.56
489.479	92.56
489.696	98.56
489.914	99.56
490.132	88.56
490.35	102.56
490.568	81.56
490.786	94.56
491.003	93.56
491.221	95.56
491.439	100.56
491.657	88.56
491.874	91.56
492.092	80.56
492.31	99.56
492.527	96.56
492.745	98.56
492.963	78.56
493.18	86.56
493.398	81.56
493.615	97.56
493.833	103.56
494.05	109.56
494.268	90.56
494.485	92.56
494.703	96.56
494.92	94.56
495.138	98.56
495.355	102.56
495.573	98.56
495.79	79.56
496.008	81.56
496.225	80.56
496.442	106.56
496.66	92.56
496.877	88.56
497.094	106.56
497.312	87.56
497.529	106.56
497.746	81.56
497.963	86.56
498.181	94.56
498.398	99.56
498.615	82.56
498.832	96.56
499.049	90.56
499.267	99.56
499.484	99.56
499.701	107.56
499.918	95.56
500.135	99.56
500.352	107.56
500.569	97.56
500.786	108.56
501.003	112.56
501.22	99.56
501.437	104.56
501.654	101.56
501.871	105.56
502.088	95.56
502.305	108.56
502.522	102.56
502.739	90.56
502.956	97.56
503.172	100.56
503.389	96.56
503.606	100.56
503.823	90.56
504.04	86.56
504.256	98.56
504.473	91.56
504.69	104.56
504.907	106.56
505.123	87.56
505.34	95.56
505.557	83.56
505.773	95.56
505.99	97.56
506.207	89.56
506.423	90.56
506.64	90.56
506.856	88.56
507.073	88.56
507.289	91.56
507.506	81.56
507.722	89.56
507.939	92.56
508.155	88.56
508.372	95.56
508.588	97.56
508.805	88.56
509.021	94.56
509.238	88.56
509.454	97.56
509.67	87.56
509.887	101.56
510.103	84.56
510.319	85.56
510.536	89.56
510.752	81.56
510.968	104.56
511.184	90.56
511.401	97.56
511.617	91.56
511.833	81.56
512.049	80.56
512.265	82.56
512.481	81.56
512.698	83.56
512.914	96.56
513.13	94.56
513.346	86.56
513.562	90.56
513.778	102.56
513.994	80.56
514.21	79.56
514.426	82.56
514.642	84.56
514.858	93.56
515.074	87.56
515.29	97.56
515.506	92.56
515.721	102.56
515.937	93.56
516.153	92.56
516.369	90.56
516.585	99.56
516.801	86.56
517.016	74.56
517.232	90.56
517.448	84.56
517.664	90.56
517.879	106.56
518.095	106.56
518.311	98.56
518.527	111.56
518.742	86.56
