Data from Ni(NO3)2@0.125M.TitratingCurve.Agarose3%dH2O.NegLispCup.LampEnergy10.LIBS07252019_HRD10591_18-10-51-569.txt Node
Date: Thu Jul 25 18:10:51 EDT 2019
User: cochatt
Spectrometer: HR+D1059
Trigger mode: 1
Integration Time (sec): 1.000000E-1
Scans to average: 1
Electric dark correction enabled: true
Nonlinearity correction enabled: false
Boxcar width: 0
XAxis mode: Wavelengths
Number of Pixels in Spectrum: 2048
>>>>>Begin Spectral Data<<<<<
223.165	-11.25
223.4	-11.25
223.635	-11.25
223.869	-11.25
224.104	-14.25
224.338	-15.25
224.573	-10.25
224.808	-24.25
225.042	-16.25
225.277	-5.25
225.511	-4.25
225.746	4.75
225.98	10.75
226.215	10.75
226.449	11.75
226.683	18.75
226.918	27.75
227.152	27.75
227.387	24.75
227.621	33.75
227.856	34.75
228.09	51.75
228.324	52.75
228.559	57.75
228.793	66.75
229.027	101.75
229.262	118.75
229.496	123.75
229.73	128.75
229.964	137.75
230.199	151.75
230.433	150.75
230.667	140.75
230.901	147.75
231.136	139.75
231.37	132.75
231.604	147.75
231.838	158.75
232.072	160.75
232.306	158.75
232.541	171.75
232.775	148.75
233.009	155.75
233.243	156.75
233.477	165.75
233.711	143.75
233.945	154.75
234.179	156.75
234.413	165.75
234.647	154.75
234.881	169.75
235.115	171.75
235.349	168.75
235.583	162.75
235.817	144.75
236.051	161.75
236.285	173.75
236.519	153.75
236.753	168.75
236.987	174.75
237.221	163.75
237.455	165.75
237.689	181.75
237.922	169.75
238.156	197.75
238.39	186.75
238.624	195.75
238.858	172.75
239.091	189.75
239.325	191.75
239.559	183.75
239.793	200.75
240.027	205.75
240.26	193.75
240.494	207.75
240.728	193.75
240.961	220.75
241.195	198.75
241.429	203.75
241.662	214.75
241.896	199.75
242.13	197.75
242.363	209.75
242.597	204.75
242.83	223.75
243.064	212.75
243.298	201.75
243.531	208.75
243.765	216.75
243.998	226.75
244.232	227.75
244.465	224.75
244.699	245.75
244.932	236.75
245.166	228.75
245.399	226.75
245.633	210.75
245.866	234.75
246.099	226.75
246.333	235.75
246.566	253.75
246.8	250.75
247.033	258.75
247.266	247.75
247.5	261.75
247.733	252.75
247.966	269.75
248.2	269.75
248.433	269.75
248.666	267.75
248.899	264.75
249.133	274.75
249.366	263.75
249.599	278.75
249.832	261.75
250.066	265.75
250.299	279.75
250.532	273.75
250.765	288.75
250.998	278.75
251.231	283.75
251.465	269.75
251.698	292.75
251.931	292.75
252.164	300.75
252.397	280.75
252.63	300.75
252.863	304.75
253.096	303.75
253.329	312.75
253.562	306.75
253.795	308.75
254.028	308.75
254.261	299.75
254.494	321.75
254.727	315.75
254.96	303.75
255.193	328.75
255.426	307.75
255.659	311.75
255.892	315.75
256.124	300.75
256.357	301.75
256.59	328.75
256.823	344.75
257.056	346.75
257.289	319.75
257.521	311.75
257.754	333.75
257.987	324.75
258.22	340.75
258.452	344.75
258.685	347.75
258.918	364.75
259.151	337.75
259.383	345.75
259.616	338.75
259.849	356.75
260.081	355.75
260.314	344.75
260.547	357.75
260.779	372.75
261.012	360.75
261.244	356.75
261.477	364.75
261.71	367.75
261.942	355.75
262.175	363.75
262.407	372.75
262.64	367.75
262.872	360.75
263.105	372.75
263.337	383.75
263.57	379.75
263.802	374.75
264.035	392.75
264.267	371.75
264.499	385.75
264.732	379.75
264.964	402.75
265.197	389.75
265.429	379.75
265.661	392.75
265.894	393.75
266.126	398.75
266.358	410.75
266.591	397.75
266.823	392.75
267.055	399.75
267.287	404.75
267.52	411.75
267.752	396.75
267.984	425.75
268.216	423.75
268.448	402.75
268.681	413.75
268.913	426.75
269.145	436.75
269.377	405.75
269.609	408.75
269.841	425.75
270.073	439.75
270.306	444.75
270.538	439.75
270.77	433.75
271.002	438.75
271.234	418.75
271.466	436.75
271.698	419.75
271.93	441.75
272.162	441.75
272.394	430.75
272.626	461.75
272.858	450.75
273.09	447.75
273.322	460.75
273.553	447.75
273.785	464.75
274.017	458.75
274.249	455.75
274.481	465.75
274.713	456.75
274.945	462.75
275.176	460.75
275.408	441.75
275.64	469.75
275.872	471.75
276.104	468.75
276.335	469.75
276.567	486.75
276.799	441.75
277.031	489.75
277.262	482.75
277.494	464.75
277.726	491.75
277.957	460.75
278.189	491.75
278.421	475.75
278.652	514.75
278.884	490.75
279.115	497.75
279.347	488.75
279.579	499.75
279.81	517.75
280.042	504.75
280.273	513.75
280.505	532.75
280.736	529.75
280.968	512.75
281.199	511.75
281.431	518.75
281.662	526.75
281.894	511.75
282.125	525.75
282.356	537.75
282.588	546.75
282.819	524.75
283.051	541.75
283.282	523.75
283.513	540.75
283.745	529.75
283.976	556.75
284.207	536.75
284.439	547.75
284.67	571.75
284.901	556.75
285.132	557.75
285.364	564.75
285.595	557.75
285.826	549.75
286.057	554.75
286.288	550.75
286.52	539.75
286.751	578.75
286.982	575.75
287.213	562.75
287.444	569.75
287.675	583.75
287.906	550.75
288.138	588.75
288.369	584.75
288.6	583.75
288.831	587.75
289.062	584.75
289.293	577.75
289.524	604.75
289.755	596.75
289.986	597.75
290.217	586.75
290.448	600.75
290.679	625.75
290.91	598.75
291.141	599.75
291.371	589.75
291.602	599.75
291.833	619.75
292.064	612.75
292.295	620.75
292.526	599.75
292.757	604.75
292.987	595.75
293.218	589.75
293.449	585.75
293.68	596.75
293.91	593.75
294.141	604.75
294.372	581.75
294.603	601.75
294.833	599.75
295.064	601.75
295.295	628.75
295.525	615.75
295.756	611.75
295.987	615.75
296.217	602.75
296.448	620.75
296.679	615.75
296.909	603.75
297.14	623.75
297.37	649.75
297.601	630.75
297.831	626.75
298.062	635.75
298.292	669.75
298.523	641.75
298.753	674.75
298.984	650.75
299.214	651.75
299.445	657.75
299.675	653.75
299.905	644.75
300.136	656.75
300.366	661.75
300.597	656.75
300.827	681.75
301.057	687.75
301.288	682.75
301.518	691.75
301.748	697.75
301.979	688.75
302.209	699.75
302.439	685.75
302.669	682.75
302.9	691.75
303.13	659.75
303.36	679.75
303.59	680.75
303.82	693.75
304.051	673.75
304.281	682.75
304.511	676.75
304.741	676.75
304.971	676.75
305.201	648.75
305.431	668.75
305.661	707.75
305.891	680.75
306.121	652.75
306.352	681.75
306.582	680.75
306.812	659.75
307.042	671.75
307.272	666.75
307.502	673.75
307.731	677.75
307.961	672.75
308.191	668.75
308.421	684.75
308.651	671.75
308.881	653.75
309.111	689.75
309.341	641.75
309.571	667.75
309.8	677.75
310.03	673.75
310.26	699.75
310.49	669.75
310.72	662.75
310.949	676.75
311.179	692.75
311.409	665.75
311.639	691.75
311.868	697.75
312.098	696.75
312.328	710.75
312.557	708.75
312.787	704.75
313.017	717.75
313.246	699.75
313.476	730.75
313.706	709.75
313.935	730.75
314.165	738.75
314.394	725.75
314.624	745.75
314.853	730.75
315.083	712.75
315.312	728.75
315.542	714.75
315.771	712.75
316.001	727.75
316.23	712.75
316.46	705.75
316.689	709.75
316.919	735.75
317.148	722.75
317.377	704.75
317.607	708.75
317.836	699.75
318.065	703.75
318.295	709.75
318.524	694.75
318.753	716.75
318.983	719.75
319.212	699.75
319.441	715.75
319.67	719.75
319.9	708.75
320.129	704.75
320.358	721.75
320.587	732.75
320.816	720.75
321.046	734.75
321.275	729.75
321.504	716.75
321.733	724.75
321.962	727.75
322.191	755.75
322.42	732.75
322.649	759.75
322.878	751.75
323.108	726.75
323.337	715.75
323.566	736.75
323.795	725.75
324.024	737.75
324.253	730.75
324.482	736.75
324.71	756.75
324.939	748.75
325.168	765.75
325.397	764.75
325.626	756.75
325.855	801.75
326.084	794.75
326.313	807.75
326.542	788.75
326.77	803.75
326.999	793.75
327.228	774.75
327.457	792.75
327.686	769.75
327.914	804.75
328.143	815.75
328.372	780.75
328.6	801.75
328.829	807.75
329.058	811.75
329.287	784.75
329.515	804.75
329.744	796.75
329.972	807.75
330.201	803.75
330.43	821.75
330.658	826.75
330.887	806.75
331.115	843.75
331.344	837.75
331.572	851.75
331.801	873.75
332.03	891.75
332.258	901.75
332.486	933.75
332.715	952.75
332.943	1012.75
333.172	1057.75
333.4	1083.75
333.629	1110.75
333.857	1143.75
334.085	1119.75
334.314	1064.75
334.542	1061.75
334.771	1027.75
334.999	1045.75
335.227	1010.75
335.455	1009.75
335.684	990.75
335.912	991.75
336.14	940.75
336.369	967.75
336.597	979.75
336.825	983.75
337.053	954.75
337.281	945.75
337.51	935.75
337.738	905.75
337.966	895.75
338.194	899.75
338.422	853.75
338.65	861.75
338.878	864.75
339.106	859.75
339.334	909.75
339.562	891.75
339.79	856.75
340.018	852.75
340.246	843.75
340.474	807.75
340.702	820.75
340.93	870.75
341.158	848.75
341.386	861.75
341.614	847.75
341.842	858.75
342.07	831.75
342.298	835.75
342.526	803.75
342.754	824.75
342.981	853.75
343.209	866.75
343.437	903.75
343.665	979.75
343.893	1081.75
344.12	1063.75
344.348	998.75
344.576	966.75
344.804	901.75
345.031	862.75
345.259	871.75
345.487	847.75
345.714	832.75
345.942	838.75
346.17	837.75
346.397	808.75
346.625	825.75
346.853	804.75
347.08	811.75
347.308	803.75
347.535	838.75
347.763	838.75
347.99	829.75
348.218	841.75
348.445	840.75
348.673	810.75
348.9	805.75
349.128	804.75
349.355	804.75
349.583	800.75
349.81	839.75
350.037	799.75
350.265	756.75
350.492	793.75
350.72	803.75
350.947	769.75
351.174	809.75
351.402	795.75
351.629	769.75
351.856	796.75
352.083	767.75
352.311	772.75
352.538	756.75
352.765	776.75
352.992	753.75
353.22	779.75
353.447	757.75
353.674	773.75
353.901	810.75
354.128	785.75
354.355	785.75
354.583	784.75
354.81	795.75
355.037	779.75
355.264	787.75
355.491	772.75
355.718	780.75
355.945	774.75
356.172	808.75
356.399	788.75
356.626	782.75
356.853	792.75
357.08	783.75
357.307	787.75
357.534	770.75
357.761	811.75
357.988	773.75
358.215	805.75
358.441	776.75
358.668	767.75
358.895	799.75
359.122	786.75
359.349	793.75
359.576	797.75
359.802	794.75
360.029	777.75
360.256	793.75
360.483	824.75
360.709	795.75
360.936	810.75
361.163	744.75
361.39	795.75
361.616	780.75
361.843	781.75
362.07	780.75
362.296	805.75
362.523	786.75
362.749	781.75
362.976	774.75
363.203	799.75
363.429	762.75
363.656	779.75
363.882	797.75
364.109	796.75
364.335	766.75
364.562	754.75
364.788	753.75
365.015	798.75
365.241	775.75
365.468	767.75
365.694	779.75
365.92	766.75
366.147	773.75
366.373	767.75
366.599	784.75
366.826	770.75
367.052	765.75
367.278	789.75
367.505	779.75
367.731	786.75
367.957	756.75
368.184	788.75
368.41	782.75
368.636	803.75
368.862	781.75
369.089	805.75
369.315	813.75
369.541	808.75
369.767	824.75
369.993	813.75
370.219	804.75
370.445	829.75
370.672	823.75
370.898	843.75
371.124	852.75
371.35	857.75
371.576	799.75
371.802	841.75
372.028	848.75
372.254	856.75
372.48	847.75
372.706	869.75
372.932	900.75
373.158	891.75
373.384	868.75
373.61	858.75
373.835	852.75
374.061	845.75
374.287	854.75
374.513	885.75
374.739	899.75
374.965	954.75
375.191	949.75
375.416	915.75
375.642	894.75
375.868	903.75
376.094	883.75
376.319	866.75
376.545	877.75
376.771	867.75
376.997	867.75
377.222	875.75
377.448	844.75
377.674	832.75
377.899	849.75
378.125	851.75
378.35	853.75
378.576	837.75
378.802	834.75
379.027	801.75
379.253	834.75
379.478	838.75
379.704	856.75
379.929	849.75
380.155	834.75
380.38	808.75
380.606	861.75
380.831	832.75
381.057	844.75
381.282	844.75
381.507	823.75
381.733	853.75
381.958	875.75
382.184	867.75
382.409	884.75
382.634	895.75
382.86	871.75
383.085	908.75
383.31	926.75
383.535	967.75
383.761	927.75
383.986	980.75
384.211	1000.75
384.436	1018.75
384.662	1019.75
384.887	1035.75
385.112	1042.75
385.337	1067.75
385.562	1013.75
385.787	1020.75
386.013	1053.75
386.238	1065.75
386.463	1049.75
386.688	1036.75
386.913	1001.75
387.138	1011.75
387.363	1013.75
387.588	999.75
387.813	1005.75
388.038	1009.75
388.263	1038.75
388.488	1015.75
388.713	1038.75
388.938	1022.75
389.163	984.75
389.387	1001.75
389.612	972.75
389.837	1024.75
390.062	982.75
390.287	1000.75
390.512	994.75
390.736	1061.75
390.961	1024.75
391.186	1062.75
391.411	1079.75
391.636	1121.75
391.86	1138.75
392.085	1185.75
392.31	1165.75
392.534	1116.75
392.759	1091.75
392.984	1060.75
393.208	1048.75
393.433	1090.75
393.658	1083.75
393.882	1104.75
394.107	1092.75
394.331	1100.75
394.556	1108.75
394.78	1082.75
395.005	1123.75
395.229	1115.75
395.454	1141.75
395.678	1153.75
395.903	1134.75
396.127	1137.75
396.352	1120.75
396.576	1084.75
396.801	1078.75
397.025	1091.75
397.249	1099.75
397.474	1130.75
397.698	1151.75
397.922	1140.75
398.147	1162.75
398.371	1164.75
398.595	1214.75
398.82	1247.75
399.044	1375.75
399.268	1549.75
399.492	1793.75
399.717	2046.75
399.941	2016.75
400.165	1721.75
400.389	1542.75
400.613	1423.75
400.837	1351.75
401.062	1289.75
401.286	1265.75
401.51	1255.75
401.734	1314.75
401.958	1293.75
402.182	1325.75
402.406	1344.75
402.63	1361.75
402.854	1385.75
403.078	1394.75
403.302	1455.75
403.526	1469.75
403.75	1514.75
403.974	1533.75
404.198	1535.75
404.422	1527.75
404.645	1471.75
404.869	1515.75
405.093	1489.75
405.317	1416.75
405.541	1417.75
405.765	1412.75
405.988	1439.75
406.212	1412.75
406.436	1404.75
406.66	1482.75
406.883	1469.75
407.107	1553.75
407.331	1630.75
407.555	1677.75
407.778	1711.75
408.002	1609.75
408.226	1601.75
408.449	1558.75
408.673	1505.75
408.896	1458.75
409.12	1439.75
409.344	1466.75
409.567	1461.75
409.791	1493.75
410.014	1474.75
410.238	1442.75
410.461	1442.75
410.685	1437.75
410.908	1407.75
411.132	1373.75
411.355	1339.75
411.578	1340.75
411.802	1314.75
412.025	1364.75
412.249	1344.75
412.472	1323.75
412.695	1308.75
412.919	1289.75
413.142	1291.75
413.365	1274.75
413.589	1307.75
413.812	1286.75
414.035	1276.75
414.258	1263.75
414.482	1301.75
414.705	1315.75
414.928	1291.75
415.151	1293.75
415.374	1300.75
415.597	1307.75
415.821	1232.75
416.044	1261.75
416.267	1253.75
416.49	1248.75
416.713	1240.75
416.936	1236.75
417.159	1251.75
417.382	1250.75
417.605	1263.75
417.828	1265.75
418.051	1287.75
418.274	1266.75
418.497	1282.75
418.72	1302.75
418.943	1308.75
419.166	1412.75
419.389	1471.75
419.611	1441.75
419.834	1384.75
420.057	1365.75
420.28	1296.75
420.503	1238.75
420.726	1251.75
420.948	1257.75
421.171	1221.75
421.394	1228.75
421.617	1264.75
421.839	1305.75
422.062	1281.75
422.285	1276.75
422.507	1296.75
422.73	1315.75
422.953	1322.75
423.175	1349.75
423.398	1335.75
423.621	1381.75
423.843	1402.75
424.066	1339.75
424.288	1373.75
424.511	1348.75
424.733	1347.75
424.956	1336.75
425.178	1301.75
425.401	1303.75
425.623	1272.75
425.846	1197.75
426.068	1203.75
426.291	1201.75
426.513	1227.75
426.735	1195.75
426.958	1182.75
427.18	1171.75
427.402	1148.75
427.625	1156.75
427.847	1152.75
428.069	1149.75
428.292	1140.75
428.514	1103.75
428.736	1112.75
428.958	1118.75
429.181	1116.75
429.403	1079.75
429.625	1135.75
429.847	1062.75
430.069	1079.75
430.292	1061.75
430.514	1094.75
430.736	1092.75
430.958	1075.75
431.18	1101.75
431.402	1071.75
431.624	1080.75
431.846	1113.75
432.068	1163.75
432.29	1131.75
432.512	1093.75
432.734	1117.75
432.956	1119.75
433.178	1132.75
433.4	1128.75
433.622	1128.75
433.844	1145.75
434.066	1135.75
434.287	1141.75
434.509	1194.75
434.731	1239.75
434.953	1263.75
435.175	1311.75
435.397	1223.75
435.618	1208.75
435.84	1181.75
436.062	1157.75
436.284	1122.75
436.505	1097.75
436.727	1133.75
436.949	1174.75
437.17	1146.75
437.392	1101.75
437.614	1100.75
437.835	1054.75
438.057	1094.75
438.278	1042.75
438.5	1057.75
438.721	1055.75
438.943	1087.75
439.165	1088.75
439.386	1117.75
439.608	1111.75
439.829	1125.75
440.05	1108.75
440.272	1111.75
440.493	1153.75
440.715	1140.75
440.936	1179.75
441.158	1202.75
441.379	1235.75
441.6	1244.75
441.822	1276.75
442.043	1282.75
442.264	1257.75
442.486	1244.75
442.707	1247.75
442.928	1224.75
443.149	1244.75
443.371	1249.75
443.592	1271.75
443.813	1251.75
444.034	1281.75
444.255	1335.75
444.476	1423.75
444.698	1504.75
444.919	1558.75
445.14	1628.75
445.361	1420.75
445.582	1316.75
445.803	1240.75
446.024	1157.75
446.245	1179.75
446.466	1178.75
446.687	1138.75
446.908	1177.75
447.129	1081.75
447.35	1098.75
447.571	1071.75
447.792	1055.75
448.013	1068.75
448.234	1043.75
448.455	1014.75
448.675	1043.75
448.896	1032.75
449.117	1024.75
449.338	1037.75
449.559	1017.75
449.779	1017.75
450	1016.75
450.221	1002.75
450.442	1030.75
450.662	1015.75
450.883	1063.75
451.104	1084.75
451.324	1069.75
451.545	1022.75
451.766	1019.75
451.986	1019.75
452.207	1029.75
452.428	1014.75
452.648	1034.75
452.869	999.75
453.089	1005.75
453.31	1023.75
453.53	996.75
453.751	995.75
453.971	987.75
454.192	1004.75
454.412	977.75
454.633	974.75
454.853	988.75
455.073	949.75
455.294	972.75
455.514	963.75
455.734	953.75
455.955	925.75
456.175	926.75
456.395	972.75
456.616	959.75
456.836	947.75
457.056	947.75
457.276	906.75
457.497	972.75
457.717	960.75
457.937	956.75
458.157	989.75
458.377	983.75
458.598	1012.75
458.818	1071.75
459.038	1073.75
459.258	1091.75
459.478	1111.75
459.698	1155.75
459.918	1209.75
460.138	1264.75
460.358	1336.75
460.578	1363.75
460.798	1341.75
461.018	1370.75
461.238	1314.75
461.458	1369.75
461.678	1320.75
461.898	1322.75
462.118	1360.75
462.338	1419.75
462.558	1499.75
462.777	1507.75
462.997	1664.75
463.217	1871.75
463.437	1820.75
463.657	1633.75
463.876	1557.75
464.096	1559.75
464.316	1592.75
464.536	1599.75
464.755	1521.75
464.975	1445.75
465.195	1378.75
465.414	1305.75
465.634	1205.75
465.854	1190.75
466.073	1177.75
466.293	1142.75
466.512	1100.75
466.732	1112.75
466.951	1097.75
467.171	1080.75
467.391	1063.75
467.61	1080.75
467.829	1100.75
468.049	1043.75
468.268	1014.75
468.488	1013.75
468.707	1020.75
468.927	1038.75
469.146	1010.75
469.365	1027.75
469.585	1034.75
469.804	1093.75
470.023	1111.75
470.243	1098.75
470.462	1099.75
470.681	1130.75
470.901	1132.75
471.12	1100.75
471.339	1079.75
471.558	1063.75
471.777	1064.75
471.997	1053.75
472.216	997.75
472.435	1009.75
472.654	999.75
472.873	993.75
473.092	953.75
473.311	1004.75
473.53	1001.75
473.749	977.75
473.968	977.75
474.187	1007.75
474.406	978.75
474.625	981.75
474.844	978.75
475.063	1012.75
475.282	1003.75
475.501	1019.75
475.72	999.75
475.939	982.75
476.158	1004.75
476.377	1044.75
476.596	1028.75
476.814	1050.75
477.033	1056.75
477.252	1086.75
477.471	1108.75
477.69	1108.75
477.908	1124.75
478.127	1179.75
478.346	1185.75
478.564	1207.75
478.783	1233.75
479.002	1259.75
479.22	1252.75
479.439	1263.75
479.658	1225.75
479.876	1254.75
480.095	1268.75
480.313	1351.75
480.532	1412.75
480.751	1365.75
480.969	1245.75
481.188	1234.75
481.406	1185.75
481.624	1185.75
481.843	1148.75
482.061	1138.75
482.28	1122.75
482.498	1124.75
482.717	1144.75
482.935	1092.75
483.153	1142.75
483.372	1143.75
483.59	1133.75
483.808	1143.75
484.027	1123.75
484.245	1163.75
484.463	1132.75
484.681	1177.75
484.9	1178.75
485.118	1172.75
485.336	1215.75
485.554	1199.75
485.772	1205.75
485.99	1200.75
486.209	1185.75
486.427	1201.75
486.645	1205.75
486.863	1216.75
487.081	1177.75
487.299	1196.75
487.517	1208.75
487.735	1187.75
487.953	1204.75
488.171	1197.75
488.389	1205.75
488.607	1193.75
488.825	1196.75
489.043	1172.75
489.261	1178.75
489.479	1213.75
489.696	1182.75
489.914	1191.75
490.132	1216.75
490.35	1201.75
490.568	1161.75
490.786	1199.75
491.003	1179.75
491.221	1207.75
491.439	1219.75
491.657	1179.75
491.874	1222.75
492.092	1211.75
492.31	1180.75
492.527	1218.75
492.745	1235.75
492.963	1230.75
493.18	1195.75
493.398	1215.75
493.615	1232.75
493.833	1275.75
494.05	1244.75
494.268	1215.75
494.485	1236.75
494.703	1264.75
494.92	1251.75
