Data from Ni(NO3)2@0.5M.TitratingCurve.Agarose3%dH2O.NegLispCup.LampEnergy10.LIBS07252019_HRD10591_17-59-44-565.txt Node
Date: Thu Jul 25 17:59:44 EDT 2019
User: cochatt
Spectrometer: HR+D1059
Trigger mode: 1
Integration Time (sec): 1.000000E-1
Scans to average: 1
Electric dark correction enabled: true
Nonlinearity correction enabled: false
Boxcar width: 0
XAxis mode: Wavelengths
Number of Pixels in Spectrum: 2048
>>>>>Begin Spectral Data<<<<<
223.165	-14.19
223.4	-14.19
223.635	-14.19
223.869	-28.19
224.104	-10.19
224.338	-12.19
224.573	-27.19
224.808	-14.19
225.042	11.81
225.277	-10.19
225.511	-19.19
225.746	8.81
225.98	11.81
226.215	15.81
226.449	15.81
226.683	12.81
226.918	23.81
227.152	34.81
227.387	36.81
227.621	43.81
227.856	40.81
228.09	58.81
228.324	46.81
228.559	59.81
228.793	61.81
229.027	95.81
229.262	81.81
229.496	88.81
229.73	112.81
229.964	116.81
230.199	120.81
230.433	110.81
230.667	109.81
230.901	103.81
231.136	106.81
231.37	118.81
231.604	122.81
231.838	126.81
232.072	126.81
232.306	106.81
232.541	126.81
232.775	120.81
233.009	122.81
233.243	104.81
233.477	105.81
233.711	121.81
233.945	109.81
234.179	98.81
234.413	108.81
234.647	112.81
234.881	123.81
235.115	100.81
235.349	108.81
235.583	97.81
235.817	102.81
236.051	118.81
236.285	122.81
236.519	94.81
236.753	110.81
236.987	98.81
237.221	100.81
237.455	110.81
237.689	109.81
237.922	104.81
238.156	111.81
238.39	112.81
238.624	108.81
238.858	106.81
239.091	114.81
239.325	94.81
239.559	113.81
239.793	126.81
240.027	131.81
240.26	123.81
240.494	114.81
240.728	134.81
240.961	113.81
241.195	109.81
241.429	115.81
241.662	112.81
241.896	133.81
242.13	116.81
242.363	123.81
242.597	117.81
242.83	131.81
243.064	130.81
243.298	129.81
243.531	115.81
243.765	122.81
243.998	123.81
244.232	127.81
244.465	119.81
244.699	133.81
244.932	115.81
245.166	114.81
245.399	122.81
245.633	120.81
245.866	131.81
246.099	121.81
246.333	121.81
246.566	123.81
246.8	127.81
247.033	122.81
247.266	135.81
247.5	122.81
247.733	137.81
247.966	126.81
248.2	134.81
248.433	131.81
248.666	129.81
248.899	139.81
249.133	144.81
249.366	149.81
249.599	139.81
249.832	151.81
250.066	151.81
250.299	126.81
250.532	156.81
250.765	132.81
250.998	151.81
251.231	150.81
251.465	153.81
251.698	153.81
251.931	139.81
252.164	138.81
252.397	141.81
252.63	151.81
252.863	152.81
253.096	151.81
253.329	147.81
253.562	134.81
253.795	134.81
254.028	153.81
254.261	156.81
254.494	142.81
254.727	148.81
254.96	149.81
255.193	150.81
255.426	151.81
255.659	166.81
255.892	161.81
256.124	135.81
256.357	159.81
256.59	159.81
256.823	142.81
257.056	142.81
257.289	162.81
257.521	159.81
257.754	145.81
257.987	151.81
258.22	150.81
258.452	158.81
258.685	163.81
258.918	156.81
259.151	171.81
259.383	156.81
259.616	157.81
259.849	175.81
260.081	161.81
260.314	163.81
260.547	164.81
260.779	164.81
261.012	161.81
261.244	151.81
261.477	166.81
261.71	178.81
261.942	172.81
262.175	177.81
262.407	167.81
262.64	165.81
262.872	180.81
263.105	192.81
263.337	185.81
263.57	172.81
263.802	177.81
264.035	190.81
264.267	171.81
264.499	180.81
264.732	198.81
264.964	197.81
265.197	189.81
265.429	169.81
265.661	176.81
265.894	175.81
266.126	177.81
266.358	189.81
266.591	188.81
266.823	196.81
267.055	191.81
267.287	185.81
267.52	153.81
267.752	202.81
267.984	185.81
268.216	187.81
268.448	188.81
268.681	198.81
268.913	189.81
269.145	197.81
269.377	180.81
269.609	186.81
269.841	178.81
270.073	180.81
270.306	187.81
270.538	179.81
270.77	194.81
271.002	198.81
271.234	183.81
271.466	197.81
271.698	185.81
271.93	203.81
272.162	193.81
272.394	195.81
272.626	194.81
272.858	196.81
273.09	181.81
273.322	196.81
273.553	190.81
273.785	189.81
274.017	216.81
274.249	207.81
274.481	204.81
274.713	194.81
274.945	214.81
275.176	186.81
275.408	198.81
275.64	200.81
275.872	190.81
276.104	198.81
276.335	196.81
276.567	198.81
276.799	202.81
277.031	215.81
277.262	215.81
277.494	221.81
277.726	207.81
277.957	210.81
278.189	216.81
278.421	217.81
278.652	233.81
278.884	202.81
279.115	210.81
279.347	226.81
279.579	207.81
279.81	203.81
280.042	205.81
280.273	202.81
280.505	221.81
280.736	230.81
280.968	219.81
281.199	222.81
281.431	221.81
281.662	217.81
281.894	207.81
282.125	203.81
282.356	224.81
282.588	227.81
282.819	232.81
283.051	219.81
283.282	226.81
283.513	232.81
283.745	245.81
283.976	235.81
284.207	226.81
284.439	228.81
284.67	234.81
284.901	230.81
285.132	223.81
285.364	222.81
285.595	221.81
285.826	230.81
286.057	246.81
286.288	223.81
286.52	233.81
286.751	229.81
286.982	251.81
287.213	239.81
287.444	222.81
287.675	236.81
287.906	219.81
288.138	242.81
288.369	243.81
288.6	233.81
288.831	236.81
289.062	239.81
289.293	235.81
289.524	231.81
289.755	233.81
289.986	239.81
290.217	237.81
290.448	245.81
290.679	245.81
290.91	245.81
291.141	243.81
291.371	238.81
291.602	236.81
291.833	242.81
292.064	239.81
292.295	239.81
292.526	247.81
292.757	235.81
292.987	252.81
293.218	261.81
293.449	235.81
293.68	238.81
293.91	265.81
294.141	249.81
294.372	245.81
294.603	265.81
294.833	253.81
295.064	245.81
295.295	244.81
295.525	239.81
295.756	255.81
295.987	247.81
296.217	246.81
296.448	259.81
296.679	252.81
296.909	258.81
297.14	264.81
297.37	229.81
297.601	249.81
297.831	246.81
298.062	262.81
298.292	274.81
298.523	256.81
298.753	274.81
298.984	255.81
299.214	274.81
299.445	269.81
299.675	245.81
299.905	265.81
300.136	254.81
300.366	289.81
300.597	298.81
300.827	275.81
301.057	276.81
301.288	264.81
301.518	283.81
301.748	267.81
301.979	269.81
302.209	257.81
302.439	273.81
302.669	282.81
302.9	260.81
303.13	284.81
303.36	261.81
303.59	284.81
303.82	265.81
304.051	295.81
304.281	292.81
304.511	273.81
304.741	277.81
304.971	281.81
305.201	276.81
305.431	279.81
305.661	290.81
305.891	275.81
306.121	292.81
306.352	281.81
306.582	274.81
306.812	268.81
307.042	287.81
307.272	274.81
307.502	285.81
307.731	280.81
307.961	267.81
308.191	277.81
308.421	275.81
308.651	264.81
308.881	274.81
309.111	281.81
309.341	271.81
309.571	275.81
309.8	273.81
310.03	299.81
310.26	305.81
310.49	289.81
310.72	284.81
310.949	303.81
311.179	292.81
311.409	294.81
311.639	285.81
311.868	285.81
312.098	286.81
312.328	306.81
312.557	283.81
312.787	279.81
313.017	289.81
313.246	282.81
313.476	308.81
313.706	302.81
313.935	317.81
314.165	290.81
314.394	296.81
314.624	309.81
314.853	291.81
315.083	290.81
315.312	300.81
315.542	306.81
315.771	293.81
316.001	325.81
316.23	321.81
316.46	296.81
316.689	298.81
316.919	285.81
317.148	287.81
317.377	288.81
317.607	315.81
317.836	295.81
318.065	297.81
318.295	297.81
318.524	295.81
318.753	299.81
318.983	294.81
319.212	313.81
319.441	293.81
319.67	280.81
319.9	300.81
320.129	300.81
320.358	286.81
320.587	294.81
320.816	305.81
321.046	305.81
321.275	308.81
321.504	302.81
321.733	309.81
321.962	307.81
322.191	323.81
322.42	298.81
322.649	315.81
322.878	319.81
323.108	321.81
323.337	314.81
323.566	309.81
323.795	321.81
324.024	302.81
324.253	323.81
324.482	307.81
324.71	320.81
324.939	326.81
325.168	311.81
325.397	314.81
325.626	317.81
325.855	328.81
326.084	330.81
326.313	318.81
326.542	325.81
326.77	330.81
326.999	336.81
327.228	330.81
327.457	327.81
327.686	328.81
327.914	335.81
328.143	333.81
328.372	313.81
328.6	328.81
328.829	327.81
329.058	327.81
329.287	327.81
329.515	322.81
329.744	344.81
329.972	346.81
330.201	335.81
330.43	331.81
330.658	345.81
330.887	338.81
331.115	356.81
331.344	333.81
331.572	338.81
331.801	345.81
332.03	339.81
332.258	353.81
332.486	375.81
332.715	359.81
332.943	354.81
333.172	375.81
333.4	383.81
333.629	390.81
333.857	387.81
334.085	387.81
334.314	392.81
334.542	397.81
334.771	372.81
334.999	380.81
335.227	403.81
335.455	387.81
335.684	381.81
335.912	383.81
336.14	377.81
336.369	386.81
336.597	378.81
336.825	381.81
337.053	379.81
337.281	377.81
337.51	385.81
337.738	366.81
337.966	385.81
338.194	373.81
338.422	391.81
338.65	361.81
338.878	367.81
339.106	376.81
339.334	355.81
339.562	357.81
339.79	365.81
340.018	356.81
340.246	346.81
340.474	347.81
340.702	360.81
340.93	367.81
341.158	349.81
341.386	365.81
341.614	374.81
341.842	373.81
342.07	358.81
342.298	349.81
342.526	350.81
342.754	354.81
342.981	356.81
343.209	375.81
343.437	394.81
343.665	377.81
343.893	402.81
344.12	387.81
344.348	374.81
344.576	395.81
344.804	383.81
345.031	377.81
345.259	367.81
345.487	373.81
345.714	357.81
345.942	378.81
346.17	392.81
346.397	376.81
346.625	356.81
346.853	348.81
347.08	341.81
347.308	330.81
347.535	361.81
347.763	343.81
347.99	341.81
348.218	351.81
348.445	332.81
348.673	344.81
348.9	343.81
349.128	334.81
349.355	357.81
349.583	343.81
349.81	344.81
350.037	343.81
350.265	335.81
350.492	340.81
350.72	346.81
350.947	344.81
351.174	354.81
351.402	343.81
351.629	344.81
351.856	340.81
352.083	338.81
352.311	355.81
352.538	365.81
352.765	370.81
352.992	347.81
353.22	334.81
353.447	346.81
353.674	330.81
353.901	344.81
354.128	351.81
354.355	309.81
354.583	316.81
354.81	341.81
355.037	338.81
355.264	340.81
355.491	349.81
355.718	336.81
355.945	335.81
356.172	341.81
356.399	340.81
356.626	329.81
356.853	358.81
357.08	336.81
357.307	326.81
357.534	333.81
357.761	333.81
357.988	338.81
358.215	351.81
358.441	343.81
358.668	362.81
358.895	339.81
359.122	352.81
359.349	329.81
359.576	325.81
359.802	341.81
360.029	360.81
360.256	337.81
360.483	347.81
360.709	327.81
360.936	360.81
361.163	346.81
361.39	353.81
361.616	344.81
361.843	349.81
362.07	343.81
362.296	350.81
362.523	333.81
362.749	359.81
362.976	343.81
363.203	357.81
363.429	338.81
363.656	345.81
363.882	337.81
364.109	324.81
364.335	346.81
364.562	347.81
364.788	356.81
365.015	340.81
365.241	346.81
365.468	345.81
365.694	318.81
365.92	338.81
366.147	339.81
366.373	332.81
366.599	333.81
366.826	364.81
367.052	335.81
367.278	347.81
367.505	340.81
367.731	353.81
367.957	347.81
368.184	345.81
368.41	337.81
368.636	343.81
368.862	353.81
369.089	334.81
369.315	350.81
369.541	350.81
369.767	341.81
369.993	357.81
370.219	366.81
370.445	361.81
370.672	351.81
370.898	348.81
371.124	347.81
371.35	358.81
371.576	366.81
371.802	360.81
372.028	378.81
372.254	359.81
372.48	371.81
372.706	379.81
372.932	375.81
373.158	370.81
373.384	381.81
373.61	376.81
373.835	365.81
374.061	349.81
374.287	359.81
374.513	375.81
374.739	375.81
374.965	370.81
375.191	378.81
375.416	378.81
375.642	372.81
375.868	385.81
376.094	379.81
376.319	377.81
376.545	357.81
376.771	365.81
376.997	350.81
377.222	367.81
377.448	342.81
377.674	358.81
377.899	358.81
378.125	367.81
378.35	381.81
378.576	370.81
378.802	376.81
379.027	366.81
379.253	356.81
379.478	348.81
379.704	347.81
379.929	357.81
380.155	367.81
380.38	388.81
380.606	365.81
380.831	368.81
381.057	377.81
381.282	357.81
381.507	373.81
381.733	374.81
381.958	363.81
382.184	357.81
382.409	373.81
382.634	375.81
382.86	380.81
383.085	383.81
383.31	342.81
383.535	373.81
383.761	387.81
383.986	389.81
384.211	371.81
384.436	375.81
384.662	397.81
384.887	403.81
385.112	409.81
385.337	389.81
385.562	375.81
385.787	406.81
386.013	422.81
386.238	404.81
386.463	408.81
386.688	406.81
386.913	387.81
387.138	409.81
387.363	410.81
387.588	406.81
387.813	397.81
388.038	413.81
388.263	397.81
388.488	420.81
388.713	410.81
388.938	417.81
389.163	389.81
389.387	414.81
389.612	385.81
389.837	411.81
390.062	386.81
390.287	410.81
390.512	414.81
390.736	419.81
390.961	409.81
391.186	411.81
391.411	425.81
391.636	447.81
391.86	446.81
392.085	443.81
392.31	447.81
392.534	434.81
392.759	415.81
392.984	455.81
393.208	441.81
393.433	439.81
393.658	426.81
393.882	417.81
394.107	418.81
394.331	418.81
394.556	415.81
394.78	417.81
395.005	424.81
395.229	414.81
395.454	424.81
395.678	439.81
395.903	433.81
396.127	431.81
396.352	439.81
396.576	437.81
396.801	425.81
397.025	436.81
397.249	433.81
397.474	450.81
397.698	468.81
397.922	447.81
398.147	444.81
398.371	463.81
398.595	462.81
398.82	485.81
399.044	494.81
399.268	523.81
399.492	557.81
399.717	579.81
399.941	573.81
400.165	563.81
400.389	528.81
400.613	539.81
400.837	479.81
401.062	477.81
401.286	488.81
401.51	475.81
401.734	483.81
401.958	474.81
402.182	487.81
402.406	492.81
402.63	478.81
402.854	490.81
403.078	493.81
403.302	487.81
403.526	503.81
403.75	508.81
403.974	515.81
404.198	499.81
404.422	482.81
404.645	482.81
404.869	501.81
405.093	515.81
405.317	493.81
405.541	502.81
405.765	506.81
405.988	506.81
406.212	492.81
406.436	497.81
406.66	523.81
406.883	524.81
407.107	542.81
407.331	558.81
407.555	579.81
407.778	590.81
408.002	570.81
408.226	548.81
408.449	555.81
408.673	537.81
408.896	523.81
409.12	531.81
409.344	535.81
409.567	516.81
409.791	534.81
410.014	535.81
410.238	515.81
410.461	537.81
410.685	509.81
410.908	511.81
411.132	532.81
411.355	501.81
411.578	500.81
411.802	486.81
412.025	521.81
412.249	495.81
412.472	507.81
412.695	514.81
412.919	504.81
413.142	497.81
413.365	480.81
413.589	494.81
413.812	481.81
414.035	507.81
414.258	478.81
414.482	488.81
414.705	492.81
414.928	482.81
415.151	479.81
415.374	475.81
415.597	481.81
415.821	464.81
416.044	483.81
416.267	471.81
416.49	469.81
416.713	463.81
416.936	482.81
417.159	488.81
417.382	472.81
417.605	459.81
417.828	474.81
418.051	477.81
418.274	486.81
418.497	473.81
418.72	494.81
418.943	484.81
419.166	493.81
419.389	515.81
419.611	516.81
419.834	506.81
420.057	484.81
420.28	457.81
420.503	475.81
420.726	452.81
420.948	472.81
421.171	478.81
421.394	493.81
421.617	466.81
421.839	475.81
422.062	466.81
422.285	441.81
422.507	473.81
422.73	456.81
422.953	485.81
423.175	474.81
423.398	472.81
423.621	459.81
423.843	489.81
424.066	462.81
424.288	463.81
424.511	485.81
424.733	477.81
424.956	469.81
425.178	476.81
425.401	488.81
425.623	486.81
425.846	452.81
426.068	473.81
426.291	454.81
426.513	462.81
426.735	454.81
426.958	435.81
427.18	442.81
427.402	467.81
427.625	459.81
427.847	462.81
428.069	454.81
428.292	460.81
428.514	444.81
428.736	433.81
428.958	443.81
429.181	459.81
429.403	434.81
429.625	459.81
429.847	467.81
430.069	464.81
430.292	445.81
430.514	458.81
430.736	430.81
430.958	459.81
431.18	458.81
431.402	439.81
431.624	445.81
431.846	466.81
432.068	466.81
432.29	463.81
432.512	441.81
432.734	454.81
432.956	467.81
433.178	482.81
433.4	472.81
433.622	497.81
433.844	485.81
434.066	464.81
434.287	484.81
434.509	479.81
434.731	478.81
434.953	487.81
435.175	506.81
435.397	499.81
435.618	472.81
435.84	476.81
436.062	468.81
436.284	474.81
436.505	467.81
436.727	462.81
436.949	473.81
437.17	457.81
437.392	460.81
437.614	446.81
437.835	440.81
438.057	427.81
438.278	425.81
438.5	456.81
438.721	444.81
438.943	438.81
439.165	430.81
439.386	465.81
439.608	469.81
439.829	451.81
440.05	486.81
440.272	450.81
440.493	478.81
440.715	467.81
440.936	446.81
441.158	458.81
441.379	482.81
441.6	497.81
441.822	472.81
442.043	491.81
442.264	516.81
442.486	491.81
442.707	487.81
442.928	460.81
443.149	487.81
443.371	495.81
443.592	507.81
443.813	511.81
444.034	509.81
444.255	515.81
444.476	507.81
444.698	531.81
444.919	543.81
445.14	612.81
445.361	542.81
445.582	510.81
445.803	482.81
446.024	476.81
446.245	452.81
446.466	469.81
446.687	449.81
446.908	479.81
447.129	465.81
447.35	448.81
447.571	474.81
447.792	455.81
448.013	430.81
448.234	442.81
448.455	417.81
448.675	447.81
448.896	449.81
449.117	433.81
449.338	438.81
449.559	421.81
449.779	423.81
450	430.81
450.221	428.81
450.442	435.81
450.662	420.81
450.883	430.81
451.104	459.81
451.324	437.81
451.545	419.81
451.766	418.81
451.986	434.81
452.207	416.81
452.428	400.81
452.648	415.81
452.869	416.81
453.089	419.81
453.31	412.81
453.53	413.81
453.751	399.81
453.971	407.81
454.192	413.81
454.412	427.81
454.633	416.81
454.853	393.81
455.073	390.81
455.294	395.81
455.514	409.81
455.734	420.81
455.955	402.81
456.175	428.81
456.395	409.81
456.616	397.81
456.836	393.81
457.056	418.81
457.276	397.81
457.497	412.81
457.717	407.81
457.937	422.81
458.157	419.81
458.377	415.81
458.598	411.81
458.818	418.81
459.038	424.81
459.258	427.81
459.478	459.81
459.698	507.81
459.918	494.81
460.138	497.81
460.358	509.81
460.578	508.81
460.798	532.81
461.018	515.81
461.238	485.81
461.458	507.81
461.678	507.81
461.898	484.81
462.118	505.81
462.338	522.81
462.558	542.81
462.777	537.81
462.997	553.81
463.217	583.81
463.437	618.81
463.657	595.81
463.876	556.81
464.096	543.81
464.316	532.81
464.536	554.81
464.755	513.81
464.975	491.81
465.195	506.81
465.414	498.81
465.634	475.81
465.854	462.81
466.073	450.81
466.293	450.81
466.512	444.81
466.732	447.81
466.951	455.81
467.171	442.81
467.391	420.81
467.61	437.81
467.829	446.81
468.049	446.81
468.268	436.81
468.488	444.81
468.707	439.81
468.927	450.81
469.146	446.81
469.365	442.81
469.585	442.81
469.804	437.81
470.023	466.81
470.243	447.81
470.462	438.81
470.681	450.81
470.901	473.81
471.12	446.81
471.339	448.81
471.558	450.81
471.777	434.81
471.997	419.81
472.216	427.81
472.435	412.81
472.654	417.81
472.873	428.81
473.092	442.81
473.311	414.81
473.53	412.81
473.749	442.81
473.968	445.81
474.187	443.81
474.406	428.81
474.625	447.81
474.844	429.81
475.063	446.81
475.282	436.81
475.501	443.81
475.72	439.81
475.939	441.81
476.158	447.81
476.377	446.81
476.596	418.81
476.814	436.81
477.033	443.81
477.252	483.81
477.471	477.81
477.69	476.81
477.908	484.81
478.127	486.81
478.346	513.81
478.564	509.81
478.783	490.81
479.002	539.81
479.22	522.81
479.439	531.81
479.658	497.81
479.876	518.81
480.095	535.81
480.313	524.81
480.532	512.81
480.751	536.81
480.969	504.81
481.188	496.81
481.406	485.81
481.624	499.81
481.843	497.81
482.061	481.81
482.28	479.81
482.498	513.81
482.717	482.81
482.935	516.81
483.153	511.81
483.372	541.81
483.59	547.81
483.808	513.81
484.027	491.81
484.245	506.81
484.463	518.81
484.681	531.81
484.9	521.81
485.118	518.81
485.336	541.81
485.554	517.81
485.772	508.81
485.99	502.81
486.209	506.81
486.427	514.81
486.645	487.81
486.863	531.81
487.081	527.81
487.299	527.81
487.517	518.81
487.735	551.81
487.953	546.81
488.171	544.81
488.389	533.81
488.607	534.81
488.825	558.81
489.043	501.81
489.261	538.81
489.479	498.81
489.696	497.81
489.914	522.81
490.132	521.81
490.35	539.81
490.568	536.81
490.786	541.81
491.003	556.81
491.221	555.81
491.439	537.81
491.657	531.81
491.874	558.81
492.092	561.81
492.31	557.81
492.527	547.81
492.745	538.81
492.963	539.81
493.18	570.81
493.398	532.81
493.615	543.81
493.833	554.81
494.05	554.81
494.268	548.81
494.485	535.81
494.703	526.81
494.92	533.81
495.138	543.81
495.355	545.81
495.573	554.81
495.79	541.81
496.008	542.81
496.225	558.81
496.442	554.81
496.66	535.81
496.877	584.81
497.094	582.81
497.312	561.81
497.529	576.81
497.746	583.81
497.963	586.81
498.181	623.81
498.398	636.81
498.615	655.81
498.832	682.81
499.049	710.81
499.267	722.81
499.484	780.81
499.701	804.81
499.918	857.81
500.135	913.81
500.352	960.81
500.569	994.81
500.786	989.81
501.003	921.81
501.22	883.81
501.437	819.81
501.654	801.81
