Data from Ni(NO3)2@0.25M.TitratingCurve.Agarose3%dH2O.NegLispCup.LampEnergy10.LIBS07252019_HRD10591_18-04-04-566.txt Node
Date: Thu Jul 25 18:04:04 EDT 2019
User: cochatt
Spectrometer: HR+D1059
Trigger mode: 1
Integration Time (sec): 1.000000E-1
Scans to average: 1
Electric dark correction enabled: true
Nonlinearity correction enabled: false
Boxcar width: 0
XAxis mode: Wavelengths
Number of Pixels in Spectrum: 2048
>>>>>Begin Spectral Data<<<<<
223.165	-23.88
223.4	-23.88
223.635	-23.88
223.869	-11.88
224.104	-15.88
224.338	-14.88
224.573	-19.88
224.808	-10.88
225.042	-9.88
225.277	-10.88
225.511	1.12
225.746	0.12
225.98	16.12
226.215	12.12
226.449	16.12
226.683	29.12
226.918	20.12
227.152	23.12
227.387	46.12
227.621	44.12
227.856	66.12
228.09	54.12
228.324	53.12
228.559	51.12
228.793	55.12
229.027	86.12
229.262	76.12
229.496	88.12
229.73	91.12
229.964	100.12
230.199	108.12
230.433	93.12
230.667	101.12
230.901	110.12
231.136	100.12
231.37	96.12
231.604	106.12
231.838	119.12
232.072	118.12
232.306	112.12
232.541	105.12
232.775	117.12
233.009	112.12
233.243	109.12
233.477	106.12
233.711	112.12
233.945	117.12
234.179	116.12
234.413	108.12
234.647	117.12
234.881	108.12
235.115	109.12
235.349	111.12
235.583	104.12
235.817	112.12
236.051	119.12
236.285	118.12
236.519	127.12
236.753	110.12
236.987	111.12
237.221	111.12
237.455	106.12
237.689	107.12
237.922	118.12
238.156	112.12
238.39	105.12
238.624	100.12
238.858	102.12
239.091	115.12
239.325	127.12
239.559	127.12
239.793	109.12
240.027	115.12
240.26	103.12
240.494	109.12
240.728	107.12
240.961	116.12
241.195	125.12
241.429	122.12
241.662	125.12
241.896	142.12
242.13	124.12
242.363	133.12
242.597	115.12
242.83	134.12
243.064	119.12
243.298	133.12
243.531	125.12
243.765	128.12
243.998	133.12
244.232	142.12
244.465	127.12
244.699	143.12
244.932	135.12
245.166	127.12
245.399	141.12
245.633	143.12
245.866	135.12
246.099	145.12
246.333	140.12
246.566	141.12
246.8	144.12
247.033	150.12
247.266	126.12
247.5	132.12
247.733	145.12
247.966	161.12
248.2	135.12
248.433	149.12
248.666	145.12
248.899	142.12
249.133	139.12
249.366	157.12
249.599	158.12
249.832	158.12
250.066	167.12
250.299	149.12
250.532	167.12
250.765	151.12
250.998	157.12
251.231	165.12
251.465	165.12
251.698	159.12
251.931	151.12
252.164	156.12
252.397	161.12
252.63	173.12
252.863	175.12
253.096	172.12
253.329	173.12
253.562	165.12
253.795	151.12
254.028	161.12
254.261	172.12
254.494	180.12
254.727	183.12
254.96	177.12
255.193	149.12
255.426	164.12
255.659	172.12
255.892	183.12
256.124	195.12
256.357	190.12
256.59	208.12
256.823	181.12
257.056	179.12
257.289	200.12
257.521	193.12
257.754	192.12
257.987	182.12
258.22	196.12
258.452	179.12
258.685	191.12
258.918	215.12
259.151	206.12
259.383	198.12
259.616	208.12
259.849	207.12
260.081	189.12
260.314	219.12
260.547	202.12
260.779	208.12
261.012	204.12
261.244	204.12
261.477	199.12
261.71	220.12
261.942	207.12
262.175	186.12
262.407	198.12
262.64	220.12
262.872	215.12
263.105	215.12
263.337	196.12
263.57	212.12
263.802	197.12
264.035	224.12
264.267	218.12
264.499	211.12
264.732	202.12
264.964	219.12
265.197	213.12
265.429	216.12
265.661	223.12
265.894	216.12
266.126	236.12
266.358	227.12
266.591	228.12
266.823	220.12
267.055	216.12
267.287	231.12
267.52	220.12
267.752	232.12
267.984	241.12
268.216	230.12
268.448	217.12
268.681	232.12
268.913	225.12
269.145	239.12
269.377	222.12
269.609	244.12
269.841	225.12
270.073	217.12
270.306	231.12
270.538	221.12
270.77	224.12
271.002	227.12
271.234	230.12
271.466	222.12
271.698	232.12
271.93	253.12
272.162	243.12
272.394	245.12
272.626	235.12
272.858	247.12
273.09	242.12
273.322	232.12
273.553	232.12
273.785	234.12
274.017	237.12
274.249	243.12
274.481	251.12
274.713	266.12
274.945	277.12
275.176	246.12
275.408	262.12
275.64	245.12
275.872	255.12
276.104	253.12
276.335	249.12
276.567	246.12
276.799	259.12
277.031	250.12
277.262	262.12
277.494	268.12
277.726	271.12
277.957	264.12
278.189	239.12
278.421	247.12
278.652	245.12
278.884	267.12
279.115	255.12
279.347	264.12
279.579	279.12
279.81	269.12
280.042	267.12
280.273	276.12
280.505	263.12
280.736	263.12
280.968	271.12
281.199	273.12
281.431	259.12
281.662	280.12
281.894	251.12
282.125	274.12
282.356	270.12
282.588	274.12
282.819	277.12
283.051	267.12
283.282	273.12
283.513	278.12
283.745	291.12
283.976	267.12
284.207	278.12
284.439	280.12
284.67	284.12
284.901	273.12
285.132	273.12
285.364	283.12
285.595	282.12
285.826	272.12
286.057	285.12
286.288	291.12
286.52	291.12
286.751	284.12
286.982	283.12
287.213	281.12
287.444	301.12
287.675	274.12
287.906	299.12
288.138	287.12
288.369	300.12
288.6	307.12
288.831	277.12
289.062	304.12
289.293	296.12
289.524	292.12
289.755	307.12
289.986	274.12
290.217	272.12
290.448	281.12
290.679	293.12
290.91	290.12
291.141	296.12
291.371	292.12
291.602	300.12
291.833	286.12
292.064	317.12
292.295	299.12
292.526	300.12
292.757	300.12
292.987	290.12
293.218	304.12
293.449	297.12
293.68	295.12
293.91	295.12
294.141	291.12
294.372	302.12
294.603	300.12
294.833	310.12
295.064	290.12
295.295	295.12
295.525	292.12
295.756	292.12
295.987	301.12
296.217	297.12
296.448	301.12
296.679	304.12
296.909	318.12
297.14	307.12
297.37	312.12
297.601	315.12
297.831	296.12
298.062	319.12
298.292	316.12
298.523	321.12
298.753	326.12
298.984	316.12
299.214	328.12
299.445	310.12
299.675	319.12
299.905	315.12
300.136	312.12
300.366	329.12
300.597	340.12
300.827	325.12
301.057	321.12
301.288	336.12
301.518	343.12
301.748	343.12
301.979	339.12
302.209	338.12
302.439	342.12
302.669	348.12
302.9	335.12
303.13	341.12
303.36	337.12
303.59	327.12
303.82	346.12
304.051	348.12
304.281	348.12
304.511	320.12
304.741	340.12
304.971	345.12
305.201	368.12
305.431	340.12
305.661	335.12
305.891	345.12
306.121	333.12
306.352	338.12
306.582	342.12
306.812	328.12
307.042	335.12
307.272	331.12
307.502	326.12
307.731	325.12
307.961	337.12
308.191	320.12
308.421	326.12
308.651	337.12
308.881	314.12
309.111	334.12
309.341	353.12
309.571	334.12
309.8	331.12
310.03	321.12
310.26	338.12
310.49	364.12
310.72	335.12
310.949	358.12
311.179	339.12
311.409	344.12
311.639	360.12
311.868	348.12
312.098	354.12
312.328	347.12
312.557	342.12
312.787	349.12
313.017	359.12
313.246	344.12
313.476	361.12
313.706	368.12
313.935	375.12
314.165	368.12
314.394	358.12
314.624	374.12
314.853	379.12
315.083	362.12
315.312	365.12
315.542	376.12
315.771	391.12
316.001	361.12
316.23	367.12
316.46	379.12
316.689	370.12
316.919	360.12
317.148	380.12
317.377	366.12
317.607	370.12
317.836	380.12
318.065	356.12
318.295	389.12
318.524	389.12
318.753	385.12
318.983	378.12
319.212	376.12
319.441	379.12
319.67	392.12
319.9	389.12
320.129	394.12
320.358	385.12
320.587	387.12
320.816	393.12
321.046	374.12
321.275	381.12
321.504	396.12
321.733	405.12
321.962	387.12
322.191	406.12
322.42	432.12
322.649	407.12
322.878	406.12
323.108	422.12
323.337	405.12
323.566	409.12
323.795	422.12
324.024	404.12
324.253	430.12
324.482	394.12
324.71	408.12
324.939	425.12
325.168	426.12
325.397	431.12
325.626	416.12
325.855	439.12
326.084	461.12
326.313	455.12
326.542	459.12
326.77	449.12
326.999	432.12
327.228	435.12
327.457	446.12
327.686	441.12
327.914	451.12
328.143	464.12
328.372	457.12
328.6	444.12
328.829	459.12
329.058	442.12
329.287	455.12
329.515	458.12
329.744	435.12
329.972	475.12
330.201	455.12
330.43	459.12
330.658	458.12
330.887	471.12
331.115	471.12
331.344	476.12
331.572	500.12
331.801	499.12
332.03	523.12
332.258	500.12
332.486	522.12
332.715	515.12
332.943	527.12
333.172	539.12
333.4	561.12
333.629	586.12
333.857	599.12
334.085	565.12
334.314	600.12
334.542	590.12
334.771	604.12
334.999	554.12
335.227	590.12
335.455	552.12
335.684	583.12
335.912	556.12
336.14	563.12
336.369	567.12
336.597	568.12
336.825	561.12
337.053	551.12
337.281	548.12
337.51	527.12
337.738	564.12
337.966	571.12
338.194	567.12
338.422	538.12
338.65	527.12
338.878	520.12
339.106	527.12
339.334	551.12
339.562	528.12
339.79	518.12
340.018	531.12
340.246	493.12
340.474	513.12
340.702	499.12
340.93	497.12
341.158	517.12
341.386	510.12
341.614	527.12
341.842	518.12
342.07	531.12
342.298	503.12
342.526	511.12
342.754	477.12
342.981	510.12
343.209	525.12
343.437	554.12
343.665	557.12
343.893	583.12
344.12	568.12
344.348	571.12
344.576	567.12
344.804	541.12
345.031	525.12
345.259	522.12
345.487	523.12
345.714	501.12
345.942	504.12
346.17	530.12
346.397	518.12
346.625	496.12
346.853	493.12
347.08	494.12
347.308	506.12
347.535	475.12
347.763	480.12
347.99	488.12
348.218	495.12
348.445	481.12
348.673	500.12
348.9	477.12
349.128	493.12
349.355	506.12
349.583	491.12
349.81	490.12
350.037	473.12
350.265	480.12
350.492	495.12
350.72	503.12
350.947	487.12
351.174	475.12
351.402	493.12
351.629	490.12
351.856	486.12
352.083	483.12
352.311	489.12
352.538	499.12
352.765	489.12
352.992	487.12
353.22	461.12
353.447	455.12
353.674	471.12
353.901	465.12
354.128	475.12
354.355	478.12
354.583	477.12
354.81	464.12
355.037	478.12
355.264	448.12
355.491	482.12
355.718	474.12
355.945	461.12
356.172	482.12
356.399	467.12
356.626	472.12
356.853	481.12
357.08	479.12
357.307	477.12
357.534	453.12
357.761	465.12
357.988	458.12
358.215	465.12
358.441	491.12
358.668	459.12
358.895	472.12
359.122	478.12
359.349	469.12
359.576	467.12
359.802	483.12
360.029	464.12
360.256	468.12
360.483	479.12
360.709	455.12
360.936	451.12
361.163	501.12
361.39	465.12
361.616	489.12
361.843	523.12
362.07	495.12
362.296	501.12
362.523	483.12
362.749	496.12
362.976	447.12
363.203	461.12
363.429	477.12
363.656	463.12
363.882	463.12
364.109	492.12
364.335	499.12
364.562	462.12
364.788	461.12
365.015	459.12
365.241	472.12
365.468	461.12
365.694	466.12
365.92	465.12
366.147	469.12
366.373	472.12
366.599	462.12
366.826	473.12
367.052	478.12
367.278	465.12
367.505	460.12
367.731	472.12
367.957	457.12
368.184	469.12
368.41	471.12
368.636	463.12
368.862	481.12
369.089	484.12
369.315	478.12
369.541	482.12
369.767	482.12
369.993	484.12
370.219	466.12
370.445	462.12
370.672	491.12
370.898	492.12
371.124	486.12
371.35	493.12
371.576	497.12
371.802	508.12
372.028	509.12
372.254	499.12
372.48	490.12
372.706	505.12
372.932	520.12
373.158	496.12
373.384	489.12
373.61	495.12
373.835	515.12
374.061	483.12
374.287	506.12
374.513	500.12
374.739	520.12
374.965	545.12
375.191	520.12
375.416	528.12
375.642	524.12
375.868	521.12
376.094	502.12
376.319	508.12
376.545	503.12
376.771	478.12
376.997	483.12
377.222	494.12
377.448	495.12
377.674	519.12
377.899	478.12
378.125	496.12
378.35	472.12
378.576	486.12
378.802	479.12
379.027	460.12
379.253	488.12
379.478	461.12
379.704	470.12
379.929	486.12
380.155	475.12
380.38	493.12
380.606	502.12
380.831	474.12
381.057	499.12
381.282	479.12
381.507	483.12
381.733	476.12
381.958	492.12
382.184	490.12
382.409	508.12
382.634	489.12
382.86	522.12
383.085	507.12
383.31	507.12
383.535	512.12
383.761	518.12
383.986	517.12
384.211	511.12
384.436	517.12
384.662	525.12
384.887	553.12
385.112	555.12
385.337	578.12
385.562	560.12
385.787	569.12
386.013	578.12
386.238	562.12
386.463	566.12
386.688	581.12
386.913	551.12
387.138	562.12
387.363	573.12
387.588	554.12
387.813	559.12
388.038	569.12
388.263	552.12
388.488	571.12
388.713	585.12
388.938	580.12
389.163	552.12
389.387	560.12
389.612	552.12
389.837	541.12
390.062	568.12
390.287	556.12
390.512	575.12
390.736	557.12
390.961	555.12
391.186	584.12
391.411	593.12
391.636	595.12
391.86	587.12
392.085	604.12
392.31	609.12
392.534	607.12
392.759	602.12
392.984	584.12
393.208	615.12
393.433	623.12
393.658	604.12
393.882	596.12
394.107	596.12
394.331	575.12
394.556	597.12
394.78	600.12
395.005	612.12
395.229	616.12
395.454	613.12
395.678	633.12
395.903	620.12
396.127	645.12
396.352	607.12
396.576	605.12
396.801	597.12
397.025	593.12
397.249	639.12
397.474	629.12
397.698	618.12
397.922	620.12
398.147	628.12
398.371	647.12
398.595	656.12
398.82	686.12
399.044	703.12
399.268	779.12
399.492	871.12
399.717	920.12
399.941	896.12
400.165	869.12
400.389	801.12
400.613	759.12
400.837	744.12
401.062	718.12
401.286	716.12
401.51	717.12
401.734	696.12
401.958	715.12
402.182	716.12
402.406	690.12
402.63	715.12
402.854	718.12
403.078	723.12
403.302	737.12
403.526	734.12
403.75	737.12
403.974	775.12
404.198	745.12
404.422	739.12
404.645	755.12
404.869	753.12
405.093	767.12
405.317	743.12
405.541	758.12
405.765	737.12
405.988	745.12
406.212	744.12
406.436	749.12
406.66	777.12
406.883	781.12
407.107	796.12
407.331	838.12
407.555	861.12
407.778	860.12
408.002	850.12
408.226	853.12
408.449	821.12
408.673	800.12
408.896	792.12
409.12	769.12
409.344	811.12
409.567	759.12
409.791	812.12
410.014	770.12
410.238	785.12
410.461	783.12
410.685	746.12
410.908	747.12
411.132	752.12
411.355	745.12
411.578	746.12
411.802	734.12
412.025	755.12
412.249	753.12
412.472	739.12
412.695	741.12
412.919	722.12
413.142	716.12
413.365	696.12
413.589	708.12
413.812	741.12
414.035	727.12
414.258	737.12
414.482	734.12
414.705	684.12
414.928	740.12
415.151	727.12
415.374	705.12
415.597	729.12
415.821	709.12
416.044	718.12
416.267	697.12
416.49	712.12
416.713	697.12
416.936	719.12
417.159	699.12
417.382	693.12
417.605	690.12
417.828	719.12
418.051	737.12
418.274	705.12
418.497	685.12
418.72	735.12
418.943	736.12
419.166	771.12
419.389	803.12
419.611	772.12
419.834	769.12
420.057	750.12
420.28	737.12
420.503	733.12
420.726	715.12
420.948	697.12
421.171	693.12
421.394	711.12
421.617	709.12
421.839	724.12
422.062	713.12
422.285	726.12
422.507	730.12
422.73	734.12
422.953	695.12
423.175	738.12
423.398	752.12
423.621	737.12
423.843	748.12
424.066	769.12
424.288	743.12
424.511	746.12
424.733	751.12
424.956	721.12
425.178	737.12
425.401	733.12
425.623	712.12
425.846	703.12
426.068	693.12
426.291	702.12
426.513	705.12
426.735	716.12
426.958	707.12
427.18	661.12
427.402	690.12
427.625	686.12
427.847	693.12
428.069	672.12
428.292	687.12
428.514	684.12
428.736	655.12
428.958	667.12
429.181	677.12
429.403	667.12
429.625	688.12
429.847	643.12
430.069	691.12
430.292	694.12
430.514	689.12
430.736	668.12
430.958	668.12
431.18	652.12
431.402	681.12
431.624	669.12
431.846	666.12
432.068	675.12
432.29	671.12
432.512	660.12
432.734	693.12
432.956	717.12
433.178	703.12
433.4	720.12
433.622	696.12
433.844	708.12
434.066	684.12
434.287	703.12
434.509	708.12
434.731	735.12
434.953	740.12
435.175	721.12
435.397	757.12
435.618	720.12
435.84	709.12
436.062	693.12
436.284	706.12
436.505	705.12
436.727	673.12
436.949	695.12
437.17	697.12
437.392	681.12
437.614	697.12
437.835	657.12
438.057	669.12
438.278	655.12
438.5	664.12
438.721	657.12
438.943	695.12
439.165	659.12
439.386	666.12
439.608	715.12
439.829	693.12
440.05	696.12
440.272	709.12
440.493	680.12
440.715	713.12
440.936	722.12
441.158	713.12
441.379	745.12
441.6	756.12
441.822	751.12
442.043	736.12
442.264	737.12
442.486	750.12
442.707	747.12
442.928	730.12
443.149	762.12
443.371	738.12
443.592	741.12
443.813	773.12
444.034	764.12
444.255	792.12
444.476	814.12
444.698	813.12
444.919	848.12
445.14	935.12
445.361	848.12
445.582	783.12
445.803	760.12
446.024	736.12
446.245	714.12
446.466	733.12
446.687	716.12
446.908	694.12
447.129	705.12
447.35	684.12
447.571	687.12
447.792	669.12
448.013	655.12
448.234	656.12
448.455	648.12
448.675	665.12
448.896	624.12
449.117	630.12
449.338	661.12
449.559	651.12
449.779	656.12
450	631.12
450.221	645.12
450.442	633.12
450.662	670.12
450.883	644.12
451.104	673.12
451.324	636.12
451.545	637.12
451.766	670.12
451.986	659.12
452.207	650.12
452.428	653.12
452.648	638.12
452.869	629.12
453.089	635.12
453.31	621.12
453.53	618.12
453.751	605.12
453.971	615.12
454.192	614.12
454.412	623.12
454.633	634.12
454.853	618.12
455.073	607.12
455.294	602.12
455.514	600.12
455.734	596.12
455.955	628.12
456.175	611.12
456.395	599.12
456.616	594.12
456.836	600.12
457.056	589.12
457.276	592.12
457.497	603.12
457.717	594.12
457.937	611.12
458.157	657.12
458.377	624.12
458.598	625.12
458.818	643.12
459.038	663.12
459.258	663.12
459.478	693.12
459.698	699.12
459.918	725.12
460.138	748.12
460.358	760.12
460.578	775.12
460.798	784.12
461.018	786.12
461.238	783.12
461.458	784.12
461.678	760.12
461.898	790.12
462.118	795.12
462.338	837.12
462.558	823.12
462.777	879.12
462.997	923.12
463.217	939.12
463.437	960.12
463.657	925.12
463.876	890.12
464.096	879.12
464.316	860.12
464.536	890.12
464.755	849.12
464.975	815.12
465.195	778.12
465.414	742.12
465.634	736.12
465.854	706.12
466.073	719.12
466.293	684.12
466.512	673.12
466.732	719.12
466.951	685.12
467.171	661.12
467.391	695.12
467.61	681.12
467.829	697.12
468.049	698.12
468.268	675.12
468.488	671.12
468.707	661.12
468.927	661.12
469.146	672.12
469.365	665.12
469.585	668.12
469.804	698.12
470.023	689.12
470.243	686.12
470.462	698.12
470.681	678.12
470.901	704.12
471.12	665.12
471.339	699.12
471.558	677.12
471.777	667.12
471.997	655.12
472.216	635.12
472.435	624.12
472.654	633.12
472.873	647.12
473.092	631.12
473.311	634.12
473.53	655.12
473.749	648.12
473.968	645.12
474.187	633.12
474.406	636.12
474.625	630.12
474.844	633.12
475.063	648.12
475.282	653.12
475.501	650.12
475.72	665.12
475.939	645.12
476.158	645.12
476.377	642.12
476.596	653.12
476.814	673.12
477.033	670.12
477.252	705.12
477.471	689.12
477.69	714.12
477.908	725.12
478.127	739.12
478.346	717.12
478.564	749.12
478.783	774.12
479.002	792.12
479.22	781.12
479.439	798.12
479.658	771.12
479.876	741.12
480.095	767.12
480.313	781.12
480.532	788.12
480.751	805.12
480.969	749.12
481.188	764.12
481.406	722.12
481.624	746.12
481.843	742.12
482.061	718.12
482.28	739.12
482.498	723.12
482.717	735.12
482.935	734.12
483.153	708.12
483.372	736.12
483.59	740.12
483.808	700.12
484.027	740.12
484.245	730.12
484.463	729.12
484.681	752.12
484.9	761.12
485.118	733.12
485.336	759.12
485.554	735.12
485.772	772.12
485.99	748.12
486.209	734.12
486.427	743.12
486.645	749.12
486.863	744.12
487.081	771.12
487.299	758.12
487.517	781.12
487.735	776.12
487.953	770.12
488.171	800.12
488.389	798.12
488.607	746.12
488.825	784.12
489.043	759.12
489.261	758.12
489.479	770.12
489.696	743.12
489.914	765.12
490.132	764.12
490.35	772.12
490.568	786.12
490.786	783.12
491.003	790.12
491.221	789.12
491.439	805.12
491.657	803.12
491.874	791.12
492.092	823.12
492.31	836.12
492.527	829.12
492.745	815.12
492.963	809.12
493.18	815.12
493.398	825.12
493.615	778.12
493.833	848.12
494.05	824.12
494.268	836.12
494.485	838.12
494.703	848.12
494.92	836.12
495.138	832.12
495.355	834.12
495.573	838.12
495.79	857.12
496.008	852.12
496.225	836.12
496.442	838.12
496.66	900.12
496.877	872.12
497.094	907.12
497.312	917.12
497.529	918.12
497.746	943.12
497.963	976.12
498.181	1005.12
498.398	1006.12
498.615	1081.12
498.832	1113.12
499.049	1200.12
499.267	1245.12
499.484	1351.12
499.701	1433.12
499.918	1547.12
500.135	1699.12
500.352	1847.12
500.569	1861.12
500.786	1825.12
501.003	1809.12
501.22	1626.12
501.437	1516.12
