Data from Ni(NO3)2@0.125M.TitratingCurve.Agarose3%dH2O.NegLispCup.LampEnergy10.LIBS07252019_HRD10591_18-11-25-568.txt Node
Date: Thu Jul 25 18:11:25 EDT 2019
User: cochatt
Spectrometer: HR+D1059
Trigger mode: 1
Integration Time (sec): 1.000000E-1
Scans to average: 1
Electric dark correction enabled: true
Nonlinearity correction enabled: false
Boxcar width: 0
XAxis mode: Wavelengths
Number of Pixels in Spectrum: 2048
>>>>>Begin Spectral Data<<<<<
223.165	-19.31
223.4	-19.31
223.635	-19.31
223.869	-19.31
224.104	-24.31
224.338	1.69
224.573	-20.31
224.808	-11.31
225.042	-12.31
225.277	-10.31
225.511	-1.31
225.746	1.69
225.98	15.69
226.215	2.69
226.449	4.69
226.683	23.69
226.918	30.69
227.152	37.69
227.387	27.69
227.621	34.69
227.856	48.69
228.09	32.69
228.324	58.69
228.559	59.69
228.793	51.69
229.027	117.69
229.262	107.69
229.496	108.69
229.73	116.69
229.964	116.69
230.199	130.69
230.433	131.69
230.667	133.69
230.901	138.69
231.136	136.69
231.37	130.69
231.604	132.69
231.838	142.69
232.072	142.69
232.306	157.69
232.541	140.69
232.775	135.69
233.009	154.69
233.243	146.69
233.477	143.69
233.711	135.69
233.945	139.69
234.179	146.69
234.413	150.69
234.647	158.69
234.881	142.69
235.115	148.69
235.349	157.69
235.583	131.69
235.817	152.69
236.051	148.69
236.285	148.69
236.519	156.69
236.753	161.69
236.987	161.69
237.221	150.69
237.455	151.69
237.689	153.69
237.922	143.69
238.156	171.69
238.39	156.69
238.624	179.69
238.858	154.69
239.091	172.69
239.325	164.69
239.559	163.69
239.793	189.69
240.027	178.69
240.26	177.69
240.494	184.69
240.728	170.69
240.961	184.69
241.195	184.69
241.429	189.69
241.662	166.69
241.896	187.69
242.13	197.69
242.363	190.69
242.597	194.69
242.83	186.69
243.064	191.69
243.298	186.69
243.531	201.69
243.765	203.69
243.998	206.69
244.232	194.69
244.465	205.69
244.699	199.69
244.932	199.69
245.166	225.69
245.399	217.69
245.633	206.69
245.866	214.69
246.099	212.69
246.333	212.69
246.566	210.69
246.8	205.69
247.033	224.69
247.266	215.69
247.5	206.69
247.733	226.69
247.966	242.69
248.2	220.69
248.433	231.69
248.666	228.69
248.899	233.69
249.133	240.69
249.366	244.69
249.599	241.69
249.832	235.69
250.066	232.69
250.299	246.69
250.532	240.69
250.765	235.69
250.998	242.69
251.231	248.69
251.465	266.69
251.698	263.69
251.931	254.69
252.164	259.69
252.397	285.69
252.63	267.69
252.863	251.69
253.096	267.69
253.329	264.69
253.562	254.69
253.795	270.69
254.028	260.69
254.261	250.69
254.494	271.69
254.727	264.69
254.96	258.69
255.193	292.69
255.426	278.69
255.659	282.69
255.892	286.69
256.124	285.69
256.357	296.69
256.59	276.69
256.823	311.69
257.056	290.69
257.289	302.69
257.521	287.69
257.754	296.69
257.987	284.69
258.22	300.69
258.452	299.69
258.685	310.69
258.918	287.69
259.151	307.69
259.383	317.69
259.616	313.69
259.849	315.69
260.081	295.69
260.314	294.69
260.547	304.69
260.779	308.69
261.012	321.69
261.244	313.69
261.477	317.69
261.71	334.69
261.942	310.69
262.175	324.69
262.407	315.69
262.64	326.69
262.872	320.69
263.105	318.69
263.337	320.69
263.57	333.69
263.802	317.69
264.035	333.69
264.267	338.69
264.499	332.69
264.732	318.69
264.964	332.69
265.197	345.69
265.429	326.69
265.661	338.69
265.894	364.69
266.126	319.69
266.358	344.69
266.591	353.69
266.823	355.69
267.055	349.69
267.287	348.69
267.52	344.69
267.752	374.69
267.984	380.69
268.216	361.69
268.448	373.69
268.681	366.69
268.913	356.69
269.145	348.69
269.377	344.69
269.609	359.69
269.841	365.69
270.073	373.69
270.306	368.69
270.538	370.69
270.77	350.69
271.002	363.69
271.234	364.69
271.466	378.69
271.698	373.69
271.93	380.69
272.162	371.69
272.394	393.69
272.626	361.69
272.858	400.69
273.09	362.69
273.322	417.69
273.553	384.69
273.785	407.69
274.017	374.69
274.249	403.69
274.481	399.69
274.713	390.69
274.945	391.69
275.176	392.69
275.408	414.69
275.64	423.69
275.872	396.69
276.104	420.69
276.335	420.69
276.567	442.69
276.799	428.69
277.031	394.69
277.262	412.69
277.494	438.69
277.726	430.69
277.957	432.69
278.189	413.69
278.421	398.69
278.652	406.69
278.884	419.69
279.115	416.69
279.347	411.69
279.579	453.69
279.81	423.69
280.042	430.69
280.273	462.69
280.505	461.69
280.736	450.69
280.968	442.69
281.199	452.69
281.431	460.69
281.662	433.69
281.894	434.69
282.125	434.69
282.356	446.69
282.588	478.69
282.819	451.69
283.051	446.69
283.282	454.69
283.513	460.69
283.745	467.69
283.976	445.69
284.207	461.69
284.439	474.69
284.67	480.69
284.901	462.69
285.132	474.69
285.364	478.69
285.595	476.69
285.826	487.69
286.057	474.69
286.288	493.69
286.52	504.69
286.751	469.69
286.982	477.69
287.213	490.69
287.444	487.69
287.675	480.69
287.906	499.69
288.138	501.69
288.369	489.69
288.6	512.69
288.831	510.69
289.062	500.69
289.293	503.69
289.524	514.69
289.755	509.69
289.986	515.69
290.217	521.69
290.448	514.69
290.679	517.69
290.91	494.69
291.141	505.69
291.371	494.69
291.602	514.69
291.833	512.69
292.064	513.69
292.295	514.69
292.526	519.69
292.757	500.69
292.987	514.69
293.218	509.69
293.449	540.69
293.68	540.69
293.91	521.69
294.141	497.69
294.372	515.69
294.603	522.69
294.833	530.69
295.064	545.69
295.295	512.69
295.525	525.69
295.756	523.69
295.987	508.69
296.217	533.69
296.448	544.69
296.679	526.69
296.909	531.69
297.14	568.69
297.37	547.69
297.601	534.69
297.831	541.69
298.062	540.69
298.292	566.69
298.523	577.69
298.753	562.69
298.984	558.69
299.214	539.69
299.445	564.69
299.675	540.69
299.905	557.69
300.136	562.69
300.366	551.69
300.597	578.69
300.827	570.69
301.057	610.69
301.288	602.69
301.518	577.69
301.748	594.69
301.979	596.69
302.209	593.69
302.439	560.69
302.669	596.69
302.9	572.69
303.13	567.69
303.36	567.69
303.59	584.69
303.82	589.69
304.051	588.69
304.281	562.69
304.511	563.69
304.741	580.69
304.971	588.69
305.201	570.69
305.431	581.69
305.661	569.69
305.891	578.69
306.121	562.69
306.352	574.69
306.582	571.69
306.812	557.69
307.042	568.69
307.272	582.69
307.502	553.69
307.731	568.69
307.961	564.69
308.191	570.69
308.421	559.69
308.651	570.69
308.881	566.69
309.111	581.69
309.341	568.69
309.571	593.69
309.8	593.69
310.03	558.69
310.26	553.69
310.49	561.69
310.72	562.69
310.949	578.69
311.179	566.69
311.409	567.69
311.639	604.69
311.868	603.69
312.098	585.69
312.328	590.69
312.557	605.69
312.787	604.69
313.017	595.69
313.246	627.69
313.476	605.69
313.706	608.69
313.935	626.69
314.165	613.69
314.394	604.69
314.624	628.69
314.853	632.69
315.083	635.69
315.312	627.69
315.542	610.69
315.771	618.69
316.001	617.69
316.23	615.69
316.46	588.69
316.689	606.69
316.919	581.69
317.148	575.69
317.377	605.69
317.607	604.69
317.836	596.69
318.065	591.69
318.295	594.69
318.524	613.69
318.753	642.69
318.983	594.69
319.212	573.69
319.441	601.69
319.67	611.69
319.9	612.69
320.129	622.69
320.358	597.69
320.587	588.69
320.816	621.69
321.046	613.69
321.275	610.69
321.504	615.69
321.733	632.69
321.962	589.69
322.191	602.69
322.42	637.69
322.649	627.69
322.878	628.69
323.108	605.69
323.337	637.69
323.566	620.69
323.795	638.69
324.024	638.69
324.253	628.69
324.482	609.69
324.71	649.69
324.939	651.69
325.168	654.69
325.397	643.69
325.626	677.69
325.855	652.69
326.084	669.69
326.313	662.69
326.542	681.69
326.77	726.69
326.999	690.69
327.228	642.69
327.457	670.69
327.686	658.69
327.914	679.69
328.143	679.69
328.372	673.69
328.6	664.69
328.829	666.69
329.058	670.69
329.287	694.69
329.515	705.69
329.744	677.69
329.972	674.69
330.201	685.69
330.43	696.69
330.658	692.69
330.887	678.69
331.115	681.69
331.344	706.69
331.572	715.69
331.801	727.69
332.03	754.69
332.258	743.69
332.486	792.69
332.715	807.69
332.943	860.69
333.172	868.69
333.4	896.69
333.629	914.69
333.857	942.69
334.085	898.69
334.314	913.69
334.542	894.69
334.771	877.69
334.999	869.69
335.227	869.69
335.455	833.69
335.684	802.69
335.912	827.69
336.14	813.69
336.369	788.69
336.597	819.69
336.825	791.69
337.053	796.69
337.281	781.69
337.51	774.69
337.738	810.69
337.966	734.69
338.194	760.69
338.422	746.69
338.65	704.69
338.878	742.69
339.106	734.69
339.334	727.69
339.562	698.69
339.79	715.69
340.018	700.69
340.246	709.69
340.474	701.69
340.702	685.69
340.93	726.69
341.158	721.69
341.386	703.69
341.614	691.69
341.842	710.69
342.07	677.69
342.298	692.69
342.526	678.69
342.754	717.69
342.981	710.69
343.209	738.69
343.437	729.69
343.665	792.69
343.893	865.69
344.12	904.69
344.348	872.69
344.576	780.69
344.804	769.69
345.031	742.69
345.259	724.69
345.487	693.69
345.714	703.69
345.942	697.69
346.17	716.69
346.397	715.69
346.625	681.69
346.853	688.69
347.08	670.69
347.308	696.69
347.535	709.69
347.763	708.69
347.99	699.69
348.218	676.69
348.445	683.69
348.673	678.69
348.9	697.69
349.128	710.69
349.355	664.69
349.583	692.69
349.81	663.69
350.037	665.69
350.265	685.69
350.492	680.69
350.72	660.69
350.947	664.69
351.174	646.69
351.402	672.69
351.629	673.69
351.856	658.69
352.083	658.69
352.311	646.69
352.538	660.69
352.765	658.69
352.992	665.69
353.22	651.69
353.447	665.69
353.674	645.69
353.901	636.69
354.128	654.69
354.355	662.69
354.583	637.69
354.81	650.69
355.037	674.69
355.264	644.69
355.491	678.69
355.718	680.69
355.945	662.69
356.172	664.69
356.399	656.69
356.626	661.69
356.853	678.69
357.08	676.69
357.307	647.69
357.534	661.69
357.761	651.69
357.988	644.69
358.215	659.69
358.441	665.69
358.668	665.69
358.895	662.69
359.122	661.69
359.349	668.69
359.576	658.69
359.802	660.69
360.029	652.69
360.256	664.69
360.483	651.69
360.709	654.69
360.936	670.69
361.163	689.69
361.39	669.69
361.616	664.69
361.843	647.69
362.07	670.69
362.296	651.69
362.523	655.69
362.749	667.69
362.976	643.69
363.203	672.69
363.429	636.69
363.656	660.69
363.882	661.69
364.109	664.69
364.335	646.69
364.562	650.69
364.788	655.69
365.015	652.69
365.241	659.69
365.468	643.69
365.694	653.69
365.92	663.69
366.147	640.69
366.373	633.69
366.599	669.69
366.826	657.69
367.052	640.69
367.278	673.69
367.505	669.69
367.731	647.69
367.957	664.69
368.184	658.69
368.41	682.69
368.636	689.69
368.862	666.69
369.089	686.69
369.315	667.69
369.541	676.69
369.767	674.69
369.993	676.69
370.219	672.69
370.445	680.69
370.672	692.69
370.898	697.69
371.124	695.69
371.35	723.69
371.576	741.69
371.802	705.69
372.028	707.69
372.254	706.69
372.48	713.69
372.706	741.69
372.932	751.69
373.158	749.69
373.384	743.69
373.61	704.69
373.835	714.69
374.061	712.69
374.287	729.69
374.513	772.69
374.739	780.69
374.965	782.69
375.191	808.69
375.416	778.69
375.642	766.69
375.868	746.69
376.094	756.69
376.319	727.69
376.545	729.69
376.771	733.69
376.997	709.69
377.222	727.69
377.448	713.69
377.674	730.69
377.899	726.69
378.125	696.69
378.35	734.69
378.576	698.69
378.802	691.69
379.027	702.69
379.253	713.69
379.478	723.69
379.704	708.69
379.929	700.69
380.155	706.69
380.38	719.69
380.606	703.69
380.831	713.69
381.057	725.69
381.282	708.69
381.507	697.69
381.733	722.69
381.958	715.69
382.184	734.69
382.409	761.69
382.634	746.69
382.86	739.69
383.085	765.69
383.31	792.69
383.535	789.69
383.761	793.69
383.986	797.69
384.211	835.69
384.436	827.69
384.662	859.69
384.887	872.69
385.112	859.69
385.337	856.69
385.562	868.69
385.787	886.69
386.013	888.69
386.238	881.69
386.463	892.69
386.688	896.69
386.913	856.69
387.138	839.69
387.363	845.69
387.588	824.69
387.813	850.69
388.038	832.69
388.263	894.69
388.488	873.69
388.713	850.69
388.938	869.69
389.163	834.69
389.387	848.69
389.612	843.69
389.837	837.69
390.062	840.69
390.287	836.69
390.512	841.69
390.736	834.69
390.961	877.69
391.186	884.69
391.411	890.69
391.636	928.69
391.86	961.69
392.085	969.69
392.31	976.69
392.534	953.69
392.759	934.69
392.984	916.69
393.208	922.69
393.433	906.69
393.658	914.69
393.882	886.69
394.107	916.69
394.331	913.69
394.556	930.69
394.78	937.69
395.005	946.69
395.229	893.69
395.454	944.69
395.678	954.69
395.903	986.69
396.127	935.69
396.352	908.69
396.576	893.69
396.801	894.69
397.025	916.69
397.249	916.69
397.474	947.69
397.698	923.69
397.922	979.69
398.147	963.69
398.371	986.69
398.595	1012.69
398.82	1036.69
399.044	1110.69
399.268	1219.69
399.492	1427.69
399.717	1640.69
399.941	1631.69
400.165	1451.69
400.389	1300.69
400.613	1184.69
400.837	1096.69
401.062	1106.69
401.286	1084.69
401.51	1055.69
401.734	1058.69
401.958	1071.69
402.182	1101.69
402.406	1088.69
402.63	1121.69
402.854	1133.69
403.078	1159.69
403.302	1213.69
403.526	1218.69
403.75	1240.69
403.974	1261.69
404.198	1268.69
404.422	1268.69
404.645	1251.69
404.869	1204.69
405.093	1219.69
405.317	1202.69
405.541	1199.69
405.765	1174.69
405.988	1155.69
406.212	1163.69
406.436	1162.69
406.66	1218.69
406.883	1237.69
407.107	1313.69
407.331	1385.69
407.555	1412.69
407.778	1383.69
408.002	1373.69
408.226	1338.69
408.449	1244.69
408.673	1225.69
408.896	1200.69
409.12	1212.69
409.344	1228.69
409.567	1234.69
409.791	1217.69
410.014	1235.69
410.238	1198.69
410.461	1184.69
410.685	1149.69
410.908	1190.69
411.132	1143.69
411.355	1124.69
411.578	1148.69
411.802	1075.69
412.025	1114.69
412.249	1119.69
412.472	1123.69
412.695	1099.69
412.919	1093.69
413.142	1065.69
413.365	1061.69
413.589	1085.69
413.812	1061.69
414.035	1035.69
414.258	1043.69
414.482	1069.69
414.705	1095.69
414.928	1104.69
415.151	1066.69
415.374	1077.69
415.597	1064.69
415.821	1038.69
416.044	1041.69
416.267	1030.69
416.49	1032.69
416.713	1038.69
416.936	1071.69
417.159	1070.69
417.382	1043.69
417.605	1067.69
417.828	1020.69
418.051	1079.69
418.274	1076.69
418.497	1084.69
418.72	1099.69
418.943	1074.69
419.166	1166.69
419.389	1255.69
419.611	1216.69
419.834	1160.69
420.057	1091.69
420.28	1077.69
420.503	1060.69
420.726	1041.69
420.948	1043.69
421.171	1048.69
421.394	1029.69
421.617	1044.69
421.839	1075.69
422.062	1082.69
422.285	1047.69
422.507	1115.69
422.73	1132.69
422.953	1106.69
423.175	1149.69
423.398	1144.69
423.621	1162.69
423.843	1133.69
424.066	1154.69
424.288	1134.69
424.511	1157.69
424.733	1124.69
424.956	1065.69
425.178	1061.69
425.401	1095.69
425.623	1042.69
425.846	1036.69
426.068	1015.69
426.291	992.69
426.513	989.69
426.735	973.69
426.958	1001.69
427.18	956.69
427.402	983.69
427.625	961.69
427.847	961.69
428.069	975.69
428.292	952.69
428.514	938.69
428.736	944.69
428.958	940.69
429.181	952.69
429.403	930.69
429.625	910.69
429.847	926.69
430.069	922.69
430.292	918.69
430.514	906.69
430.736	936.69
430.958	927.69
431.18	926.69
431.402	905.69
431.624	932.69
431.846	962.69
432.068	959.69
432.29	986.69
432.512	925.69
432.734	961.69
432.956	940.69
433.178	943.69
433.4	942.69
433.622	948.69
433.844	961.69
434.066	939.69
434.287	983.69
434.509	1008.69
434.731	1026.69
434.953	1069.69
435.175	1117.69
435.397	1053.69
435.618	1022.69
435.84	985.69
436.062	972.69
436.284	941.69
436.505	963.69
436.727	941.69
436.949	952.69
437.17	958.69
437.392	936.69
437.614	928.69
437.835	888.69
438.057	891.69
438.278	921.69
438.5	897.69
438.721	914.69
438.943	934.69
439.165	908.69
439.386	892.69
439.608	958.69
439.829	906.69
440.05	961.69
440.272	962.69
440.493	947.69
440.715	946.69
440.936	995.69
441.158	998.69
441.379	1015.69
441.6	1066.69
441.822	1100.69
442.043	1097.69
442.264	1073.69
442.486	1018.69
442.707	1038.69
442.928	1049.69
443.149	1044.69
443.371	1028.69
443.592	1033.69
443.813	1043.69
444.034	1091.69
444.255	1106.69
444.476	1166.69
444.698	1237.69
444.919	1300.69
445.14	1367.69
445.361	1203.69
445.582	1125.69
445.803	1005.69
446.024	991.69
446.245	983.69
446.466	976.69
446.687	939.69
446.908	965.69
447.129	950.69
447.35	899.69
447.571	908.69
447.792	890.69
448.013	888.69
448.234	888.69
448.455	872.69
448.675	870.69
448.896	850.69
449.117	847.69
449.338	845.69
449.559	852.69
449.779	846.69
450	873.69
450.221	840.69
450.442	873.69
450.662	882.69
450.883	878.69
451.104	909.69
451.324	898.69
451.545	876.69
451.766	882.69
451.986	876.69
452.207	869.69
452.428	884.69
452.648	860.69
452.869	840.69
453.089	839.69
453.31	870.69
453.53	846.69
453.751	853.69
453.971	840.69
454.192	820.69
454.412	835.69
454.633	865.69
454.853	800.69
455.073	840.69
455.294	825.69
455.514	793.69
455.734	816.69
455.955	788.69
456.175	804.69
456.395	800.69
456.616	776.69
456.836	836.69
457.056	805.69
457.276	795.69
457.497	805.69
457.717	788.69
457.937	813.69
458.157	809.69
458.377	812.69
458.598	854.69
458.818	891.69
459.038	894.69
459.258	924.69
459.478	974.69
459.698	993.69
459.918	1001.69
460.138	1073.69
460.358	1115.69
460.578	1097.69
460.798	1116.69
461.018	1141.69
461.238	1092.69
461.458	1093.69
461.678	1098.69
461.898	1154.69
462.118	1141.69
462.338	1228.69
462.558	1200.69
462.777	1292.69
462.997	1384.69
463.217	1544.69
463.437	1542.69
463.657	1425.69
463.876	1316.69
464.096	1336.69
464.316	1318.69
464.536	1335.69
464.755	1293.69
464.975	1234.69
465.195	1163.69
465.414	1069.69
465.634	1014.69
465.854	1030.69
466.073	957.69
466.293	944.69
466.512	915.69
466.732	915.69
466.951	925.69
467.171	905.69
467.391	917.69
467.61	913.69
467.829	909.69
468.049	896.69
468.268	868.69
468.488	881.69
468.707	871.69
468.927	873.69
469.146	840.69
469.365	870.69
469.585	896.69
469.804	918.69
470.023	894.69
470.243	926.69
470.462	951.69
470.681	946.69
470.901	964.69
471.12	909.69
471.339	912.69
471.558	901.69
471.777	867.69
471.997	882.69
472.216	866.69
472.435	846.69
472.654	856.69
472.873	852.69
473.092	842.69
473.311	846.69
473.53	857.69
473.749	803.69
473.968	828.69
474.187	812.69
474.406	836.69
474.625	830.69
474.844	870.69
475.063	856.69
475.282	842.69
475.501	847.69
475.72	863.69
475.939	875.69
476.158	865.69
476.377	875.69
476.596	887.69
476.814	863.69
477.033	904.69
477.252	915.69
477.471	932.69
477.69	940.69
477.908	948.69
478.127	973.69
478.346	1021.69
478.564	1024.69
478.783	1057.69
479.002	1088.69
479.22	1074.69
479.439	1072.69
479.658	1023.69
479.876	1064.69
480.095	1067.69
480.313	1112.69
480.532	1169.69
480.751	1172.69
480.969	1107.69
481.188	1042.69
481.406	1025.69
481.624	1001.69
481.843	965.69
482.061	998.69
482.28	983.69
482.498	954.69
482.717	972.69
482.935	958.69
483.153	964.69
483.372	947.69
483.59	988.69
483.808	975.69
484.027	954.69
484.245	984.69
484.463	958.69
484.681	996.69
484.9	1000.69
485.118	1002.69
485.336	983.69
485.554	1026.69
485.772	1044.69
485.99	1017.69
486.209	1050.69
486.427	1039.69
486.645	1053.69
486.863	1014.69
487.081	1034.69
487.299	1008.69
487.517	1018.69
487.735	993.69
487.953	1031.69
488.171	1038.69
488.389	1018.69
488.607	1021.69
488.825	993.69
489.043	995.69
489.261	993.69
489.479	1013.69
489.696	999.69
489.914	1013.69
490.132	1017.69
490.35	1032.69
490.568	1012.69
490.786	1054.69
491.003	1000.69
491.221	998.69
491.439	1031.69
491.657	997.69
491.874	1043.69
492.092	1006.69
492.31	1025.69
492.527	1028.69
492.745	1065.69
492.963	1030.69
493.18	1037.69
493.398	1083.69
493.615	1061.69
493.833	1042.69
494.05	1068.69
494.268	1071.69
494.485	1074.69
494.703	1060.69
494.92	1049.69
495.138	1050.69
495.355	1071.69
495.573	1048.69
495.79	1072.69
496.008	1121.69
496.225	1096.69
496.442	1101.69
496.66	1109.69
496.877	1140.69
497.094	1129.69
497.312	1174.69
497.529	1180.69
497.746	1224.69
497.963	1256.69
498.181	1319.69
