Data from Ni(NO3)2@0.5M.TitratingCurve.Agarose3%dH2O.NegLispCup.LampEnergy10.LIBS07252019_HRD10591_18-00-26-565.txt Node
Date: Thu Jul 25 18:00:26 EDT 2019
User: cochatt
Spectrometer: HR+D1059
Trigger mode: 1
Integration Time (sec): 1.000000E-1
Scans to average: 1
Electric dark correction enabled: true
Nonlinearity correction enabled: false
Boxcar width: 0
XAxis mode: Wavelengths
Number of Pixels in Spectrum: 2048
>>>>>Begin Spectral Data<<<<<
223.165	-16.88
223.4	-16.88
223.635	-16.88
223.869	-19.88
224.104	-18.88
224.338	-19.88
224.573	-10.88
224.808	-4.88
225.042	-0.88
225.277	7.12
225.511	0.12
225.746	-14.88
225.98	-12.88
226.215	20.12
226.449	16.12
226.683	17.12
226.918	31.12
227.152	28.12
227.387	28.12
227.621	40.12
227.856	58.12
228.09	55.12
228.324	40.12
228.559	61.12
228.793	66.12
229.027	106.12
229.262	125.12
229.496	108.12
229.73	126.12
229.964	144.12
230.199	150.12
230.433	145.12
230.667	140.12
230.901	158.12
231.136	154.12
231.37	160.12
231.604	160.12
231.838	161.12
232.072	164.12
232.306	156.12
232.541	157.12
232.775	157.12
233.009	159.12
233.243	170.12
233.477	156.12
233.711	160.12
233.945	140.12
234.179	142.12
234.413	153.12
234.647	154.12
234.881	172.12
235.115	157.12
235.349	143.12
235.583	158.12
235.817	159.12
236.051	147.12
236.285	138.12
236.519	147.12
236.753	154.12
236.987	166.12
237.221	159.12
237.455	169.12
237.689	166.12
237.922	152.12
238.156	150.12
238.39	153.12
238.624	164.12
238.858	173.12
239.091	167.12
239.325	178.12
239.559	188.12
239.793	178.12
240.027	172.12
240.26	172.12
240.494	173.12
240.728	173.12
240.961	182.12
241.195	189.12
241.429	182.12
241.662	221.12
241.896	208.12
242.13	182.12
242.363	193.12
242.597	191.12
242.83	189.12
243.064	200.12
243.298	192.12
243.531	170.12
243.765	213.12
243.998	207.12
244.232	201.12
244.465	217.12
244.699	207.12
244.932	200.12
245.166	194.12
245.399	206.12
245.633	213.12
245.866	206.12
246.099	204.12
246.333	195.12
246.566	223.12
246.8	213.12
247.033	236.12
247.266	237.12
247.5	215.12
247.733	216.12
247.966	217.12
248.2	237.12
248.433	226.12
248.666	228.12
248.899	238.12
249.133	233.12
249.366	231.12
249.599	225.12
249.832	243.12
250.066	247.12
250.299	250.12
250.532	263.12
250.765	234.12
250.998	242.12
251.231	253.12
251.465	251.12
251.698	258.12
251.931	253.12
252.164	261.12
252.397	260.12
252.63	262.12
252.863	279.12
253.096	261.12
253.329	288.12
253.562	260.12
253.795	272.12
254.028	261.12
254.261	274.12
254.494	283.12
254.727	272.12
254.96	281.12
255.193	276.12
255.426	282.12
255.659	284.12
255.892	292.12
256.124	285.12
256.357	281.12
256.59	311.12
256.823	282.12
257.056	317.12
257.289	303.12
257.521	298.12
257.754	293.12
257.987	296.12
258.22	303.12
258.452	305.12
258.685	331.12
258.918	326.12
259.151	301.12
259.383	320.12
259.616	308.12
259.849	284.12
260.081	301.12
260.314	303.12
260.547	316.12
260.779	325.12
261.012	321.12
261.244	327.12
261.477	336.12
261.71	315.12
261.942	339.12
262.175	334.12
262.407	335.12
262.64	325.12
262.872	321.12
263.105	326.12
263.337	352.12
263.57	347.12
263.802	325.12
264.035	324.12
264.267	348.12
264.499	349.12
264.732	358.12
264.964	330.12
265.197	346.12
265.429	351.12
265.661	352.12
265.894	346.12
266.126	351.12
266.358	350.12
266.591	364.12
266.823	352.12
267.055	365.12
267.287	362.12
267.52	364.12
267.752	375.12
267.984	364.12
268.216	375.12
268.448	393.12
268.681	360.12
268.913	359.12
269.145	375.12
269.377	380.12
269.609	365.12
269.841	381.12
270.073	369.12
270.306	378.12
270.538	380.12
270.77	386.12
271.002	369.12
271.234	364.12
271.466	378.12
271.698	384.12
271.93	397.12
272.162	383.12
272.394	397.12
272.626	389.12
272.858	393.12
273.09	378.12
273.322	400.12
273.553	394.12
273.785	391.12
274.017	412.12
274.249	388.12
274.481	398.12
274.713	408.12
274.945	439.12
275.176	417.12
275.408	408.12
275.64	410.12
275.872	401.12
276.104	412.12
276.335	417.12
276.567	403.12
276.799	409.12
277.031	414.12
277.262	423.12
277.494	430.12
277.726	438.12
277.957	449.12
278.189	440.12
278.421	448.12
278.652	434.12
278.884	449.12
279.115	444.12
279.347	447.12
279.579	441.12
279.81	452.12
280.042	455.12
280.273	437.12
280.505	464.12
280.736	448.12
280.968	446.12
281.199	449.12
281.431	456.12
281.662	437.12
281.894	462.12
282.125	447.12
282.356	466.12
282.588	469.12
282.819	463.12
283.051	485.12
283.282	463.12
283.513	470.12
283.745	473.12
283.976	465.12
284.207	457.12
284.439	466.12
284.67	469.12
284.901	484.12
285.132	467.12
285.364	466.12
285.595	492.12
285.826	462.12
286.057	484.12
286.288	505.12
286.52	503.12
286.751	496.12
286.982	507.12
287.213	496.12
287.444	499.12
287.675	485.12
287.906	496.12
288.138	503.12
288.369	492.12
288.6	496.12
288.831	511.12
289.062	509.12
289.293	500.12
289.524	511.12
289.755	489.12
289.986	488.12
290.217	510.12
290.448	484.12
290.679	504.12
290.91	526.12
291.141	517.12
291.371	516.12
291.602	505.12
291.833	507.12
292.064	504.12
292.295	495.12
292.526	498.12
292.757	515.12
292.987	520.12
293.218	502.12
293.449	534.12
293.68	544.12
293.91	536.12
294.141	511.12
294.372	507.12
294.603	508.12
294.833	535.12
295.064	544.12
295.295	512.12
295.525	522.12
295.756	527.12
295.987	519.12
296.217	517.12
296.448	542.12
296.679	520.12
296.909	532.12
297.14	550.12
297.37	558.12
297.601	545.12
297.831	539.12
298.062	558.12
298.292	543.12
298.523	556.12
298.753	531.12
298.984	541.12
299.214	553.12
299.445	562.12
299.675	580.12
299.905	564.12
300.136	556.12
300.366	577.12
300.597	601.12
300.827	578.12
301.057	584.12
301.288	572.12
301.518	613.12
301.748	574.12
301.979	586.12
302.209	606.12
302.439	612.12
302.669	596.12
302.9	591.12
303.13	585.12
303.36	587.12
303.59	584.12
303.82	596.12
304.051	582.12
304.281	611.12
304.511	586.12
304.741	606.12
304.971	588.12
305.201	587.12
305.431	607.12
305.661	588.12
305.891	575.12
306.121	600.12
306.352	592.12
306.582	575.12
306.812	599.12
307.042	592.12
307.272	612.12
307.502	602.12
307.731	577.12
307.961	553.12
308.191	572.12
308.421	577.12
308.651	585.12
308.881	587.12
309.111	575.12
309.341	554.12
309.571	589.12
309.8	594.12
310.03	581.12
310.26	595.12
310.49	606.12
310.72	598.12
310.949	610.12
311.179	608.12
311.409	615.12
311.639	622.12
311.868	628.12
312.098	604.12
312.328	616.12
312.557	642.12
312.787	610.12
313.017	606.12
313.246	642.12
313.476	631.12
313.706	612.12
313.935	636.12
314.165	601.12
314.394	630.12
314.624	664.12
314.853	632.12
315.083	629.12
315.312	637.12
315.542	650.12
315.771	645.12
316.001	606.12
316.23	612.12
316.46	625.12
316.689	641.12
316.919	633.12
317.148	660.12
317.377	648.12
317.607	632.12
317.836	636.12
318.065	619.12
318.295	616.12
318.524	624.12
318.753	636.12
318.983	635.12
319.212	636.12
319.441	643.12
319.67	658.12
319.9	649.12
320.129	639.12
320.358	637.12
320.587	652.12
320.816	643.12
321.046	662.12
321.275	654.12
321.504	640.12
321.733	649.12
321.962	638.12
322.191	668.12
322.42	640.12
322.649	658.12
322.878	647.12
323.108	661.12
323.337	662.12
323.566	681.12
323.795	677.12
324.024	657.12
324.253	658.12
324.482	677.12
324.71	688.12
324.939	682.12
325.168	678.12
325.397	676.12
325.626	711.12
325.855	687.12
326.084	682.12
326.313	706.12
326.542	699.12
326.77	708.12
326.999	717.12
327.228	701.12
327.457	708.12
327.686	684.12
327.914	710.12
328.143	717.12
328.372	698.12
328.6	689.12
328.829	720.12
329.058	696.12
329.287	716.12
329.515	728.12
329.744	723.12
329.972	729.12
330.201	718.12
330.43	737.12
330.658	717.12
330.887	754.12
331.115	734.12
331.344	765.12
331.572	733.12
331.801	753.12
332.03	794.12
332.258	806.12
332.486	815.12
332.715	790.12
332.943	825.12
333.172	856.12
333.4	872.12
333.629	876.12
333.857	876.12
334.085	866.12
334.314	914.12
334.542	898.12
334.771	897.12
334.999	872.12
335.227	866.12
335.455	890.12
335.684	911.12
335.912	877.12
336.14	885.12
336.369	850.12
336.597	861.12
336.825	879.12
337.053	848.12
337.281	853.12
337.51	825.12
337.738	832.12
337.966	821.12
338.194	798.12
338.422	798.12
338.65	791.12
338.878	793.12
339.106	778.12
339.334	799.12
339.562	794.12
339.79	811.12
340.018	760.12
340.246	751.12
340.474	749.12
340.702	746.12
340.93	769.12
341.158	778.12
341.386	761.12
341.614	816.12
341.842	793.12
342.07	759.12
342.298	759.12
342.526	759.12
342.754	779.12
342.981	764.12
343.209	763.12
343.437	814.12
343.665	830.12
343.893	883.12
344.12	852.12
344.348	895.12
344.576	865.12
344.804	810.12
345.031	812.12
345.259	785.12
345.487	769.12
345.714	787.12
345.942	780.12
346.17	780.12
346.397	761.12
346.625	731.12
346.853	746.12
347.08	739.12
347.308	765.12
347.535	740.12
347.763	714.12
347.99	738.12
348.218	710.12
348.445	705.12
348.673	733.12
348.9	760.12
349.128	735.12
349.355	714.12
349.583	745.12
349.81	741.12
350.037	731.12
350.265	711.12
350.492	720.12
350.72	718.12
350.947	702.12
351.174	742.12
351.402	743.12
351.629	743.12
351.856	739.12
352.083	714.12
352.311	722.12
352.538	722.12
352.765	725.12
352.992	709.12
353.22	694.12
353.447	705.12
353.674	715.12
353.901	732.12
354.128	682.12
354.355	708.12
354.583	698.12
354.81	692.12
355.037	708.12
355.264	714.12
355.491	705.12
355.718	719.12
355.945	708.12
356.172	716.12
356.399	705.12
356.626	730.12
356.853	724.12
357.08	734.12
357.307	733.12
357.534	694.12
357.761	729.12
357.988	725.12
358.215	714.12
358.441	702.12
358.668	718.12
358.895	706.12
359.122	702.12
359.349	700.12
359.576	734.12
359.802	702.12
360.029	689.12
360.256	701.12
360.483	692.12
360.709	698.12
360.936	708.12
361.163	722.12
361.39	724.12
361.616	733.12
361.843	726.12
362.07	749.12
362.296	733.12
362.523	723.12
362.749	689.12
362.976	725.12
363.203	713.12
363.429	689.12
363.656	717.12
363.882	728.12
364.109	718.12
364.335	717.12
364.562	709.12
364.788	731.12
365.015	704.12
365.241	707.12
365.468	734.12
365.694	718.12
365.92	719.12
366.147	709.12
366.373	685.12
366.599	693.12
366.826	712.12
367.052	709.12
367.278	730.12
367.505	719.12
367.731	713.12
367.957	724.12
368.184	760.12
368.41	734.12
368.636	744.12
368.862	709.12
369.089	732.12
369.315	721.12
369.541	733.12
369.767	761.12
369.993	744.12
370.219	744.12
370.445	743.12
370.672	745.12
370.898	749.12
371.124	752.12
371.35	748.12
371.576	772.12
371.802	754.12
372.028	737.12
372.254	805.12
372.48	778.12
372.706	766.12
372.932	808.12
373.158	804.12
373.384	793.12
373.61	778.12
373.835	757.12
374.061	811.12
374.287	796.12
374.513	784.12
374.739	820.12
374.965	825.12
375.191	836.12
375.416	838.12
375.642	808.12
375.868	798.12
376.094	812.12
376.319	785.12
376.545	799.12
376.771	746.12
376.997	791.12
377.222	771.12
377.448	767.12
377.674	789.12
377.899	781.12
378.125	761.12
378.35	743.12
378.576	764.12
378.802	730.12
379.027	763.12
379.253	751.12
379.478	740.12
379.704	750.12
379.929	753.12
380.155	784.12
380.38	761.12
380.606	775.12
380.831	728.12
381.057	776.12
381.282	770.12
381.507	759.12
381.733	774.12
381.958	762.12
382.184	777.12
382.409	800.12
382.634	798.12
382.86	795.12
383.085	800.12
383.31	804.12
383.535	802.12
383.761	834.12
383.986	839.12
384.211	840.12
384.436	858.12
384.662	880.12
384.887	868.12
385.112	892.12
385.337	880.12
385.562	915.12
385.787	902.12
386.013	914.12
386.238	920.12
386.463	929.12
386.688	928.12
386.913	886.12
387.138	895.12
387.363	895.12
387.588	900.12
387.813	910.12
388.038	911.12
388.263	890.12
388.488	914.12
388.713	893.12
388.938	904.12
389.163	899.12
389.387	909.12
389.612	908.12
389.837	895.12
390.062	906.12
390.287	885.12
390.512	921.12
390.736	903.12
390.961	930.12
391.186	930.12
391.411	953.12
391.636	967.12
391.86	952.12
392.085	1002.12
392.31	995.12
392.534	993.12
392.759	957.12
392.984	975.12
393.208	979.12
393.433	960.12
393.658	962.12
393.882	963.12
394.107	957.12
394.331	940.12
394.556	961.12
394.78	956.12
395.005	1001.12
395.229	998.12
395.454	999.12
395.678	1032.12
395.903	997.12
396.127	984.12
396.352	1014.12
396.576	973.12
396.801	1000.12
397.025	1016.12
397.249	1026.12
397.474	1031.12
397.698	1031.12
397.922	1017.12
398.147	1040.12
398.371	1042.12
398.595	1038.12
398.82	1141.12
399.044	1183.12
399.268	1310.12
399.492	1399.12
399.717	1496.12
399.941	1496.12
400.165	1407.12
400.389	1311.12
400.613	1269.12
400.837	1205.12
401.062	1181.12
401.286	1158.12
401.51	1134.12
401.734	1136.12
401.958	1152.12
402.182	1137.12
402.406	1112.12
402.63	1157.12
402.854	1186.12
403.078	1189.12
403.302	1156.12
403.526	1180.12
403.75	1209.12
403.974	1176.12
404.198	1169.12
404.422	1226.12
404.645	1200.12
404.869	1198.12
405.093	1212.12
405.317	1216.12
405.541	1205.12
405.765	1246.12
405.988	1185.12
406.212	1225.12
406.436	1212.12
406.66	1270.12
406.883	1255.12
407.107	1311.12
407.331	1377.12
407.555	1405.12
407.778	1369.12
408.002	1348.12
408.226	1350.12
408.449	1348.12
408.673	1277.12
408.896	1263.12
409.12	1254.12
409.344	1238.12
409.567	1262.12
409.791	1228.12
410.014	1250.12
410.238	1207.12
410.461	1242.12
410.685	1203.12
410.908	1200.12
411.132	1201.12
411.355	1176.12
411.578	1180.12
411.802	1175.12
412.025	1194.12
412.249	1178.12
412.472	1165.12
412.695	1145.12
412.919	1169.12
413.142	1160.12
413.365	1149.12
413.589	1156.12
413.812	1119.12
414.035	1145.12
414.258	1166.12
414.482	1115.12
414.705	1168.12
414.928	1120.12
415.151	1140.12
415.374	1141.12
415.597	1140.12
415.821	1127.12
416.044	1093.12
416.267	1114.12
416.49	1106.12
416.713	1090.12
416.936	1113.12
417.159	1066.12
417.382	1068.12
417.605	1061.12
417.828	1082.12
418.051	1106.12
418.274	1111.12
418.497	1078.12
418.72	1097.12
418.943	1112.12
419.166	1176.12
419.389	1239.12
419.611	1219.12
419.834	1164.12
420.057	1113.12
420.28	1128.12
420.503	1087.12
420.726	1060.12
420.948	1054.12
421.171	1115.12
421.394	1073.12
421.617	1114.12
421.839	1125.12
422.062	1070.12
422.285	1076.12
422.507	1097.12
422.73	1104.12
422.953	1114.12
423.175	1136.12
423.398	1109.12
423.621	1123.12
423.843	1111.12
424.066	1111.12
424.288	1127.12
424.511	1094.12
424.733	1086.12
424.956	1090.12
425.178	1089.12
425.401	1087.12
425.623	1090.12
425.846	1055.12
426.068	1052.12
426.291	1060.12
426.513	1071.12
426.735	1058.12
426.958	1037.12
427.18	1033.12
427.402	1028.12
427.625	1015.12
427.847	1021.12
428.069	1028.12
428.292	1039.12
428.514	1004.12
428.736	1009.12
428.958	1049.12
429.181	998.12
429.403	999.12
429.625	981.12
429.847	960.12
430.069	976.12
430.292	986.12
430.514	969.12
430.736	979.12
430.958	996.12
431.18	990.12
431.402	1014.12
431.624	981.12
431.846	1001.12
432.068	1008.12
432.29	1010.12
432.512	978.12
432.734	1030.12
432.956	1010.12
433.178	1008.12
433.4	997.12
433.622	1041.12
433.844	1028.12
434.066	1014.12
434.287	1049.12
434.509	1037.12
434.731	1080.12
434.953	1102.12
435.175	1101.12
435.397	1107.12
435.618	1076.12
435.84	1054.12
436.062	1002.12
436.284	1010.12
436.505	1031.12
436.727	987.12
436.949	1012.12
437.17	1006.12
437.392	994.12
437.614	968.12
437.835	964.12
438.057	969.12
438.278	955.12
438.5	944.12
438.721	970.12
438.943	987.12
439.165	939.12
439.386	984.12
439.608	1005.12
439.829	1014.12
440.05	1001.12
440.272	1014.12
440.493	1026.12
440.715	1020.12
440.936	1048.12
441.158	1058.12
441.379	1057.12
441.6	1095.12
441.822	1080.12
442.043	1123.12
442.264	1104.12
442.486	1060.12
442.707	1086.12
442.928	1056.12
443.149	1102.12
443.371	1065.12
443.592	1124.12
443.813	1113.12
444.034	1111.12
444.255	1124.12
444.476	1182.12
444.698	1188.12
444.919	1226.12
445.14	1326.12
445.361	1192.12
445.582	1143.12
445.803	1092.12
446.024	1074.12
446.245	1063.12
446.466	1065.12
446.687	1036.12
446.908	1007.12
447.129	1007.12
447.35	996.12
447.571	954.12
447.792	941.12
448.013	968.12
448.234	946.12
448.455	929.12
448.675	928.12
448.896	938.12
449.117	916.12
449.338	914.12
449.559	913.12
449.779	902.12
450	914.12
450.221	892.12
450.442	913.12
450.662	929.12
450.883	942.12
451.104	966.12
451.324	936.12
451.545	930.12
451.766	898.12
451.986	912.12
452.207	915.12
452.428	900.12
452.648	898.12
452.869	876.12
453.089	897.12
453.31	930.12
453.53	889.12
453.751	876.12
453.971	865.12
454.192	874.12
454.412	879.12
454.633	870.12
454.853	884.12
455.073	894.12
455.294	839.12
455.514	860.12
455.734	838.12
455.955	860.12
456.175	846.12
456.395	855.12
456.616	870.12
456.836	884.12
457.056	857.12
457.276	856.12
457.497	880.12
457.717	897.12
457.937	893.12
458.157	890.12
458.377	914.12
458.598	941.12
458.818	959.12
459.038	960.12
459.258	978.12
459.478	995.12
459.698	1067.12
459.918	1038.12
460.138	1076.12
460.358	1123.12
460.578	1123.12
460.798	1151.12
461.018	1152.12
461.238	1146.12
461.458	1146.12
461.678	1102.12
461.898	1169.12
462.118	1184.12
462.338	1255.12
462.558	1240.12
462.777	1288.12
462.997	1359.12
463.217	1404.12
463.437	1420.12
463.657	1385.12
463.876	1337.12
464.096	1297.12
464.316	1286.12
464.536	1292.12
464.755	1237.12
464.975	1176.12
465.195	1165.12
465.414	1124.12
465.634	1061.12
465.854	1041.12
466.073	1010.12
466.293	1040.12
466.512	990.12
466.732	964.12
466.951	971.12
467.171	969.12
467.391	981.12
467.61	974.12
467.829	952.12
468.049	943.12
468.268	942.12
468.488	919.12
468.707	914.12
468.927	934.12
469.146	928.12
469.365	939.12
469.585	942.12
469.804	996.12
470.023	971.12
470.243	965.12
470.462	991.12
470.681	984.12
470.901	996.12
471.12	958.12
471.339	938.12
471.558	959.12
471.777	974.12
471.997	917.12
472.216	922.12
472.435	933.12
472.654	910.12
472.873	899.12
473.092	889.12
473.311	917.12
473.53	926.12
473.749	921.12
473.968	910.12
474.187	904.12
474.406	915.12
474.625	939.12
474.844	943.12
475.063	925.12
475.282	925.12
475.501	929.12
475.72	926.12
475.939	949.12
476.158	955.12
476.377	938.12
476.596	957.12
476.814	954.12
477.033	976.12
477.252	1000.12
477.471	1023.12
477.69	1008.12
477.908	1042.12
478.127	1077.12
478.346	1077.12
478.564	1119.12
478.783	1104.12
479.002	1122.12
479.22	1114.12
479.439	1121.12
479.658	1129.12
479.876	1099.12
480.095	1114.12
480.313	1165.12
480.532	1144.12
480.751	1140.12
480.969	1140.12
481.188	1125.12
481.406	1089.12
481.624	1045.12
481.843	1055.12
482.061	1041.12
482.28	1076.12
482.498	1020.12
482.717	1041.12
482.935	1073.12
483.153	1055.12
483.372	1066.12
483.59	1048.12
483.808	1034.12
484.027	1050.12
484.245	1057.12
484.463	1086.12
484.681	1092.12
484.9	1085.12
485.118	1076.12
485.336	1078.12
485.554	1103.12
485.772	1094.12
485.99	1110.12
486.209	1081.12
486.427	1079.12
486.645	1102.12
486.863	1102.12
487.081	1092.12
487.299	1112.12
487.517	1089.12
487.735	1129.12
487.953	1103.12
488.171	1072.12
488.389	1101.12
488.607	1065.12
488.825	1099.12
489.043	1063.12
489.261	1054.12
489.479	1065.12
489.696	1076.12
489.914	1079.12
490.132	1096.12
490.35	1061.12
490.568	1082.12
490.786	1102.12
491.003	1110.12
491.221	1095.12
491.439	1108.12
491.657	1111.12
491.874	1107.12
492.092	1162.12
492.31	1140.12
492.527	1109.12
492.745	1105.12
492.963	1120.12
493.18	1129.12
493.398	1132.12
493.615	1151.12
493.833	1148.12
494.05	1158.12
494.268	1169.12
494.485	1179.12
494.703	1188.12
494.92	1153.12
495.138	1136.12
495.355	1158.12
495.573	1158.12
495.79	1186.12
496.008	1207.12
496.225	1170.12
496.442	1210.12
496.66	1241.12
496.877	1273.12
497.094	1242.12
