Data from Ni(NO3)2Standard.Agarose3%.GreenCap.LampEnergy5.5.E.O_HRD10591_14-39-04-188.txt Node
Date: Mon Jul 22 14:39:04 EDT 2019
User: cochatt
Spectrometer: HR+D1059
Trigger mode: 1
Integration Time (sec): 1.000000E-1
Scans to average: 1
Electric dark correction enabled: true
Nonlinearity correction enabled: false
Boxcar width: 0
XAxis mode: Wavelengths
Number of Pixels in Spectrum: 2048
>>>>>Begin Spectral Data<<<<<
223.165	-19.44
223.4	-19.44
223.635	-19.44
223.869	-15.44
224.104	-20.44
224.338	-17.44
224.573	-9.44
224.808	-8.44
225.042	-4.44
225.277	-0.44
225.511	13.56
225.746	9.56
225.98	6.56
226.215	3.56
226.449	5.56
226.683	6.56
226.918	31.56
227.152	18.56
227.387	29.56
227.621	27.56
227.856	42.56
228.09	49.56
228.324	52.56
228.559	39.56
228.793	40.56
229.027	65.56
229.262	45.56
229.496	59.56
229.73	61.56
229.964	84.56
230.199	77.56
230.433	76.56
230.667	79.56
230.901	77.56
231.136	71.56
231.37	70.56
231.604	87.56
231.838	84.56
232.072	88.56
232.306	79.56
232.541	89.56
232.775	83.56
233.009	84.56
233.243	85.56
233.477	84.56
233.711	74.56
233.945	76.56
234.179	78.56
234.413	72.56
234.647	85.56
234.881	83.56
235.115	78.56
235.349	71.56
235.583	72.56
235.817	80.56
236.051	61.56
236.285	73.56
236.519	81.56
236.753	71.56
236.987	84.56
237.221	85.56
237.455	82.56
237.689	78.56
237.922	82.56
238.156	73.56
238.39	67.56
238.624	80.56
238.858	73.56
239.091	71.56
239.325	86.56
239.559	86.56
239.793	74.56
240.027	85.56
240.26	81.56
240.494	84.56
240.728	79.56
240.961	66.56
241.195	79.56
241.429	86.56
241.662	85.56
241.896	81.56
242.13	75.56
242.363	77.56
242.597	77.56
242.83	96.56
243.064	72.56
243.298	78.56
243.531	78.56
243.765	81.56
243.998	78.56
244.232	83.56
244.465	84.56
244.699	74.56
244.932	76.56
245.166	59.56
245.399	87.56
245.633	61.56
245.866	81.56
246.099	85.56
246.333	70.56
246.566	85.56
246.8	77.56
247.033	71.56
247.266	86.56
247.5	74.56
247.733	96.56
247.966	90.56
248.2	77.56
248.433	87.56
248.666	62.56
248.899	79.56
249.133	76.56
249.366	80.56
249.599	74.56
249.832	101.56
250.066	88.56
250.299	83.56
250.532	77.56
250.765	84.56
250.998	68.56
251.231	77.56
251.465	85.56
251.698	92.56
251.931	85.56
252.164	65.56
252.397	73.56
252.63	71.56
252.863	82.56
253.096	85.56
253.329	78.56
253.562	71.56
253.795	84.56
254.028	73.56
254.261	85.56
254.494	79.56
254.727	69.56
254.96	76.56
255.193	77.56
255.426	81.56
255.659	81.56
255.892	91.56
256.124	77.56
256.357	88.56
256.59	80.56
256.823	70.56
257.056	73.56
257.289	89.56
257.521	79.56
257.754	89.56
257.987	79.56
258.22	83.56
258.452	73.56
258.685	73.56
258.918	77.56
259.151	78.56
259.383	78.56
259.616	86.56
259.849	80.56
260.081	77.56
260.314	76.56
260.547	78.56
260.779	88.56
261.012	79.56
261.244	81.56
261.477	87.56
261.71	74.56
261.942	82.56
262.175	74.56
262.407	83.56
262.64	88.56
262.872	90.56
263.105	82.56
263.337	85.56
263.57	80.56
263.802	72.56
264.035	77.56
264.267	65.56
264.499	82.56
264.732	77.56
264.964	62.56
265.197	65.56
265.429	80.56
265.661	89.56
265.894	74.56
266.126	77.56
266.358	78.56
266.591	85.56
266.823	78.56
267.055	99.56
267.287	90.56
267.52	76.56
267.752	89.56
267.984	87.56
268.216	77.56
268.448	88.56
268.681	84.56
268.913	81.56
269.145	94.56
269.377	77.56
269.609	77.56
269.841	88.56
270.073	76.56
270.306	67.56
270.538	77.56
270.77	85.56
271.002	75.56
271.234	93.56
271.466	92.56
271.698	95.56
271.93	97.56
272.162	87.56
272.394	81.56
272.626	84.56
272.858	89.56
273.09	85.56
273.322	84.56
273.553	73.56
273.785	83.56
274.017	82.56
274.249	84.56
274.481	81.56
274.713	83.56
274.945	87.56
275.176	84.56
275.408	82.56
275.64	98.56
275.872	72.56
276.104	83.56
276.335	82.56
276.567	74.56
276.799	92.56
277.031	76.56
277.262	72.56
277.494	80.56
277.726	105.56
277.957	88.56
278.189	84.56
278.421	88.56
278.652	79.56
278.884	85.56
279.115	82.56
279.347	79.56
279.579	77.56
279.81	90.56
280.042	83.56
280.273	88.56
280.505	83.56
280.736	83.56
280.968	79.56
281.199	85.56
281.431	76.56
281.662	92.56
281.894	89.56
282.125	85.56
282.356	87.56
282.588	90.56
282.819	89.56
283.051	84.56
283.282	75.56
283.513	89.56
283.745	95.56
283.976	76.56
284.207	87.56
284.439	82.56
284.67	83.56
284.901	92.56
285.132	93.56
285.364	85.56
285.595	88.56
285.826	96.56
286.057	96.56
286.288	74.56
286.52	82.56
286.751	104.56
286.982	68.56
287.213	74.56
287.444	102.56
287.675	98.56
287.906	96.56
288.138	85.56
288.369	88.56
288.6	80.56
288.831	99.56
289.062	81.56
289.293	92.56
289.524	81.56
289.755	91.56
289.986	84.56
290.217	86.56
290.448	83.56
290.679	88.56
290.91	83.56
291.141	84.56
291.371	82.56
291.602	70.56
291.833	73.56
292.064	84.56
292.295	90.56
292.526	84.56
292.757	94.56
292.987	92.56
293.218	81.56
293.449	85.56
293.68	89.56
293.91	90.56
294.141	94.56
294.372	93.56
294.603	94.56
294.833	85.56
295.064	84.56
295.295	83.56
295.525	86.56
295.756	88.56
295.987	90.56
296.217	86.56
296.448	88.56
296.679	86.56
296.909	92.56
297.14	105.56
297.37	92.56
297.601	71.56
297.831	90.56
298.062	85.56
298.292	77.56
298.523	96.56
298.753	79.56
298.984	86.56
299.214	94.56
299.445	83.56
299.675	79.56
299.905	90.56
300.136	98.56
300.366	89.56
300.597	98.56
300.827	87.56
301.057	94.56
301.288	83.56
301.518	76.56
301.748	93.56
301.979	101.56
302.209	82.56
302.439	82.56
302.669	82.56
302.9	77.56
303.13	81.56
303.36	90.56
303.59	85.56
303.82	85.56
304.051	101.56
304.281	92.56
304.511	103.56
304.741	89.56
304.971	84.56
305.201	86.56
305.431	93.56
305.661	103.56
305.891	80.56
306.121	77.56
306.352	76.56
306.582	74.56
306.812	83.56
307.042	89.56
307.272	86.56
307.502	86.56
307.731	85.56
307.961	90.56
308.191	84.56
308.421	96.56
308.651	76.56
308.881	101.56
309.111	84.56
309.341	93.56
309.571	92.56
309.8	71.56
310.03	86.56
310.26	83.56
310.49	83.56
310.72	82.56
310.949	96.56
311.179	72.56
311.409	96.56
311.639	101.56
311.868	79.56
312.098	88.56
312.328	90.56
312.557	77.56
312.787	96.56
313.017	84.56
313.246	91.56
313.476	85.56
313.706	91.56
313.935	80.56
314.165	93.56
314.394	91.56
314.624	85.56
314.853	73.56
315.083	84.56
315.312	89.56
315.542	79.56
315.771	77.56
316.001	70.56
316.23	85.56
316.46	86.56
316.689	88.56
316.919	68.56
317.148	96.56
317.377	84.56
317.607	79.56
317.836	83.56
318.065	84.56
318.295	89.56
318.524	85.56
318.753	88.56
318.983	89.56
319.212	101.56
319.441	77.56
319.67	86.56
319.9	86.56
320.129	90.56
320.358	74.56
320.587	95.56
320.816	86.56
321.046	100.56
321.275	82.56
321.504	76.56
321.733	72.56
321.962	88.56
322.191	80.56
322.42	88.56
322.649	87.56
322.878	91.56
323.108	85.56
323.337	101.56
323.566	92.56
323.795	102.56
324.024	88.56
324.253	85.56
324.482	74.56
324.71	73.56
324.939	91.56
325.168	84.56
325.397	69.56
325.626	68.56
325.855	77.56
326.084	99.56
326.313	89.56
326.542	72.56
326.77	86.56
326.999	69.56
327.228	85.56
327.457	89.56
327.686	79.56
327.914	88.56
328.143	94.56
328.372	78.56
328.6	81.56
328.829	92.56
329.058	92.56
329.287	92.56
329.515	75.56
329.744	92.56
329.972	78.56
330.201	87.56
330.43	87.56
330.658	99.56
330.887	90.56
331.115	103.56
331.344	93.56
331.572	84.56
331.801	85.56
332.03	84.56
332.258	91.56
332.486	93.56
332.715	75.56
332.943	90.56
333.172	104.56
333.4	94.56
333.629	77.56
333.857	107.56
334.085	88.56
334.314	83.56
334.542	86.56
334.771	84.56
334.999	74.56
335.227	87.56
335.455	93.56
335.684	89.56
335.912	77.56
336.14	92.56
336.369	81.56
336.597	91.56
336.825	90.56
337.053	85.56
337.281	91.56
337.51	89.56
337.738	76.56
337.966	88.56
338.194	92.56
338.422	80.56
338.65	90.56
338.878	85.56
339.106	92.56
339.334	97.56
339.562	96.56
339.79	97.56
340.018	91.56
340.246	89.56
340.474	83.56
340.702	82.56
340.93	89.56
341.158	84.56
341.386	100.56
341.614	93.56
341.842	75.56
342.07	73.56
342.298	78.56
342.526	73.56
342.754	85.56
342.981	91.56
343.209	88.56
343.437	99.56
343.665	103.56
343.893	84.56
344.12	100.56
344.348	81.56
344.576	78.56
344.804	102.56
345.031	88.56
345.259	84.56
345.487	84.56
345.714	92.56
345.942	89.56
346.17	78.56
346.397	82.56
346.625	84.56
346.853	97.56
347.08	79.56
347.308	80.56
347.535	90.56
347.763	94.56
347.99	94.56
348.218	66.56
348.445	86.56
348.673	98.56
348.9	96.56
349.128	85.56
349.355	97.56
349.583	88.56
349.81	97.56
350.037	86.56
350.265	89.56
350.492	95.56
350.72	77.56
350.947	73.56
351.174	85.56
351.402	73.56
351.629	87.56
351.856	92.56
352.083	67.56
352.311	82.56
352.538	84.56
352.765	86.56
352.992	89.56
353.22	85.56
353.447	80.56
353.674	88.56
353.901	93.56
354.128	99.56
354.355	69.56
354.583	86.56
354.81	74.56
355.037	78.56
355.264	90.56
355.491	92.56
355.718	83.56
355.945	91.56
356.172	62.56
356.399	77.56
356.626	73.56
356.853	85.56
357.08	95.56
357.307	85.56
357.534	77.56
357.761	83.56
357.988	93.56
358.215	82.56
358.441	91.56
358.668	97.56
358.895	76.56
359.122	79.56
359.349	92.56
359.576	95.56
359.802	88.56
360.029	82.56
360.256	81.56
360.483	75.56
360.709	82.56
360.936	98.56
361.163	77.56
361.39	104.56
361.616	82.56
361.843	91.56
362.07	91.56
362.296	88.56
362.523	99.56
362.749	90.56
362.976	91.56
363.203	86.56
363.429	86.56
363.656	87.56
363.882	86.56
364.109	77.56
364.335	81.56
364.562	99.56
364.788	83.56
365.015	89.56
365.241	97.56
365.468	95.56
365.694	69.56
365.92	95.56
366.147	87.56
366.373	90.56
366.599	88.56
366.826	73.56
367.052	91.56
367.278	78.56
367.505	96.56
367.731	82.56
367.957	72.56
368.184	78.56
368.41	82.56
368.636	76.56
368.862	73.56
369.089	75.56
369.315	106.56
369.541	85.56
369.767	84.56
369.993	84.56
370.219	79.56
370.445	96.56
370.672	73.56
370.898	80.56
371.124	84.56
371.35	81.56
371.576	92.56
371.802	88.56
372.028	88.56
372.254	93.56
372.48	88.56
372.706	86.56
372.932	86.56
373.158	92.56
373.384	89.56
373.61	96.56
373.835	88.56
374.061	74.56
374.287	83.56
374.513	75.56
374.739	83.56
374.965	85.56
375.191	85.56
375.416	63.56
375.642	86.56
375.868	88.56
376.094	86.56
376.319	85.56
376.545	78.56
376.771	93.56
376.997	87.56
377.222	82.56
377.448	97.56
377.674	82.56
377.899	86.56
378.125	80.56
378.35	72.56
378.576	69.56
378.802	87.56
379.027	91.56
379.253	93.56
379.478	75.56
379.704	76.56
379.929	80.56
380.155	85.56
380.38	85.56
380.606	79.56
380.831	76.56
381.057	90.56
381.282	88.56
381.507	86.56
381.733	69.56
381.958	84.56
382.184	78.56
382.409	81.56
382.634	75.56
382.86	93.56
383.085	87.56
383.31	91.56
383.535	80.56
383.761	95.56
383.986	68.56
384.211	87.56
384.436	88.56
384.662	82.56
384.887	97.56
385.112	94.56
385.337	95.56
385.562	85.56
385.787	83.56
386.013	91.56
386.238	73.56
386.463	85.56
386.688	86.56
386.913	77.56
387.138	79.56
387.363	93.56
387.588	93.56
387.813	89.56
388.038	85.56
388.263	71.56
388.488	90.56
388.713	87.56
388.938	78.56
389.163	91.56
389.387	81.56
389.612	85.56
389.837	80.56
390.062	82.56
390.287	76.56
390.512	80.56
390.736	87.56
390.961	73.56
391.186	81.56
391.411	85.56
391.636	72.56
391.86	75.56
392.085	89.56
392.31	78.56
392.534	91.56
392.759	88.56
392.984	82.56
393.208	99.56
393.433	83.56
393.658	94.56
393.882	69.56
394.107	82.56
394.331	78.56
394.556	81.56
394.78	69.56
395.005	77.56
395.229	85.56
395.454	92.56
395.678	92.56
395.903	87.56
396.127	87.56
396.352	90.56
396.576	74.56
396.801	76.56
397.025	77.56
397.249	86.56
397.474	96.56
397.698	80.56
397.922	89.56
398.147	81.56
398.371	85.56
398.595	89.56
398.82	93.56
399.044	95.56
399.268	89.56
399.492	96.56
399.717	86.56
399.941	94.56
400.165	94.56
400.389	83.56
400.613	68.56
400.837	89.56
401.062	86.56
401.286	106.56
401.51	88.56
401.734	87.56
401.958	80.56
402.182	86.56
402.406	72.56
402.63	78.56
402.854	84.56
403.078	77.56
403.302	97.56
403.526	92.56
403.75	84.56
403.974	82.56
404.198	102.56
404.422	78.56
404.645	98.56
404.869	91.56
405.093	99.56
405.317	86.56
405.541	68.56
405.765	88.56
405.988	97.56
406.212	81.56
406.436	66.56
406.66	92.56
406.883	90.56
407.107	85.56
407.331	88.56
407.555	92.56
407.778	89.56
408.002	90.56
408.226	98.56
408.449	88.56
408.673	89.56
408.896	89.56
409.12	86.56
409.344	74.56
409.567	80.56
409.791	84.56
410.014	85.56
410.238	99.56
410.461	92.56
410.685	96.56
410.908	71.56
411.132	75.56
411.355	70.56
411.578	78.56
411.802	93.56
412.025	72.56
412.249	75.56
412.472	82.56
412.695	92.56
412.919	81.56
413.142	86.56
413.365	84.56
413.589	82.56
413.812	82.56
414.035	89.56
414.258	78.56
414.482	81.56
414.705	87.56
414.928	78.56
415.151	84.56
415.374	97.56
415.597	93.56
415.821	94.56
416.044	76.56
416.267	77.56
416.49	98.56
416.713	99.56
416.936	85.56
417.159	78.56
417.382	88.56
417.605	92.56
417.828	86.56
418.051	86.56
418.274	69.56
418.497	78.56
418.72	93.56
418.943	85.56
419.166	75.56
419.389	82.56
419.611	82.56
419.834	86.56
420.057	66.56
420.28	76.56
420.503	104.56
420.726	88.56
420.948	85.56
421.171	71.56
421.394	87.56
421.617	89.56
421.839	86.56
422.062	75.56
422.285	80.56
422.507	85.56
422.73	93.56
422.953	78.56
423.175	77.56
423.398	71.56
423.621	90.56
423.843	93.56
424.066	79.56
424.288	91.56
424.511	79.56
424.733	93.56
424.956	84.56
425.178	89.56
425.401	80.56
425.623	84.56
425.846	99.56
426.068	83.56
426.291	82.56
426.513	89.56
426.735	81.56
426.958	84.56
427.18	92.56
427.402	98.56
427.625	87.56
427.847	85.56
428.069	73.56
428.292	83.56
428.514	95.56
428.736	89.56
428.958	94.56
429.181	92.56
429.403	83.56
429.625	81.56
429.847	93.56
430.069	89.56
430.292	99.56
430.514	88.56
430.736	76.56
430.958	81.56
431.18	79.56
431.402	80.56
431.624	93.56
431.846	85.56
432.068	82.56
432.29	89.56
432.512	66.56
432.734	87.56
432.956	111.56
433.178	88.56
433.4	88.56
433.622	90.56
433.844	96.56
434.066	82.56
434.287	85.56
434.509	85.56
434.731	77.56
434.953	98.56
435.175	82.56
435.397	93.56
435.618	80.56
435.84	80.56
436.062	94.56
436.284	94.56
436.505	81.56
436.727	92.56
436.949	87.56
437.17	83.56
437.392	90.56
437.614	91.56
437.835	93.56
438.057	87.56
438.278	95.56
438.5	80.56
438.721	93.56
438.943	90.56
439.165	87.56
439.386	71.56
439.608	86.56
439.829	94.56
440.05	75.56
440.272	74.56
440.493	93.56
440.715	101.56
440.936	73.56
441.158	88.56
441.379	86.56
441.6	80.56
441.822	92.56
442.043	88.56
442.264	74.56
442.486	90.56
442.707	89.56
442.928	92.56
443.149	87.56
443.371	83.56
443.592	78.56
443.813	98.56
444.034	69.56
444.255	86.56
444.476	87.56
444.698	86.56
444.919	90.56
445.14	214.56
445.361	162.56
445.582	99.56
445.803	93.56
446.024	85.56
446.245	88.56
446.466	92.56
446.687	96.56
446.908	82.56
447.129	90.56
447.35	79.56
447.571	85.56
447.792	87.56
448.013	83.56
448.234	78.56
448.455	85.56
448.675	80.56
448.896	90.56
449.117	98.56
449.338	82.56
449.559	65.56
449.779	81.56
450	77.56
450.221	82.56
450.442	84.56
450.662	81.56
450.883	80.56
451.104	84.56
451.324	69.56
451.545	78.56
451.766	82.56
451.986	81.56
452.207	77.56
452.428	100.56
452.648	81.56
452.869	69.56
453.089	82.56
453.31	78.56
453.53	68.56
453.751	87.56
453.971	78.56
454.192	92.56
454.412	94.56
454.633	88.56
454.853	75.56
455.073	95.56
455.294	94.56
455.514	86.56
455.734	83.56
455.955	85.56
456.175	78.56
456.395	100.56
456.616	78.56
456.836	81.56
457.056	88.56
457.276	86.56
457.497	81.56
457.717	88.56
457.937	87.56
458.157	81.56
458.377	93.56
458.598	104.56
458.818	84.56
459.038	76.56
459.258	82.56
459.478	81.56
459.698	85.56
459.918	87.56
460.138	92.56
460.358	95.56
460.578	92.56
460.798	82.56
461.018	77.56
461.238	91.56
461.458	70.56
461.678	82.56
461.898	81.56
462.118	83.56
462.338	92.56
462.558	86.56
462.777	74.56
462.997	90.56
463.217	79.56
463.437	90.56
463.657	70.56
463.876	81.56
464.096	77.56
464.316	73.56
464.536	84.56
464.755	93.56
464.975	75.56
465.195	93.56
465.414	89.56
465.634	75.56
465.854	72.56
466.073	88.56
466.293	98.56
466.512	106.56
466.732	98.56
466.951	101.56
467.171	96.56
467.391	74.56
467.61	67.56
467.829	86.56
468.049	86.56
468.268	70.56
468.488	94.56
468.707	83.56
468.927	90.56
469.146	76.56
469.365	84.56
469.585	81.56
469.804	89.56
470.023	92.56
470.243	84.56
470.462	95.56
470.681	87.56
470.901	82.56
471.12	98.56
471.339	84.56
471.558	79.56
471.777	81.56
471.997	90.56
472.216	86.56
472.435	88.56
472.654	83.56
472.873	101.56
473.092	91.56
473.311	78.56
473.53	84.56
473.749	91.56
473.968	88.56
474.187	87.56
474.406	91.56
474.625	88.56
474.844	86.56
475.063	81.56
475.282	86.56
475.501	92.56
475.72	101.56
475.939	92.56
476.158	98.56
476.377	91.56
476.596	90.56
476.814	82.56
477.033	97.56
477.252	83.56
477.471	90.56
477.69	90.56
477.908	99.56
478.127	104.56
478.346	90.56
478.564	95.56
478.783	88.56
479.002	93.56
479.22	85.56
479.439	89.56
479.658	90.56
479.876	77.56
480.095	83.56
480.313	82.56
480.532	74.56
480.751	92.56
480.969	87.56
481.188	74.56
481.406	84.56
481.624	98.56
481.843	90.56
482.061	78.56
482.28	92.56
482.498	86.56
482.717	77.56
482.935	77.56
483.153	86.56
483.372	93.56
483.59	99.56
483.808	90.56
484.027	82.56
484.245	66.56
484.463	92.56
484.681	100.56
484.9	86.56
485.118	89.56
485.336	94.56
485.554	95.56
485.772	88.56
485.99	92.56
486.209	89.56
486.427	104.56
486.645	89.56
486.863	97.56
487.081	95.56
487.299	100.56
487.517	104.56
487.735	109.56
487.953	108.56
488.171	87.56
488.389	90.56
488.607	81.56
488.825	110.56
489.043	86.56
489.261	75.56
489.479	96.56
489.696	103.56
489.914	78.56
490.132	94.56
490.35	99.56
490.568	91.56
490.786	98.56
491.003	92.56
491.221	105.56
491.439	91.56
491.657	92.56
491.874	100.56
492.092	118.56
492.31	106.56
492.527	101.56
492.745	102.56
492.963	100.56
493.18	110.56
493.398	100.56
493.615	91.56
493.833	103.56
494.05	98.56
494.268	95.56
494.485	102.56
494.703	86.56
494.92	102.56
495.138	97.56
495.355	87.56
495.573	99.56
495.79	102.56
496.008	96.56
496.225	115.56
496.442	99.56
496.66	104.56
496.877	102.56
497.094	104.56
497.312	109.56
497.529	101.56
497.746	95.56
497.963	88.56
498.181	97.56
498.398	77.56
498.615	89.56
498.832	101.56
499.049	88.56
499.267	106.56
499.484	101.56
499.701	88.56
499.918	93.56
500.135	107.56
500.352	94.56
500.569	95.56
500.786	100.56
501.003	102.56
501.22	104.56
501.437	96.56
501.654	93.56
501.871	98.56
502.088	105.56
502.305	96.56
502.522	92.56
502.739	94.56
502.956	95.56
503.172	98.56
503.389	97.56
503.606	88.56
503.823	78.56
504.04	87.56
504.256	97.56
504.473	91.56
504.69	91.56
504.907	103.56
505.123	88.56
505.34	104.56
505.557	104.56
505.773	98.56
505.99	96.56
506.207	104.56
506.423	102.56
506.64	96.56
506.856	99.56
507.073	90.56
507.289	93.56
507.506	104.56
507.722	90.56
507.939	87.56
508.155	85.56
508.372	87.56
508.588	95.56
508.805	93.56
509.021	96.56
509.238	83.56
509.454	86.56
509.67	85.56
509.887	96.56
510.103	78.56
510.319	74.56
510.536	103.56
510.752	90.56
510.968	92.56
511.184	93.56
511.401	83.56
511.617	90.56
511.833	99.56
512.049	80.56
512.265	89.56
512.481	82.56
512.698	89.56
512.914	75.56
513.13	85.56
513.346	77.56
513.562	94.56
513.778	85.56
513.994	88.56
514.21	72.56
514.426	101.56
514.642	94.56
514.858	93.56
515.074	100.56
515.29	91.56
515.506	100.56
515.721	87.56
515.937	82.56
516.153	83.56
516.369	90.56
516.585	85.56
516.801	96.56
517.016	69.56
517.232	89.56
517.448	83.56
517.664	91.56
517.879	91.56
518.095	109.56
518.311	101.56
