Data from Ni(NO3)2@0.5M.TitratingCurve.Agarose3%dH2O.NegLispCup.LampEnergy10.LIBS07252019_HRD10591_17-59-13-564.txt Node
Date: Thu Jul 25 17:59:13 EDT 2019
User: cochatt
Spectrometer: HR+D1059
Trigger mode: 1
Integration Time (sec): 1.000000E-1
Scans to average: 1
Electric dark correction enabled: true
Nonlinearity correction enabled: false
Boxcar width: 0
XAxis mode: Wavelengths
Number of Pixels in Spectrum: 2048
>>>>>Begin Spectral Data<<<<<
223.165	-13.81
223.4	-13.81
223.635	-13.81
223.869	-5.81
224.104	-19.81
224.338	-15.81
224.573	-20.81
224.808	-4.81
225.042	3.19
225.277	3.19
225.511	-10.81
225.746	-4.81
225.98	12.19
226.215	-0.81
226.449	17.19
226.683	17.19
226.918	21.19
227.152	23.19
227.387	20.19
227.621	34.19
227.856	28.19
228.09	52.19
228.324	71.19
228.559	63.19
228.793	70.19
229.027	124.19
229.262	130.19
229.496	174.19
229.73	156.19
229.964	188.19
230.199	227.19
230.433	233.19
230.667	204.19
230.901	196.19
231.136	186.19
231.37	168.19
231.604	186.19
231.838	217.19
232.072	242.19
232.306	219.19
232.541	194.19
232.775	175.19
233.009	172.19
233.243	173.19
233.477	156.19
233.711	171.19
233.945	199.19
234.179	171.19
234.413	187.19
234.647	187.19
234.881	186.19
235.115	185.19
235.349	181.19
235.583	185.19
235.817	168.19
236.051	166.19
236.285	167.19
236.519	186.19
236.753	198.19
236.987	189.19
237.221	189.19
237.455	187.19
237.689	180.19
237.922	203.19
238.156	198.19
238.39	175.19
238.624	166.19
238.858	195.19
239.091	212.19
239.325	212.19
239.559	206.19
239.793	237.19
240.027	245.19
240.26	208.19
240.494	198.19
240.728	206.19
240.961	200.19
241.195	207.19
241.429	216.19
241.662	218.19
241.896	236.19
242.13	273.19
242.363	234.19
242.597	217.19
242.83	215.19
243.064	224.19
243.298	220.19
243.531	234.19
243.765	232.19
243.998	243.19
244.232	263.19
244.465	242.19
244.699	233.19
244.932	219.19
245.166	233.19
245.399	228.19
245.633	227.19
245.866	231.19
246.099	232.19
246.333	230.19
246.566	227.19
246.8	245.19
247.033	240.19
247.266	256.19
247.5	240.19
247.733	258.19
247.966	245.19
248.2	269.19
248.433	276.19
248.666	273.19
248.899	244.19
249.133	274.19
249.366	266.19
249.599	265.19
249.832	263.19
250.066	265.19
250.299	272.19
250.532	285.19
250.765	290.19
250.998	298.19
251.231	323.19
251.465	327.19
251.698	314.19
251.931	288.19
252.164	291.19
252.397	307.19
252.63	287.19
252.863	300.19
253.096	320.19
253.329	313.19
253.562	316.19
253.795	290.19
254.028	306.19
254.261	306.19
254.494	325.19
254.727	336.19
254.96	335.19
255.193	318.19
255.426	318.19
255.659	307.19
255.892	324.19
256.124	317.19
256.357	336.19
256.59	337.19
256.823	333.19
257.056	340.19
257.289	336.19
257.521	342.19
257.754	333.19
257.987	334.19
258.22	328.19
258.452	340.19
258.685	356.19
258.918	339.19
259.151	351.19
259.383	354.19
259.616	345.19
259.849	355.19
260.081	374.19
260.314	361.19
260.547	345.19
260.779	380.19
261.012	375.19
261.244	377.19
261.477	383.19
261.71	380.19
261.942	378.19
262.175	372.19
262.407	378.19
262.64	384.19
262.872	371.19
263.105	387.19
263.337	381.19
263.57	386.19
263.802	390.19
264.035	401.19
264.267	400.19
264.499	396.19
264.732	388.19
264.964	389.19
265.197	406.19
265.429	419.19
265.661	414.19
265.894	417.19
266.126	421.19
266.358	405.19
266.591	414.19
266.823	402.19
267.055	414.19
267.287	422.19
267.52	395.19
267.752	430.19
267.984	438.19
268.216	429.19
268.448	413.19
268.681	422.19
268.913	434.19
269.145	442.19
269.377	424.19
269.609	406.19
269.841	438.19
270.073	422.19
270.306	450.19
270.538	430.19
270.77	437.19
271.002	435.19
271.234	447.19
271.466	443.19
271.698	471.19
271.93	459.19
272.162	444.19
272.394	439.19
272.626	451.19
272.858	445.19
273.09	451.19
273.322	468.19
273.553	451.19
273.785	457.19
274.017	458.19
274.249	469.19
274.481	471.19
274.713	481.19
274.945	492.19
275.176	491.19
275.408	477.19
275.64	498.19
275.872	464.19
276.104	511.19
276.335	491.19
276.567	510.19
276.799	478.19
277.031	480.19
277.262	481.19
277.494	488.19
277.726	491.19
277.957	480.19
278.189	510.19
278.421	501.19
278.652	498.19
278.884	492.19
279.115	508.19
279.347	515.19
279.579	525.19
279.81	526.19
280.042	505.19
280.273	521.19
280.505	543.19
280.736	526.19
280.968	520.19
281.199	509.19
281.431	549.19
281.662	533.19
281.894	539.19
282.125	522.19
282.356	552.19
282.588	529.19
282.819	528.19
283.051	536.19
283.282	535.19
283.513	528.19
283.745	540.19
283.976	535.19
284.207	560.19
284.439	552.19
284.67	552.19
284.901	554.19
285.132	557.19
285.364	550.19
285.595	563.19
285.826	570.19
286.057	546.19
286.288	535.19
286.52	570.19
286.751	565.19
286.982	562.19
287.213	567.19
287.444	566.19
287.675	597.19
287.906	573.19
288.138	592.19
288.369	575.19
288.6	570.19
288.831	595.19
289.062	582.19
289.293	566.19
289.524	578.19
289.755	591.19
289.986	576.19
290.217	586.19
290.448	573.19
290.679	602.19
290.91	575.19
291.141	594.19
291.371	594.19
291.602	572.19
291.833	587.19
292.064	604.19
292.295	580.19
292.526	573.19
292.757	584.19
292.987	584.19
293.218	595.19
293.449	595.19
293.68	597.19
293.91	605.19
294.141	616.19
294.372	606.19
294.603	604.19
294.833	592.19
295.064	604.19
295.295	610.19
295.525	589.19
295.756	586.19
295.987	612.19
296.217	630.19
296.448	608.19
296.679	614.19
296.909	610.19
297.14	634.19
297.37	617.19
297.601	624.19
297.831	627.19
298.062	590.19
298.292	644.19
298.523	652.19
298.753	652.19
298.984	653.19
299.214	640.19
299.445	641.19
299.675	655.19
299.905	654.19
300.136	674.19
300.366	672.19
300.597	700.19
300.827	667.19
301.057	660.19
301.288	685.19
301.518	693.19
301.748	700.19
301.979	663.19
302.209	654.19
302.439	672.19
302.669	670.19
302.9	655.19
303.13	636.19
303.36	681.19
303.59	687.19
303.82	715.19
304.051	696.19
304.281	708.19
304.511	656.19
304.741	653.19
304.971	731.19
305.201	700.19
305.431	728.19
305.661	739.19
305.891	720.19
306.121	724.19
306.352	708.19
306.582	712.19
306.812	669.19
307.042	692.19
307.272	703.19
307.502	664.19
307.731	687.19
307.961	675.19
308.191	680.19
308.421	685.19
308.651	717.19
308.881	698.19
309.111	679.19
309.341	666.19
309.571	717.19
309.8	692.19
310.03	709.19
310.26	757.19
310.49	747.19
310.72	724.19
310.949	711.19
311.179	708.19
311.409	696.19
311.639	696.19
311.868	716.19
312.098	711.19
312.328	733.19
312.557	749.19
312.787	719.19
313.017	729.19
313.246	765.19
313.476	765.19
313.706	769.19
313.935	744.19
314.165	739.19
314.394	741.19
314.624	744.19
314.853	749.19
315.083	784.19
315.312	734.19
315.542	726.19
315.771	733.19
316.001	735.19
316.23	743.19
316.46	730.19
316.689	765.19
316.919	781.19
317.148	751.19
317.377	746.19
317.607	720.19
317.836	749.19
318.065	738.19
318.295	742.19
318.524	760.19
318.753	778.19
318.983	763.19
319.212	768.19
319.441	775.19
319.67	779.19
319.9	772.19
320.129	795.19
320.358	754.19
320.587	772.19
320.816	781.19
321.046	805.19
321.275	811.19
321.504	761.19
321.733	796.19
321.962	796.19
322.191	805.19
322.42	800.19
322.649	814.19
322.878	800.19
323.108	795.19
323.337	818.19
323.566	836.19
323.795	842.19
324.024	803.19
324.253	835.19
324.482	815.19
324.71	841.19
324.939	835.19
325.168	837.19
325.397	834.19
325.626	826.19
325.855	858.19
326.084	847.19
326.313	861.19
326.542	848.19
326.77	872.19
326.999	830.19
327.228	833.19
327.457	847.19
327.686	870.19
327.914	869.19
328.143	864.19
328.372	854.19
328.6	842.19
328.829	888.19
329.058	845.19
329.287	850.19
329.515	853.19
329.744	887.19
329.972	878.19
330.201	873.19
330.43	879.19
330.658	875.19
330.887	868.19
331.115	869.19
331.344	893.19
331.572	894.19
331.801	903.19
332.03	932.19
332.258	932.19
332.486	919.19
332.715	926.19
332.943	955.19
333.172	959.19
333.4	966.19
333.629	975.19
333.857	968.19
334.085	988.19
334.314	953.19
334.542	983.19
334.771	1000.19
334.999	991.19
335.227	991.19
335.455	1008.19
335.684	985.19
335.912	987.19
336.14	995.19
336.369	1006.19
336.597	987.19
336.825	983.19
337.053	1013.19
337.281	1043.19
337.51	1003.19
337.738	1000.19
337.966	981.19
338.194	992.19
338.422	969.19
338.65	976.19
338.878	1003.19
339.106	983.19
339.334	999.19
339.562	976.19
339.79	974.19
340.018	928.19
340.246	957.19
340.474	934.19
340.702	928.19
340.93	914.19
341.158	936.19
341.386	1007.19
341.614	1033.19
341.842	1006.19
342.07	955.19
342.298	950.19
342.526	950.19
342.754	922.19
342.981	939.19
343.209	951.19
343.437	1023.19
343.665	1018.19
343.893	1010.19
344.12	997.19
344.348	1012.19
344.576	1032.19
344.804	1018.19
345.031	1010.19
345.259	976.19
345.487	964.19
345.714	963.19
345.942	999.19
346.17	1016.19
346.397	980.19
346.625	932.19
346.853	919.19
347.08	897.19
347.308	932.19
347.535	934.19
347.763	896.19
347.99	878.19
348.218	913.19
348.445	910.19
348.673	874.19
348.9	913.19
349.128	920.19
349.355	918.19
349.583	934.19
349.81	910.19
350.037	901.19
350.265	897.19
350.492	888.19
350.72	886.19
350.947	891.19
351.174	941.19
351.402	982.19
351.629	977.19
351.856	943.19
352.083	912.19
352.311	975.19
352.538	966.19
352.765	987.19
352.992	883.19
353.22	871.19
353.447	880.19
353.674	863.19
353.901	862.19
354.128	860.19
354.355	866.19
354.583	847.19
354.81	898.19
355.037	901.19
355.264	872.19
355.491	861.19
355.718	866.19
355.945	857.19
356.172	884.19
356.399	894.19
356.626	910.19
356.853	918.19
357.08	902.19
357.307	867.19
357.534	901.19
357.761	866.19
357.988	871.19
358.215	885.19
358.441	886.19
358.668	891.19
358.895	887.19
359.122	868.19
359.349	895.19
359.576	876.19
359.802	878.19
360.029	892.19
360.256	894.19
360.483	898.19
360.709	885.19
360.936	910.19
361.163	875.19
361.39	904.19
361.616	924.19
361.843	925.19
362.07	958.19
362.296	975.19
362.523	921.19
362.749	887.19
362.976	879.19
363.203	908.19
363.429	898.19
363.656	900.19
363.882	910.19
364.109	899.19
364.335	897.19
364.562	859.19
364.788	852.19
365.015	884.19
365.241	902.19
365.468	871.19
365.694	886.19
365.92	896.19
366.147	892.19
366.373	875.19
366.599	877.19
366.826	905.19
367.052	864.19
367.278	883.19
367.505	918.19
367.731	904.19
367.957	899.19
368.184	890.19
368.41	908.19
368.636	928.19
368.862	922.19
369.089	917.19
369.315	939.19
369.541	882.19
369.767	918.19
369.993	914.19
370.219	912.19
370.445	917.19
370.672	943.19
370.898	917.19
371.124	942.19
371.35	948.19
371.576	927.19
371.802	949.19
372.028	929.19
372.254	956.19
372.48	924.19
372.706	952.19
372.932	955.19
373.158	966.19
373.384	982.19
373.61	946.19
373.835	956.19
374.061	984.19
374.287	995.19
374.513	963.19
374.739	997.19
374.965	984.19
375.191	966.19
375.416	982.19
375.642	970.19
375.868	964.19
376.094	961.19
376.319	973.19
376.545	957.19
376.771	966.19
376.997	949.19
377.222	920.19
377.448	938.19
377.674	921.19
377.899	958.19
378.125	927.19
378.35	926.19
378.576	935.19
378.802	935.19
379.027	953.19
379.253	946.19
379.478	946.19
379.704	933.19
379.929	927.19
380.155	924.19
380.38	955.19
380.606	935.19
380.831	952.19
381.057	934.19
381.282	916.19
381.507	948.19
381.733	943.19
381.958	940.19
382.184	933.19
382.409	962.19
382.634	976.19
382.86	995.19
383.085	985.19
383.31	985.19
383.535	974.19
383.761	998.19
383.986	1020.19
384.211	1001.19
384.436	1035.19
384.662	1038.19
384.887	1037.19
385.112	1013.19
385.337	1040.19
385.562	1043.19
385.787	1042.19
386.013	1080.19
386.238	1055.19
386.463	1070.19
386.688	1080.19
386.913	1083.19
387.138	1062.19
387.363	1063.19
387.588	1071.19
387.813	1032.19
388.038	1066.19
388.263	1069.19
388.488	1069.19
388.713	1065.19
388.938	1065.19
389.163	1043.19
389.387	1071.19
389.612	1069.19
389.837	1068.19
390.062	1084.19
390.287	1043.19
390.512	1110.19
390.736	1099.19
390.961	1118.19
391.186	1080.19
391.411	1104.19
391.636	1112.19
391.86	1107.19
392.085	1123.19
392.31	1136.19
392.534	1130.19
392.759	1160.19
392.984	1085.19
393.208	1104.19
393.433	1142.19
393.658	1114.19
393.882	1127.19
394.107	1076.19
394.331	1117.19
394.556	1138.19
394.78	1103.19
395.005	1116.19
395.229	1139.19
395.454	1151.19
395.678	1144.19
395.903	1139.19
396.127	1158.19
396.352	1167.19
396.576	1135.19
396.801	1150.19
397.025	1178.19
397.249	1169.19
397.474	1200.19
397.698	1188.19
397.922	1199.19
398.147	1191.19
398.371	1209.19
398.595	1243.19
398.82	1247.19
399.044	1308.19
399.268	1325.19
399.492	1388.19
399.717	1415.19
399.941	1478.19
400.165	1438.19
400.389	1377.19
400.613	1322.19
400.837	1316.19
401.062	1336.19
401.286	1324.19
401.51	1259.19
401.734	1289.19
401.958	1254.19
402.182	1255.19
402.406	1256.19
402.63	1251.19
402.854	1281.19
403.078	1254.19
403.302	1281.19
403.526	1240.19
403.75	1260.19
403.974	1266.19
404.198	1238.19
404.422	1280.19
404.645	1276.19
404.869	1261.19
405.093	1310.19
405.317	1333.19
405.541	1340.19
405.765	1302.19
405.988	1312.19
406.212	1324.19
406.436	1305.19
406.66	1363.19
406.883	1359.19
407.107	1389.19
407.331	1446.19
407.555	1471.19
407.778	1458.19
408.002	1451.19
408.226	1426.19
408.449	1459.19
408.673	1419.19
408.896	1359.19
409.12	1393.19
409.344	1366.19
409.567	1350.19
409.791	1363.19
410.014	1334.19
410.238	1311.19
410.461	1325.19
410.685	1330.19
410.908	1336.19
411.132	1324.19
411.355	1296.19
411.578	1310.19
411.802	1311.19
412.025	1298.19
412.249	1287.19
412.472	1314.19
412.695	1308.19
412.919	1269.19
413.142	1304.19
413.365	1250.19
413.589	1281.19
413.812	1288.19
414.035	1266.19
414.258	1231.19
414.482	1280.19
414.705	1255.19
414.928	1247.19
415.151	1233.19
415.374	1278.19
415.597	1238.19
415.821	1195.19
416.044	1215.19
416.267	1209.19
416.49	1229.19
416.713	1225.19
416.936	1220.19
417.159	1216.19
417.382	1213.19
417.605	1222.19
417.828	1220.19
418.051	1216.19
418.274	1244.19
418.497	1218.19
418.72	1191.19
418.943	1228.19
419.166	1272.19
419.389	1363.19
419.611	1323.19
419.834	1267.19
420.057	1296.19
420.28	1268.19
420.503	1221.19
420.726	1210.19
420.948	1206.19
421.171	1206.19
421.394	1208.19
421.617	1198.19
421.839	1202.19
422.062	1230.19
422.285	1161.19
422.507	1181.19
422.73	1204.19
422.953	1232.19
423.175	1231.19
423.398	1202.19
423.621	1210.19
423.843	1251.19
424.066	1210.19
424.288	1190.19
424.511	1198.19
424.733	1207.19
424.956	1195.19
425.178	1208.19
425.401	1176.19
425.623	1212.19
425.846	1172.19
426.068	1217.19
426.291	1213.19
426.513	1187.19
426.735	1212.19
426.958	1206.19
427.18	1187.19
427.402	1178.19
427.625	1207.19
427.847	1125.19
428.069	1151.19
428.292	1167.19
428.514	1163.19
428.736	1179.19
428.958	1175.19
429.181	1166.19
429.403	1116.19
429.625	1197.19
429.847	1168.19
430.069	1132.19
430.292	1132.19
430.514	1126.19
430.736	1161.19
430.958	1175.19
431.18	1166.19
431.402	1169.19
431.624	1189.19
431.846	1200.19
432.068	1197.19
432.29	1188.19
432.512	1160.19
432.734	1207.19
432.956	1151.19
433.178	1190.19
433.4	1218.19
433.622	1210.19
433.844	1220.19
434.066	1197.19
434.287	1210.19
434.509	1208.19
434.731	1228.19
434.953	1240.19
435.175	1289.19
435.397	1278.19
435.618	1244.19
435.84	1216.19
436.062	1191.19
436.284	1182.19
436.505	1204.19
436.727	1188.19
436.949	1174.19
437.17	1203.19
437.392	1176.19
437.614	1180.19
437.835	1135.19
438.057	1152.19
438.278	1135.19
438.5	1140.19
438.721	1142.19
438.943	1158.19
439.165	1128.19
439.386	1163.19
439.608	1134.19
439.829	1148.19
440.05	1178.19
440.272	1168.19
440.493	1180.19
440.715	1186.19
440.936	1195.19
441.158	1184.19
441.379	1184.19
441.6	1218.19
441.822	1241.19
442.043	1246.19
442.264	1223.19
442.486	1235.19
442.707	1218.19
442.928	1215.19
443.149	1223.19
443.371	1236.19
443.592	1330.19
443.813	1317.19
444.034	1220.19
444.255	1206.19
444.476	1286.19
444.698	1270.19
444.919	1320.19
445.14	1412.19
445.361	1357.19
445.582	1273.19
445.803	1227.19
446.024	1199.19
446.245	1187.19
446.466	1151.19
446.687	1103.19
446.908	1147.19
447.129	1107.19
447.35	1121.19
447.571	1076.19
447.792	1082.19
448.013	1103.19
448.234	1096.19
448.455	1094.19
448.675	1103.19
448.896	1090.19
449.117	1070.19
449.338	1052.19
449.559	1048.19
449.779	1035.19
450	1056.19
450.221	1035.19
450.442	1071.19
450.662	1053.19
450.883	1082.19
451.104	1115.19
451.324	1087.19
451.545	1062.19
451.766	1060.19
451.986	1044.19
452.207	1049.19
452.428	1023.19
452.648	1038.19
452.869	1034.19
453.089	1066.19
453.31	1085.19
453.53	1028.19
453.751	1008.19
453.971	1031.19
454.192	1085.19
454.412	1084.19
454.633	1046.19
454.853	1036.19
455.073	1021.19
455.294	1080.19
455.514	1051.19
455.734	1070.19
455.955	1063.19
456.175	1090.19
456.395	1045.19
456.616	1023.19
456.836	1020.19
457.056	1020.19
457.276	1014.19
457.497	1040.19
457.717	1054.19
457.937	1079.19
458.157	1046.19
458.377	1055.19
458.598	1062.19
458.818	1079.19
459.038	1127.19
459.258	1150.19
459.478	1181.19
459.698	1292.19
459.918	1298.19
460.138	1289.19
460.358	1311.19
460.578	1292.19
460.798	1358.19
461.018	1318.19
461.238	1294.19
461.458	1258.19
461.678	1230.19
461.898	1251.19
462.118	1290.19
462.338	1304.19
462.558	1338.19
462.777	1401.19
462.997	1429.19
463.217	1450.19
463.437	1530.19
463.657	1476.19
463.876	1389.19
464.096	1397.19
464.316	1384.19
464.536	1367.19
464.755	1355.19
464.975	1319.19
465.195	1261.19
465.414	1246.19
465.634	1197.19
465.854	1178.19
466.073	1191.19
466.293	1136.19
466.512	1136.19
466.732	1127.19
466.951	1126.19
467.171	1158.19
467.391	1141.19
467.61	1104.19
467.829	1100.19
468.049	1111.19
468.268	1094.19
468.488	1130.19
468.707	1099.19
468.927	1100.19
469.146	1128.19
469.365	1131.19
469.585	1151.19
469.804	1127.19
470.023	1117.19
470.243	1122.19
470.462	1119.19
470.681	1124.19
470.901	1138.19
471.12	1132.19
471.339	1127.19
471.558	1140.19
471.777	1122.19
471.997	1098.19
472.216	1109.19
472.435	1092.19
472.654	1108.19
472.873	1078.19
473.092	1083.19
473.311	1059.19
473.53	1129.19
473.749	1119.19
473.968	1091.19
474.187	1072.19
474.406	1093.19
474.625	1119.19
474.844	1126.19
475.063	1110.19
475.282	1130.19
475.501	1150.19
475.72	1132.19
475.939	1138.19
476.158	1145.19
476.377	1162.19
476.596	1192.19
476.814	1143.19
477.033	1179.19
477.252	1202.19
477.471	1235.19
477.69	1232.19
477.908	1228.19
478.127	1284.19
478.346	1277.19
478.564	1274.19
478.783	1309.19
479.002	1381.19
479.22	1391.19
479.439	1368.19
479.658	1347.19
479.876	1282.19
480.095	1301.19
480.313	1354.19
480.532	1354.19
480.751	1337.19
480.969	1350.19
481.188	1330.19
481.406	1316.19
481.624	1338.19
481.843	1311.19
482.061	1308.19
482.28	1286.19
482.498	1302.19
482.717	1300.19
482.935	1301.19
483.153	1322.19
483.372	1384.19
483.59	1411.19
483.808	1358.19
484.027	1349.19
484.245	1334.19
484.463	1332.19
484.681	1337.19
484.9	1359.19
485.118	1301.19
485.336	1330.19
485.554	1396.19
485.772	1357.19
485.99	1369.19
486.209	1331.19
486.427	1351.19
486.645	1354.19
486.863	1340.19
487.081	1369.19
487.299	1364.19
487.517	1367.19
487.735	1390.19
487.953	1388.19
488.171	1382.19
488.389	1374.19
488.607	1350.19
488.825	1356.19
489.043	1366.19
489.261	1360.19
489.479	1355.19
489.696	1366.19
489.914	1327.19
490.132	1354.19
490.35	1403.19
490.568	1362.19
490.786	1348.19
491.003	1355.19
491.221	1373.19
491.439	1372.19
491.657	1378.19
491.874	1387.19
492.092	1397.19
492.31	1400.19
492.527	1400.19
492.745	1406.19
492.963	1411.19
493.18	1411.19
493.398	1376.19
493.615	1389.19
493.833	1424.19
494.05	1405.19
494.268	1410.19
494.485	1410.19
