Data from Ni(NO3)2@0.125M.TitratingCurve.Agarose3%dH2O.NegLispCup.LampEnergy10.LIBS07252019_HRD10591_18-11-22-568.txt Node
Date: Thu Jul 25 18:11:22 EDT 2019
User: cochatt
Spectrometer: HR+D1059
Trigger mode: 1
Integration Time (sec): 1.000000E-1
Scans to average: 1
Electric dark correction enabled: true
Nonlinearity correction enabled: false
Boxcar width: 0
XAxis mode: Wavelengths
Number of Pixels in Spectrum: 2048
>>>>>Begin Spectral Data<<<<<
223.165	-9.88
223.4	-9.88
223.635	-9.88
223.869	-27.88
224.104	-20.88
224.338	-9.88
224.573	-12.88
224.808	-6.88
225.042	-2.88
225.277	-13.88
225.511	-1.88
225.746	11.12
225.98	14.12
226.215	8.12
226.449	17.12
226.683	13.12
226.918	22.12
227.152	21.12
227.387	34.12
227.621	27.12
227.856	34.12
228.09	46.12
228.324	49.12
228.559	58.12
228.793	67.12
229.027	105.12
229.262	119.12
229.496	109.12
229.73	112.12
229.964	115.12
230.199	133.12
230.433	126.12
230.667	129.12
230.901	124.12
231.136	129.12
231.37	123.12
231.604	136.12
231.838	141.12
232.072	129.12
232.306	142.12
232.541	153.12
232.775	139.12
233.009	129.12
233.243	134.12
233.477	126.12
233.711	134.12
233.945	150.12
234.179	138.12
234.413	139.12
234.647	137.12
234.881	157.12
235.115	150.12
235.349	157.12
235.583	126.12
235.817	142.12
236.051	136.12
236.285	135.12
236.519	143.12
236.753	142.12
236.987	151.12
237.221	143.12
237.455	139.12
237.689	146.12
237.922	142.12
238.156	154.12
238.39	156.12
238.624	160.12
238.858	150.12
239.091	170.12
239.325	149.12
239.559	164.12
239.793	171.12
240.027	166.12
240.26	169.12
240.494	169.12
240.728	174.12
240.961	166.12
241.195	166.12
241.429	172.12
241.662	164.12
241.896	170.12
242.13	179.12
242.363	173.12
242.597	193.12
242.83	185.12
243.064	193.12
243.298	189.12
243.531	177.12
243.765	198.12
243.998	193.12
244.232	198.12
244.465	198.12
244.699	205.12
244.932	191.12
245.166	196.12
245.399	198.12
245.633	207.12
245.866	209.12
246.099	186.12
246.333	193.12
246.566	205.12
246.8	212.12
247.033	199.12
247.266	192.12
247.5	208.12
247.733	203.12
247.966	217.12
248.2	223.12
248.433	218.12
248.666	227.12
248.899	220.12
249.133	218.12
249.366	226.12
249.599	237.12
249.832	211.12
250.066	232.12
250.299	248.12
250.532	228.12
250.765	232.12
250.998	241.12
251.231	235.12
251.465	241.12
251.698	251.12
251.931	233.12
252.164	247.12
252.397	257.12
252.63	238.12
252.863	251.12
253.096	261.12
253.329	263.12
253.562	265.12
253.795	270.12
254.028	245.12
254.261	247.12
254.494	251.12
254.727	271.12
254.96	256.12
255.193	265.12
255.426	270.12
255.659	257.12
255.892	273.12
256.124	258.12
256.357	261.12
256.59	278.12
256.823	270.12
257.056	272.12
257.289	275.12
257.521	271.12
257.754	281.12
257.987	290.12
258.22	272.12
258.452	262.12
258.685	293.12
258.918	277.12
259.151	277.12
259.383	290.12
259.616	313.12
259.849	297.12
260.081	299.12
260.314	296.12
260.547	305.12
260.779	289.12
261.012	302.12
261.244	294.12
261.477	299.12
261.71	302.12
261.942	305.12
262.175	317.12
262.407	305.12
262.64	320.12
262.872	324.12
263.105	306.12
263.337	314.12
263.57	301.12
263.802	302.12
264.035	321.12
264.267	316.12
264.499	323.12
264.732	318.12
264.964	338.12
265.197	340.12
265.429	319.12
265.661	325.12
265.894	348.12
266.126	325.12
266.358	339.12
266.591	331.12
266.823	336.12
267.055	332.12
267.287	336.12
267.52	342.12
267.752	359.12
267.984	338.12
268.216	356.12
268.448	362.12
268.681	351.12
268.913	353.12
269.145	344.12
269.377	344.12
269.609	345.12
269.841	378.12
270.073	339.12
270.306	341.12
270.538	362.12
270.77	347.12
271.002	353.12
271.234	344.12
271.466	351.12
271.698	355.12
271.93	364.12
272.162	373.12
272.394	366.12
272.626	361.12
272.858	361.12
273.09	377.12
273.322	384.12
273.553	375.12
273.785	381.12
274.017	372.12
274.249	367.12
274.481	404.12
274.713	391.12
274.945	393.12
275.176	392.12
275.408	383.12
275.64	406.12
275.872	357.12
276.104	397.12
276.335	396.12
276.567	397.12
276.799	380.12
277.031	383.12
277.262	393.12
277.494	399.12
277.726	409.12
277.957	410.12
278.189	400.12
278.421	398.12
278.652	390.12
278.884	419.12
279.115	393.12
279.347	428.12
279.579	395.12
279.81	414.12
280.042	420.12
280.273	399.12
280.505	426.12
280.736	439.12
280.968	437.12
281.199	425.12
281.431	445.12
281.662	444.12
281.894	442.12
282.125	434.12
282.356	445.12
282.588	429.12
282.819	423.12
283.051	446.12
283.282	425.12
283.513	446.12
283.745	440.12
283.976	445.12
284.207	453.12
284.439	460.12
284.67	454.12
284.901	465.12
285.132	437.12
285.364	466.12
285.595	437.12
285.826	466.12
286.057	440.12
286.288	444.12
286.52	457.12
286.751	456.12
286.982	454.12
287.213	463.12
287.444	461.12
287.675	490.12
287.906	469.12
288.138	498.12
288.369	490.12
288.6	480.12
288.831	490.12
289.062	473.12
289.293	485.12
289.524	499.12
289.755	457.12
289.986	507.12
290.217	486.12
290.448	459.12
290.679	492.12
290.91	472.12
291.141	454.12
291.371	470.12
291.602	502.12
291.833	479.12
292.064	484.12
292.295	467.12
292.526	507.12
292.757	489.12
292.987	465.12
293.218	460.12
293.449	496.12
293.68	483.12
293.91	486.12
294.141	497.12
294.372	500.12
294.603	510.12
294.833	520.12
295.064	490.12
295.295	497.12
295.525	495.12
295.756	504.12
295.987	506.12
296.217	504.12
296.448	517.12
296.679	492.12
296.909	520.12
297.14	534.12
297.37	542.12
297.601	518.12
297.831	527.12
298.062	533.12
298.292	543.12
298.523	524.12
298.753	539.12
298.984	529.12
299.214	537.12
299.445	546.12
299.675	537.12
299.905	522.12
300.136	506.12
300.366	545.12
300.597	545.12
300.827	548.12
301.057	541.12
301.288	571.12
301.518	572.12
301.748	561.12
301.979	574.12
302.209	574.12
302.439	582.12
302.669	554.12
302.9	569.12
303.13	551.12
303.36	563.12
303.59	565.12
303.82	565.12
304.051	580.12
304.281	556.12
304.511	571.12
304.741	572.12
304.971	538.12
305.201	556.12
305.431	541.12
305.661	565.12
305.891	545.12
306.121	561.12
306.352	563.12
306.582	553.12
306.812	557.12
307.042	554.12
307.272	526.12
307.502	545.12
307.731	561.12
307.961	556.12
308.191	546.12
308.421	558.12
308.651	557.12
308.881	539.12
309.111	561.12
309.341	539.12
309.571	541.12
309.8	546.12
310.03	533.12
310.26	529.12
310.49	558.12
310.72	557.12
310.949	545.12
311.179	569.12
311.409	554.12
311.639	557.12
311.868	556.12
312.098	576.12
312.328	567.12
312.557	572.12
312.787	561.12
313.017	594.12
313.246	594.12
313.476	602.12
313.706	600.12
313.935	578.12
314.165	593.12
314.394	599.12
314.624	592.12
314.853	592.12
315.083	602.12
315.312	597.12
315.542	597.12
315.771	576.12
316.001	580.12
316.23	595.12
316.46	580.12
316.689	571.12
316.919	583.12
317.148	575.12
317.377	595.12
317.607	569.12
317.836	557.12
318.065	566.12
318.295	576.12
318.524	561.12
318.753	557.12
318.983	593.12
319.212	558.12
319.441	601.12
319.67	579.12
319.9	589.12
320.129	590.12
320.358	577.12
320.587	583.12
320.816	596.12
321.046	595.12
321.275	606.12
321.504	596.12
321.733	568.12
321.962	596.12
322.191	595.12
322.42	589.12
322.649	586.12
322.878	580.12
323.108	592.12
323.337	594.12
323.566	602.12
323.795	579.12
324.024	594.12
324.253	612.12
324.482	607.12
324.71	635.12
324.939	601.12
325.168	616.12
325.397	601.12
325.626	604.12
325.855	623.12
326.084	631.12
326.313	653.12
326.542	655.12
326.77	649.12
326.999	644.12
327.228	619.12
327.457	635.12
327.686	631.12
327.914	636.12
328.143	620.12
328.372	641.12
328.6	648.12
328.829	655.12
329.058	633.12
329.287	638.12
329.515	654.12
329.744	648.12
329.972	666.12
330.201	619.12
330.43	663.12
330.658	653.12
330.887	650.12
331.115	682.12
331.344	676.12
331.572	682.12
331.801	687.12
332.03	715.12
332.258	754.12
332.486	745.12
332.715	775.12
332.943	809.12
333.172	847.12
333.4	876.12
333.629	864.12
333.857	878.12
334.085	873.12
334.314	841.12
334.542	854.12
334.771	821.12
334.999	800.12
335.227	825.12
335.455	811.12
335.684	780.12
335.912	781.12
336.14	767.12
336.369	771.12
336.597	763.12
336.825	781.12
337.053	765.12
337.281	765.12
337.51	754.12
337.738	733.12
337.966	692.12
338.194	699.12
338.422	680.12
338.65	714.12
338.878	700.12
339.106	709.12
339.334	706.12
339.562	717.12
339.79	668.12
340.018	675.12
340.246	678.12
340.474	662.12
340.702	687.12
340.93	674.12
341.158	695.12
341.386	684.12
341.614	677.12
341.842	677.12
342.07	658.12
342.298	656.12
342.526	680.12
342.754	658.12
342.981	671.12
343.209	707.12
343.437	740.12
343.665	778.12
343.893	819.12
344.12	839.12
344.348	806.12
344.576	749.12
344.804	737.12
345.031	719.12
345.259	699.12
345.487	681.12
345.714	656.12
345.942	671.12
346.17	661.12
346.397	655.12
346.625	676.12
346.853	665.12
347.08	660.12
347.308	670.12
347.535	668.12
347.763	655.12
347.99	666.12
348.218	672.12
348.445	650.12
348.673	665.12
348.9	658.12
349.128	666.12
349.355	654.12
349.583	667.12
349.81	641.12
350.037	638.12
350.265	652.12
350.492	670.12
350.72	634.12
350.947	645.12
351.174	646.12
351.402	636.12
351.629	629.12
351.856	628.12
352.083	598.12
352.311	636.12
352.538	617.12
352.765	639.12
352.992	623.12
353.22	624.12
353.447	613.12
353.674	645.12
353.901	646.12
354.128	638.12
354.355	630.12
354.583	636.12
354.81	625.12
355.037	636.12
355.264	647.12
355.491	642.12
355.718	639.12
355.945	648.12
356.172	640.12
356.399	651.12
356.626	644.12
356.853	625.12
357.08	636.12
357.307	636.12
357.534	645.12
357.761	619.12
357.988	623.12
358.215	610.12
358.441	634.12
358.668	635.12
358.895	641.12
359.122	605.12
359.349	633.12
359.576	613.12
359.802	646.12
360.029	646.12
360.256	633.12
360.483	633.12
360.709	644.12
360.936	638.12
361.163	643.12
361.39	648.12
361.616	641.12
361.843	631.12
362.07	615.12
362.296	632.12
362.523	616.12
362.749	626.12
362.976	638.12
363.203	617.12
363.429	609.12
363.656	642.12
363.882	638.12
364.109	613.12
364.335	635.12
364.562	620.12
364.788	619.12
365.015	627.12
365.241	627.12
365.468	647.12
365.694	610.12
365.92	625.12
366.147	608.12
366.373	628.12
366.599	602.12
366.826	635.12
367.052	634.12
367.278	657.12
367.505	634.12
367.731	641.12
367.957	661.12
368.184	650.12
368.41	638.12
368.636	648.12
368.862	613.12
369.089	649.12
369.315	655.12
369.541	664.12
369.767	653.12
369.993	649.12
370.219	672.12
370.445	671.12
370.672	684.12
370.898	665.12
371.124	677.12
371.35	698.12
371.576	683.12
371.802	678.12
372.028	690.12
372.254	698.12
372.48	699.12
372.706	696.12
372.932	686.12
373.158	722.12
373.384	694.12
373.61	683.12
373.835	705.12
374.061	707.12
374.287	708.12
374.513	707.12
374.739	757.12
374.965	765.12
375.191	754.12
375.416	737.12
375.642	726.12
375.868	728.12
376.094	702.12
376.319	714.12
376.545	699.12
376.771	690.12
376.997	689.12
377.222	673.12
377.448	681.12
377.674	703.12
377.899	695.12
378.125	670.12
378.35	693.12
378.576	681.12
378.802	666.12
379.027	684.12
379.253	661.12
379.478	668.12
379.704	679.12
379.929	675.12
380.155	713.12
380.38	671.12
380.606	692.12
380.831	694.12
381.057	686.12
381.282	693.12
381.507	684.12
381.733	669.12
381.958	722.12
382.184	711.12
382.409	693.12
382.634	706.12
382.86	703.12
383.085	717.12
383.31	750.12
383.535	753.12
383.761	786.12
383.986	762.12
384.211	813.12
384.436	825.12
384.662	820.12
384.887	821.12
385.112	837.12
385.337	824.12
385.562	825.12
385.787	815.12
386.013	825.12
386.238	835.12
386.463	825.12
386.688	858.12
386.913	818.12
387.138	810.12
387.363	801.12
387.588	802.12
387.813	842.12
388.038	809.12
388.263	816.12
388.488	814.12
388.713	810.12
388.938	807.12
389.163	808.12
389.387	805.12
389.612	784.12
389.837	811.12
390.062	802.12
390.287	811.12
390.512	778.12
390.736	799.12
390.961	799.12
391.186	866.12
391.411	855.12
391.636	893.12
391.86	917.12
392.085	897.12
392.31	909.12
392.534	925.12
392.759	883.12
392.984	863.12
393.208	876.12
393.433	862.12
393.658	877.12
393.882	871.12
394.107	870.12
394.331	864.12
394.556	843.12
394.78	879.12
395.005	911.12
395.229	871.12
395.454	907.12
395.678	932.12
395.903	926.12
396.127	912.12
396.352	894.12
396.576	866.12
396.801	845.12
397.025	871.12
397.249	883.12
397.474	897.12
397.698	913.12
397.922	926.12
398.147	922.12
398.371	917.12
398.595	943.12
398.82	1010.12
399.044	1081.12
399.268	1188.12
399.492	1417.12
399.717	1587.12
399.941	1569.12
400.165	1335.12
400.389	1217.12
400.613	1116.12
400.837	1089.12
401.062	1063.12
401.286	1021.12
401.51	1013.12
401.734	996.12
401.958	1041.12
402.182	1066.12
402.406	1068.12
402.63	1078.12
402.854	1092.12
403.078	1112.12
403.302	1124.12
403.526	1174.12
403.75	1191.12
403.974	1221.12
404.198	1225.12
404.422	1207.12
404.645	1213.12
404.869	1167.12
405.093	1144.12
405.317	1135.12
405.541	1134.12
405.765	1142.12
405.988	1101.12
406.212	1121.12
406.436	1139.12
406.66	1181.12
406.883	1175.12
407.107	1247.12
407.331	1281.12
407.555	1329.12
407.778	1320.12
408.002	1290.12
408.226	1235.12
408.449	1204.12
408.673	1177.12
408.896	1153.12
409.12	1140.12
409.344	1153.12
409.567	1162.12
409.791	1158.12
410.014	1163.12
410.238	1154.12
410.461	1133.12
410.685	1127.12
410.908	1126.12
411.132	1090.12
411.355	1060.12
411.578	1075.12
411.802	1037.12
412.025	1090.12
412.249	1103.12
412.472	1077.12
412.695	1039.12
412.919	1013.12
413.142	1036.12
413.365	1012.12
413.589	1035.12
413.812	1002.12
414.035	996.12
414.258	1031.12
414.482	1012.12
414.705	1045.12
414.928	1025.12
415.151	1016.12
415.374	987.12
415.597	1027.12
415.821	981.12
416.044	987.12
416.267	984.12
416.49	999.12
416.713	1030.12
416.936	1014.12
417.159	1029.12
417.382	1013.12
417.605	988.12
417.828	997.12
418.051	1023.12
418.274	1021.12
418.497	1018.12
418.72	1062.12
418.943	1043.12
419.166	1068.12
419.389	1183.12
419.611	1115.12
419.834	1070.12
420.057	1076.12
420.28	1057.12
420.503	999.12
420.726	1036.12
420.948	1000.12
421.171	992.12
421.394	993.12
421.617	1003.12
421.839	1019.12
422.062	1027.12
422.285	1051.12
422.507	1046.12
422.73	1052.12
422.953	1059.12
423.175	1060.12
423.398	1086.12
423.621	1093.12
423.843	1118.12
424.066	1086.12
424.288	1100.12
424.511	1076.12
424.733	1098.12
424.956	1036.12
425.178	1047.12
425.401	1028.12
425.623	1010.12
425.846	986.12
426.068	973.12
426.291	984.12
426.513	948.12
426.735	917.12
426.958	948.12
427.18	917.12
427.402	931.12
427.625	940.12
427.847	912.12
428.069	891.12
428.292	908.12
428.514	881.12
428.736	905.12
428.958	916.12
429.181	898.12
429.403	901.12
429.625	893.12
429.847	866.12
430.069	871.12
430.292	904.12
430.514	879.12
430.736	912.12
430.958	878.12
431.18	881.12
431.402	875.12
431.624	886.12
431.846	899.12
432.068	901.12
432.29	940.12
432.512	884.12
432.734	889.12
432.956	896.12
433.178	902.12
433.4	923.12
433.622	903.12
433.844	908.12
434.066	903.12
434.287	939.12
434.509	962.12
434.731	998.12
434.953	1012.12
435.175	1033.12
435.397	1007.12
435.618	955.12
435.84	947.12
436.062	938.12
436.284	907.12
436.505	915.12
436.727	921.12
436.949	957.12
437.17	909.12
437.392	899.12
437.614	889.12
437.835	841.12
438.057	851.12
438.278	845.12
438.5	841.12
438.721	864.12
438.943	865.12
439.165	888.12
439.386	878.12
439.608	910.12
439.829	907.12
440.05	897.12
440.272	905.12
440.493	899.12
440.715	916.12
440.936	947.12
441.158	947.12
441.379	977.12
441.6	1051.12
441.822	1021.12
442.043	1015.12
442.264	979.12
442.486	994.12
442.707	994.12
442.928	1025.12
443.149	998.12
443.371	1000.12
443.592	1017.12
443.813	1029.12
444.034	1046.12
444.255	1095.12
444.476	1121.12
444.698	1214.12
444.919	1246.12
445.14	1310.12
445.361	1148.12
445.582	1057.12
445.803	997.12
446.024	946.12
446.245	956.12
446.466	932.12
446.687	913.12
446.908	925.12
447.129	894.12
447.35	884.12
447.571	840.12
447.792	889.12
448.013	839.12
448.234	864.12
448.455	830.12
448.675	840.12
448.896	825.12
449.117	833.12
449.338	823.12
449.559	821.12
449.779	823.12
450	809.12
450.221	821.12
450.442	841.12
450.662	839.12
450.883	833.12
451.104	872.12
451.324	855.12
451.545	866.12
451.766	851.12
451.986	857.12
452.207	836.12
452.428	833.12
452.648	823.12
452.869	817.12
453.089	824.12
453.31	810.12
453.53	782.12
453.751	788.12
453.971	791.12
454.192	827.12
454.412	810.12
454.633	803.12
454.853	789.12
455.073	790.12
455.294	777.12
455.514	793.12
455.734	786.12
455.955	742.12
456.175	746.12
456.395	794.12
456.616	765.12
456.836	754.12
457.056	778.12
457.276	778.12
457.497	772.12
457.717	779.12
457.937	787.12
458.157	789.12
458.377	789.12
458.598	797.12
458.818	818.12
459.038	837.12
459.258	874.12
459.478	892.12
459.698	934.12
459.918	950.12
460.138	1029.12
460.358	1035.12
460.578	1048.12
460.798	1097.12
461.018	1104.12
461.238	1046.12
461.458	1047.12
461.678	1059.12
461.898	1069.12
462.118	1067.12
462.338	1132.12
462.558	1147.12
462.777	1199.12
462.997	1297.12
463.217	1469.12
463.437	1447.12
463.657	1308.12
463.876	1241.12
464.096	1239.12
464.316	1261.12
464.536	1261.12
464.755	1211.12
464.975	1180.12
465.195	1130.12
465.414	1040.12
465.634	986.12
465.854	941.12
466.073	917.12
466.293	914.12
466.512	869.12
466.732	874.12
466.951	864.12
467.171	855.12
467.391	863.12
467.61	857.12
467.829	874.12
468.049	812.12
468.268	838.12
468.488	838.12
468.707	819.12
468.927	843.12
469.146	836.12
469.365	830.12
469.585	837.12
469.804	843.12
470.023	894.12
470.243	881.12
470.462	905.12
470.681	882.12
470.901	869.12
471.12	860.12
471.339	859.12
471.558	837.12
471.777	830.12
471.997	867.12
472.216	830.12
472.435	825.12
472.654	803.12
472.873	769.12
473.092	798.12
473.311	809.12
473.53	802.12
473.749	829.12
473.968	809.12
474.187	810.12
474.406	802.12
474.625	812.12
474.844	797.12
475.063	823.12
475.282	804.12
475.501	831.12
475.72	835.12
475.939	818.12
476.158	848.12
476.377	846.12
476.596	817.12
476.814	835.12
477.033	858.12
477.252	833.12
477.471	889.12
477.69	911.12
477.908	920.12
478.127	978.12
478.346	953.12
478.564	988.12
478.783	983.12
479.002	1018.12
479.22	1035.12
479.439	998.12
479.658	1023.12
479.876	1021.12
480.095	1019.12
480.313	1053.12
480.532	1095.12
480.751	1088.12
480.969	1033.12
481.188	1036.12
481.406	978.12
481.624	939.12
481.843	905.12
482.061	931.12
482.28	929.12
482.498	924.12
482.717	891.12
482.935	902.12
483.153	921.12
483.372	905.12
483.59	928.12
483.808	931.12
484.027	916.12
484.245	945.12
484.463	918.12
484.681	938.12
484.9	954.12
485.118	941.12
485.336	965.12
485.554	972.12
485.772	973.12
485.99	981.12
486.209	982.12
486.427	961.12
486.645	967.12
486.863	999.12
487.081	962.12
487.299	965.12
487.517	987.12
487.735	956.12
487.953	938.12
488.171	984.12
488.389	964.12
488.607	951.12
488.825	965.12
489.043	958.12
489.261	957.12
489.479	963.12
489.696	971.12
489.914	967.12
490.132	965.12
490.35	962.12
490.568	940.12
490.786	964.12
491.003	974.12
491.221	968.12
491.439	954.12
491.657	957.12
491.874	946.12
492.092	971.12
492.31	988.12
492.527	986.12
492.745	1006.12
492.963	1010.12
493.18	983.12
493.398	993.12
493.615	1019.12
493.833	996.12
494.05	1037.12
494.268	1033.12
494.485	1025.12
494.703	1023.12
494.92	1034.12
495.138	1008.12
495.355	1015.12
495.573	1015.12
495.79	1021.12
496.008	1037.12
496.225	1011.12
496.442	1024.12
496.66	1034.12
496.877	1107.12
497.094	1105.12
497.312	1115.12
497.529	1128.12
497.746	1170.12
497.963	1171.12
498.181	1209.12
498.398	1306.12
498.615	1364.12
498.832	1440.12
499.049	1545.12
