Data from Ni(NO3)2@0.0625M.TitratingCurve.Agarose3%dH2O.NegLispCup.LampEnergy10.LIBS07252019_HRD10591_18-16-06-569.txt Node
Date: Thu Jul 25 18:16:06 EDT 2019
User: cochatt
Spectrometer: HR+D1059
Trigger mode: 1
Integration Time (sec): 1.000000E-1
Scans to average: 1
Electric dark correction enabled: true
Nonlinearity correction enabled: false
Boxcar width: 0
XAxis mode: Wavelengths
Number of Pixels in Spectrum: 2048
>>>>>Begin Spectral Data<<<<<
223.165	-14.56
223.4	-14.56
223.635	-14.56
223.869	-20.56
224.104	-27.56
224.338	-20.56
224.573	-24.56
224.808	-4.56
225.042	-10.56
225.277	4.44
225.511	-3.56
225.746	20.44
225.98	11.44
226.215	7.44
226.449	14.44
226.683	27.44
226.918	21.44
227.152	19.44
227.387	26.44
227.621	35.44
227.856	40.44
228.09	43.44
228.324	54.44
228.559	58.44
228.793	55.44
229.027	110.44
229.262	92.44
229.496	105.44
229.73	100.44
229.964	122.44
230.199	123.44
230.433	123.44
230.667	110.44
230.901	116.44
231.136	94.44
231.37	114.44
231.604	129.44
231.838	118.44
232.072	98.44
232.306	116.44
232.541	146.44
232.775	128.44
233.009	126.44
233.243	148.44
233.477	141.44
233.711	142.44
233.945	122.44
234.179	133.44
234.413	130.44
234.647	144.44
234.881	130.44
235.115	144.44
235.349	128.44
235.583	134.44
235.817	129.44
236.051	122.44
236.285	132.44
236.519	127.44
236.753	130.44
236.987	134.44
237.221	135.44
237.455	145.44
237.689	132.44
237.922	134.44
238.156	129.44
238.39	153.44
238.624	152.44
238.858	140.44
239.091	151.44
239.325	144.44
239.559	150.44
239.793	158.44
240.027	168.44
240.26	141.44
240.494	154.44
240.728	152.44
240.961	162.44
241.195	166.44
241.429	154.44
241.662	162.44
241.896	144.44
242.13	163.44
242.363	172.44
242.597	158.44
242.83	152.44
243.064	182.44
243.298	165.44
243.531	170.44
243.765	186.44
243.998	172.44
244.232	188.44
244.465	158.44
244.699	158.44
244.932	165.44
245.166	189.44
245.399	173.44
245.633	184.44
245.866	180.44
246.099	179.44
246.333	170.44
246.566	174.44
246.8	186.44
247.033	187.44
247.266	188.44
247.5	188.44
247.733	188.44
247.966	198.44
248.2	198.44
248.433	193.44
248.666	190.44
248.899	191.44
249.133	196.44
249.366	205.44
249.599	212.44
249.832	203.44
250.066	216.44
250.299	196.44
250.532	199.44
250.765	209.44
250.998	210.44
251.231	214.44
251.465	213.44
251.698	209.44
251.931	222.44
252.164	214.44
252.397	204.44
252.63	226.44
252.863	220.44
253.096	219.44
253.329	233.44
253.562	215.44
253.795	217.44
254.028	216.44
254.261	230.44
254.494	232.44
254.727	229.44
254.96	203.44
255.193	236.44
255.426	243.44
255.659	242.44
255.892	241.44
256.124	235.44
256.357	216.44
256.59	222.44
256.823	231.44
257.056	233.44
257.289	232.44
257.521	240.44
257.754	224.44
257.987	243.44
258.22	239.44
258.452	233.44
258.685	235.44
258.918	233.44
259.151	254.44
259.383	257.44
259.616	259.44
259.849	247.44
260.081	260.44
260.314	247.44
260.547	250.44
260.779	242.44
261.012	254.44
261.244	255.44
261.477	259.44
261.71	275.44
261.942	255.44
262.175	258.44
262.407	288.44
262.64	249.44
262.872	246.44
263.105	272.44
263.337	258.44
263.57	272.44
263.802	263.44
264.035	267.44
264.267	275.44
264.499	287.44
264.732	285.44
264.964	285.44
265.197	265.44
265.429	279.44
265.661	286.44
265.894	280.44
266.126	266.44
266.358	284.44
266.591	290.44
266.823	295.44
267.055	296.44
267.287	298.44
267.52	273.44
267.752	294.44
267.984	297.44
268.216	286.44
268.448	312.44
268.681	300.44
268.913	297.44
269.145	284.44
269.377	273.44
269.609	283.44
269.841	307.44
270.073	312.44
270.306	296.44
270.538	284.44
270.77	299.44
271.002	298.44
271.234	297.44
271.466	313.44
271.698	290.44
271.93	308.44
272.162	303.44
272.394	318.44
272.626	307.44
272.858	299.44
273.09	322.44
273.322	315.44
273.553	302.44
273.785	315.44
274.017	298.44
274.249	324.44
274.481	335.44
274.713	314.44
274.945	317.44
275.176	311.44
275.408	338.44
275.64	331.44
275.872	327.44
276.104	326.44
276.335	332.44
276.567	317.44
276.799	327.44
277.031	342.44
277.262	342.44
277.494	347.44
277.726	338.44
277.957	346.44
278.189	342.44
278.421	331.44
278.652	340.44
278.884	338.44
279.115	332.44
279.347	338.44
279.579	342.44
279.81	356.44
280.042	355.44
280.273	337.44
280.505	360.44
280.736	349.44
280.968	361.44
281.199	355.44
281.431	361.44
281.662	355.44
281.894	371.44
282.125	385.44
282.356	371.44
282.588	383.44
282.819	381.44
283.051	375.44
283.282	342.44
283.513	372.44
283.745	383.44
283.976	388.44
284.207	358.44
284.439	382.44
284.67	402.44
284.901	400.44
285.132	374.44
285.364	385.44
285.595	397.44
285.826	393.44
286.057	375.44
286.288	379.44
286.52	370.44
286.751	411.44
286.982	390.44
287.213	376.44
287.444	376.44
287.675	397.44
287.906	398.44
288.138	399.44
288.369	403.44
288.6	408.44
288.831	409.44
289.062	411.44
289.293	395.44
289.524	404.44
289.755	402.44
289.986	419.44
290.217	408.44
290.448	388.44
290.679	420.44
290.91	411.44
291.141	390.44
291.371	413.44
291.602	418.44
291.833	422.44
292.064	414.44
292.295	419.44
292.526	409.44
292.757	382.44
292.987	419.44
293.218	416.44
293.449	425.44
293.68	418.44
293.91	441.44
294.141	434.44
294.372	413.44
294.603	448.44
294.833	438.44
295.064	431.44
295.295	421.44
295.525	438.44
295.756	417.44
295.987	440.44
296.217	435.44
296.448	447.44
296.679	449.44
296.909	430.44
297.14	457.44
297.37	452.44
297.601	456.44
297.831	448.44
298.062	461.44
298.292	453.44
298.523	483.44
298.753	497.44
298.984	488.44
299.214	471.44
299.445	463.44
299.675	449.44
299.905	424.44
300.136	449.44
300.366	471.44
300.597	460.44
300.827	469.44
301.057	495.44
301.288	472.44
301.518	494.44
301.748	505.44
301.979	485.44
302.209	496.44
302.439	458.44
302.669	491.44
302.9	433.44
303.13	476.44
303.36	470.44
303.59	474.44
303.82	488.44
304.051	471.44
304.281	472.44
304.511	463.44
304.741	459.44
304.971	468.44
305.201	490.44
305.431	481.44
305.661	471.44
305.891	456.44
306.121	457.44
306.352	471.44
306.582	460.44
306.812	453.44
307.042	468.44
307.272	452.44
307.502	467.44
307.731	456.44
307.961	446.44
308.191	462.44
308.421	470.44
308.651	449.44
308.881	462.44
309.111	448.44
309.341	449.44
309.571	478.44
309.8	458.44
310.03	442.44
310.26	479.44
310.49	472.44
310.72	450.44
310.949	451.44
311.179	451.44
311.409	467.44
311.639	466.44
311.868	470.44
312.098	453.44
312.328	468.44
312.557	473.44
312.787	491.44
313.017	499.44
313.246	472.44
313.476	496.44
313.706	488.44
313.935	500.44
314.165	486.44
314.394	508.44
314.624	491.44
314.853	485.44
315.083	483.44
315.312	469.44
315.542	500.44
315.771	488.44
316.001	471.44
316.23	476.44
316.46	488.44
316.689	466.44
316.919	476.44
317.148	477.44
317.377	471.44
317.607	480.44
317.836	463.44
318.065	481.44
318.295	489.44
318.524	476.44
318.753	470.44
318.983	479.44
319.212	452.44
319.441	460.44
319.67	479.44
319.9	456.44
320.129	489.44
320.358	488.44
320.587	462.44
320.816	497.44
321.046	488.44
321.275	498.44
321.504	491.44
321.733	473.44
321.962	474.44
322.191	496.44
322.42	489.44
322.649	494.44
322.878	462.44
323.108	483.44
323.337	480.44
323.566	500.44
323.795	474.44
324.024	505.44
324.253	494.44
324.482	488.44
324.71	478.44
324.939	501.44
325.168	487.44
325.397	510.44
325.626	499.44
325.855	494.44
326.084	524.44
326.313	530.44
326.542	535.44
326.77	551.44
326.999	524.44
327.228	541.44
327.457	506.44
327.686	512.44
327.914	504.44
328.143	534.44
328.372	500.44
328.6	519.44
328.829	521.44
329.058	519.44
329.287	527.44
329.515	539.44
329.744	531.44
329.972	543.44
330.201	535.44
330.43	549.44
330.658	538.44
330.887	549.44
331.115	554.44
331.344	560.44
331.572	572.44
331.801	555.44
332.03	587.44
332.258	603.44
332.486	614.44
332.715	633.44
332.943	654.44
333.172	686.44
333.4	733.44
333.629	732.44
333.857	724.44
334.085	699.44
334.314	701.44
334.542	680.44
334.771	662.44
334.999	652.44
335.227	642.44
335.455	674.44
335.684	632.44
335.912	674.44
336.14	642.44
336.369	658.44
336.597	624.44
336.825	637.44
337.053	619.44
337.281	615.44
337.51	593.44
337.738	602.44
337.966	595.44
338.194	609.44
338.422	581.44
338.65	592.44
338.878	551.44
339.106	585.44
339.334	576.44
339.562	562.44
339.79	545.44
340.018	559.44
340.246	572.44
340.474	537.44
340.702	562.44
340.93	568.44
341.158	579.44
341.386	565.44
341.614	561.44
341.842	551.44
342.07	563.44
342.298	563.44
342.526	565.44
342.754	531.44
342.981	549.44
343.209	590.44
343.437	596.44
343.665	640.44
343.893	671.44
344.12	705.44
344.348	668.44
344.576	627.44
344.804	614.44
345.031	596.44
345.259	563.44
345.487	563.44
345.714	553.44
345.942	532.44
346.17	549.44
346.397	561.44
346.625	555.44
346.853	532.44
347.08	556.44
347.308	567.44
347.535	579.44
347.763	582.44
347.99	564.44
348.218	579.44
348.445	565.44
348.673	538.44
348.9	562.44
349.128	550.44
349.355	527.44
349.583	514.44
349.81	525.44
350.037	534.44
350.265	535.44
350.492	521.44
350.72	500.44
350.947	509.44
351.174	516.44
351.402	533.44
351.629	522.44
351.856	524.44
352.083	516.44
352.311	511.44
352.538	526.44
352.765	518.44
352.992	529.44
353.22	531.44
353.447	530.44
353.674	513.44
353.901	501.44
354.128	514.44
354.355	513.44
354.583	512.44
354.81	520.44
355.037	499.44
355.264	533.44
355.491	520.44
355.718	514.44
355.945	520.44
356.172	549.44
356.399	531.44
356.626	543.44
356.853	532.44
357.08	539.44
357.307	533.44
357.534	510.44
357.761	523.44
357.988	525.44
358.215	520.44
358.441	512.44
358.668	509.44
358.895	524.44
359.122	530.44
359.349	510.44
359.576	515.44
359.802	542.44
360.029	523.44
360.256	518.44
360.483	515.44
360.709	499.44
360.936	551.44
361.163	510.44
361.39	525.44
361.616	502.44
361.843	528.44
362.07	515.44
362.296	532.44
362.523	492.44
362.749	495.44
362.976	514.44
363.203	509.44
363.429	518.44
363.656	528.44
363.882	518.44
364.109	524.44
364.335	532.44
364.562	518.44
364.788	496.44
365.015	542.44
365.241	519.44
365.468	513.44
365.694	530.44
365.92	532.44
366.147	518.44
366.373	515.44
366.599	541.44
366.826	516.44
367.052	539.44
367.278	508.44
367.505	511.44
367.731	518.44
367.957	523.44
368.184	516.44
368.41	518.44
368.636	523.44
368.862	523.44
369.089	528.44
369.315	512.44
369.541	542.44
369.767	541.44
369.993	544.44
370.219	545.44
370.445	560.44
370.672	566.44
370.898	563.44
371.124	556.44
371.35	564.44
371.576	555.44
371.802	562.44
372.028	568.44
372.254	552.44
372.48	569.44
372.706	576.44
372.932	576.44
373.158	568.44
373.384	575.44
373.61	547.44
373.835	566.44
374.061	571.44
374.287	571.44
374.513	578.44
374.739	612.44
374.965	614.44
375.191	638.44
375.416	636.44
375.642	630.44
375.868	633.44
376.094	588.44
376.319	561.44
376.545	586.44
376.771	585.44
376.997	567.44
377.222	579.44
377.448	571.44
377.674	561.44
377.899	551.44
378.125	570.44
378.35	555.44
378.576	551.44
378.802	580.44
379.027	577.44
379.253	568.44
379.478	563.44
379.704	562.44
379.929	562.44
380.155	566.44
380.38	533.44
380.606	560.44
380.831	567.44
381.057	558.44
381.282	554.44
381.507	562.44
381.733	580.44
381.958	578.44
382.184	599.44
382.409	593.44
382.634	586.44
382.86	600.44
383.085	606.44
383.31	579.44
383.535	633.44
383.761	655.44
383.986	668.44
384.211	683.44
384.436	693.44
384.662	694.44
384.887	682.44
385.112	690.44
385.337	723.44
385.562	716.44
385.787	693.44
386.013	694.44
386.238	683.44
386.463	690.44
386.688	693.44
386.913	673.44
387.138	683.44
387.363	670.44
387.588	681.44
387.813	688.44
388.038	650.44
388.263	683.44
388.488	695.44
388.713	664.44
388.938	666.44
389.163	648.44
389.387	652.44
389.612	640.44
389.837	660.44
390.062	656.44
390.287	657.44
390.512	661.44
390.736	683.44
390.961	690.44
391.186	708.44
391.411	696.44
391.636	740.44
391.86	748.44
392.085	775.44
392.31	800.44
392.534	743.44
392.759	731.44
392.984	729.44
393.208	707.44
393.433	716.44
393.658	731.44
393.882	729.44
394.107	697.44
394.331	728.44
394.556	737.44
394.78	730.44
395.005	734.44
395.229	757.44
395.454	769.44
395.678	766.44
395.903	770.44
396.127	745.44
396.352	739.44
396.576	705.44
396.801	696.44
397.025	707.44
397.249	728.44
397.474	756.44
397.698	755.44
397.922	770.44
398.147	743.44
398.371	780.44
398.595	804.44
398.82	813.44
399.044	886.44
399.268	998.44
399.492	1177.44
399.717	1367.44
399.941	1341.44
400.165	1156.44
400.389	1025.44
400.613	955.44
400.837	892.44
401.062	843.44
401.286	856.44
401.51	858.44
401.734	866.44
401.958	862.44
402.182	869.44
402.406	888.44
402.63	928.44
402.854	904.44
403.078	937.44
403.302	980.44
403.526	1007.44
403.75	990.44
403.974	1051.44
404.198	1015.44
404.422	1015.44
404.645	1006.44
404.869	988.44
405.093	977.44
405.317	976.44
405.541	947.44
405.765	958.44
405.988	918.44
406.212	957.44
406.436	930.44
406.66	961.44
406.883	972.44
407.107	1038.44
407.331	1086.44
407.555	1138.44
407.778	1116.44
408.002	1097.44
408.226	1033.44
408.449	1009.44
408.673	972.44
408.896	983.44
409.12	988.44
409.344	982.44
409.567	988.44
409.791	1031.44
410.014	1008.44
410.238	991.44
410.461	1003.44
410.685	967.44
410.908	964.44
411.132	915.44
411.355	898.44
411.578	900.44
411.802	881.44
412.025	872.44
412.249	904.44
412.472	879.44
412.695	868.44
412.919	850.44
413.142	856.44
413.365	836.44
413.589	873.44
413.812	851.44
414.035	844.44
414.258	826.44
414.482	861.44
414.705	877.44
414.928	873.44
415.151	868.44
415.374	881.44
415.597	879.44
415.821	849.44
416.044	836.44
416.267	842.44
416.49	833.44
416.713	838.44
416.936	837.44
417.159	859.44
417.382	843.44
417.605	843.44
417.828	864.44
418.051	858.44
418.274	852.44
418.497	849.44
418.72	870.44
418.943	863.44
419.166	954.44
419.389	962.44
419.611	955.44
419.834	942.44
420.057	879.44
420.28	866.44
420.503	844.44
420.726	824.44
420.948	849.44
421.171	857.44
421.394	849.44
421.617	855.44
421.839	846.44
422.062	848.44
422.285	856.44
422.507	872.44
422.73	896.44
422.953	874.44
423.175	914.44
423.398	928.44
423.621	924.44
423.843	943.44
424.066	946.44
424.288	937.44
424.511	928.44
424.733	904.44
424.956	858.44
425.178	886.44
425.401	856.44
425.623	860.44
425.846	826.44
426.068	808.44
426.291	795.44
426.513	816.44
426.735	785.44
426.958	801.44
427.18	785.44
427.402	793.44
427.625	789.44
427.847	746.44
428.069	755.44
428.292	766.44
428.514	741.44
428.736	751.44
428.958	762.44
429.181	744.44
429.403	751.44
429.625	753.44
429.847	732.44
430.069	730.44
430.292	738.44
430.514	748.44
430.736	713.44
430.958	740.44
431.18	757.44
431.402	762.44
431.624	769.44
431.846	776.44
432.068	776.44
432.29	777.44
432.512	747.44
432.734	749.44
432.956	743.44
433.178	766.44
433.4	770.44
433.622	768.44
433.844	774.44
434.066	776.44
434.287	791.44
434.509	806.44
434.731	828.44
434.953	884.44
435.175	875.44
435.397	889.44
435.618	810.44
435.84	800.44
436.062	776.44
436.284	736.44
436.505	759.44
436.727	744.44
436.949	742.44
437.17	761.44
437.392	754.44
437.614	727.44
437.835	702.44
438.057	737.44
438.278	716.44
438.5	721.44
438.721	715.44
438.943	744.44
439.165	718.44
439.386	748.44
439.608	771.44
439.829	776.44
440.05	743.44
440.272	788.44
440.493	754.44
440.715	785.44
440.936	782.44
441.158	794.44
441.379	818.44
441.6	888.44
441.822	849.44
442.043	863.44
442.264	863.44
442.486	829.44
442.707	869.44
442.928	838.44
443.149	860.44
443.371	835.44
443.592	873.44
443.813	874.44
444.034	907.44
444.255	922.44
444.476	926.44
444.698	1024.44
444.919	1071.44
445.14	1091.44
445.361	962.44
445.582	911.44
445.803	836.44
446.024	809.44
446.245	805.44
446.466	795.44
446.687	761.44
446.908	790.44
447.129	775.44
447.35	736.44
447.571	761.44
447.792	730.44
448.013	708.44
448.234	713.44
448.455	726.44
448.675	699.44
448.896	716.44
449.117	701.44
449.338	709.44
449.559	707.44
449.779	716.44
450	704.44
450.221	702.44
450.442	711.44
450.662	729.44
450.883	732.44
451.104	731.44
451.324	747.44
451.545	738.44
451.766	732.44
451.986	719.44
452.207	713.44
452.428	726.44
452.648	716.44
452.869	710.44
453.089	716.44
453.31	704.44
453.53	688.44
453.751	678.44
453.971	684.44
454.192	691.44
454.412	662.44
454.633	670.44
454.853	670.44
455.073	666.44
455.294	671.44
455.514	674.44
455.734	675.44
455.955	650.44
456.175	662.44
456.395	652.44
456.616	638.44
456.836	656.44
457.056	671.44
457.276	638.44
457.497	682.44
457.717	633.44
457.937	660.44
458.157	675.44
458.377	661.44
458.598	665.44
458.818	705.44
459.038	738.44
459.258	769.44
459.478	794.44
459.698	793.44
459.918	843.44
460.138	856.44
460.358	916.44
460.578	931.44
460.798	949.44
461.018	968.44
461.238	915.44
461.458	914.44
461.678	918.44
461.898	939.44
462.118	917.44
462.338	958.44
462.558	999.44
462.777	1007.44
462.997	1142.44
463.217	1288.44
463.437	1290.44
463.657	1176.44
463.876	1096.44
464.096	1086.44
464.316	1109.44
464.536	1111.44
464.755	1088.44
464.975	1028.44
465.195	952.44
465.414	880.44
465.634	857.44
465.854	819.44
466.073	774.44
466.293	804.44
466.512	761.44
466.732	789.44
466.951	755.44
467.171	754.44
467.391	740.44
467.61	762.44
467.829	739.44
468.049	722.44
468.268	736.44
468.488	686.44
468.707	700.44
468.927	727.44
469.146	660.44
469.365	722.44
469.585	742.44
469.804	739.44
470.023	744.44
470.243	780.44
470.462	770.44
470.681	774.44
470.901	805.44
471.12	755.44
471.339	744.44
471.558	753.44
471.777	715.44
471.997	737.44
472.216	712.44
472.435	682.44
472.654	658.44
472.873	689.44
473.092	687.44
473.311	689.44
473.53	683.44
473.749	680.44
473.968	691.44
474.187	683.44
474.406	682.44
474.625	678.44
474.844	706.44
475.063	699.44
475.282	704.44
475.501	691.44
475.72	704.44
475.939	697.44
476.158	695.44
476.377	733.44
476.596	698.44
476.814	730.44
477.033	715.44
477.252	726.44
477.471	753.44
477.69	770.44
477.908	783.44
478.127	822.44
478.346	820.44
478.564	850.44
478.783	849.44
479.002	852.44
479.22	886.44
479.439	844.44
479.658	860.44
479.876	857.44
480.095	863.44
480.313	901.44
480.532	955.44
480.751	937.44
480.969	883.44
481.188	848.44
481.406	830.44
481.624	826.44
481.843	804.44
482.061	794.44
482.28	781.44
482.498	786.44
482.717	770.44
482.935	782.44
483.153	755.44
483.372	795.44
483.59	804.44
483.808	785.44
484.027	785.44
484.245	802.44
484.463	792.44
484.681	826.44
484.9	836.44
485.118	848.44
485.336	841.44
485.554	828.44
485.772	838.44
485.99	856.44
486.209	842.44
486.427	823.44
486.645	833.44
486.863	847.44
487.081	816.44
487.299	854.44
487.517	844.44
487.735	830.44
487.953	835.44
488.171	795.44
488.389	816.44
488.607	814.44
488.825	823.44
489.043	836.44
489.261	827.44
489.479	819.44
489.696	821.44
489.914	823.44
490.132	826.44
490.35	833.44
490.568	828.44
490.786	815.44
491.003	821.44
491.221	831.44
491.439	827.44
491.657	809.44
491.874	815.44
492.092	834.44
492.31	826.44
492.527	818.44
492.745	848.44
492.963	840.44
493.18	843.44
493.398	847.44
493.615	834.44
493.833	826.44
494.05	859.44
494.268	881.44
494.485	873.44
494.703	886.44
494.92	875.44
495.138	877.44
495.355	862.44
495.573	868.44
495.79	862.44
496.008	884.44
496.225	857.44
496.442	878.44
496.66	896.44
496.877	897.44
497.094	920.44
497.312	950.44
497.529	984.44
497.746	969.44
497.963	1001.44
498.181	1043.44
498.398	1080.44
498.615	1150.44
498.832	1223.44
499.049	1326.44
499.267	1477.44
499.484	1611.44
499.701	1751.44
499.918	1974.44
500.135	2300.44
500.352	2721.44
500.569	2851.44
500.786	2843.44
501.003	2592.44
