Data from Ni(NO3)2@0.5M.TitratingCurve.Agarose3%dH2O.NegLispCup.LampEnergy10.LIBS07252019_HRD10591_17-59-08-564.txt Node
Date: Thu Jul 25 17:59:08 EDT 2019
User: cochatt
Spectrometer: HR+D1059
Trigger mode: 1
Integration Time (sec): 1.000000E-1
Scans to average: 1
Electric dark correction enabled: true
Nonlinearity correction enabled: false
Boxcar width: 0
XAxis mode: Wavelengths
Number of Pixels in Spectrum: 2048
>>>>>Begin Spectral Data<<<<<
223.165	-19.44
223.4	-19.44
223.635	-19.44
223.869	-22.44
224.104	-11.44
224.338	-16.44
224.573	-4.44
224.808	-17.44
225.042	-9.44
225.277	-15.44
225.511	-2.44
225.746	10.56
225.98	7.56
226.215	5.56
226.449	13.56
226.683	12.56
226.918	32.56
227.152	36.56
227.387	25.56
227.621	45.56
227.856	38.56
228.09	36.56
228.324	45.56
228.559	52.56
228.793	79.56
229.027	98.56
229.262	133.56
229.496	131.56
229.73	138.56
229.964	139.56
230.199	178.56
230.433	191.56
230.667	158.56
230.901	160.56
231.136	156.56
231.37	142.56
231.604	151.56
231.838	173.56
232.072	182.56
232.306	163.56
232.541	158.56
232.775	138.56
233.009	132.56
233.243	159.56
233.477	166.56
233.711	149.56
233.945	182.56
234.179	154.56
234.413	142.56
234.647	156.56
234.881	161.56
235.115	157.56
235.349	149.56
235.583	155.56
235.817	157.56
236.051	138.56
236.285	138.56
236.519	156.56
236.753	128.56
236.987	152.56
237.221	163.56
237.455	177.56
237.689	156.56
237.922	164.56
238.156	159.56
238.39	156.56
238.624	152.56
238.858	162.56
239.091	165.56
239.325	164.56
239.559	186.56
239.793	190.56
240.027	204.56
240.26	178.56
240.494	165.56
240.728	158.56
240.961	166.56
241.195	174.56
241.429	183.56
241.662	188.56
241.896	200.56
242.13	204.56
242.363	172.56
242.597	162.56
242.83	191.56
243.064	171.56
243.298	185.56
243.531	197.56
243.765	184.56
243.998	196.56
244.232	186.56
244.465	186.56
244.699	190.56
244.932	186.56
245.166	199.56
245.399	188.56
245.633	179.56
245.866	195.56
246.099	201.56
246.333	192.56
246.566	192.56
246.8	196.56
247.033	184.56
247.266	205.56
247.5	213.56
247.733	210.56
247.966	205.56
248.2	222.56
248.433	220.56
248.666	207.56
248.899	216.56
249.133	202.56
249.366	216.56
249.599	220.56
249.832	226.56
250.066	214.56
250.299	226.56
250.532	215.56
250.765	227.56
250.998	240.56
251.231	253.56
251.465	249.56
251.698	258.56
251.931	237.56
252.164	251.56
252.397	249.56
252.63	242.56
252.863	243.56
253.096	223.56
253.329	242.56
253.562	234.56
253.795	264.56
254.028	260.56
254.261	252.56
254.494	260.56
254.727	264.56
254.96	257.56
255.193	274.56
255.426	248.56
255.659	260.56
255.892	272.56
256.124	269.56
256.357	277.56
256.59	277.56
256.823	271.56
257.056	264.56
257.289	268.56
257.521	275.56
257.754	290.56
257.987	282.56
258.22	283.56
258.452	281.56
258.685	269.56
258.918	288.56
259.151	278.56
259.383	285.56
259.616	289.56
259.849	285.56
260.081	302.56
260.314	298.56
260.547	301.56
260.779	292.56
261.012	306.56
261.244	296.56
261.477	316.56
261.71	296.56
261.942	300.56
262.175	295.56
262.407	301.56
262.64	292.56
262.872	309.56
263.105	292.56
263.337	297.56
263.57	312.56
263.802	324.56
264.035	313.56
264.267	341.56
264.499	331.56
264.732	315.56
264.964	324.56
265.197	317.56
265.429	318.56
265.661	316.56
265.894	346.56
266.126	340.56
266.358	328.56
266.591	325.56
266.823	325.56
267.055	323.56
267.287	343.56
267.52	348.56
267.752	355.56
267.984	337.56
268.216	327.56
268.448	361.56
268.681	354.56
268.913	341.56
269.145	338.56
269.377	352.56
269.609	332.56
269.841	348.56
270.073	347.56
270.306	336.56
270.538	357.56
270.77	345.56
271.002	354.56
271.234	362.56
271.466	363.56
271.698	338.56
271.93	353.56
272.162	370.56
272.394	357.56
272.626	350.56
272.858	361.56
273.09	375.56
273.322	381.56
273.553	384.56
273.785	374.56
274.017	368.56
274.249	373.56
274.481	361.56
274.713	368.56
274.945	368.56
275.176	385.56
275.408	375.56
275.64	404.56
275.872	381.56
276.104	378.56
276.335	386.56
276.567	403.56
276.799	378.56
277.031	398.56
277.262	397.56
277.494	406.56
277.726	382.56
277.957	413.56
278.189	405.56
278.421	382.56
278.652	386.56
278.884	387.56
279.115	404.56
279.347	401.56
279.579	409.56
279.81	402.56
280.042	416.56
280.273	416.56
280.505	417.56
280.736	418.56
280.968	416.56
281.199	419.56
281.431	422.56
281.662	438.56
281.894	397.56
282.125	416.56
282.356	428.56
282.588	431.56
282.819	432.56
283.051	451.56
283.282	429.56
283.513	435.56
283.745	437.56
283.976	439.56
284.207	436.56
284.439	453.56
284.67	443.56
284.901	443.56
285.132	449.56
285.364	444.56
285.595	443.56
285.826	452.56
286.057	449.56
286.288	441.56
286.52	441.56
286.751	457.56
286.982	437.56
287.213	456.56
287.444	457.56
287.675	449.56
287.906	438.56
288.138	449.56
288.369	457.56
288.6	464.56
288.831	452.56
289.062	462.56
289.293	468.56
289.524	482.56
289.755	462.56
289.986	467.56
290.217	458.56
290.448	474.56
290.679	468.56
290.91	470.56
291.141	467.56
291.371	474.56
291.602	448.56
291.833	472.56
292.064	468.56
292.295	441.56
292.526	450.56
292.757	458.56
292.987	454.56
293.218	461.56
293.449	465.56
293.68	481.56
293.91	469.56
294.141	491.56
294.372	470.56
294.603	480.56
294.833	468.56
295.064	498.56
295.295	475.56
295.525	502.56
295.756	469.56
295.987	481.56
296.217	490.56
296.448	497.56
296.679	489.56
296.909	508.56
297.14	492.56
297.37	497.56
297.601	514.56
297.831	486.56
298.062	497.56
298.292	500.56
298.523	526.56
298.753	503.56
298.984	505.56
299.214	521.56
299.445	504.56
299.675	523.56
299.905	533.56
300.136	540.56
300.366	540.56
300.597	558.56
300.827	522.56
301.057	550.56
301.288	541.56
301.518	536.56
301.748	516.56
301.979	519.56
302.209	540.56
302.439	530.56
302.669	531.56
302.9	539.56
303.13	515.56
303.36	516.56
303.59	539.56
303.82	556.56
304.051	553.56
304.281	523.56
304.511	552.56
304.741	533.56
304.971	555.56
305.201	595.56
305.431	574.56
305.661	572.56
305.891	560.56
306.121	562.56
306.352	533.56
306.582	552.56
306.812	531.56
307.042	528.56
307.272	546.56
307.502	531.56
307.731	561.56
307.961	562.56
308.191	539.56
308.421	572.56
308.651	571.56
308.881	564.56
309.111	570.56
309.341	560.56
309.571	567.56
309.8	595.56
310.03	589.56
310.26	601.56
310.49	586.56
310.72	581.56
310.949	573.56
311.179	576.56
311.409	567.56
311.639	576.56
311.868	573.56
312.098	569.56
312.328	585.56
312.557	570.56
312.787	595.56
313.017	593.56
313.246	592.56
313.476	615.56
313.706	599.56
313.935	597.56
314.165	557.56
314.394	590.56
314.624	596.56
314.853	583.56
315.083	576.56
315.312	604.56
315.542	617.56
315.771	589.56
316.001	595.56
316.23	600.56
316.46	598.56
316.689	592.56
316.919	606.56
317.148	609.56
317.377	594.56
317.607	621.56
317.836	602.56
318.065	611.56
318.295	608.56
318.524	607.56
318.753	611.56
318.983	618.56
319.212	602.56
319.441	604.56
319.67	632.56
319.9	600.56
320.129	616.56
320.358	627.56
320.587	617.56
320.816	616.56
321.046	622.56
321.275	630.56
321.504	635.56
321.733	630.56
321.962	649.56
322.191	632.56
322.42	619.56
322.649	634.56
322.878	634.56
323.108	636.56
323.337	658.56
323.566	626.56
323.795	645.56
324.024	633.56
324.253	644.56
324.482	650.56
324.71	663.56
324.939	644.56
325.168	658.56
325.397	629.56
325.626	656.56
325.855	652.56
326.084	665.56
326.313	655.56
326.542	643.56
326.77	694.56
326.999	662.56
327.228	665.56
327.457	688.56
327.686	675.56
327.914	662.56
328.143	665.56
328.372	681.56
328.6	662.56
328.829	668.56
329.058	670.56
329.287	677.56
329.515	680.56
329.744	688.56
329.972	682.56
330.201	708.56
330.43	716.56
330.658	700.56
330.887	703.56
331.115	679.56
331.344	704.56
331.572	718.56
331.801	716.56
332.03	752.56
332.258	724.56
332.486	708.56
332.715	723.56
332.943	733.56
333.172	774.56
333.4	784.56
333.629	787.56
333.857	776.56
334.085	788.56
334.314	800.56
334.542	770.56
334.771	800.56
334.999	801.56
335.227	783.56
335.455	795.56
335.684	817.56
335.912	807.56
336.14	792.56
336.369	786.56
336.597	778.56
336.825	805.56
337.053	800.56
337.281	800.56
337.51	798.56
337.738	783.56
337.966	774.56
338.194	802.56
338.422	784.56
338.65	770.56
338.878	744.56
339.106	784.56
339.334	772.56
339.562	782.56
339.79	749.56
340.018	745.56
340.246	734.56
340.474	756.56
340.702	738.56
340.93	768.56
341.158	756.56
341.386	752.56
341.614	827.56
341.842	788.56
342.07	741.56
342.298	741.56
342.526	749.56
342.754	734.56
342.981	725.56
343.209	757.56
343.437	805.56
343.665	768.56
343.893	787.56
344.12	798.56
344.348	802.56
344.576	820.56
344.804	798.56
345.031	770.56
345.259	759.56
345.487	733.56
345.714	746.56
345.942	791.56
346.17	781.56
346.397	788.56
346.625	742.56
346.853	731.56
347.08	723.56
347.308	741.56
347.535	733.56
347.763	701.56
347.99	725.56
348.218	708.56
348.445	707.56
348.673	716.56
348.9	732.56
349.128	726.56
349.355	752.56
349.583	747.56
349.81	704.56
350.037	681.56
350.265	702.56
350.492	703.56
350.72	699.56
350.947	711.56
351.174	740.56
351.402	750.56
351.629	783.56
351.856	745.56
352.083	715.56
352.311	718.56
352.538	762.56
352.765	759.56
352.992	717.56
353.22	710.56
353.447	674.56
353.674	666.56
353.901	695.56
354.128	672.56
354.355	670.56
354.583	679.56
354.81	669.56
355.037	676.56
355.264	680.56
355.491	691.56
355.718	679.56
355.945	677.56
356.172	696.56
356.399	700.56
356.626	702.56
356.853	714.56
357.08	691.56
357.307	718.56
357.534	714.56
357.761	713.56
357.988	728.56
358.215	688.56
358.441	698.56
358.668	691.56
358.895	689.56
359.122	696.56
359.349	705.56
359.576	702.56
359.802	718.56
360.029	698.56
360.256	712.56
360.483	737.56
360.709	702.56
360.936	706.56
361.163	726.56
361.39	713.56
361.616	731.56
361.843	731.56
362.07	774.56
362.296	758.56
362.523	697.56
362.749	705.56
362.976	695.56
363.203	743.56
363.429	697.56
363.656	713.56
363.882	700.56
364.109	689.56
364.335	699.56
364.562	703.56
364.788	674.56
365.015	684.56
365.241	689.56
365.468	690.56
365.694	705.56
365.92	703.56
366.147	707.56
366.373	680.56
366.599	702.56
366.826	705.56
367.052	716.56
367.278	717.56
367.505	715.56
367.731	718.56
367.957	717.56
368.184	697.56
368.41	715.56
368.636	728.56
368.862	770.56
369.089	715.56
369.315	724.56
369.541	740.56
369.767	735.56
369.993	736.56
370.219	739.56
370.445	739.56
370.672	731.56
370.898	739.56
371.124	777.56
371.35	766.56
371.576	728.56
371.802	750.56
372.028	739.56
372.254	759.56
372.48	754.56
372.706	731.56
372.932	764.56
373.158	762.56
373.384	761.56
373.61	777.56
373.835	736.56
374.061	741.56
374.287	777.56
374.513	774.56
374.739	806.56
374.965	796.56
375.191	803.56
375.416	795.56
375.642	790.56
375.868	780.56
376.094	745.56
376.319	755.56
376.545	744.56
376.771	747.56
376.997	777.56
377.222	759.56
377.448	732.56
377.674	768.56
377.899	716.56
378.125	750.56
378.35	744.56
378.576	749.56
378.802	729.56
379.027	708.56
379.253	737.56
379.478	746.56
379.704	738.56
379.929	761.56
380.155	765.56
380.38	771.56
380.606	752.56
380.831	750.56
381.057	760.56
381.282	742.56
381.507	742.56
381.733	755.56
381.958	736.56
382.184	757.56
382.409	769.56
382.634	781.56
382.86	802.56
383.085	774.56
383.31	785.56
383.535	790.56
383.761	778.56
383.986	806.56
384.211	812.56
384.436	800.56
384.662	807.56
384.887	809.56
385.112	812.56
385.337	834.56
385.562	837.56
385.787	791.56
386.013	856.56
386.238	842.56
386.463	849.56
386.688	847.56
386.913	821.56
387.138	853.56
387.363	865.56
387.588	817.56
387.813	871.56
388.038	842.56
388.263	853.56
388.488	876.56
388.713	854.56
388.938	823.56
389.163	848.56
389.387	851.56
389.612	858.56
389.837	860.56
390.062	851.56
390.287	836.56
390.512	865.56
390.736	857.56
390.961	853.56
391.186	869.56
391.411	899.56
391.636	876.56
391.86	892.56
392.085	906.56
392.31	897.56
392.534	890.56
392.759	879.56
392.984	881.56
393.208	923.56
393.433	894.56
393.658	912.56
393.882	890.56
394.107	884.56
394.331	892.56
394.556	903.56
394.78	875.56
395.005	888.56
395.229	884.56
395.454	897.56
395.678	911.56
395.903	932.56
396.127	921.56
396.352	901.56
396.576	928.56
396.801	895.56
397.025	941.56
397.249	931.56
397.474	947.56
397.698	924.56
397.922	960.56
398.147	967.56
398.371	968.56
398.595	997.56
398.82	1028.56
399.044	1025.56
399.268	1049.56
399.492	1158.56
399.717	1186.56
399.941	1147.56
400.165	1133.56
400.389	1137.56
400.613	1084.56
400.837	1048.56
401.062	1014.56
401.286	1018.56
401.51	1021.56
401.734	993.56
401.958	1019.56
402.182	1010.56
402.406	984.56
402.63	1017.56
402.854	1009.56
403.078	1025.56
403.302	1056.56
403.526	1032.56
403.75	1001.56
403.974	1049.56
404.198	1002.56
404.422	1004.56
404.645	1018.56
404.869	1012.56
405.093	1034.56
405.317	1051.56
405.541	1025.56
405.765	1030.56
405.988	1065.56
406.212	1060.56
406.436	1072.56
406.66	1098.56
406.883	1107.56
407.107	1152.56
407.331	1166.56
407.555	1153.56
407.778	1172.56
408.002	1165.56
408.226	1162.56
408.449	1160.56
408.673	1100.56
408.896	1079.56
409.12	1099.56
409.344	1111.56
409.567	1106.56
409.791	1120.56
410.014	1072.56
410.238	1076.56
410.461	1065.56
410.685	1074.56
410.908	1074.56
411.132	1061.56
411.355	1052.56
411.578	1061.56
411.802	1028.56
412.025	1047.56
412.249	1043.56
412.472	1067.56
412.695	1036.56
412.919	1049.56
413.142	1023.56
413.365	1022.56
413.589	1027.56
413.812	1015.56
414.035	1037.56
414.258	1025.56
414.482	1009.56
414.705	1024.56
414.928	1026.56
415.151	994.56
415.374	1014.56
415.597	1005.56
415.821	965.56
416.044	997.56
416.267	995.56
416.49	993.56
416.713	981.56
416.936	972.56
417.159	964.56
417.382	1009.56
417.605	941.56
417.828	952.56
418.051	1033.56
418.274	954.56
418.497	955.56
418.72	997.56
418.943	964.56
419.166	1041.56
419.389	1089.56
419.611	1073.56
419.834	1027.56
420.057	1011.56
420.28	980.56
420.503	946.56
420.726	981.56
420.948	983.56
421.171	981.56
421.394	977.56
421.617	950.56
421.839	967.56
422.062	949.56
422.285	949.56
422.507	987.56
422.73	956.56
422.953	991.56
423.175	980.56
423.398	967.56
423.621	974.56
423.843	1019.56
424.066	971.56
424.288	940.56
424.511	958.56
424.733	953.56
424.956	944.56
425.178	939.56
425.401	955.56
425.623	994.56
425.846	965.56
426.068	962.56
426.291	938.56
426.513	954.56
426.735	917.56
426.958	920.56
427.18	939.56
427.402	938.56
427.625	954.56
427.847	957.56
428.069	907.56
428.292	951.56
428.514	957.56
428.736	954.56
428.958	941.56
429.181	929.56
429.403	934.56
429.625	934.56
429.847	924.56
430.069	938.56
430.292	932.56
430.514	926.56
430.736	922.56
430.958	925.56
431.18	908.56
431.402	934.56
431.624	947.56
431.846	924.56
432.068	907.56
432.29	969.56
432.512	950.56
432.734	933.56
432.956	918.56
433.178	964.56
433.4	968.56
433.622	1004.56
433.844	984.56
434.066	980.56
434.287	937.56
434.509	956.56
434.731	983.56
434.953	997.56
435.175	1003.56
435.397	1011.56
435.618	992.56
435.84	965.56
436.062	944.56
436.284	959.56
436.505	954.56
436.727	949.56
436.949	918.56
437.17	974.56
437.392	971.56
437.614	934.56
437.835	893.56
438.057	907.56
438.278	907.56
438.5	919.56
438.721	902.56
438.943	931.56
439.165	899.56
439.386	905.56
439.608	908.56
439.829	917.56
440.05	941.56
440.272	922.56
440.493	937.56
440.715	960.56
440.936	956.56
441.158	942.56
441.379	969.56
441.6	1017.56
441.822	999.56
442.043	949.56
442.264	1006.56
442.486	997.56
442.707	979.56
442.928	1003.56
443.149	1009.56
443.371	1001.56
443.592	1032.56
443.813	1053.56
444.034	999.56
444.255	1014.56
444.476	1032.56
444.698	1067.56
444.919	1089.56
445.14	1157.56
445.361	1087.56
445.582	1032.56
445.803	995.56
446.024	954.56
446.245	954.56
446.466	963.56
446.687	931.56
446.908	940.56
447.129	934.56
447.35	932.56
447.571	902.56
447.792	893.56
448.013	858.56
448.234	872.56
448.455	884.56
448.675	908.56
448.896	864.56
449.117	834.56
449.338	862.56
449.559	887.56
449.779	824.56
450	858.56
450.221	869.56
450.442	853.56
450.662	864.56
450.883	902.56
451.104	888.56
451.324	868.56
451.545	867.56
451.766	856.56
451.986	829.56
452.207	842.56
452.428	836.56
452.648	808.56
452.869	849.56
453.089	865.56
453.31	864.56
453.53	840.56
453.751	826.56
453.971	819.56
454.192	849.56
454.412	857.56
454.633	870.56
454.853	829.56
455.073	824.56
455.294	839.56
455.514	821.56
455.734	827.56
455.955	861.56
456.175	888.56
456.395	832.56
456.616	832.56
456.836	836.56
457.056	795.56
457.276	828.56
457.497	846.56
457.717	885.56
457.937	870.56
458.157	832.56
458.377	862.56
458.598	875.56
458.818	861.56
459.038	887.56
459.258	920.56
459.478	974.56
459.698	1056.56
459.918	1052.56
460.138	1046.56
460.358	1038.56
460.578	1011.56
460.798	1026.56
461.018	1060.56
461.238	1013.56
461.458	1018.56
461.678	996.56
461.898	996.56
462.118	1017.56
462.338	1042.56
462.558	1101.56
462.777	1132.56
462.997	1149.56
463.217	1174.56
463.437	1227.56
463.657	1219.56
463.876	1157.56
464.096	1142.56
464.316	1120.56
464.536	1086.56
464.755	1083.56
464.975	1067.56
465.195	1034.56
465.414	1012.56
465.634	974.56
465.854	948.56
466.073	935.56
466.293	922.56
466.512	920.56
466.732	886.56
466.951	926.56
467.171	931.56
467.391	950.56
467.61	908.56
467.829	931.56
468.049	929.56
468.268	885.56
468.488	895.56
468.707	887.56
468.927	897.56
469.146	910.56
469.365	908.56
469.585	886.56
469.804	916.56
470.023	923.56
470.243	904.56
470.462	905.56
470.681	917.56
470.901	906.56
471.12	928.56
471.339	915.56
471.558	889.56
471.777	908.56
471.997	899.56
472.216	924.56
472.435	914.56
472.654	892.56
472.873	897.56
473.092	873.56
473.311	887.56
473.53	910.56
473.749	870.56
473.968	876.56
474.187	882.56
474.406	886.56
474.625	905.56
474.844	894.56
475.063	905.56
475.282	917.56
475.501	931.56
475.72	913.56
475.939	898.56
476.158	929.56
476.377	924.56
476.596	921.56
476.814	920.56
477.033	940.56
477.252	950.56
477.471	968.56
477.69	998.56
477.908	989.56
478.127	988.56
478.346	1024.56
478.564	1044.56
478.783	1043.56
479.002	1062.56
479.22	1109.56
479.439	1067.56
479.658	1059.56
479.876	1046.56
480.095	1064.56
480.313	1057.56
480.532	1068.56
480.751	1068.56
480.969	1035.56
481.188	1040.56
481.406	1067.56
481.624	1063.56
481.843	1044.56
482.061	1048.56
482.28	1020.56
482.498	1027.56
482.717	1011.56
482.935	1044.56
483.153	1067.56
483.372	1089.56
483.59	1114.56
483.808	1056.56
484.027	1059.56
484.245	1072.56
484.463	1040.56
484.681	1069.56
484.9	1064.56
485.118	1047.56
485.336	1078.56
485.554	1071.56
485.772	1082.56
485.99	1052.56
486.209	1078.56
486.427	1058.56
486.645	1066.56
486.863	1082.56
487.081	1082.56
487.299	1092.56
487.517	1101.56
487.735	1092.56
487.953	1078.56
488.171	1120.56
488.389	1114.56
488.607	1091.56
488.825	1081.56
489.043	1073.56
489.261	1065.56
489.479	1066.56
489.696	1037.56
489.914	1063.56
490.132	1069.56
490.35	1083.56
490.568	1082.56
490.786	1070.56
491.003	1097.56
491.221	1112.56
491.439	1088.56
491.657	1093.56
491.874	1118.56
492.092	1121.56
492.31	1133.56
492.527	1109.56
492.745	1124.56
492.963	1110.56
493.18	1099.56
493.398	1125.56
493.615	1111.56
493.833	1111.56
494.05	1113.56
494.268	1113.56
494.485	1144.56
494.703	1113.56
494.92	1148.56
495.138	1121.56
495.355	1140.56
495.573	1129.56
495.79	1152.56
496.008	1169.56
496.225	1150.56
496.442	1188.56
496.66	1207.56
496.877	1194.56
497.094	1225.56
497.312	1223.56
497.529	1234.56
497.746	1241.56
497.963	1300.56
498.181	1328.56
498.398	1344.56
498.615	1396.56
