Data from Ni(NO3)2Standard.Agarose3%.GreenCap.LampEnergy5.5.E.O_HRD10591_14-41-52-189.txt Node
Date: Mon Jul 22 14:41:52 EDT 2019
User: cochatt
Spectrometer: HR+D1059
Trigger mode: 1
Integration Time (sec): 1.000000E-1
Scans to average: 1
Electric dark correction enabled: true
Nonlinearity correction enabled: false
Boxcar width: 0
XAxis mode: Wavelengths
Number of Pixels in Spectrum: 2048
>>>>>Begin Spectral Data<<<<<
223.165	-16.12
223.4	-16.12
223.635	-16.12
223.869	-12.12
224.104	-30.12
224.338	-14.12
224.573	-10.12
224.808	-23.12
225.042	-2.12
225.277	-16.12
225.511	-9.12
225.746	-3.12
225.98	24.88
226.215	14.88
226.449	25.88
226.683	17.88
226.918	21.88
227.152	30.88
227.387	31.88
227.621	42.88
227.856	45.88
228.09	49.88
228.324	56.88
228.559	62.88
228.793	51.88
229.027	58.88
229.262	52.88
229.496	84.88
229.73	63.88
229.964	66.88
230.199	77.88
230.433	74.88
230.667	75.88
230.901	91.88
231.136	85.88
231.37	75.88
231.604	63.88
231.838	77.88
232.072	100.88
232.306	91.88
232.541	76.88
232.775	84.88
233.009	86.88
233.243	79.88
233.477	79.88
233.711	83.88
233.945	92.88
234.179	85.88
234.413	77.88
234.647	68.88
234.881	64.88
235.115	82.88
235.349	86.88
235.583	76.88
235.817	79.88
236.051	66.88
236.285	87.88
236.519	83.88
236.753	68.88
236.987	88.88
237.221	88.88
237.455	85.88
237.689	72.88
237.922	79.88
238.156	91.88
238.39	76.88
238.624	67.88
238.858	74.88
239.091	67.88
239.325	79.88
239.559	96.88
239.793	93.88
240.027	81.88
240.26	68.88
240.494	76.88
240.728	68.88
240.961	82.88
241.195	90.88
241.429	89.88
241.662	74.88
241.896	76.88
242.13	76.88
242.363	89.88
242.597	78.88
242.83	75.88
243.064	73.88
243.298	87.88
243.531	80.88
243.765	90.88
243.998	94.88
244.232	71.88
244.465	66.88
244.699	70.88
244.932	77.88
245.166	86.88
245.399	88.88
245.633	87.88
245.866	83.88
246.099	90.88
246.333	74.88
246.566	78.88
246.8	87.88
247.033	87.88
247.266	82.88
247.5	72.88
247.733	106.88
247.966	93.88
248.2	86.88
248.433	80.88
248.666	76.88
248.899	77.88
249.133	83.88
249.366	90.88
249.599	91.88
249.832	88.88
250.066	71.88
250.299	78.88
250.532	93.88
250.765	90.88
250.998	86.88
251.231	87.88
251.465	75.88
251.698	79.88
251.931	79.88
252.164	88.88
252.397	78.88
252.63	74.88
252.863	67.88
253.096	74.88
253.329	68.88
253.562	83.88
253.795	76.88
254.028	81.88
254.261	84.88
254.494	98.88
254.727	77.88
254.96	72.88
255.193	86.88
255.426	79.88
255.659	74.88
255.892	73.88
256.124	80.88
256.357	78.88
256.59	91.88
256.823	82.88
257.056	85.88
257.289	95.88
257.521	76.88
257.754	82.88
257.987	88.88
258.22	98.88
258.452	86.88
258.685	85.88
258.918	86.88
259.151	80.88
259.383	89.88
259.616	88.88
259.849	76.88
260.081	82.88
260.314	69.88
260.547	76.88
260.779	96.88
261.012	93.88
261.244	95.88
261.477	92.88
261.71	96.88
261.942	93.88
262.175	86.88
262.407	86.88
262.64	76.88
262.872	84.88
263.105	90.88
263.337	77.88
263.57	88.88
263.802	95.88
264.035	99.88
264.267	87.88
264.499	98.88
264.732	82.88
264.964	95.88
265.197	85.88
265.429	73.88
265.661	85.88
265.894	78.88
266.126	91.88
266.358	86.88
266.591	90.88
266.823	100.88
267.055	83.88
267.287	79.88
267.52	88.88
267.752	96.88
267.984	99.88
268.216	90.88
268.448	103.88
268.681	78.88
268.913	83.88
269.145	87.88
269.377	94.88
269.609	79.88
269.841	79.88
270.073	74.88
270.306	87.88
270.538	86.88
270.77	95.88
271.002	87.88
271.234	80.88
271.466	61.88
271.698	81.88
271.93	74.88
272.162	83.88
272.394	79.88
272.626	80.88
272.858	85.88
273.09	74.88
273.322	82.88
273.553	96.88
273.785	93.88
274.017	90.88
274.249	69.88
274.481	87.88
274.713	94.88
274.945	86.88
275.176	78.88
275.408	91.88
275.64	73.88
275.872	72.88
276.104	84.88
276.335	95.88
276.567	83.88
276.799	84.88
277.031	88.88
277.262	87.88
277.494	84.88
277.726	79.88
277.957	85.88
278.189	87.88
278.421	91.88
278.652	89.88
278.884	94.88
279.115	87.88
279.347	88.88
279.579	91.88
279.81	80.88
280.042	96.88
280.273	88.88
280.505	87.88
280.736	60.88
280.968	93.88
281.199	95.88
281.431	87.88
281.662	94.88
281.894	85.88
282.125	91.88
282.356	88.88
282.588	90.88
282.819	83.88
283.051	92.88
283.282	91.88
283.513	101.88
283.745	71.88
283.976	95.88
284.207	77.88
284.439	80.88
284.67	87.88
284.901	90.88
285.132	86.88
285.364	89.88
285.595	92.88
285.826	83.88
286.057	80.88
286.288	83.88
286.52	78.88
286.751	86.88
286.982	93.88
287.213	87.88
287.444	90.88
287.675	91.88
287.906	70.88
288.138	98.88
288.369	92.88
288.6	87.88
288.831	79.88
289.062	92.88
289.293	84.88
289.524	78.88
289.755	57.88
289.986	76.88
290.217	75.88
290.448	92.88
290.679	84.88
290.91	78.88
291.141	85.88
291.371	77.88
291.602	93.88
291.833	84.88
292.064	75.88
292.295	88.88
292.526	87.88
292.757	93.88
292.987	92.88
293.218	90.88
293.449	99.88
293.68	90.88
293.91	91.88
294.141	84.88
294.372	83.88
294.603	90.88
294.833	86.88
295.064	91.88
295.295	90.88
295.525	91.88
295.756	83.88
295.987	88.88
296.217	86.88
296.448	82.88
296.679	92.88
296.909	93.88
297.14	95.88
297.37	89.88
297.601	92.88
297.831	75.88
298.062	87.88
298.292	87.88
298.523	95.88
298.753	90.88
298.984	96.88
299.214	90.88
299.445	96.88
299.675	103.88
299.905	83.88
300.136	87.88
300.366	93.88
300.597	88.88
300.827	80.88
301.057	94.88
301.288	93.88
301.518	93.88
301.748	88.88
301.979	80.88
302.209	87.88
302.439	87.88
302.669	95.88
302.9	87.88
303.13	86.88
303.36	85.88
303.59	98.88
303.82	88.88
304.051	81.88
304.281	71.88
304.511	87.88
304.741	96.88
304.971	96.88
305.201	95.88
305.431	85.88
305.661	94.88
305.891	108.88
306.121	91.88
306.352	80.88
306.582	98.88
306.812	88.88
307.042	86.88
307.272	80.88
307.502	83.88
307.731	79.88
307.961	82.88
308.191	82.88
308.421	85.88
308.651	77.88
308.881	86.88
309.111	82.88
309.341	85.88
309.571	95.88
309.8	84.88
310.03	91.88
310.26	87.88
310.49	101.88
310.72	87.88
310.949	86.88
311.179	86.88
311.409	84.88
311.639	89.88
311.868	92.88
312.098	83.88
312.328	74.88
312.557	100.88
312.787	95.88
313.017	95.88
313.246	92.88
313.476	88.88
313.706	71.88
313.935	90.88
314.165	80.88
314.394	74.88
314.624	87.88
314.853	80.88
315.083	80.88
315.312	86.88
315.542	88.88
315.771	85.88
316.001	84.88
316.23	91.88
316.46	86.88
316.689	89.88
316.919	93.88
317.148	78.88
317.377	106.88
317.607	80.88
317.836	83.88
318.065	96.88
318.295	93.88
318.524	90.88
318.753	92.88
318.983	87.88
319.212	88.88
319.441	91.88
319.67	80.88
319.9	99.88
320.129	87.88
320.358	79.88
320.587	94.88
320.816	85.88
321.046	82.88
321.275	85.88
321.504	97.88
321.733	71.88
321.962	80.88
322.191	96.88
322.42	83.88
322.649	92.88
322.878	100.88
323.108	92.88
323.337	76.88
323.566	74.88
323.795	93.88
324.024	80.88
324.253	90.88
324.482	96.88
324.71	93.88
324.939	90.88
325.168	80.88
325.397	86.88
325.626	89.88
325.855	86.88
326.084	79.88
326.313	76.88
326.542	75.88
326.77	94.88
326.999	64.88
327.228	79.88
327.457	99.88
327.686	91.88
327.914	94.88
328.143	86.88
328.372	84.88
328.6	93.88
328.829	92.88
329.058	83.88
329.287	91.88
329.515	92.88
329.744	86.88
329.972	86.88
330.201	101.88
330.43	84.88
330.658	90.88
330.887	96.88
331.115	88.88
331.344	97.88
331.572	96.88
331.801	94.88
332.03	93.88
332.258	92.88
332.486	74.88
332.715	87.88
332.943	68.88
333.172	95.88
333.4	106.88
333.629	99.88
333.857	90.88
334.085	82.88
334.314	97.88
334.542	89.88
334.771	78.88
334.999	86.88
335.227	91.88
335.455	79.88
335.684	100.88
335.912	107.88
336.14	97.88
336.369	78.88
336.597	80.88
336.825	85.88
337.053	95.88
337.281	84.88
337.51	88.88
337.738	102.88
337.966	88.88
338.194	92.88
338.422	72.88
338.65	86.88
338.878	91.88
339.106	81.88
339.334	77.88
339.562	95.88
339.79	95.88
340.018	79.88
340.246	90.88
340.474	97.88
340.702	82.88
340.93	98.88
341.158	96.88
341.386	89.88
341.614	84.88
341.842	89.88
342.07	80.88
342.298	94.88
342.526	83.88
342.754	80.88
342.981	104.88
343.209	93.88
343.437	89.88
343.665	95.88
343.893	90.88
344.12	96.88
344.348	88.88
344.576	91.88
344.804	85.88
345.031	97.88
345.259	101.88
345.487	75.88
345.714	78.88
345.942	87.88
346.17	89.88
346.397	83.88
346.625	90.88
346.853	82.88
347.08	92.88
347.308	84.88
347.535	78.88
347.763	100.88
347.99	84.88
348.218	79.88
348.445	82.88
348.673	88.88
348.9	59.88
349.128	95.88
349.355	98.88
349.583	91.88
349.81	82.88
350.037	92.88
350.265	99.88
350.492	97.88
350.72	96.88
350.947	96.88
351.174	83.88
351.402	101.88
351.629	101.88
351.856	96.88
352.083	94.88
352.311	96.88
352.538	91.88
352.765	91.88
352.992	78.88
353.22	87.88
353.447	83.88
353.674	86.88
353.901	80.88
354.128	98.88
354.355	87.88
354.583	88.88
354.81	96.88
355.037	99.88
355.264	94.88
355.491	82.88
355.718	86.88
355.945	93.88
356.172	83.88
356.399	86.88
356.626	79.88
356.853	91.88
357.08	88.88
357.307	94.88
357.534	88.88
357.761	106.88
357.988	94.88
358.215	87.88
358.441	86.88
358.668	103.88
358.895	87.88
359.122	98.88
359.349	67.88
359.576	88.88
359.802	81.88
360.029	74.88
360.256	98.88
360.483	77.88
360.709	96.88
360.936	88.88
361.163	99.88
361.39	77.88
361.616	88.88
361.843	83.88
362.07	91.88
362.296	86.88
362.523	90.88
362.749	90.88
362.976	87.88
363.203	87.88
363.429	76.88
363.656	79.88
363.882	80.88
364.109	83.88
364.335	89.88
364.562	86.88
364.788	87.88
365.015	96.88
365.241	99.88
365.468	90.88
365.694	76.88
365.92	87.88
366.147	92.88
366.373	88.88
366.599	91.88
366.826	75.88
367.052	93.88
367.278	64.88
367.505	88.88
367.731	88.88
367.957	88.88
368.184	93.88
368.41	103.88
368.636	86.88
368.862	84.88
369.089	93.88
369.315	85.88
369.541	79.88
369.767	77.88
369.993	95.88
370.219	88.88
370.445	94.88
370.672	85.88
370.898	77.88
371.124	86.88
371.35	69.88
371.576	88.88
371.802	90.88
372.028	85.88
372.254	95.88
372.48	93.88
372.706	97.88
372.932	87.88
373.158	91.88
373.384	83.88
373.61	91.88
373.835	86.88
374.061	80.88
374.287	91.88
374.513	95.88
374.739	102.88
374.965	91.88
375.191	85.88
375.416	83.88
375.642	89.88
375.868	88.88
376.094	85.88
376.319	88.88
376.545	86.88
376.771	84.88
376.997	81.88
377.222	87.88
377.448	87.88
377.674	78.88
377.899	86.88
378.125	88.88
378.35	85.88
378.576	90.88
378.802	82.88
379.027	57.88
379.253	91.88
379.478	84.88
379.704	68.88
379.929	91.88
380.155	97.88
380.38	78.88
380.606	81.88
380.831	87.88
381.057	84.88
381.282	92.88
381.507	81.88
381.733	88.88
381.958	92.88
382.184	87.88
382.409	91.88
382.634	80.88
382.86	96.88
383.085	86.88
383.31	83.88
383.535	92.88
383.761	93.88
383.986	77.88
384.211	88.88
384.436	94.88
384.662	97.88
384.887	86.88
385.112	80.88
385.337	95.88
385.562	91.88
385.787	94.88
386.013	98.88
386.238	98.88
386.463	74.88
386.688	93.88
386.913	80.88
387.138	79.88
387.363	78.88
387.588	67.88
387.813	103.88
388.038	84.88
388.263	78.88
388.488	91.88
388.713	78.88
388.938	84.88
389.163	86.88
389.387	87.88
389.612	92.88
389.837	89.88
390.062	88.88
390.287	84.88
390.512	85.88
390.736	88.88
390.961	87.88
391.186	92.88
391.411	101.88
391.636	84.88
391.86	88.88
392.085	99.88
392.31	90.88
392.534	84.88
392.759	99.88
392.984	86.88
393.208	84.88
393.433	85.88
393.658	102.88
393.882	73.88
394.107	79.88
394.331	88.88
394.556	87.88
394.78	92.88
395.005	91.88
395.229	83.88
395.454	77.88
395.678	90.88
395.903	92.88
396.127	97.88
396.352	98.88
396.576	81.88
396.801	91.88
397.025	72.88
397.249	87.88
397.474	90.88
397.698	77.88
397.922	86.88
398.147	112.88
398.371	83.88
398.595	97.88
398.82	86.88
399.044	85.88
399.268	83.88
399.492	100.88
399.717	88.88
399.941	97.88
400.165	98.88
400.389	86.88
400.613	92.88
400.837	80.88
401.062	88.88
401.286	88.88
401.51	81.88
401.734	99.88
401.958	87.88
402.182	67.88
402.406	104.88
402.63	93.88
402.854	74.88
403.078	87.88
403.302	84.88
403.526	84.88
403.75	92.88
403.974	93.88
404.198	86.88
404.422	81.88
404.645	68.88
404.869	91.88
405.093	83.88
405.317	97.88
405.541	104.88
405.765	92.88
405.988	95.88
406.212	94.88
406.436	93.88
406.66	94.88
406.883	92.88
407.107	98.88
407.331	90.88
407.555	88.88
407.778	88.88
408.002	83.88
408.226	80.88
408.449	94.88
408.673	88.88
408.896	84.88
409.12	98.88
409.344	88.88
409.567	92.88
409.791	91.88
410.014	87.88
410.238	85.88
410.461	82.88
410.685	92.88
410.908	88.88
411.132	86.88
411.355	84.88
411.578	80.88
411.802	94.88
412.025	84.88
412.249	106.88
412.472	95.88
412.695	85.88
412.919	76.88
413.142	81.88
413.365	85.88
413.589	69.88
413.812	90.88
414.035	95.88
414.258	85.88
414.482	78.88
414.705	92.88
414.928	91.88
415.151	86.88
415.374	90.88
415.597	87.88
415.821	86.88
416.044	82.88
416.267	94.88
416.49	88.88
416.713	72.88
416.936	71.88
417.159	97.88
417.382	84.88
417.605	95.88
417.828	98.88
418.051	90.88
418.274	80.88
418.497	81.88
418.72	93.88
418.943	100.88
419.166	98.88
419.389	93.88
419.611	96.88
419.834	80.88
420.057	97.88
420.28	88.88
420.503	79.88
420.726	76.88
420.948	87.88
421.171	89.88
421.394	88.88
421.617	94.88
421.839	82.88
422.062	71.88
422.285	74.88
422.507	75.88
422.73	101.88
422.953	94.88
423.175	101.88
423.398	60.88
423.621	88.88
423.843	91.88
424.066	89.88
424.288	100.88
424.511	93.88
424.733	78.88
424.956	83.88
425.178	91.88
425.401	81.88
425.623	83.88
425.846	78.88
426.068	102.88
426.291	77.88
426.513	99.88
426.735	92.88
426.958	85.88
427.18	89.88
427.402	89.88
427.625	95.88
427.847	98.88
428.069	78.88
428.292	78.88
428.514	77.88
428.736	82.88
428.958	80.88
429.181	74.88
429.403	87.88
429.625	91.88
429.847	96.88
430.069	76.88
430.292	90.88
430.514	96.88
430.736	79.88
430.958	94.88
431.18	89.88
431.402	97.88
431.624	83.88
431.846	82.88
432.068	92.88
432.29	69.88
432.512	84.88
432.734	88.88
432.956	73.88
433.178	93.88
433.4	86.88
433.622	90.88
433.844	78.88
434.066	99.88
434.287	87.88
434.509	76.88
434.731	78.88
434.953	91.88
435.175	94.88
435.397	84.88
435.618	93.88
435.84	83.88
436.062	99.88
436.284	87.88
436.505	88.88
436.727	89.88
436.949	90.88
437.17	85.88
437.392	92.88
437.614	94.88
437.835	88.88
438.057	94.88
438.278	76.88
438.5	74.88
438.721	95.88
438.943	76.88
439.165	85.88
439.386	99.88
439.608	89.88
439.829	72.88
440.05	79.88
440.272	82.88
440.493	90.88
440.715	82.88
440.936	85.88
441.158	82.88
441.379	90.88
441.6	95.88
441.822	76.88
442.043	86.88
442.264	93.88
442.486	81.88
442.707	88.88
442.928	87.88
443.149	76.88
443.371	87.88
443.592	78.88
443.813	85.88
444.034	97.88
444.255	92.88
444.476	82.88
444.698	101.88
444.919	87.88
445.14	214.88
445.361	159.88
445.582	99.88
445.803	96.88
446.024	88.88
446.245	90.88
446.466	85.88
446.687	94.88
446.908	88.88
447.129	89.88
447.35	94.88
447.571	78.88
447.792	74.88
448.013	93.88
448.234	74.88
448.455	74.88
448.675	87.88
448.896	104.88
449.117	69.88
449.338	86.88
449.559	86.88
449.779	84.88
450	82.88
450.221	87.88
450.442	91.88
450.662	74.88
450.883	84.88
451.104	90.88
451.324	75.88
451.545	106.88
451.766	95.88
451.986	92.88
452.207	89.88
452.428	90.88
452.648	87.88
452.869	104.88
453.089	90.88
453.31	84.88
453.53	86.88
453.751	80.88
453.971	84.88
454.192	82.88
454.412	96.88
454.633	82.88
454.853	99.88
455.073	77.88
455.294	71.88
455.514	93.88
455.734	87.88
455.955	100.88
456.175	86.88
456.395	77.88
456.616	79.88
456.836	91.88
457.056	84.88
457.276	101.88
457.497	90.88
457.717	99.88
457.937	83.88
458.157	80.88
458.377	88.88
458.598	91.88
458.818	96.88
459.038	87.88
459.258	82.88
459.478	89.88
459.698	84.88
459.918	79.88
460.138	77.88
460.358	87.88
460.578	71.88
460.798	75.88
461.018	77.88
461.238	86.88
461.458	88.88
461.678	90.88
461.898	88.88
462.118	78.88
462.338	90.88
462.558	95.88
462.777	85.88
462.997	86.88
463.217	91.88
463.437	91.88
463.657	86.88
463.876	91.88
464.096	96.88
464.316	97.88
464.536	93.88
464.755	91.88
464.975	94.88
465.195	75.88
465.414	100.88
465.634	95.88
465.854	92.88
466.073	97.88
466.293	73.88
466.512	75.88
466.732	102.88
466.951	86.88
467.171	87.88
467.391	101.88
467.61	87.88
467.829	80.88
468.049	82.88
468.268	78.88
468.488	74.88
468.707	82.88
468.927	99.88
469.146	96.88
469.365	86.88
469.585	79.88
469.804	86.88
470.023	88.88
470.243	89.88
470.462	88.88
470.681	94.88
470.901	95.88
471.12	83.88
471.339	96.88
471.558	107.88
471.777	69.88
471.997	90.88
472.216	91.88
472.435	89.88
472.654	88.88
472.873	90.88
473.092	75.88
473.311	84.88
473.53	80.88
473.749	84.88
473.968	82.88
474.187	103.88
474.406	84.88
474.625	92.88
474.844	94.88
475.063	87.88
475.282	87.88
475.501	98.88
475.72	88.88
475.939	83.88
476.158	85.88
476.377	88.88
476.596	90.88
476.814	87.88
477.033	84.88
477.252	87.88
477.471	83.88
477.69	79.88
477.908	83.88
478.127	90.88
478.346	90.88
478.564	111.88
478.783	94.88
479.002	98.88
479.22	113.88
479.439	87.88
479.658	90.88
479.876	93.88
480.095	87.88
480.313	87.88
480.532	99.88
480.751	88.88
480.969	92.88
481.188	101.88
481.406	85.88
481.624	89.88
481.843	93.88
482.061	86.88
482.28	76.88
482.498	104.88
482.717	102.88
482.935	99.88
483.153	92.88
483.372	89.88
483.59	93.88
483.808	104.88
484.027	98.88
484.245	94.88
484.463	104.88
484.681	96.88
484.9	96.88
485.118	90.88
485.336	90.88
485.554	90.88
485.772	101.88
485.99	92.88
486.209	94.88
486.427	85.88
486.645	95.88
486.863	93.88
487.081	88.88
487.299	100.88
487.517	100.88
487.735	104.88
487.953	87.88
488.171	99.88
488.389	94.88
488.607	102.88
488.825	97.88
489.043	98.88
489.261	97.88
489.479	84.88
489.696	83.88
489.914	91.88
490.132	83.88
490.35	103.88
490.568	106.88
490.786	94.88
491.003	100.88
491.221	88.88
491.439	85.88
491.657	93.88
491.874	109.88
492.092	85.88
492.31	102.88
492.527	106.88
492.745	91.88
492.963	87.88
493.18	102.88
493.398	97.88
493.615	86.88
493.833	87.88
494.05	90.88
494.268	92.88
494.485	106.88
494.703	101.88
494.92	112.88
495.138	88.88
495.355	103.88
495.573	100.88
495.79	80.88
496.008	91.88
496.225	96.88
496.442	88.88
496.66	93.88
496.877	92.88
497.094	89.88
497.312	92.88
497.529	99.88
497.746	101.88
497.963	107.88
498.181	92.88
498.398	88.88
498.615	87.88
498.832	94.88
499.049	115.88
499.267	95.88
499.484	104.88
499.701	112.88
499.918	112.88
500.135	120.88
500.352	106.88
500.569	105.88
500.786	97.88
501.003	104.88
501.22	116.88
501.437	109.88
501.654	122.88
501.871	117.88
502.088	102.88
502.305	108.88
502.522	100.88
502.739	104.88
502.956	96.88
503.172	94.88
503.389	109.88
503.606	117.88
503.823	101.88
504.04	110.88
504.256	91.88
504.473	79.88
504.69	96.88
504.907	102.88
505.123	94.88
505.34	103.88
505.557	102.88
505.773	96.88
505.99	101.88
506.207	87.88
506.423	102.88
506.64	110.88
506.856	94.88
507.073	92.88
507.289	108.88
507.506	99.88
507.722	90.88
507.939	79.88
508.155	98.88
508.372	99.88
508.588	90.88
508.805	84.88
509.021	108.88
509.238	107.88
509.454	95.88
509.67	93.88
509.887	88.88
510.103	96.88
510.319	103.88
510.536	78.88
510.752	94.88
510.968	80.88
511.184	90.88
511.401	86.88
511.617	93.88
511.833	86.88
512.049	91.88
512.265	82.88
512.481	76.88
512.698	87.88
512.914	95.88
513.13	102.88
513.346	85.88
513.562	90.88
513.778	94.88
513.994	89.88
514.21	88.88
514.426	87.88
514.642	93.88
514.858	90.88
515.074	100.88
515.29	89.88
515.506	80.88
515.721	78.88
515.937	95.88
516.153	94.88
516.369	91.88
516.585	99.88
516.801	101.88
517.016	108.88
517.232	91.88
517.448	87.88
517.664	104.88
517.879	106.88
