Data from Ni(NO3)2@0.0625M.TitratingCurve.Agarose3%dH2O.NegLispCup.LampEnergy10.LIBS07252019_HRD10591_18-15-44-570.txt Node
Date: Thu Jul 25 18:15:44 EDT 2019
User: cochatt
Spectrometer: HR+D1059
Trigger mode: 1
Integration Time (sec): 1.000000E-1
Scans to average: 1
Electric dark correction enabled: true
Nonlinearity correction enabled: false
Boxcar width: 0
XAxis mode: Wavelengths
Number of Pixels in Spectrum: 2048
>>>>>Begin Spectral Data<<<<<
223.165	-14.69
223.4	-14.69
223.635	-14.69
223.869	-9.69
224.104	-19.69
224.338	-2.69
224.573	-3.69
224.808	-11.69
225.042	-3.69
225.277	-18.69
225.511	-24.69
225.746	8.31
225.98	9.31
226.215	16.31
226.449	11.31
226.683	16.31
226.918	18.31
227.152	29.31
227.387	27.31
227.621	40.31
227.856	40.31
228.09	47.31
228.324	48.31
228.559	56.31
228.793	75.31
229.027	103.31
229.262	121.31
229.496	128.31
229.73	120.31
229.964	122.31
230.199	125.31
230.433	130.31
230.667	137.31
230.901	129.31
231.136	131.31
231.37	136.31
231.604	134.31
231.838	141.31
232.072	140.31
232.306	143.31
232.541	140.31
232.775	154.31
233.009	146.31
233.243	141.31
233.477	148.31
233.711	161.31
233.945	146.31
234.179	140.31
234.413	167.31
234.647	154.31
234.881	153.31
235.115	156.31
235.349	150.31
235.583	160.31
235.817	149.31
236.051	149.31
236.285	163.31
236.519	158.31
236.753	169.31
236.987	155.31
237.221	152.31
237.455	165.31
237.689	163.31
237.922	174.31
238.156	180.31
238.39	168.31
238.624	176.31
238.858	168.31
239.091	173.31
239.325	185.31
239.559	179.31
239.793	176.31
240.027	173.31
240.26	184.31
240.494	184.31
240.728	194.31
240.961	181.31
241.195	193.31
241.429	186.31
241.662	192.31
241.896	193.31
242.13	187.31
242.363	204.31
242.597	202.31
242.83	211.31
243.064	214.31
243.298	198.31
243.531	223.31
243.765	200.31
243.998	210.31
244.232	202.31
244.465	204.31
244.699	219.31
244.932	227.31
245.166	212.31
245.399	220.31
245.633	217.31
245.866	236.31
246.099	225.31
246.333	248.31
246.566	220.31
246.8	235.31
247.033	230.31
247.266	232.31
247.5	221.31
247.733	245.31
247.966	230.31
248.2	233.31
248.433	228.31
248.666	248.31
248.899	222.31
249.133	226.31
249.366	253.31
249.599	259.31
249.832	257.31
250.066	254.31
250.299	261.31
250.532	269.31
250.765	243.31
250.998	264.31
251.231	270.31
251.465	273.31
251.698	269.31
251.931	277.31
252.164	272.31
252.397	283.31
252.63	266.31
252.863	282.31
253.096	275.31
253.329	288.31
253.562	269.31
253.795	278.31
254.028	283.31
254.261	279.31
254.494	289.31
254.727	293.31
254.96	293.31
255.193	290.31
255.426	291.31
255.659	288.31
255.892	285.31
256.124	296.31
256.357	303.31
256.59	335.31
256.823	300.31
257.056	309.31
257.289	322.31
257.521	316.31
257.754	306.31
257.987	306.31
258.22	298.31
258.452	310.31
258.685	302.31
258.918	314.31
259.151	305.31
259.383	318.31
259.616	329.31
259.849	318.31
260.081	340.31
260.314	329.31
260.547	332.31
260.779	319.31
261.012	327.31
261.244	330.31
261.477	323.31
261.71	357.31
261.942	345.31
262.175	345.31
262.407	340.31
262.64	335.31
262.872	350.31
263.105	354.31
263.337	376.31
263.57	342.31
263.802	361.31
264.035	364.31
264.267	358.31
264.499	354.31
264.732	366.31
264.964	359.31
265.197	375.31
265.429	356.31
265.661	373.31
265.894	363.31
266.126	374.31
266.358	372.31
266.591	373.31
266.823	381.31
267.055	377.31
267.287	379.31
267.52	377.31
267.752	399.31
267.984	360.31
268.216	385.31
268.448	397.31
268.681	376.31
268.913	388.31
269.145	382.31
269.377	376.31
269.609	393.31
269.841	379.31
270.073	384.31
270.306	401.31
270.538	409.31
270.77	369.31
271.002	406.31
271.234	390.31
271.466	410.31
271.698	390.31
271.93	404.31
272.162	416.31
272.394	405.31
272.626	407.31
272.858	408.31
273.09	410.31
273.322	404.31
273.553	403.31
273.785	414.31
274.017	412.31
274.249	425.31
274.481	422.31
274.713	430.31
274.945	422.31
275.176	414.31
275.408	437.31
275.64	426.31
275.872	429.31
276.104	446.31
276.335	443.31
276.567	417.31
276.799	440.31
277.031	435.31
277.262	452.31
277.494	449.31
277.726	427.31
277.957	438.31
278.189	447.31
278.421	460.31
278.652	460.31
278.884	447.31
279.115	450.31
279.347	473.31
279.579	449.31
279.81	478.31
280.042	460.31
280.273	478.31
280.505	464.31
280.736	466.31
280.968	469.31
281.199	489.31
281.431	473.31
281.662	461.31
281.894	467.31
282.125	492.31
282.356	499.31
282.588	508.31
282.819	511.31
283.051	486.31
283.282	491.31
283.513	502.31
283.745	486.31
283.976	513.31
284.207	489.31
284.439	501.31
284.67	505.31
284.901	516.31
285.132	524.31
285.364	510.31
285.595	506.31
285.826	505.31
286.057	519.31
286.288	490.31
286.52	509.31
286.751	506.31
286.982	512.31
287.213	537.31
287.444	516.31
287.675	514.31
287.906	529.31
288.138	525.31
288.369	528.31
288.6	533.31
288.831	532.31
289.062	544.31
289.293	520.31
289.524	553.31
289.755	534.31
289.986	534.31
290.217	538.31
290.448	556.31
290.679	542.31
290.91	548.31
291.141	577.31
291.371	556.31
291.602	553.31
291.833	546.31
292.064	560.31
292.295	549.31
292.526	547.31
292.757	545.31
292.987	539.31
293.218	523.31
293.449	556.31
293.68	546.31
293.91	536.31
294.141	549.31
294.372	567.31
294.603	556.31
294.833	579.31
295.064	556.31
295.295	544.31
295.525	592.31
295.756	555.31
295.987	542.31
296.217	580.31
296.448	571.31
296.679	594.31
296.909	590.31
297.14	585.31
297.37	587.31
297.601	584.31
297.831	585.31
298.062	580.31
298.292	623.31
298.523	618.31
298.753	615.31
298.984	609.31
299.214	595.31
299.445	581.31
299.675	592.31
299.905	615.31
300.136	616.31
300.366	613.31
300.597	589.31
300.827	625.31
301.057	636.31
301.288	638.31
301.518	647.31
301.748	648.31
301.979	650.31
302.209	644.31
302.439	635.31
302.669	628.31
302.9	624.31
303.13	620.31
303.36	615.31
303.59	595.31
303.82	625.31
304.051	621.31
304.281	610.31
304.511	630.31
304.741	607.31
304.971	634.31
305.201	618.31
305.431	618.31
305.661	621.31
305.891	596.31
306.121	593.31
306.352	598.31
306.582	594.31
306.812	586.31
307.042	606.31
307.272	619.31
307.502	595.31
307.731	608.31
307.961	602.31
308.191	614.31
308.421	601.31
308.651	584.31
308.881	596.31
309.111	590.31
309.341	606.31
309.571	611.31
309.8	593.31
310.03	609.31
310.26	599.31
310.49	613.31
310.72	646.31
310.949	609.31
311.179	596.31
311.409	602.31
311.639	605.31
311.868	621.31
312.098	622.31
312.328	633.31
312.557	644.31
312.787	626.31
313.017	632.31
313.246	638.31
313.476	637.31
313.706	654.31
313.935	620.31
314.165	653.31
314.394	654.31
314.624	648.31
314.853	653.31
315.083	644.31
315.312	647.31
315.542	646.31
315.771	642.31
316.001	643.31
316.23	644.31
316.46	630.31
316.689	636.31
316.919	654.31
317.148	640.31
317.377	618.31
317.607	644.31
317.836	610.31
318.065	608.31
318.295	616.31
318.524	648.31
318.753	608.31
318.983	646.31
319.212	638.31
319.441	606.31
319.67	630.31
319.9	629.31
320.129	636.31
320.358	620.31
320.587	642.31
320.816	654.31
321.046	612.31
321.275	621.31
321.504	621.31
321.733	652.31
321.962	638.31
322.191	633.31
322.42	631.31
322.649	657.31
322.878	636.31
323.108	630.31
323.337	644.31
323.566	642.31
323.795	649.31
324.024	643.31
324.253	667.31
324.482	660.31
324.71	670.31
324.939	680.31
325.168	646.31
325.397	654.31
325.626	669.31
325.855	653.31
326.084	705.31
326.313	702.31
326.542	710.31
326.77	724.31
326.999	686.31
327.228	700.31
327.457	702.31
327.686	693.31
327.914	690.31
328.143	679.31
328.372	678.31
328.6	697.31
328.829	709.31
329.058	683.31
329.287	694.31
329.515	692.31
329.744	700.31
329.972	701.31
330.201	714.31
330.43	720.31
330.658	710.31
330.887	724.31
331.115	712.31
331.344	754.31
331.572	736.31
331.801	737.31
332.03	769.31
332.258	796.31
332.486	825.31
332.715	838.31
332.943	878.31
333.172	897.31
333.4	936.31
333.629	962.31
333.857	963.31
334.085	982.31
334.314	921.31
334.542	896.31
334.771	870.31
334.999	866.31
335.227	879.31
335.455	878.31
335.684	892.31
335.912	865.31
336.14	828.31
336.369	828.31
336.597	837.31
336.825	850.31
337.053	806.31
337.281	815.31
337.51	802.31
337.738	798.31
337.966	781.31
338.194	788.31
338.422	788.31
338.65	737.31
338.878	774.31
339.106	761.31
339.334	759.31
339.562	749.31
339.79	742.31
340.018	712.31
340.246	714.31
340.474	740.31
340.702	745.31
340.93	709.31
341.158	739.31
341.386	724.31
341.614	723.31
341.842	714.31
342.07	696.31
342.298	732.31
342.526	721.31
342.754	738.31
342.981	720.31
343.209	746.31
343.437	780.31
343.665	825.31
343.893	891.31
344.12	924.31
344.348	865.31
344.576	860.31
344.804	768.31
345.031	761.31
345.259	775.31
345.487	754.31
345.714	731.31
345.942	710.31
346.17	709.31
346.397	716.31
346.625	715.31
346.853	715.31
347.08	712.31
347.308	695.31
347.535	724.31
347.763	715.31
347.99	733.31
348.218	757.31
348.445	722.31
348.673	716.31
348.9	720.31
349.128	706.31
349.355	708.31
349.583	690.31
349.81	686.31
350.037	684.31
350.265	689.31
350.492	675.31
350.72	675.31
350.947	681.31
351.174	675.31
351.402	685.31
351.629	662.31
351.856	690.31
352.083	711.31
352.311	675.31
352.538	684.31
352.765	678.31
352.992	682.31
353.22	671.31
353.447	681.31
353.674	692.31
353.901	676.31
354.128	684.31
354.355	667.31
354.583	670.31
354.81	672.31
355.037	676.31
355.264	687.31
355.491	684.31
355.718	692.31
355.945	662.31
356.172	711.31
356.399	720.31
356.626	692.31
356.853	701.31
357.08	685.31
357.307	678.31
357.534	680.31
357.761	686.31
357.988	684.31
358.215	680.31
358.441	707.31
358.668	667.31
358.895	680.31
359.122	709.31
359.349	712.31
359.576	674.31
359.802	681.31
360.029	702.31
360.256	685.31
360.483	688.31
360.709	682.31
360.936	707.31
361.163	679.31
361.39	662.31
361.616	669.31
361.843	673.31
362.07	666.31
362.296	676.31
362.523	678.31
362.749	694.31
362.976	694.31
363.203	681.31
363.429	675.31
363.656	675.31
363.882	692.31
364.109	697.31
364.335	661.31
364.562	664.31
364.788	661.31
365.015	675.31
365.241	677.31
365.468	671.31
365.694	681.31
365.92	668.31
366.147	671.31
366.373	688.31
366.599	663.31
366.826	676.31
367.052	675.31
367.278	678.31
367.505	681.31
367.731	672.31
367.957	691.31
368.184	677.31
368.41	693.31
368.636	688.31
368.862	698.31
369.089	705.31
369.315	689.31
369.541	696.31
369.767	721.31
369.993	698.31
370.219	718.31
370.445	703.31
370.672	742.31
370.898	732.31
371.124	707.31
371.35	728.31
371.576	753.31
371.802	723.31
372.028	752.31
372.254	768.31
372.48	753.31
372.706	761.31
372.932	784.31
373.158	776.31
373.384	737.31
373.61	744.31
373.835	761.31
374.061	739.31
374.287	754.31
374.513	772.31
374.739	792.31
374.965	812.31
375.191	869.31
375.416	836.31
375.642	816.31
375.868	804.31
376.094	778.31
376.319	792.31
376.545	725.31
376.771	746.31
376.997	745.31
377.222	757.31
377.448	749.31
377.674	754.31
377.899	754.31
378.125	727.31
378.35	727.31
378.576	701.31
378.802	726.31
379.027	729.31
379.253	727.31
379.478	744.31
379.704	748.31
379.929	712.31
380.155	749.31
380.38	728.31
380.606	726.31
380.831	739.31
381.057	744.31
381.282	730.31
381.507	751.31
381.733	765.31
381.958	774.31
382.184	761.31
382.409	769.31
382.634	782.31
382.86	795.31
383.085	817.31
383.31	809.31
383.535	851.31
383.761	868.31
383.986	865.31
384.211	868.31
384.436	902.31
384.662	908.31
384.887	890.31
385.112	903.31
385.337	931.31
385.562	891.31
385.787	897.31
386.013	950.31
386.238	906.31
386.463	894.31
386.688	914.31
386.913	896.31
387.138	894.31
387.363	906.31
387.588	868.31
387.813	906.31
388.038	902.31
388.263	889.31
388.488	900.31
388.713	912.31
388.938	894.31
389.163	876.31
389.387	885.31
389.612	840.31
389.837	875.31
390.062	892.31
390.287	867.31
390.512	850.31
390.736	861.31
390.961	899.31
391.186	935.31
391.411	949.31
391.636	973.31
391.86	1008.31
392.085	1036.31
392.31	1013.31
392.534	991.31
392.759	971.31
392.984	944.31
393.208	928.31
393.433	938.31
393.658	924.31
393.882	976.31
394.107	957.31
394.331	953.31
394.556	955.31
394.78	979.31
395.005	972.31
395.229	950.31
395.454	988.31
395.678	998.31
395.903	1032.31
396.127	994.31
396.352	958.31
396.576	966.31
396.801	933.31
397.025	914.31
397.249	929.31
397.474	987.31
397.698	973.31
397.922	1024.31
398.147	989.31
398.371	988.31
398.595	1033.31
398.82	1109.31
399.044	1150.31
399.268	1325.31
399.492	1566.31
399.717	1773.31
399.941	1784.31
400.165	1532.31
400.389	1356.31
400.613	1232.31
400.837	1147.31
401.062	1132.31
401.286	1126.31
401.51	1108.31
401.734	1131.31
401.958	1142.31
402.182	1128.31
402.406	1180.31
402.63	1179.31
402.854	1196.31
403.078	1197.31
403.302	1269.31
403.526	1306.31
403.75	1296.31
403.974	1383.31
404.198	1368.31
404.422	1380.31
404.645	1340.31
404.869	1293.31
405.093	1310.31
405.317	1282.31
405.541	1270.31
405.765	1236.31
405.988	1244.31
406.212	1218.31
406.436	1223.31
406.66	1265.31
406.883	1288.31
407.107	1372.31
407.331	1440.31
407.555	1462.31
407.778	1492.31
408.002	1431.31
408.226	1391.31
408.449	1373.31
408.673	1314.31
408.896	1289.31
409.12	1259.31
409.344	1296.31
409.567	1292.31
409.791	1337.31
410.014	1306.31
410.238	1320.31
410.461	1285.31
410.685	1251.31
410.908	1236.31
411.132	1210.31
411.355	1165.31
411.578	1164.31
411.802	1159.31
412.025	1194.31
412.249	1204.31
412.472	1213.31
412.695	1151.31
412.919	1114.31
413.142	1136.31
413.365	1123.31
413.589	1145.31
413.812	1111.31
414.035	1136.31
414.258	1124.31
414.482	1114.31
414.705	1196.31
414.928	1146.31
415.151	1134.31
415.374	1124.31
415.597	1101.31
415.821	1098.31
416.044	1118.31
416.267	1102.31
416.49	1100.31
416.713	1068.31
416.936	1104.31
417.159	1093.31
417.382	1127.31
417.605	1091.31
417.828	1119.31
418.051	1130.31
418.274	1117.31
418.497	1134.31
418.72	1152.31
418.943	1148.31
419.166	1240.31
419.389	1318.31
419.611	1277.31
419.834	1196.31
420.057	1141.31
420.28	1136.31
420.503	1104.31
420.726	1100.31
420.948	1126.31
421.171	1139.31
421.394	1131.31
421.617	1101.31
421.839	1109.31
422.062	1112.31
422.285	1144.31
422.507	1156.31
422.73	1156.31
422.953	1167.31
423.175	1174.31
423.398	1152.31
423.621	1191.31
423.843	1215.31
424.066	1227.31
424.288	1210.31
424.511	1200.31
424.733	1183.31
424.956	1146.31
425.178	1147.31
425.401	1132.31
425.623	1114.31
425.846	1065.31
426.068	1069.31
426.291	1060.31
426.513	1034.31
426.735	1030.31
426.958	1050.31
427.18	1012.31
427.402	989.31
427.625	998.31
427.847	1009.31
428.069	997.31
428.292	1008.31
428.514	986.31
428.736	958.31
428.958	1000.31
429.181	944.31
429.403	953.31
429.625	961.31
429.847	939.31
430.069	928.31
430.292	964.31
430.514	926.31
430.736	968.31
430.958	964.31
431.18	942.31
431.402	961.31
431.624	987.31
431.846	1009.31
432.068	1020.31
432.29	994.31
432.512	971.31
432.734	996.31
432.956	994.31
433.178	1015.31
433.4	988.31
433.622	996.31
433.844	1028.31
434.066	1037.31
434.287	1020.31
434.509	1082.31
434.731	1098.31
434.953	1141.31
435.175	1147.31
435.397	1124.31
435.618	1073.31
435.84	1042.31
436.062	990.31
436.284	980.31
436.505	979.31
436.727	1012.31
436.949	997.31
437.17	985.31
437.392	993.31
437.614	959.31
437.835	934.31
438.057	960.31
438.278	924.31
438.5	909.31
438.721	955.31
438.943	979.31
439.165	961.31
439.386	960.31
439.608	987.31
439.829	1010.31
440.05	1001.31
440.272	1025.31
440.493	1032.31
440.715	1047.31
440.936	1033.31
441.158	1073.31
441.379	1101.31
441.6	1154.31
441.822	1160.31
442.043	1115.31
442.264	1116.31
442.486	1075.31
442.707	1122.31
442.928	1086.31
443.149	1097.31
443.371	1113.31
443.592	1141.31
443.813	1139.31
444.034	1155.31
444.255	1180.31
444.476	1230.31
444.698	1336.31
444.919	1411.31
445.14	1448.31
445.361	1303.31
445.582	1156.31
445.803	1092.31
446.024	1044.31
446.245	1056.31
446.466	1018.31
446.687	974.31
446.908	1013.31
447.129	984.31
447.35	966.31
447.571	967.31
447.792	957.31
448.013	966.31
448.234	901.31
448.455	933.31
448.675	872.31
448.896	910.31
449.117	886.31
449.338	910.31
449.559	903.31
449.779	911.31
450	912.31
450.221	938.31
450.442	912.31
450.662	926.31
450.883	964.31
451.104	966.31
451.324	945.31
451.545	936.31
451.766	930.31
451.986	921.31
452.207	920.31
452.428	938.31
452.648	945.31
452.869	886.31
453.089	888.31
453.31	938.31
453.53	891.31
453.751	888.31
453.971	897.31
454.192	896.31
454.412	864.31
454.633	874.31
454.853	876.31
455.073	864.31
455.294	892.31
455.514	870.31
455.734	877.31
455.955	835.31
456.175	856.31
456.395	876.31
456.616	861.31
456.836	876.31
457.056	868.31
457.276	838.31
457.497	859.31
457.717	881.31
457.937	858.31
458.157	871.31
458.377	917.31
458.598	904.31
458.818	902.31
459.038	930.31
459.258	978.31
459.478	1011.31
459.698	1044.31
459.918	1056.31
460.138	1092.31
460.358	1171.31
460.578	1180.31
460.798	1197.31
461.018	1222.31
461.238	1170.31
461.458	1153.31
461.678	1193.31
461.898	1194.31
462.118	1185.31
462.338	1283.31
462.558	1317.31
462.777	1339.31
462.997	1499.31
463.217	1644.31
463.437	1688.31
463.657	1489.31
463.876	1402.31
464.096	1397.31
464.316	1381.31
464.536	1435.31
464.755	1372.31
464.975	1307.31
465.195	1248.31
465.414	1173.31
465.634	1080.31
465.854	1112.31
466.073	1054.31
466.293	964.31
466.512	992.31
466.732	947.31
466.951	964.31
467.171	972.31
467.391	984.31
467.61	979.31
467.829	955.31
468.049	950.31
468.268	938.31
468.488	904.31
468.707	933.31
468.927	950.31
469.146	920.31
469.365	926.31
469.585	916.31
469.804	949.31
470.023	1002.31
470.243	983.31
470.462	1002.31
470.681	1004.31
470.901	1032.31
471.12	994.31
471.339	962.31
471.558	941.31
471.777	938.31
471.997	930.31
472.216	930.31
472.435	901.31
472.654	891.31
472.873	882.31
473.092	903.31
473.311	878.31
473.53	874.31
473.749	890.31
473.968	895.31
474.187	872.31
474.406	912.31
474.625	895.31
474.844	898.31
475.063	911.31
475.282	916.31
475.501	915.31
475.72	917.31
475.939	926.31
476.158	895.31
476.377	934.31
476.596	930.31
476.814	952.31
477.033	946.31
477.252	951.31
477.471	987.31
477.69	998.31
477.908	1029.31
478.127	1081.31
478.346	1080.31
478.564	1101.31
478.783	1131.31
479.002	1147.31
479.22	1144.31
479.439	1131.31
479.658	1104.31
479.876	1117.31
480.095	1125.31
480.313	1200.31
480.532	1255.31
480.751	1220.31
480.969	1158.31
481.188	1135.31
481.406	1102.31
481.624	1080.31
481.843	1036.31
482.061	1048.31
482.28	1007.31
482.498	1052.31
482.717	1035.31
482.935	1040.31
483.153	988.31
483.372	1012.31
483.59	1014.31
483.808	1029.31
484.027	1053.31
484.245	1037.31
484.463	1060.31
484.681	1072.31
484.9	1070.31
485.118	1071.31
485.336	1092.31
485.554	1086.31
485.772	1086.31
485.99	1093.31
486.209	1152.31
486.427	1107.31
486.645	1098.31
486.863	1147.31
487.081	1088.31
487.299	1115.31
487.517	1146.31
487.735	1053.31
487.953	1080.31
488.171	1094.31
488.389	1078.31
488.607	1060.31
488.825	1051.31
489.043	1058.31
489.261	1063.31
489.479	1114.31
489.696	1101.31
489.914	1061.31
490.132	1112.31
490.35	1083.31
490.568	1088.31
490.786	1091.31
491.003	1076.31
491.221	1089.31
491.439	1092.31
491.657	1092.31
491.874	1105.31
492.092	1099.31
492.31	1084.31
492.527	1083.31
492.745	1102.31
492.963	1125.31
493.18	1083.31
493.398	1113.31
493.615	1096.31
493.833	1119.31
494.05	1153.31
494.268	1145.31
494.485	1154.31
494.703	1128.31
494.92	1116.31
495.138	1127.31
495.355	1147.31
495.573	1136.31
495.79	1136.31
496.008	1139.31
496.225	1164.31
496.442	1164.31
496.66	1158.31
496.877	1184.31
497.094	1201.31
497.312	1208.31
