Data from Ni(NO3)2@0.5M.TitratingCurve.Agarose3%dH2O.NegLispCup.LampEnergy10.LIBS07252019_HRD10591_17-57-39-564.txt Node
Date: Thu Jul 25 17:57:39 EDT 2019
User: cochatt
Spectrometer: HR+D1059
Trigger mode: 1
Integration Time (sec): 1.000000E-1
Scans to average: 1
Electric dark correction enabled: true
Nonlinearity correction enabled: false
Boxcar width: 0
XAxis mode: Wavelengths
Number of Pixels in Spectrum: 2048
>>>>>Begin Spectral Data<<<<<
223.165	-18.44
223.4	-18.44
223.635	-18.44
223.869	-9.44
224.104	-17.44
224.338	-9.44
224.573	-18.44
224.808	-19.44
225.042	9.56
225.277	-9.44
225.511	-11.44
225.746	-2.44
225.98	0.56
226.215	11.56
226.449	21.56
226.683	20.56
226.918	20.56
227.152	31.56
227.387	34.56
227.621	44.56
227.856	50.56
228.09	53.56
228.324	44.56
228.559	51.56
228.793	79.56
229.027	111.56
229.262	127.56
229.496	131.56
229.73	135.56
229.964	148.56
230.199	164.56
230.433	155.56
230.667	133.56
230.901	150.56
231.136	169.56
231.37	161.56
231.604	155.56
231.838	172.56
232.072	166.56
232.306	164.56
232.541	157.56
232.775	133.56
233.009	156.56
233.243	161.56
233.477	160.56
233.711	157.56
233.945	152.56
234.179	150.56
234.413	169.56
234.647	170.56
234.881	153.56
235.115	177.56
235.349	168.56
235.583	151.56
235.817	153.56
236.051	156.56
236.285	152.56
236.519	166.56
236.753	171.56
236.987	156.56
237.221	169.56
237.455	167.56
237.689	174.56
237.922	166.56
238.156	173.56
238.39	172.56
238.624	187.56
238.858	194.56
239.091	179.56
239.325	185.56
239.559	199.56
239.793	207.56
240.027	201.56
240.26	183.56
240.494	187.56
240.728	188.56
240.961	204.56
241.195	187.56
241.429	205.56
241.662	198.56
241.896	215.56
242.13	223.56
242.363	215.56
242.597	201.56
242.83	207.56
243.064	208.56
243.298	219.56
243.531	219.56
243.765	227.56
243.998	224.56
244.232	231.56
244.465	214.56
244.699	222.56
244.932	222.56
245.166	227.56
245.399	236.56
245.633	225.56
245.866	225.56
246.099	229.56
246.333	243.56
246.566	232.56
246.8	249.56
247.033	247.56
247.266	241.56
247.5	261.56
247.733	257.56
247.966	249.56
248.2	246.56
248.433	263.56
248.666	265.56
248.899	251.56
249.133	263.56
249.366	266.56
249.599	266.56
249.832	274.56
250.066	279.56
250.299	272.56
250.532	273.56
250.765	261.56
250.998	286.56
251.231	311.56
251.465	311.56
251.698	288.56
251.931	283.56
252.164	307.56
252.397	310.56
252.63	290.56
252.863	315.56
253.096	305.56
253.329	296.56
253.562	318.56
253.795	316.56
254.028	317.56
254.261	328.56
254.494	311.56
254.727	316.56
254.96	344.56
255.193	331.56
255.426	346.56
255.659	336.56
255.892	340.56
256.124	341.56
256.357	350.56
256.59	350.56
256.823	343.56
257.056	357.56
257.289	346.56
257.521	369.56
257.754	344.56
257.987	362.56
258.22	355.56
258.452	378.56
258.685	357.56
258.918	376.56
259.151	371.56
259.383	386.56
259.616	371.56
259.849	396.56
260.081	375.56
260.314	380.56
260.547	395.56
260.779	396.56
261.012	370.56
261.244	399.56
261.477	405.56
261.71	382.56
261.942	423.56
262.175	408.56
262.407	401.56
262.64	422.56
262.872	394.56
263.105	403.56
263.337	425.56
263.57	421.56
263.802	409.56
264.035	410.56
264.267	434.56
264.499	427.56
264.732	412.56
264.964	413.56
265.197	422.56
265.429	440.56
265.661	421.56
265.894	426.56
266.126	435.56
266.358	450.56
266.591	461.56
266.823	457.56
267.055	438.56
267.287	453.56
267.52	428.56
267.752	460.56
267.984	457.56
268.216	446.56
268.448	451.56
268.681	430.56
268.913	441.56
269.145	469.56
269.377	458.56
269.609	477.56
269.841	471.56
270.073	470.56
270.306	476.56
270.538	474.56
270.77	495.56
271.002	490.56
271.234	479.56
271.466	478.56
271.698	478.56
271.93	494.56
272.162	485.56
272.394	481.56
272.626	493.56
272.858	488.56
273.09	491.56
273.322	497.56
273.553	477.56
273.785	486.56
274.017	495.56
274.249	511.56
274.481	498.56
274.713	500.56
274.945	495.56
275.176	515.56
275.408	514.56
275.64	514.56
275.872	498.56
276.104	499.56
276.335	506.56
276.567	516.56
276.799	513.56
277.031	529.56
277.262	546.56
277.494	523.56
277.726	537.56
277.957	525.56
278.189	553.56
278.421	533.56
278.652	525.56
278.884	528.56
279.115	548.56
279.347	536.56
279.579	542.56
279.81	541.56
280.042	555.56
280.273	562.56
280.505	549.56
280.736	557.56
280.968	538.56
281.199	554.56
281.431	557.56
281.662	551.56
281.894	531.56
282.125	554.56
282.356	559.56
282.588	548.56
282.819	561.56
283.051	579.56
283.282	519.56
283.513	566.56
283.745	562.56
283.976	562.56
284.207	542.56
284.439	554.56
284.67	577.56
284.901	591.56
285.132	585.56
285.364	573.56
285.595	566.56
285.826	581.56
286.057	587.56
286.288	573.56
286.52	591.56
286.751	595.56
286.982	600.56
287.213	559.56
287.444	586.56
287.675	600.56
287.906	603.56
288.138	588.56
288.369	589.56
288.6	594.56
288.831	601.56
289.062	619.56
289.293	606.56
289.524	616.56
289.755	600.56
289.986	589.56
290.217	596.56
290.448	613.56
290.679	620.56
290.91	620.56
291.141	599.56
291.371	597.56
291.602	595.56
291.833	601.56
292.064	617.56
292.295	609.56
292.526	591.56
292.757	611.56
292.987	605.56
293.218	615.56
293.449	638.56
293.68	621.56
293.91	641.56
294.141	651.56
294.372	594.56
294.603	625.56
294.833	606.56
295.064	649.56
295.295	603.56
295.525	623.56
295.756	610.56
295.987	594.56
296.217	638.56
296.448	621.56
296.679	603.56
296.909	638.56
297.14	643.56
297.37	649.56
297.601	634.56
297.831	633.56
298.062	637.56
298.292	659.56
298.523	651.56
298.753	653.56
298.984	664.56
299.214	646.56
299.445	652.56
299.675	646.56
299.905	654.56
300.136	669.56
300.366	641.56
300.597	684.56
300.827	696.56
301.057	671.56
301.288	670.56
301.518	684.56
301.748	691.56
301.979	655.56
302.209	683.56
302.439	674.56
302.669	689.56
302.9	685.56
303.13	653.56
303.36	679.56
303.59	700.56
303.82	703.56
304.051	699.56
304.281	704.56
304.511	680.56
304.741	702.56
304.971	738.56
305.201	712.56
305.431	702.56
305.661	721.56
305.891	707.56
306.121	717.56
306.352	690.56
306.582	718.56
306.812	714.56
307.042	723.56
307.272	713.56
307.502	709.56
307.731	701.56
307.961	700.56
308.191	730.56
308.421	695.56
308.651	729.56
308.881	682.56
309.111	739.56
309.341	734.56
309.571	737.56
309.8	714.56
310.03	740.56
310.26	761.56
310.49	761.56
310.72	749.56
310.949	726.56
311.179	718.56
311.409	740.56
311.639	765.56
311.868	758.56
312.098	784.56
312.328	775.56
312.557	760.56
312.787	768.56
313.017	762.56
313.246	774.56
313.476	758.56
313.706	796.56
313.935	794.56
314.165	775.56
314.394	805.56
314.624	769.56
314.853	778.56
315.083	771.56
315.312	804.56
315.542	825.56
315.771	802.56
316.001	786.56
316.23	767.56
316.46	821.56
316.689	830.56
316.919	831.56
317.148	815.56
317.377	822.56
317.607	823.56
317.836	821.56
318.065	801.56
318.295	819.56
318.524	827.56
318.753	809.56
318.983	843.56
319.212	831.56
319.441	873.56
319.67	847.56
319.9	852.56
320.129	848.56
320.358	853.56
320.587	883.56
320.816	874.56
321.046	852.56
321.275	900.56
321.504	854.56
321.733	873.56
321.962	853.56
322.191	866.56
322.42	904.56
322.649	865.56
322.878	902.56
323.108	879.56
323.337	877.56
323.566	924.56
323.795	891.56
324.024	911.56
324.253	922.56
324.482	931.56
324.71	908.56
324.939	923.56
325.168	921.56
325.397	900.56
325.626	890.56
325.855	911.56
326.084	947.56
326.313	924.56
326.542	920.56
326.77	952.56
326.999	929.56
327.228	939.56
327.457	925.56
327.686	942.56
327.914	954.56
328.143	955.56
328.372	953.56
328.6	934.56
328.829	954.56
329.058	976.56
329.287	964.56
329.515	963.56
329.744	981.56
329.972	1002.56
330.201	994.56
330.43	987.56
330.658	1001.56
330.887	1009.56
331.115	981.56
331.344	1011.56
331.572	978.56
331.801	991.56
332.03	1002.56
332.258	993.56
332.486	1036.56
332.715	979.56
332.943	1030.56
333.172	1013.56
333.4	1011.56
333.629	1042.56
333.857	1057.56
334.085	1060.56
334.314	1066.56
334.542	1050.56
334.771	1059.56
334.999	1042.56
335.227	1056.56
335.455	1084.56
335.684	1091.56
335.912	1085.56
336.14	1088.56
336.369	1060.56
336.597	1100.56
336.825	1116.56
337.053	1110.56
337.281	1121.56
337.51	1084.56
337.738	1098.56
337.966	1083.56
338.194	1124.56
338.422	1077.56
338.65	1051.56
338.878	1062.56
339.106	1070.56
339.334	1096.56
339.562	1081.56
339.79	1065.56
340.018	1075.56
340.246	1053.56
340.474	1048.56
340.702	1026.56
340.93	1073.56
341.158	1089.56
341.386	1062.56
341.614	1087.56
341.842	1079.56
342.07	1065.56
342.298	1062.56
342.526	1056.56
342.754	1039.56
342.981	1018.56
343.209	1082.56
343.437	1060.56
343.665	1084.56
343.893	1071.56
344.12	1103.56
344.348	1101.56
344.576	1090.56
344.804	1098.56
345.031	1076.56
345.259	1048.56
345.487	1062.56
345.714	1093.56
345.942	1094.56
346.17	1081.56
346.397	1065.56
346.625	1030.56
346.853	1028.56
347.08	1034.56
347.308	1033.56
347.535	1042.56
347.763	1014.56
347.99	1020.56
348.218	1043.56
348.445	974.56
348.673	1025.56
348.9	1027.56
349.128	1034.56
349.355	1035.56
349.583	1045.56
349.81	1004.56
350.037	1011.56
350.265	1017.56
350.492	1018.56
350.72	1013.56
350.947	1044.56
351.174	1037.56
351.402	1039.56
351.629	1050.56
351.856	1037.56
352.083	1031.56
352.311	1023.56
352.538	1061.56
352.765	1052.56
352.992	1015.56
353.22	999.56
353.447	982.56
353.674	1013.56
353.901	1015.56
354.128	988.56
354.355	993.56
354.583	970.56
354.81	993.56
355.037	996.56
355.264	1015.56
355.491	985.56
355.718	984.56
355.945	956.56
356.172	995.56
356.399	1006.56
356.626	1029.56
356.853	1032.56
357.08	988.56
357.307	1033.56
357.534	986.56
357.761	1002.56
357.988	993.56
358.215	1018.56
358.441	996.56
358.668	982.56
358.895	995.56
359.122	1020.56
359.349	1006.56
359.576	998.56
359.802	990.56
360.029	992.56
360.256	991.56
360.483	1002.56
360.709	1038.56
360.936	1001.56
361.163	1011.56
361.39	1064.56
361.616	1001.56
361.843	1064.56
362.07	1054.56
362.296	1049.56
362.523	993.56
362.749	974.56
362.976	990.56
363.203	1021.56
363.429	997.56
363.656	1005.56
363.882	995.56
364.109	1002.56
364.335	980.56
364.562	997.56
364.788	1021.56
365.015	1035.56
365.241	995.56
365.468	1030.56
365.694	993.56
365.92	1009.56
366.147	970.56
366.373	1006.56
366.599	1020.56
366.826	1003.56
367.052	1012.56
367.278	1002.56
367.505	1019.56
367.731	1001.56
367.957	1038.56
368.184	1029.56
368.41	997.56
368.636	1043.56
368.862	1026.56
369.089	1004.56
369.315	1002.56
369.541	999.56
369.767	1036.56
369.993	1032.56
370.219	1040.56
370.445	1016.56
370.672	1055.56
370.898	1029.56
371.124	1039.56
371.35	1034.56
371.576	1026.56
371.802	1020.56
372.028	1059.56
372.254	1036.56
372.48	1057.56
372.706	1052.56
372.932	1053.56
373.158	1010.56
373.384	1038.56
373.61	1082.56
373.835	1063.56
374.061	1048.56
374.287	1060.56
374.513	1010.56
374.739	1057.56
374.965	1053.56
375.191	1039.56
375.416	1050.56
375.642	1022.56
375.868	1050.56
376.094	1047.56
376.319	1039.56
376.545	1023.56
376.771	1034.56
376.997	1063.56
377.222	1021.56
377.448	994.56
377.674	1006.56
377.899	1029.56
378.125	1015.56
378.35	998.56
378.576	994.56
378.802	984.56
379.027	1014.56
379.253	1013.56
379.478	1003.56
379.704	1001.56
379.929	1021.56
380.155	999.56
380.38	1041.56
380.606	994.56
380.831	996.56
381.057	1009.56
381.282	1017.56
381.507	1015.56
381.733	1008.56
381.958	1040.56
382.184	1032.56
382.409	1026.56
382.634	1011.56
382.86	1017.56
383.085	1037.56
383.31	1027.56
383.535	1062.56
383.761	1054.56
383.986	1037.56
384.211	1042.56
384.436	1077.56
384.662	1065.56
384.887	1084.56
385.112	1066.56
385.337	1087.56
385.562	1062.56
385.787	1093.56
386.013	1097.56
386.238	1118.56
386.463	1100.56
386.688	1120.56
386.913	1091.56
387.138	1110.56
387.363	1126.56
387.588	1095.56
387.813	1101.56
388.038	1070.56
388.263	1115.56
388.488	1126.56
388.713	1109.56
388.938	1115.56
389.163	1076.56
389.387	1087.56
389.612	1111.56
389.837	1080.56
390.062	1130.56
390.287	1116.56
390.512	1094.56
390.736	1113.56
390.961	1129.56
391.186	1103.56
391.411	1119.56
391.636	1123.56
391.86	1147.56
392.085	1116.56
392.31	1128.56
392.534	1108.56
392.759	1119.56
392.984	1139.56
393.208	1153.56
393.433	1112.56
393.658	1108.56
393.882	1120.56
394.107	1132.56
394.331	1114.56
394.556	1112.56
394.78	1106.56
395.005	1137.56
395.229	1119.56
395.454	1145.56
395.678	1134.56
395.903	1157.56
396.127	1169.56
396.352	1143.56
396.576	1137.56
396.801	1156.56
397.025	1141.56
397.249	1180.56
397.474	1143.56
397.698	1194.56
397.922	1167.56
398.147	1193.56
398.371	1223.56
398.595	1201.56
398.82	1201.56
399.044	1237.56
399.268	1246.56
399.492	1226.56
399.717	1261.56
399.941	1261.56
400.165	1290.56
400.389	1250.56
400.613	1266.56
400.837	1257.56
401.062	1246.56
401.286	1245.56
401.51	1254.56
401.734	1188.56
401.958	1212.56
402.182	1228.56
402.406	1209.56
402.63	1231.56
402.854	1229.56
403.078	1228.56
403.302	1222.56
403.526	1214.56
403.75	1219.56
403.974	1199.56
404.198	1190.56
404.422	1212.56
404.645	1201.56
404.869	1223.56
405.093	1235.56
405.317	1213.56
405.541	1252.56
405.765	1252.56
405.988	1240.56
406.212	1226.56
406.436	1300.56
406.66	1284.56
406.883	1260.56
407.107	1289.56
407.331	1320.56
407.555	1318.56
407.778	1307.56
408.002	1303.56
408.226	1302.56
408.449	1318.56
408.673	1321.56
408.896	1303.56
409.12	1292.56
409.344	1312.56
409.567	1299.56
409.791	1349.56
410.014	1275.56
410.238	1305.56
410.461	1302.56
410.685	1287.56
410.908	1271.56
411.132	1274.56
411.355	1253.56
411.578	1233.56
411.802	1255.56
412.025	1277.56
412.249	1271.56
412.472	1270.56
412.695	1259.56
412.919	1201.56
413.142	1241.56
413.365	1220.56
413.589	1257.56
413.812	1250.56
414.035	1278.56
414.258	1230.56
414.482	1214.56
414.705	1237.56
414.928	1249.56
415.151	1242.56
415.374	1209.56
415.597	1209.56
415.821	1230.56
416.044	1190.56
416.267	1186.56
416.49	1212.56
416.713	1207.56
416.936	1212.56
417.159	1198.56
417.382	1186.56
417.605	1177.56
417.828	1173.56
418.051	1197.56
418.274	1191.56
418.497	1163.56
418.72	1203.56
418.943	1158.56
419.166	1232.56
419.389	1292.56
419.611	1262.56
419.834	1194.56
420.057	1214.56
420.28	1185.56
420.503	1206.56
420.726	1172.56
420.948	1201.56
421.171	1219.56
421.394	1214.56
421.617	1186.56
421.839	1146.56
422.062	1166.56
422.285	1148.56
422.507	1185.56
422.73	1167.56
422.953	1193.56
423.175	1180.56
423.398	1188.56
423.621	1155.56
423.843	1198.56
424.066	1204.56
424.288	1194.56
424.511	1180.56
424.733	1189.56
424.956	1179.56
425.178	1199.56
425.401	1203.56
425.623	1191.56
425.846	1149.56
426.068	1181.56
426.291	1153.56
426.513	1156.56
426.735	1179.56
426.958	1159.56
427.18	1179.56
427.402	1180.56
427.625	1188.56
427.847	1135.56
428.069	1159.56
428.292	1178.56
428.514	1166.56
428.736	1167.56
428.958	1189.56
429.181	1163.56
429.403	1173.56
429.625	1197.56
429.847	1173.56
430.069	1149.56
430.292	1157.56
430.514	1150.56
430.736	1200.56
430.958	1189.56
431.18	1147.56
431.402	1157.56
431.624	1165.56
431.846	1145.56
432.068	1157.56
432.29	1167.56
432.512	1172.56
432.734	1178.56
432.956	1203.56
433.178	1187.56
433.4	1217.56
433.622	1211.56
433.844	1208.56
434.066	1217.56
434.287	1205.56
434.509	1213.56
434.731	1213.56
434.953	1201.56
435.175	1210.56
435.397	1238.56
435.618	1179.56
435.84	1204.56
436.062	1163.56
436.284	1166.56
436.505	1155.56
436.727	1174.56
436.949	1160.56
437.17	1173.56
437.392	1169.56
437.614	1183.56
437.835	1144.56
438.057	1139.56
438.278	1125.56
438.5	1189.56
438.721	1172.56
438.943	1154.56
439.165	1149.56
439.386	1165.56
439.608	1170.56
439.829	1165.56
440.05	1169.56
440.272	1163.56
440.493	1157.56
440.715	1177.56
440.936	1174.56
441.158	1191.56
441.379	1167.56
441.6	1216.56
441.822	1235.56
442.043	1194.56
442.264	1179.56
442.486	1158.56
442.707	1181.56
442.928	1167.56
443.149	1197.56
443.371	1178.56
443.592	1231.56
443.813	1223.56
444.034	1199.56
444.255	1189.56
444.476	1202.56
444.698	1198.56
444.919	1226.56
445.14	1343.56
445.361	1255.56
445.582	1201.56
445.803	1185.56
446.024	1195.56
446.245	1174.56
446.466	1145.56
446.687	1141.56
446.908	1154.56
447.129	1150.56
447.35	1116.56
447.571	1166.56
447.792	1128.56
448.013	1133.56
448.234	1141.56
448.455	1116.56
448.675	1113.56
448.896	1126.56
449.117	1091.56
449.338	1073.56
449.559	1079.56
449.779	1056.56
450	1099.56
450.221	1077.56
450.442	1081.56
450.662	1088.56
450.883	1088.56
451.104	1099.56
451.324	1074.56
451.545	1101.56
451.766	1092.56
451.986	1069.56
452.207	1054.56
452.428	1017.56
452.648	1057.56
452.869	1070.56
453.089	1050.56
453.31	1068.56
453.53	1054.56
453.751	1073.56
453.971	1082.56
454.192	1058.56
454.412	1078.56
454.633	1043.56
454.853	1054.56
455.073	1054.56
455.294	1039.56
455.514	1045.56
455.734	1073.56
455.955	1073.56
456.175	1074.56
456.395	1058.56
456.616	1034.56
456.836	1049.56
457.056	1051.56
457.276	1065.56
457.497	1058.56
457.717	1058.56
457.937	1085.56
458.157	1073.56
458.377	1074.56
458.598	1077.56
458.818	1069.56
459.038	1092.56
459.258	1077.56
459.478	1122.56
459.698	1187.56
459.918	1158.56
460.138	1139.56
460.358	1197.56
460.578	1169.56
460.798	1185.56
461.018	1193.56
461.238	1185.56
461.458	1193.56
461.678	1172.56
461.898	1187.56
462.118	1170.56
462.338	1206.56
462.558	1226.56
462.777	1255.56
462.997	1265.56
463.217	1266.56
463.437	1286.56
463.657	1261.56
463.876	1203.56
464.096	1219.56
464.316	1246.56
464.536	1229.56
464.755	1242.56
464.975	1182.56
465.195	1217.56
465.414	1185.56
465.634	1131.56
465.854	1170.56
466.073	1133.56
466.293	1142.56
466.512	1146.56
466.732	1140.56
466.951	1162.56
467.171	1132.56
467.391	1136.56
467.61	1145.56
467.829	1126.56
468.049	1119.56
468.268	1109.56
468.488	1114.56
468.707	1116.56
468.927	1128.56
469.146	1129.56
469.365	1150.56
469.585	1115.56
469.804	1139.56
470.023	1152.56
470.243	1123.56
470.462	1136.56
470.681	1127.56
470.901	1130.56
471.12	1125.56
471.339	1143.56
471.558	1147.56
471.777	1117.56
471.997	1153.56
472.216	1109.56
472.435	1117.56
472.654	1134.56
472.873	1095.56
473.092	1129.56
473.311	1168.56
473.53	1139.56
473.749	1153.56
473.968	1167.56
474.187	1157.56
474.406	1139.56
474.625	1172.56
474.844	1181.56
475.063	1156.56
475.282	1145.56
475.501	1198.56
475.72	1183.56
475.939	1210.56
476.158	1202.56
476.377	1209.56
476.596	1208.56
476.814	1221.56
477.033	1158.56
477.252	1222.56
477.471	1279.56
477.69	1247.56
477.908	1267.56
478.127	1256.56
478.346	1286.56
478.564	1299.56
478.783	1299.56
479.002	1331.56
479.22	1356.56
479.439	1313.56
479.658	1331.56
479.876	1303.56
480.095	1339.56
480.313	1344.56
480.532	1321.56
480.751	1353.56
480.969	1315.56
481.188	1326.56
481.406	1337.56
481.624	1344.56
481.843	1310.56
482.061	1297.56
482.28	1309.56
482.498	1338.56
482.717	1331.56
482.935	1332.56
483.153	1343.56
483.372	1412.56
483.59	1398.56
483.808	1375.56
484.027	1356.56
484.245	1371.56
484.463	1353.56
484.681	1382.56
484.9	1372.56
485.118	1377.56
485.336	1371.56
485.554	1367.56
485.772	1400.56
485.99	1368.56
486.209	1387.56
486.427	1377.56
486.645	1385.56
486.863	1406.56
487.081	1403.56
487.299	1413.56
487.517	1383.56
487.735	1431.56
487.953	1452.56
488.171	1473.56
488.389	1430.56
488.607	1411.56
488.825	1387.56
489.043	1387.56
489.261	1377.56
489.479	1402.56
489.696	1389.56
489.914	1399.56
490.132	1447.56
490.35	1435.56
490.568	1428.56
490.786	1462.56
491.003	1438.56
491.221	1405.56
491.439	1430.56
491.657	1454.56
491.874	1452.56
492.092	1463.56
492.31	1481.56
