Data from Ni(NO3)2Standard.Agarose3%.GreenCap.LampEnergy5.5.E.O_HRD10591_14-39-06-188.txt Node
Date: Mon Jul 22 14:39:06 EDT 2019
User: cochatt
Spectrometer: HR+D1059
Trigger mode: 1
Integration Time (sec): 1.000000E-1
Scans to average: 1
Electric dark correction enabled: true
Nonlinearity correction enabled: false
Boxcar width: 0
XAxis mode: Wavelengths
Number of Pixels in Spectrum: 2048
>>>>>Begin Spectral Data<<<<<
223.165	-11.88
223.4	-11.88
223.635	-11.88
223.869	-6.88
224.104	-18.88
224.338	-10.88
224.573	-12.88
224.808	-19.88
225.042	-3.88
225.277	-11.88
225.511	-8.88
225.746	-4.88
225.98	-2.88
226.215	13.12
226.449	7.12
226.683	18.12
226.918	38.12
227.152	37.12
227.387	36.12
227.621	31.12
227.856	41.12
228.09	39.12
228.324	66.12
228.559	54.12
228.793	68.12
229.027	65.12
229.262	74.12
229.496	64.12
229.73	57.12
229.964	79.12
230.199	79.12
230.433	83.12
230.667	73.12
230.901	85.12
231.136	82.12
231.37	83.12
231.604	73.12
231.838	84.12
232.072	96.12
232.306	70.12
232.541	72.12
232.775	95.12
233.009	72.12
233.243	75.12
233.477	81.12
233.711	80.12
233.945	79.12
234.179	81.12
234.413	90.12
234.647	79.12
234.881	65.12
235.115	77.12
235.349	82.12
235.583	73.12
235.817	67.12
236.051	89.12
236.285	70.12
236.519	74.12
236.753	73.12
236.987	84.12
237.221	68.12
237.455	75.12
237.689	80.12
237.922	54.12
238.156	73.12
238.39	70.12
238.624	75.12
238.858	76.12
239.091	76.12
239.325	65.12
239.559	81.12
239.793	62.12
240.027	75.12
240.26	78.12
240.494	82.12
240.728	76.12
240.961	70.12
241.195	65.12
241.429	75.12
241.662	82.12
241.896	82.12
242.13	74.12
242.363	86.12
242.597	77.12
242.83	78.12
243.064	72.12
243.298	69.12
243.531	67.12
243.765	77.12
243.998	76.12
244.232	84.12
244.465	95.12
244.699	78.12
244.932	77.12
245.166	85.12
245.399	76.12
245.633	76.12
245.866	81.12
246.099	82.12
246.333	80.12
246.566	86.12
246.8	84.12
247.033	74.12
247.266	68.12
247.5	72.12
247.733	78.12
247.966	93.12
248.2	89.12
248.433	80.12
248.666	69.12
248.899	79.12
249.133	72.12
249.366	78.12
249.599	81.12
249.832	93.12
250.066	88.12
250.299	80.12
250.532	76.12
250.765	89.12
250.998	76.12
251.231	82.12
251.465	82.12
251.698	87.12
251.931	82.12
252.164	81.12
252.397	70.12
252.63	80.12
252.863	82.12
253.096	99.12
253.329	90.12
253.562	85.12
253.795	81.12
254.028	76.12
254.261	80.12
254.494	95.12
254.727	77.12
254.96	82.12
255.193	87.12
255.426	87.12
255.659	80.12
255.892	81.12
256.124	80.12
256.357	78.12
256.59	80.12
256.823	82.12
257.056	88.12
257.289	82.12
257.521	82.12
257.754	83.12
257.987	86.12
258.22	85.12
258.452	89.12
258.685	75.12
258.918	79.12
259.151	90.12
259.383	90.12
259.616	104.12
259.849	99.12
260.081	88.12
260.314	86.12
260.547	78.12
260.779	84.12
261.012	84.12
261.244	77.12
261.477	82.12
261.71	89.12
261.942	83.12
262.175	81.12
262.407	82.12
262.64	91.12
262.872	87.12
263.105	93.12
263.337	94.12
263.57	92.12
263.802	88.12
264.035	92.12
264.267	75.12
264.499	89.12
264.732	84.12
264.964	74.12
265.197	75.12
265.429	83.12
265.661	74.12
265.894	71.12
266.126	83.12
266.358	84.12
266.591	78.12
266.823	78.12
267.055	80.12
267.287	90.12
267.52	78.12
267.752	89.12
267.984	82.12
268.216	94.12
268.448	83.12
268.681	80.12
268.913	72.12
269.145	105.12
269.377	88.12
269.609	88.12
269.841	101.12
270.073	90.12
270.306	93.12
270.538	85.12
270.77	93.12
271.002	97.12
271.234	89.12
271.466	75.12
271.698	74.12
271.93	78.12
272.162	92.12
272.394	92.12
272.626	85.12
272.858	86.12
273.09	85.12
273.322	99.12
273.553	82.12
273.785	91.12
274.017	85.12
274.249	89.12
274.481	94.12
274.713	79.12
274.945	98.12
275.176	78.12
275.408	78.12
275.64	76.12
275.872	62.12
276.104	85.12
276.335	77.12
276.567	85.12
276.799	89.12
277.031	84.12
277.262	82.12
277.494	83.12
277.726	106.12
277.957	87.12
278.189	84.12
278.421	82.12
278.652	83.12
278.884	71.12
279.115	80.12
279.347	77.12
279.579	84.12
279.81	105.12
280.042	85.12
280.273	81.12
280.505	87.12
280.736	91.12
280.968	75.12
281.199	78.12
281.431	86.12
281.662	73.12
281.894	69.12
282.125	90.12
282.356	80.12
282.588	85.12
282.819	86.12
283.051	89.12
283.282	74.12
283.513	81.12
283.745	83.12
283.976	86.12
284.207	80.12
284.439	82.12
284.67	90.12
284.901	92.12
285.132	79.12
285.364	95.12
285.595	97.12
285.826	85.12
286.057	78.12
286.288	92.12
286.52	88.12
286.751	83.12
286.982	85.12
287.213	89.12
287.444	93.12
287.675	79.12
287.906	83.12
288.138	88.12
288.369	82.12
288.6	89.12
288.831	93.12
289.062	89.12
289.293	86.12
289.524	94.12
289.755	81.12
289.986	88.12
290.217	86.12
290.448	84.12
290.679	88.12
290.91	98.12
291.141	88.12
291.371	89.12
291.602	74.12
291.833	81.12
292.064	84.12
292.295	86.12
292.526	78.12
292.757	86.12
292.987	74.12
293.218	96.12
293.449	78.12
293.68	82.12
293.91	89.12
294.141	91.12
294.372	85.12
294.603	86.12
294.833	81.12
295.064	79.12
295.295	85.12
295.525	86.12
295.756	83.12
295.987	82.12
296.217	78.12
296.448	72.12
296.679	70.12
296.909	103.12
297.14	84.12
297.37	85.12
297.601	83.12
297.831	92.12
298.062	91.12
298.292	85.12
298.523	88.12
298.753	96.12
298.984	88.12
299.214	103.12
299.445	91.12
299.675	81.12
299.905	96.12
300.136	97.12
300.366	85.12
300.597	95.12
300.827	90.12
301.057	83.12
301.288	81.12
301.518	94.12
301.748	88.12
301.979	84.12
302.209	81.12
302.439	80.12
302.669	82.12
302.9	94.12
303.13	90.12
303.36	92.12
303.59	78.12
303.82	74.12
304.051	92.12
304.281	84.12
304.511	83.12
304.741	84.12
304.971	85.12
305.201	84.12
305.431	86.12
305.661	80.12
305.891	83.12
306.121	89.12
306.352	95.12
306.582	89.12
306.812	90.12
307.042	97.12
307.272	84.12
307.502	86.12
307.731	83.12
307.961	87.12
308.191	78.12
308.421	98.12
308.651	94.12
308.881	82.12
309.111	86.12
309.341	91.12
309.571	85.12
309.8	94.12
310.03	91.12
310.26	98.12
310.49	82.12
310.72	86.12
310.949	86.12
311.179	93.12
311.409	77.12
311.639	93.12
311.868	88.12
312.098	81.12
312.328	88.12
312.557	87.12
312.787	74.12
313.017	92.12
313.246	92.12
313.476	77.12
313.706	94.12
313.935	89.12
314.165	91.12
314.394	81.12
314.624	112.12
314.853	81.12
315.083	87.12
315.312	94.12
315.542	100.12
315.771	90.12
316.001	90.12
316.23	80.12
316.46	90.12
316.689	101.12
316.919	86.12
317.148	93.12
317.377	88.12
317.607	87.12
317.836	77.12
318.065	78.12
318.295	90.12
318.524	102.12
318.753	82.12
318.983	92.12
319.212	92.12
319.441	88.12
319.67	93.12
319.9	84.12
320.129	80.12
320.358	95.12
320.587	85.12
320.816	88.12
321.046	81.12
321.275	96.12
321.504	89.12
321.733	87.12
321.962	99.12
322.191	91.12
322.42	83.12
322.649	94.12
322.878	86.12
323.108	91.12
323.337	94.12
323.566	76.12
323.795	94.12
324.024	87.12
324.253	87.12
324.482	83.12
324.71	85.12
324.939	97.12
325.168	90.12
325.397	91.12
325.626	97.12
325.855	95.12
326.084	77.12
326.313	96.12
326.542	83.12
326.77	88.12
326.999	81.12
327.228	96.12
327.457	83.12
327.686	86.12
327.914	89.12
328.143	88.12
328.372	81.12
328.6	86.12
328.829	82.12
329.058	83.12
329.287	89.12
329.515	70.12
329.744	104.12
329.972	69.12
330.201	87.12
330.43	80.12
330.658	83.12
330.887	87.12
331.115	96.12
331.344	83.12
331.572	88.12
331.801	96.12
332.03	96.12
332.258	83.12
332.486	82.12
332.715	81.12
332.943	91.12
333.172	98.12
333.4	93.12
333.629	98.12
333.857	89.12
334.085	92.12
334.314	72.12
334.542	83.12
334.771	89.12
334.999	95.12
335.227	82.12
335.455	85.12
335.684	95.12
335.912	97.12
336.14	91.12
336.369	86.12
336.597	88.12
336.825	83.12
337.053	83.12
337.281	100.12
337.51	79.12
337.738	92.12
337.966	85.12
338.194	90.12
338.422	73.12
338.65	85.12
338.878	97.12
339.106	86.12
339.334	74.12
339.562	92.12
339.79	99.12
340.018	91.12
340.246	93.12
340.474	84.12
340.702	87.12
340.93	96.12
341.158	81.12
341.386	71.12
341.614	87.12
341.842	77.12
342.07	100.12
342.298	92.12
342.526	83.12
342.754	77.12
342.981	88.12
343.209	89.12
343.437	99.12
343.665	88.12
343.893	91.12
344.12	102.12
344.348	87.12
344.576	88.12
344.804	86.12
345.031	78.12
345.259	88.12
345.487	91.12
345.714	90.12
345.942	94.12
346.17	87.12
346.397	104.12
346.625	89.12
346.853	79.12
347.08	81.12
347.308	92.12
347.535	92.12
347.763	78.12
347.99	79.12
348.218	97.12
348.445	100.12
348.673	85.12
348.9	81.12
349.128	89.12
349.355	100.12
349.583	88.12
349.81	86.12
350.037	85.12
350.265	81.12
350.492	86.12
350.72	78.12
350.947	97.12
351.174	84.12
351.402	93.12
351.629	102.12
351.856	92.12
352.083	85.12
352.311	84.12
352.538	79.12
352.765	100.12
352.992	101.12
353.22	83.12
353.447	88.12
353.674	92.12
353.901	102.12
354.128	91.12
354.355	85.12
354.583	83.12
354.81	87.12
355.037	104.12
355.264	94.12
355.491	93.12
355.718	92.12
355.945	85.12
356.172	88.12
356.399	74.12
356.626	75.12
356.853	81.12
357.08	83.12
357.307	98.12
357.534	104.12
357.761	88.12
357.988	101.12
358.215	80.12
358.441	80.12
358.668	105.12
358.895	81.12
359.122	86.12
359.349	76.12
359.576	85.12
359.802	84.12
360.029	88.12
360.256	78.12
360.483	68.12
360.709	83.12
360.936	87.12
361.163	84.12
361.39	72.12
361.616	105.12
361.843	90.12
362.07	94.12
362.296	73.12
362.523	94.12
362.749	91.12
362.976	92.12
363.203	80.12
363.429	82.12
363.656	81.12
363.882	86.12
364.109	96.12
364.335	93.12
364.562	91.12
364.788	89.12
365.015	91.12
365.241	87.12
365.468	85.12
365.694	88.12
365.92	85.12
366.147	75.12
366.373	78.12
366.599	89.12
366.826	94.12
367.052	81.12
367.278	88.12
367.505	97.12
367.731	88.12
367.957	79.12
368.184	79.12
368.41	92.12
368.636	65.12
368.862	87.12
369.089	83.12
369.315	75.12
369.541	94.12
369.767	92.12
369.993	76.12
370.219	85.12
370.445	87.12
370.672	73.12
370.898	88.12
371.124	77.12
371.35	78.12
371.576	77.12
371.802	97.12
372.028	85.12
372.254	83.12
372.48	87.12
372.706	59.12
372.932	79.12
373.158	80.12
373.384	100.12
373.61	92.12
373.835	94.12
374.061	78.12
374.287	85.12
374.513	92.12
374.739	90.12
374.965	93.12
375.191	77.12
375.416	76.12
375.642	86.12
375.868	78.12
376.094	72.12
376.319	93.12
376.545	93.12
376.771	80.12
376.997	83.12
377.222	79.12
377.448	85.12
377.674	80.12
377.899	82.12
378.125	78.12
378.35	86.12
378.576	88.12
378.802	77.12
379.027	84.12
379.253	83.12
379.478	93.12
379.704	86.12
379.929	87.12
380.155	88.12
380.38	81.12
380.606	78.12
380.831	86.12
381.057	96.12
381.282	82.12
381.507	97.12
381.733	94.12
381.958	89.12
382.184	90.12
382.409	75.12
382.634	83.12
382.86	83.12
383.085	93.12
383.31	87.12
383.535	91.12
383.761	81.12
383.986	93.12
384.211	90.12
384.436	79.12
384.662	80.12
384.887	82.12
385.112	90.12
385.337	76.12
385.562	68.12
385.787	94.12
386.013	95.12
386.238	80.12
386.463	83.12
386.688	89.12
386.913	82.12
387.138	93.12
387.363	78.12
387.588	86.12
387.813	84.12
388.038	79.12
388.263	87.12
388.488	101.12
388.713	84.12
388.938	91.12
389.163	81.12
389.387	72.12
389.612	72.12
389.837	86.12
390.062	76.12
390.287	88.12
390.512	92.12
390.736	90.12
390.961	86.12
391.186	85.12
391.411	88.12
391.636	86.12
391.86	97.12
392.085	91.12
392.31	108.12
392.534	83.12
392.759	88.12
392.984	87.12
393.208	84.12
393.433	80.12
393.658	84.12
393.882	94.12
394.107	84.12
394.331	74.12
394.556	75.12
394.78	79.12
395.005	76.12
395.229	87.12
395.454	99.12
395.678	85.12
395.903	90.12
396.127	87.12
396.352	81.12
396.576	84.12
396.801	93.12
397.025	87.12
397.249	85.12
397.474	83.12
397.698	78.12
397.922	99.12
398.147	89.12
398.371	83.12
398.595	77.12
398.82	92.12
399.044	84.12
399.268	93.12
399.492	75.12
399.717	93.12
399.941	92.12
400.165	95.12
400.389	88.12
400.613	96.12
400.837	80.12
401.062	93.12
401.286	94.12
401.51	79.12
401.734	93.12
401.958	96.12
402.182	82.12
402.406	73.12
402.63	70.12
402.854	88.12
403.078	83.12
403.302	80.12
403.526	91.12
403.75	90.12
403.974	87.12
404.198	85.12
404.422	105.12
404.645	75.12
404.869	92.12
405.093	77.12
405.317	81.12
405.541	94.12
405.765	99.12
405.988	85.12
406.212	94.12
406.436	99.12
406.66	76.12
406.883	82.12
407.107	98.12
407.331	84.12
407.555	98.12
407.778	89.12
408.002	85.12
408.226	83.12
408.449	92.12
408.673	77.12
408.896	88.12
409.12	93.12
409.344	74.12
409.567	92.12
409.791	84.12
410.014	93.12
410.238	99.12
410.461	86.12
410.685	70.12
410.908	101.12
411.132	93.12
411.355	78.12
411.578	99.12
411.802	97.12
412.025	90.12
412.249	84.12
412.472	84.12
412.695	82.12
412.919	93.12
413.142	70.12
413.365	78.12
413.589	99.12
413.812	89.12
414.035	88.12
414.258	93.12
414.482	83.12
414.705	79.12
414.928	87.12
415.151	81.12
415.374	77.12
415.597	93.12
415.821	78.12
416.044	96.12
416.267	79.12
416.49	82.12
416.713	91.12
416.936	98.12
417.159	97.12
417.382	81.12
417.605	82.12
417.828	92.12
418.051	93.12
418.274	72.12
418.497	82.12
418.72	77.12
418.943	86.12
419.166	90.12
419.389	76.12
419.611	83.12
419.834	96.12
420.057	83.12
420.28	90.12
420.503	94.12
420.726	80.12
420.948	89.12
421.171	104.12
421.394	72.12
421.617	63.12
421.839	98.12
422.062	76.12
422.285	94.12
422.507	77.12
422.73	89.12
422.953	90.12
423.175	82.12
423.398	96.12
423.621	101.12
423.843	89.12
424.066	72.12
424.288	78.12
424.511	90.12
424.733	82.12
424.956	78.12
425.178	100.12
425.401	89.12
425.623	68.12
425.846	88.12
426.068	85.12
426.291	88.12
426.513	97.12
426.735	91.12
426.958	74.12
427.18	81.12
427.402	96.12
427.625	92.12
427.847	87.12
428.069	78.12
428.292	84.12
428.514	76.12
428.736	86.12
428.958	90.12
429.181	79.12
429.403	85.12
429.625	84.12
429.847	90.12
430.069	89.12
430.292	107.12
430.514	81.12
430.736	90.12
430.958	72.12
431.18	85.12
431.402	94.12
431.624	90.12
431.846	70.12
432.068	76.12
432.29	85.12
432.512	86.12
432.734	98.12
432.956	72.12
433.178	89.12
433.4	88.12
433.622	85.12
433.844	80.12
434.066	87.12
434.287	85.12
434.509	84.12
434.731	87.12
434.953	92.12
435.175	96.12
435.397	92.12
435.618	98.12
435.84	78.12
436.062	75.12
436.284	85.12
436.505	76.12
436.727	98.12
436.949	83.12
437.17	104.12
437.392	96.12
437.614	74.12
437.835	97.12
438.057	78.12
438.278	85.12
438.5	93.12
438.721	89.12
438.943	91.12
439.165	91.12
439.386	84.12
439.608	98.12
439.829	88.12
440.05	96.12
440.272	96.12
440.493	96.12
440.715	93.12
440.936	92.12
441.158	82.12
441.379	92.12
441.6	69.12
441.822	102.12
442.043	78.12
442.264	85.12
442.486	103.12
442.707	73.12
442.928	92.12
443.149	92.12
443.371	95.12
443.592	86.12
443.813	77.12
444.034	86.12
444.255	77.12
444.476	93.12
444.698	77.12
444.919	89.12
445.14	229.12
445.361	140.12
445.582	76.12
445.803	85.12
446.024	84.12
446.245	89.12
446.466	91.12
446.687	70.12
446.908	86.12
447.129	91.12
447.35	74.12
447.571	92.12
447.792	82.12
448.013	95.12
448.234	66.12
448.455	73.12
448.675	90.12
448.896	97.12
449.117	98.12
449.338	73.12
449.559	85.12
449.779	97.12
450	98.12
450.221	101.12
450.442	89.12
450.662	83.12
450.883	81.12
451.104	91.12
451.324	74.12
451.545	90.12
451.766	84.12
451.986	82.12
452.207	93.12
452.428	76.12
452.648	86.12
452.869	77.12
453.089	87.12
453.31	89.12
453.53	79.12
453.751	85.12
453.971	98.12
454.192	88.12
454.412	81.12
454.633	79.12
454.853	86.12
455.073	86.12
455.294	90.12
455.514	86.12
455.734	74.12
455.955	80.12
456.175	84.12
456.395	88.12
456.616	90.12
456.836	83.12
457.056	90.12
457.276	96.12
457.497	79.12
457.717	76.12
457.937	86.12
458.157	84.12
458.377	90.12
458.598	100.12
458.818	82.12
459.038	90.12
459.258	88.12
459.478	94.12
459.698	101.12
459.918	88.12
460.138	102.12
460.358	93.12
460.578	83.12
460.798	84.12
461.018	92.12
461.238	79.12
461.458	85.12
461.678	69.12
461.898	108.12
462.118	88.12
462.338	81.12
462.558	91.12
462.777	92.12
462.997	87.12
463.217	85.12
463.437	89.12
463.657	79.12
463.876	91.12
464.096	88.12
464.316	86.12
464.536	93.12
464.755	85.12
464.975	85.12
465.195	93.12
465.414	94.12
465.634	82.12
465.854	75.12
466.073	84.12
466.293	92.12
466.512	85.12
466.732	98.12
466.951	80.12
467.171	82.12
467.391	80.12
467.61	94.12
467.829	74.12
468.049	105.12
468.268	85.12
468.488	97.12
468.707	88.12
468.927	91.12
469.146	89.12
469.365	89.12
469.585	86.12
469.804	101.12
470.023	100.12
470.243	96.12
470.462	106.12
470.681	92.12
470.901	74.12
471.12	84.12
471.339	99.12
471.558	93.12
471.777	96.12
471.997	84.12
472.216	85.12
472.435	96.12
472.654	87.12
472.873	88.12
473.092	90.12
473.311	82.12
473.53	90.12
473.749	84.12
473.968	92.12
474.187	91.12
474.406	84.12
474.625	87.12
474.844	92.12
475.063	105.12
475.282	90.12
475.501	76.12
475.72	94.12
475.939	98.12
476.158	85.12
476.377	85.12
476.596	94.12
476.814	90.12
477.033	93.12
477.252	78.12
477.471	81.12
477.69	86.12
477.908	90.12
478.127	84.12
478.346	82.12
478.564	104.12
478.783	80.12
479.002	97.12
479.22	92.12
479.439	90.12
479.658	94.12
479.876	81.12
480.095	98.12
480.313	101.12
480.532	94.12
480.751	94.12
480.969	100.12
481.188	91.12
481.406	82.12
481.624	106.12
481.843	93.12
482.061	101.12
482.28	99.12
482.498	92.12
482.717	92.12
482.935	101.12
483.153	95.12
483.372	102.12
483.59	98.12
483.808	82.12
484.027	93.12
484.245	93.12
484.463	93.12
484.681	109.12
484.9	95.12
485.118	88.12
485.336	85.12
485.554	80.12
485.772	73.12
485.99	100.12
486.209	100.12
486.427	100.12
486.645	103.12
486.863	97.12
487.081	86.12
487.299	94.12
487.517	95.12
487.735	114.12
487.953	100.12
488.171	101.12
488.389	94.12
488.607	104.12
488.825	85.12
489.043	106.12
489.261	91.12
489.479	96.12
489.696	90.12
489.914	99.12
490.132	98.12
490.35	92.12
490.568	93.12
490.786	102.12
491.003	94.12
491.221	85.12
491.439	95.12
491.657	98.12
491.874	99.12
492.092	94.12
492.31	108.12
492.527	123.12
492.745	116.12
492.963	112.12
493.18	94.12
493.398	109.12
493.615	103.12
493.833	90.12
494.05	118.12
494.268	95.12
494.485	109.12
494.703	110.12
494.92	101.12
495.138	103.12
495.355	107.12
495.573	94.12
495.79	105.12
496.008	98.12
496.225	93.12
496.442	94.12
496.66	94.12
496.877	95.12
497.094	116.12
497.312	89.12
497.529	95.12
497.746	102.12
497.963	91.12
498.181	106.12
498.398	94.12
498.615	97.12
498.832	97.12
499.049	90.12
499.267	98.12
499.484	97.12
499.701	100.12
499.918	116.12
500.135	101.12
500.352	100.12
500.569	103.12
500.786	120.12
501.003	102.12
501.22	110.12
501.437	116.12
501.654	98.12
501.871	96.12
502.088	99.12
502.305	96.12
502.522	96.12
502.739	96.12
502.956	115.12
503.172	89.12
503.389	78.12
503.606	105.12
503.823	101.12
504.04	107.12
504.256	97.12
504.473	101.12
504.69	89.12
504.907	107.12
505.123	101.12
505.34	100.12
505.557	88.12
505.773	94.12
505.99	96.12
506.207	95.12
506.423	101.12
506.64	106.12
506.856	99.12
507.073	85.12
507.289	108.12
507.506	89.12
507.722	96.12
507.939	86.12
508.155	98.12
508.372	79.12
508.588	94.12
508.805	91.12
509.021	106.12
509.238	91.12
509.454	97.12
509.67	93.12
509.887	96.12
510.103	90.12
510.319	72.12
510.536	88.12
510.752	90.12
510.968	83.12
511.184	100.12
511.401	86.12
511.617	93.12
511.833	97.12
512.049	87.12
512.265	91.12
512.481	96.12
512.698	101.12
512.914	92.12
513.13	100.12
513.346	109.12
513.562	93.12
513.778	97.12
513.994	96.12
514.21	90.12
514.426	85.12
514.642	81.12
514.858	103.12
515.074	97.12
515.29	93.12
515.506	99.12
515.721	94.12
515.937	91.12
516.153	83.12
516.369	101.12
516.585	103.12
516.801	97.12
517.016	82.12
517.232	90.12
517.448	99.12
517.664	91.12
517.879	108.12
