Data from Ni(NO3)2@0.5M.TitratingCurve.Agarose3%dH2O.NegLispCup.LampEnergy10.LIBS07252019_HRD10591_17-59-38-564.txt Node
Date: Thu Jul 25 17:59:38 EDT 2019
User: cochatt
Spectrometer: HR+D1059
Trigger mode: 1
Integration Time (sec): 1.000000E-1
Scans to average: 1
Electric dark correction enabled: true
Nonlinearity correction enabled: false
Boxcar width: 0
XAxis mode: Wavelengths
Number of Pixels in Spectrum: 2048
>>>>>Begin Spectral Data<<<<<
223.165	-22.06
223.4	-22.06
223.635	-22.06
223.869	-17.06
224.104	-10.06
224.338	-18.06
224.573	-15.06
224.808	-5.06
225.042	-11.06
225.277	-12.06
225.511	-8.06
225.746	10.94
225.98	11.94
226.215	12.94
226.449	12.94
226.683	25.94
226.918	12.94
227.152	30.94
227.387	37.94
227.621	16.94
227.856	37.94
228.09	35.94
228.324	37.94
228.559	53.94
228.793	69.94
229.027	101.94
229.262	115.94
229.496	130.94
229.73	139.94
229.964	148.94
230.199	169.94
230.433	177.94
230.667	154.94
230.901	156.94
231.136	165.94
231.37	148.94
231.604	161.94
231.838	174.94
232.072	178.94
232.306	187.94
232.541	154.94
232.775	153.94
233.009	137.94
233.243	145.94
233.477	157.94
233.711	155.94
233.945	169.94
234.179	164.94
234.413	154.94
234.647	154.94
234.881	150.94
235.115	154.94
235.349	152.94
235.583	150.94
235.817	144.94
236.051	140.94
236.285	145.94
236.519	139.94
236.753	133.94
236.987	134.94
237.221	146.94
237.455	149.94
237.689	149.94
237.922	163.94
238.156	151.94
238.39	147.94
238.624	156.94
238.858	169.94
239.091	164.94
239.325	161.94
239.559	192.94
239.793	187.94
240.027	187.94
240.26	179.94
240.494	168.94
240.728	159.94
240.961	170.94
241.195	176.94
241.429	168.94
241.662	190.94
241.896	204.94
242.13	203.94
242.363	181.94
242.597	177.94
242.83	177.94
243.064	174.94
243.298	174.94
243.531	191.94
243.765	202.94
243.998	191.94
244.232	203.94
244.465	190.94
244.699	200.94
244.932	208.94
245.166	183.94
245.399	198.94
245.633	196.94
245.866	194.94
246.099	202.94
246.333	176.94
246.566	198.94
246.8	204.94
247.033	195.94
247.266	199.94
247.5	197.94
247.733	221.94
247.966	230.94
248.2	225.94
248.433	222.94
248.666	216.94
248.899	221.94
249.133	219.94
249.366	227.94
249.599	207.94
249.832	225.94
250.066	213.94
250.299	212.94
250.532	228.94
250.765	211.94
250.998	235.94
251.231	245.94
251.465	263.94
251.698	248.94
251.931	250.94
252.164	230.94
252.397	260.94
252.63	250.94
252.863	235.94
253.096	258.94
253.329	229.94
253.562	241.94
253.795	246.94
254.028	254.94
254.261	256.94
254.494	257.94
254.727	235.94
254.96	257.94
255.193	268.94
255.426	280.94
255.659	252.94
255.892	257.94
256.124	260.94
256.357	262.94
256.59	273.94
256.823	279.94
257.056	274.94
257.289	277.94
257.521	281.94
257.754	273.94
257.987	265.94
258.22	291.94
258.452	306.94
258.685	281.94
258.918	274.94
259.151	293.94
259.383	274.94
259.616	279.94
259.849	286.94
260.081	284.94
260.314	292.94
260.547	290.94
260.779	294.94
261.012	312.94
261.244	295.94
261.477	315.94
261.71	308.94
261.942	293.94
262.175	320.94
262.407	307.94
262.64	299.94
262.872	301.94
263.105	307.94
263.337	309.94
263.57	314.94
263.802	295.94
264.035	307.94
264.267	295.94
264.499	317.94
264.732	317.94
264.964	337.94
265.197	323.94
265.429	325.94
265.661	329.94
265.894	327.94
266.126	324.94
266.358	320.94
266.591	326.94
266.823	331.94
267.055	323.94
267.287	342.94
267.52	354.94
267.752	341.94
267.984	342.94
268.216	342.94
268.448	342.94
268.681	346.94
268.913	363.94
269.145	352.94
269.377	367.94
269.609	347.94
269.841	345.94
270.073	358.94
270.306	352.94
270.538	358.94
270.77	356.94
271.002	351.94
271.234	357.94
271.466	367.94
271.698	355.94
271.93	354.94
272.162	365.94
272.394	360.94
272.626	334.94
272.858	358.94
273.09	363.94
273.322	379.94
273.553	376.94
273.785	357.94
274.017	381.94
274.249	381.94
274.481	391.94
274.713	389.94
274.945	381.94
275.176	379.94
275.408	400.94
275.64	383.94
275.872	377.94
276.104	378.94
276.335	371.94
276.567	381.94
276.799	400.94
277.031	394.94
277.262	407.94
277.494	391.94
277.726	399.94
277.957	390.94
278.189	389.94
278.421	413.94
278.652	415.94
278.884	415.94
279.115	398.94
279.347	398.94
279.579	408.94
279.81	389.94
280.042	390.94
280.273	389.94
280.505	401.94
280.736	418.94
280.968	414.94
281.199	414.94
281.431	404.94
281.662	437.94
281.894	424.94
282.125	427.94
282.356	455.94
282.588	446.94
282.819	438.94
283.051	424.94
283.282	441.94
283.513	450.94
283.745	444.94
283.976	459.94
284.207	431.94
284.439	447.94
284.67	463.94
284.901	437.94
285.132	454.94
285.364	420.94
285.595	443.94
285.826	442.94
286.057	447.94
286.288	450.94
286.52	458.94
286.751	446.94
286.982	448.94
287.213	436.94
287.444	457.94
287.675	466.94
287.906	460.94
288.138	473.94
288.369	473.94
288.6	468.94
288.831	466.94
289.062	477.94
289.293	461.94
289.524	433.94
289.755	451.94
289.986	469.94
290.217	477.94
290.448	484.94
290.679	481.94
290.91	484.94
291.141	474.94
291.371	466.94
291.602	482.94
291.833	453.94
292.064	475.94
292.295	465.94
292.526	474.94
292.757	466.94
292.987	482.94
293.218	469.94
293.449	474.94
293.68	472.94
293.91	493.94
294.141	460.94
294.372	474.94
294.603	466.94
294.833	475.94
295.064	477.94
295.295	496.94
295.525	491.94
295.756	486.94
295.987	485.94
296.217	499.94
296.448	490.94
296.679	488.94
296.909	490.94
297.14	490.94
297.37	519.94
297.601	487.94
297.831	503.94
298.062	502.94
298.292	497.94
298.523	535.94
298.753	496.94
298.984	506.94
299.214	506.94
299.445	541.94
299.675	531.94
299.905	517.94
300.136	533.94
300.366	547.94
300.597	567.94
300.827	563.94
301.057	546.94
301.288	538.94
301.518	539.94
301.748	529.94
301.979	537.94
302.209	561.94
302.439	546.94
302.669	548.94
302.9	548.94
303.13	543.94
303.36	538.94
303.59	557.94
303.82	561.94
304.051	578.94
304.281	554.94
304.511	553.94
304.741	561.94
304.971	581.94
305.201	580.94
305.431	586.94
305.661	577.94
305.891	580.94
306.121	553.94
306.352	537.94
306.582	560.94
306.812	549.94
307.042	544.94
307.272	525.94
307.502	550.94
307.731	527.94
307.961	574.94
308.191	568.94
308.421	573.94
308.651	559.94
308.881	563.94
309.111	557.94
309.341	560.94
309.571	564.94
309.8	582.94
310.03	598.94
310.26	599.94
310.49	613.94
310.72	571.94
310.949	575.94
311.179	567.94
311.409	562.94
311.639	573.94
311.868	563.94
312.098	559.94
312.328	579.94
312.557	586.94
312.787	592.94
313.017	559.94
313.246	611.94
313.476	626.94
313.706	593.94
313.935	590.94
314.165	589.94
314.394	597.94
314.624	599.94
314.853	598.94
315.083	611.94
315.312	593.94
315.542	609.94
315.771	600.94
316.001	598.94
316.23	603.94
316.46	609.94
316.689	603.94
316.919	590.94
317.148	621.94
317.377	639.94
317.607	624.94
317.836	608.94
318.065	596.94
318.295	617.94
318.524	621.94
318.753	608.94
318.983	623.94
319.212	610.94
319.441	618.94
319.67	621.94
319.9	596.94
320.129	631.94
320.358	629.94
320.587	620.94
320.816	625.94
321.046	644.94
321.275	629.94
321.504	613.94
321.733	622.94
321.962	643.94
322.191	660.94
322.42	643.94
322.649	637.94
322.878	664.94
323.108	647.94
323.337	658.94
323.566	649.94
323.795	667.94
324.024	653.94
324.253	658.94
324.482	645.94
324.71	641.94
324.939	663.94
325.168	658.94
325.397	675.94
325.626	657.94
325.855	675.94
326.084	664.94
326.313	669.94
326.542	671.94
326.77	681.94
326.999	681.94
327.228	662.94
327.457	662.94
327.686	661.94
327.914	666.94
328.143	651.94
328.372	670.94
328.6	666.94
328.829	663.94
329.058	665.94
329.287	680.94
329.515	678.94
329.744	671.94
329.972	700.94
330.201	680.94
330.43	694.94
330.658	685.94
330.887	735.94
331.115	720.94
331.344	731.94
331.572	717.94
331.801	729.94
332.03	723.94
332.258	730.94
332.486	720.94
332.715	734.94
332.943	753.94
333.172	757.94
333.4	769.94
333.629	790.94
333.857	802.94
334.085	805.94
334.314	808.94
334.542	821.94
334.771	830.94
334.999	805.94
335.227	781.94
335.455	816.94
335.684	830.94
335.912	810.94
336.14	791.94
336.369	819.94
336.597	781.94
336.825	797.94
337.053	784.94
337.281	793.94
337.51	783.94
337.738	801.94
337.966	781.94
338.194	830.94
338.422	774.94
338.65	756.94
338.878	763.94
339.106	774.94
339.334	817.94
339.562	777.94
339.79	744.94
340.018	735.94
340.246	731.94
340.474	750.94
340.702	744.94
340.93	734.94
341.158	775.94
341.386	772.94
341.614	825.94
341.842	790.94
342.07	762.94
342.298	769.94
342.526	778.94
342.754	745.94
342.981	745.94
343.209	752.94
343.437	788.94
343.665	786.94
343.893	803.94
344.12	826.94
344.348	793.94
344.576	803.94
344.804	793.94
345.031	799.94
345.259	784.94
345.487	789.94
345.714	807.94
345.942	800.94
346.17	791.94
346.397	798.94
346.625	735.94
346.853	731.94
347.08	737.94
347.308	757.94
347.535	721.94
347.763	697.94
347.99	720.94
348.218	710.94
348.445	734.94
348.673	724.94
348.9	731.94
349.128	718.94
349.355	756.94
349.583	753.94
349.81	707.94
350.037	723.94
350.265	706.94
350.492	694.94
350.72	717.94
350.947	711.94
351.174	751.94
351.402	765.94
351.629	769.94
351.856	741.94
352.083	732.94
352.311	751.94
352.538	777.94
352.765	794.94
352.992	704.94
353.22	693.94
353.447	691.94
353.674	698.94
353.901	681.94
354.128	710.94
354.355	695.94
354.583	693.94
354.81	694.94
355.037	691.94
355.264	673.94
355.491	696.94
355.718	689.94
355.945	693.94
356.172	672.94
356.399	703.94
356.626	711.94
356.853	717.94
357.08	724.94
357.307	702.94
357.534	712.94
357.761	710.94
357.988	698.94
358.215	682.94
358.441	687.94
358.668	675.94
358.895	708.94
359.122	675.94
359.349	710.94
359.576	710.94
359.802	702.94
360.029	707.94
360.256	712.94
360.483	714.94
360.709	695.94
360.936	677.94
361.163	721.94
361.39	714.94
361.616	735.94
361.843	766.94
362.07	756.94
362.296	742.94
362.523	730.94
362.749	711.94
362.976	698.94
363.203	696.94
363.429	708.94
363.656	698.94
363.882	702.94
364.109	705.94
364.335	697.94
364.562	715.94
364.788	695.94
365.015	702.94
365.241	707.94
365.468	714.94
365.694	702.94
365.92	702.94
366.147	689.94
366.373	698.94
366.599	716.94
366.826	707.94
367.052	714.94
367.278	715.94
367.505	725.94
367.731	719.94
367.957	695.94
368.184	726.94
368.41	732.94
368.636	729.94
368.862	738.94
369.089	723.94
369.315	696.94
369.541	721.94
369.767	731.94
369.993	711.94
370.219	706.94
370.445	719.94
370.672	739.94
370.898	733.94
371.124	755.94
371.35	759.94
371.576	747.94
371.802	743.94
372.028	758.94
372.254	725.94
372.48	761.94
372.706	758.94
372.932	759.94
373.158	798.94
373.384	757.94
373.61	767.94
373.835	792.94
374.061	790.94
374.287	754.94
374.513	772.94
374.739	783.94
374.965	767.94
375.191	783.94
375.416	778.94
375.642	747.94
375.868	755.94
376.094	759.94
376.319	761.94
376.545	754.94
376.771	764.94
376.997	724.94
377.222	753.94
377.448	765.94
377.674	769.94
377.899	730.94
378.125	720.94
378.35	757.94
378.576	757.94
378.802	730.94
379.027	745.94
379.253	751.94
379.478	740.94
379.704	723.94
379.929	758.94
380.155	750.94
380.38	765.94
380.606	773.94
380.831	793.94
381.057	771.94
381.282	753.94
381.507	744.94
381.733	750.94
381.958	765.94
382.184	774.94
382.409	752.94
382.634	780.94
382.86	758.94
383.085	767.94
383.31	782.94
383.535	795.94
383.761	800.94
383.986	793.94
384.211	795.94
384.436	805.94
384.662	807.94
384.887	821.94
385.112	837.94
385.337	854.94
385.562	853.94
385.787	838.94
386.013	860.94
386.238	856.94
386.463	858.94
386.688	851.94
386.913	837.94
387.138	858.94
387.363	884.94
387.588	865.94
387.813	868.94
388.038	861.94
388.263	880.94
388.488	870.94
388.713	874.94
388.938	859.94
389.163	856.94
389.387	890.94
389.612	839.94
389.837	856.94
390.062	849.94
390.287	861.94
390.512	863.94
390.736	888.94
390.961	857.94
391.186	869.94
391.411	882.94
391.636	899.94
391.86	925.94
392.085	937.94
392.31	915.94
392.534	881.94
392.759	913.94
392.984	880.94
393.208	916.94
393.433	904.94
393.658	888.94
393.882	905.94
394.107	905.94
394.331	890.94
394.556	883.94
394.78	901.94
395.005	927.94
395.229	880.94
395.454	913.94
395.678	929.94
395.903	927.94
396.127	925.94
396.352	932.94
396.576	919.94
396.801	904.94
397.025	957.94
397.249	949.94
397.474	972.94
397.698	950.94
397.922	963.94
398.147	939.94
398.371	966.94
398.595	1010.94
398.82	1024.94
399.044	1056.94
399.268	1098.94
399.492	1171.94
399.717	1219.94
399.941	1215.94
400.165	1204.94
400.389	1141.94
400.613	1107.94
400.837	1049.94
401.062	1043.94
401.286	1045.94
401.51	1041.94
401.734	1012.94
401.958	1029.94
402.182	1051.94
402.406	1001.94
402.63	992.94
402.854	1015.94
403.078	1036.94
403.302	1015.94
403.526	1031.94
403.75	1062.94
403.974	1053.94
404.198	1043.94
404.422	1064.94
404.645	1033.94
404.869	1052.94
405.093	1090.94
405.317	1079.94
405.541	1075.94
405.765	1053.94
405.988	1075.94
406.212	1072.94
406.436	1049.94
406.66	1123.94
406.883	1105.94
407.107	1162.94
407.331	1167.94
407.555	1192.94
407.778	1190.94
408.002	1173.94
408.226	1184.94
408.449	1152.94
408.673	1152.94
408.896	1104.94
409.12	1110.94
409.344	1132.94
409.567	1082.94
409.791	1103.94
410.014	1087.94
410.238	1070.94
410.461	1086.94
410.685	1103.94
410.908	1067.94
411.132	1096.94
411.355	1055.94
411.578	1057.94
411.802	1060.94
412.025	1043.94
412.249	1049.94
412.472	1092.94
412.695	1038.94
412.919	1014.94
413.142	1070.94
413.365	1064.94
413.589	1012.94
413.812	1031.94
414.035	1048.94
414.258	1033.94
414.482	1027.94
414.705	1033.94
414.928	1010.94
415.151	1043.94
415.374	1025.94
415.597	1031.94
415.821	1014.94
416.044	990.94
416.267	1015.94
416.49	1006.94
416.713	955.94
416.936	1025.94
417.159	986.94
417.382	974.94
417.605	981.94
417.828	982.94
418.051	969.94
418.274	1000.94
418.497	1017.94
418.72	1019.94
418.943	982.94
419.166	1030.94
419.389	1096.94
419.611	1098.94
419.834	1022.94
420.057	1029.94
420.28	1011.94
420.503	962.94
420.726	952.94
420.948	955.94
421.171	945.94
421.394	980.94
421.617	963.94
421.839	969.94
422.062	984.94
422.285	970.94
422.507	1002.94
422.73	989.94
422.953	966.94
423.175	993.94
423.398	958.94
423.621	973.94
423.843	1009.94
424.066	1001.94
424.288	993.94
424.511	966.94
424.733	985.94
424.956	955.94
425.178	974.94
425.401	978.94
425.623	999.94
425.846	968.94
426.068	987.94
426.291	987.94
426.513	954.94
426.735	958.94
426.958	955.94
427.18	934.94
427.402	943.94
427.625	930.94
427.847	913.94
428.069	941.94
428.292	970.94
428.514	904.94
428.736	945.94
428.958	967.94
429.181	929.94
429.403	930.94
429.625	923.94
429.847	927.94
430.069	918.94
430.292	930.94
430.514	937.94
430.736	928.94
430.958	912.94
431.18	880.94
431.402	926.94
431.624	945.94
431.846	956.94
432.068	941.94
432.29	926.94
432.512	959.94
432.734	942.94
432.956	937.94
433.178	967.94
433.4	998.94
433.622	980.94
433.844	995.94
434.066	969.94
434.287	951.94
434.509	931.94
434.731	1001.94
434.953	1020.94
435.175	1021.94
435.397	1049.94
435.618	975.94
435.84	963.94
436.062	949.94
436.284	921.94
436.505	968.94
436.727	927.94
436.949	943.94
437.17	945.94
437.392	943.94
437.614	936.94
437.835	913.94
438.057	890.94
438.278	917.94
438.5	901.94
438.721	911.94
438.943	904.94
439.165	899.94
439.386	919.94
439.608	927.94
439.829	911.94
440.05	913.94
440.272	943.94
440.493	947.94
440.715	938.94
440.936	949.94
441.158	943.94
441.379	960.94
441.6	1009.94
441.822	976.94
442.043	978.94
442.264	997.94
442.486	943.94
442.707	981.94
442.928	969.94
443.149	988.94
443.371	1001.94
443.592	1065.94
443.813	1062.94
444.034	995.94
444.255	1013.94
444.476	1047.94
444.698	1066.94
444.919	1083.94
445.14	1190.94
445.361	1092.94
445.582	1047.94
445.803	981.94
446.024	950.94
446.245	967.94
446.466	974.94
446.687	939.94
446.908	929.94
447.129	880.94
447.35	888.94
447.571	903.94
447.792	884.94
448.013	877.94
448.234	884.94
448.455	862.94
448.675	865.94
448.896	862.94
449.117	846.94
449.338	833.94
449.559	875.94
449.779	855.94
450	872.94
450.221	858.94
450.442	884.94
450.662	855.94
450.883	880.94
451.104	887.94
451.324	873.94
451.545	833.94
451.766	837.94
451.986	840.94
452.207	835.94
452.428	829.94
452.648	862.94
452.869	818.94
453.089	857.94
453.31	831.94
453.53	817.94
453.751	839.94
453.971	826.94
454.192	843.94
454.412	826.94
454.633	831.94
454.853	810.94
455.073	826.94
455.294	832.94
455.514	835.94
455.734	843.94
455.955	846.94
456.175	856.94
456.395	830.94
456.616	808.94
456.836	817.94
457.056	822.94
457.276	804.94
457.497	826.94
457.717	861.94
457.937	836.94
458.157	830.94
458.377	832.94
458.598	850.94
458.818	855.94
459.038	887.94
459.258	893.94
459.478	957.94
459.698	1061.94
459.918	1030.94
460.138	1025.94
460.358	1021.94
460.578	1035.94
460.798	1073.94
461.018	1069.94
461.238	1062.94
461.458	1020.94
461.678	1029.94
461.898	1022.94
462.118	992.94
462.338	1051.94
462.558	1070.94
462.777	1112.94
462.997	1166.94
463.217	1172.94
463.437	1256.94
463.657	1200.94
463.876	1147.94
464.096	1130.94
464.316	1119.94
464.536	1112.94
464.755	1099.94
464.975	1050.94
465.195	1026.94
465.414	1000.94
465.634	975.94
465.854	941.94
466.073	935.94
466.293	943.94
466.512	915.94
466.732	907.94
466.951	905.94
467.171	901.94
467.391	921.94
467.61	903.94
467.829	898.94
468.049	901.94
468.268	897.94
468.488	898.94
468.707	876.94
468.927	883.94
469.146	862.94
469.365	942.94
469.585	897.94
469.804	887.94
470.023	900.94
470.243	907.94
470.462	888.94
470.681	888.94
470.901	935.94
471.12	901.94
471.339	893.94
471.558	896.94
471.777	888.94
471.997	897.94
472.216	893.94
472.435	882.94
472.654	893.94
472.873	858.94
473.092	877.94
473.311	914.94
473.53	879.94
473.749	883.94
473.968	877.94
474.187	887.94
474.406	876.94
474.625	895.94
474.844	896.94
475.063	880.94
475.282	935.94
475.501	898.94
475.72	938.94
475.939	920.94
476.158	904.94
476.377	954.94
476.596	933.94
476.814	934.94
477.033	953.94
477.252	952.94
477.471	951.94
477.69	993.94
477.908	1001.94
478.127	1035.94
478.346	1015.94
478.564	1056.94
478.783	1039.94
479.002	1091.94
479.22	1141.94
479.439	1090.94
479.658	1073.94
479.876	1082.94
480.095	1057.94
480.313	1088.94
480.532	1083.94
480.751	1110.94
480.969	1106.94
481.188	1079.94
481.406	1078.94
481.624	1067.94
481.843	1072.94
482.061	1042.94
482.28	1064.94
482.498	1034.94
482.717	1066.94
482.935	1067.94
483.153	1061.94
483.372	1095.94
483.59	1136.94
483.808	1103.94
484.027	1104.94
484.245	1095.94
484.463	1094.94
484.681	1100.94
484.9	1095.94
485.118	1060.94
485.336	1091.94
485.554	1127.94
485.772	1067.94
485.99	1089.94
486.209	1126.94
486.427	1094.94
486.645	1089.94
486.863	1092.94
487.081	1119.94
487.299	1102.94
487.517	1117.94
487.735	1130.94
487.953	1141.94
488.171	1116.94
488.389	1093.94
488.607	1101.94
488.825	1085.94
489.043	1094.94
489.261	1091.94
489.479	1082.94
489.696	1084.94
489.914	1094.94
490.132	1084.94
490.35	1115.94
490.568	1128.94
490.786	1080.94
491.003	1117.94
491.221	1131.94
491.439	1112.94
491.657	1094.94
491.874	1133.94
492.092	1130.94
492.31	1132.94
492.527	1110.94
492.745	1128.94
492.963	1119.94
493.18	1127.94
493.398	1092.94
493.615	1095.94
493.833	1126.94
494.05	1141.94
494.268	1140.94
494.485	1107.94
494.703	1141.94
494.92	1156.94
495.138	1099.94
495.355	1126.94
495.573	1154.94
495.79	1124.94
496.008	1167.94
496.225	1155.94
496.442	1159.94
496.66	1179.94
496.877	1185.94
497.094	1225.94
497.312	1231.94
497.529	1253.94
497.746	1267.94
497.963	1311.94
498.181	1289.94
498.398	1374.94
