Data from Ni(NO3)2@0.25M.TitratingCurve.Agarose3%dH2O.NegLispCup.LampEnergy10.LIBS07252019_HRD10591_18-05-11-566.txt Node
Date: Thu Jul 25 18:05:11 EDT 2019
User: cochatt
Spectrometer: HR+D1059
Trigger mode: 1
Integration Time (sec): 1.000000E-1
Scans to average: 1
Electric dark correction enabled: true
Nonlinearity correction enabled: false
Boxcar width: 0
XAxis mode: Wavelengths
Number of Pixels in Spectrum: 2048
>>>>>Begin Spectral Data<<<<<
223.165	-17.69
223.4	-17.69
223.635	-17.69
223.869	-17.69
224.104	-17.69
224.338	-5.69
224.573	-18.69
224.808	-17.69
225.042	-21.69
225.277	-10.69
225.511	8.31
225.746	-8.69
225.98	12.31
226.215	13.31
226.449	25.31
226.683	17.31
226.918	25.31
227.152	34.31
227.387	39.31
227.621	36.31
227.856	32.31
228.09	63.31
228.324	49.31
228.559	64.31
228.793	73.31
229.027	109.31
229.262	109.31
229.496	109.31
229.73	112.31
229.964	124.31
230.199	121.31
230.433	122.31
230.667	123.31
230.901	120.31
231.136	128.31
231.37	138.31
231.604	148.31
231.838	128.31
232.072	145.31
232.306	160.31
232.541	135.31
232.775	128.31
233.009	125.31
233.243	137.31
233.477	135.31
233.711	144.31
233.945	146.31
234.179	128.31
234.413	137.31
234.647	128.31
234.881	129.31
235.115	152.31
235.349	134.31
235.583	166.31
235.817	151.31
236.051	146.31
236.285	130.31
236.519	132.31
236.753	145.31
236.987	138.31
237.221	159.31
237.455	144.31
237.689	153.31
237.922	156.31
238.156	159.31
238.39	147.31
238.624	164.31
238.858	143.31
239.091	140.31
239.325	160.31
239.559	158.31
239.793	171.31
240.027	155.31
240.26	157.31
240.494	161.31
240.728	181.31
240.961	164.31
241.195	170.31
241.429	168.31
241.662	171.31
241.896	188.31
242.13	178.31
242.363	171.31
242.597	180.31
242.83	180.31
243.064	182.31
243.298	189.31
243.531	180.31
243.765	182.31
243.998	204.31
244.232	196.31
244.465	198.31
244.699	190.31
244.932	197.31
245.166	214.31
245.399	197.31
245.633	201.31
245.866	212.31
246.099	193.31
246.333	202.31
246.566	214.31
246.8	204.31
247.033	230.31
247.266	213.31
247.5	208.31
247.733	218.31
247.966	215.31
248.2	225.31
248.433	225.31
248.666	223.31
248.899	228.31
249.133	224.31
249.366	240.31
249.599	240.31
249.832	223.31
250.066	254.31
250.299	225.31
250.532	261.31
250.765	255.31
250.998	260.31
251.231	275.31
251.465	261.31
251.698	261.31
251.931	283.31
252.164	284.31
252.397	285.31
252.63	272.31
252.863	292.31
253.096	291.31
253.329	297.31
253.562	285.31
253.795	298.31
254.028	304.31
254.261	320.31
254.494	305.31
254.727	310.31
254.96	310.31
255.193	318.31
255.426	328.31
255.659	313.31
255.892	321.31
256.124	297.31
256.357	329.31
256.59	333.31
256.823	330.31
257.056	345.31
257.289	341.31
257.521	351.31
257.754	337.31
257.987	340.31
258.22	357.31
258.452	345.31
258.685	361.31
258.918	357.31
259.151	345.31
259.383	360.31
259.616	349.31
259.849	361.31
260.081	359.31
260.314	370.31
260.547	382.31
260.779	394.31
261.012	380.31
261.244	386.31
261.477	368.31
261.71	376.31
261.942	379.31
262.175	385.31
262.407	362.31
262.64	394.31
262.872	406.31
263.105	384.31
263.337	383.31
263.57	378.31
263.802	389.31
264.035	410.31
264.267	404.31
264.499	389.31
264.732	397.31
264.964	419.31
265.197	406.31
265.429	409.31
265.661	428.31
265.894	420.31
266.126	412.31
266.358	415.31
266.591	425.31
266.823	420.31
267.055	418.31
267.287	419.31
267.52	405.31
267.752	414.31
267.984	428.31
268.216	417.31
268.448	438.31
268.681	438.31
268.913	425.31
269.145	414.31
269.377	449.31
269.609	460.31
269.841	434.31
270.073	441.31
270.306	434.31
270.538	438.31
270.77	438.31
271.002	461.31
271.234	442.31
271.466	421.31
271.698	448.31
271.93	438.31
272.162	429.31
272.394	438.31
272.626	435.31
272.858	443.31
273.09	442.31
273.322	478.31
273.553	452.31
273.785	466.31
274.017	460.31
274.249	459.31
274.481	468.31
274.713	483.31
274.945	469.31
275.176	473.31
275.408	471.31
275.64	486.31
275.872	470.31
276.104	490.31
276.335	481.31
276.567	453.31
276.799	487.31
277.031	494.31
277.262	489.31
277.494	488.31
277.726	481.31
277.957	467.31
278.189	492.31
278.421	489.31
278.652	500.31
278.884	494.31
279.115	512.31
279.347	502.31
279.579	485.31
279.81	487.31
280.042	491.31
280.273	498.31
280.505	503.31
280.736	491.31
280.968	501.31
281.199	522.31
281.431	501.31
281.662	502.31
281.894	493.31
282.125	504.31
282.356	526.31
282.588	509.31
282.819	514.31
283.051	523.31
283.282	506.31
283.513	519.31
283.745	533.31
283.976	512.31
284.207	501.31
284.439	524.31
284.67	554.31
284.901	507.31
285.132	544.31
285.364	514.31
285.595	533.31
285.826	521.31
286.057	518.31
286.288	511.31
286.52	549.31
286.751	521.31
286.982	526.31
287.213	539.31
287.444	536.31
287.675	541.31
287.906	565.31
288.138	547.31
288.369	542.31
288.6	539.31
288.831	546.31
289.062	545.31
289.293	544.31
289.524	529.31
289.755	544.31
289.986	532.31
290.217	543.31
290.448	557.31
290.679	553.31
290.91	554.31
291.141	537.31
291.371	556.31
291.602	532.31
291.833	548.31
292.064	550.31
292.295	527.31
292.526	535.31
292.757	570.31
292.987	542.31
293.218	524.31
293.449	546.31
293.68	557.31
293.91	530.31
294.141	537.31
294.372	542.31
294.603	538.31
294.833	539.31
295.064	547.31
295.295	545.31
295.525	550.31
295.756	547.31
295.987	562.31
296.217	526.31
296.448	565.31
296.679	563.31
296.909	566.31
297.14	572.31
297.37	581.31
297.601	563.31
297.831	561.31
298.062	572.31
298.292	597.31
298.523	606.31
298.753	605.31
298.984	581.31
299.214	568.31
299.445	575.31
299.675	598.31
299.905	597.31
300.136	604.31
300.366	614.31
300.597	610.31
300.827	606.31
301.057	587.31
301.288	638.31
301.518	634.31
301.748	616.31
301.979	596.31
302.209	609.31
302.439	593.31
302.669	620.31
302.9	640.31
303.13	601.31
303.36	642.31
303.59	626.31
303.82	618.31
304.051	638.31
304.281	613.31
304.511	630.31
304.741	621.31
304.971	604.31
305.201	619.31
305.431	653.31
305.661	625.31
305.891	637.31
306.121	635.31
306.352	620.31
306.582	638.31
306.812	590.31
307.042	609.31
307.272	611.31
307.502	606.31
307.731	628.31
307.961	609.31
308.191	624.31
308.421	602.31
308.651	606.31
308.881	628.31
309.111	636.31
309.341	608.31
309.571	631.31
309.8	629.31
310.03	642.31
310.26	672.31
310.49	672.31
310.72	659.31
310.949	630.31
311.179	621.31
311.409	634.31
311.639	661.31
311.868	662.31
312.098	675.31
312.328	679.31
312.557	663.31
312.787	658.31
313.017	686.31
313.246	710.31
313.476	675.31
313.706	691.31
313.935	697.31
314.165	683.31
314.394	700.31
314.624	694.31
314.853	706.31
315.083	714.31
315.312	733.31
315.542	696.31
315.771	709.31
316.001	713.31
316.23	698.31
316.46	692.31
316.689	711.31
316.919	717.31
317.148	723.31
317.377	734.31
317.607	712.31
317.836	708.31
318.065	736.31
318.295	745.31
318.524	754.31
318.753	741.31
318.983	736.31
319.212	724.31
319.441	758.31
319.67	733.31
319.9	755.31
320.129	750.31
320.358	748.31
320.587	749.31
320.816	779.31
321.046	747.31
321.275	802.31
321.504	777.31
321.733	771.31
321.962	780.31
322.191	793.31
322.42	754.31
322.649	787.31
322.878	793.31
323.108	806.31
323.337	817.31
323.566	812.31
323.795	829.31
324.024	830.31
324.253	801.31
324.482	840.31
324.71	810.31
324.939	834.31
325.168	852.31
325.397	846.31
325.626	856.31
325.855	870.31
326.084	886.31
326.313	890.31
326.542	885.31
326.77	879.31
326.999	883.31
327.228	867.31
327.457	892.31
327.686	852.31
327.914	889.31
328.143	897.31
328.372	900.31
328.6	876.31
328.829	906.31
329.058	885.31
329.287	910.31
329.515	921.31
329.744	897.31
329.972	919.31
330.201	930.31
330.43	942.31
330.658	927.31
330.887	931.31
331.115	956.31
331.344	964.31
331.572	969.31
331.801	962.31
332.03	997.31
332.258	1010.31
332.486	1044.31
332.715	1033.31
332.943	1080.31
333.172	1037.31
333.4	1060.31
333.629	1110.31
333.857	1132.31
334.085	1138.31
334.314	1119.31
334.542	1172.31
334.771	1144.31
334.999	1178.31
335.227	1175.31
335.455	1184.31
335.684	1173.31
335.912	1163.31
336.14	1170.31
336.369	1192.31
336.597	1159.31
336.825	1114.31
337.053	1144.31
337.281	1128.31
337.51	1121.31
337.738	1109.31
337.966	1094.31
338.194	1089.31
338.422	1099.31
338.65	1067.31
338.878	1051.31
339.106	1041.31
339.334	1099.31
339.562	1078.31
339.79	1061.31
340.018	1056.31
340.246	1038.31
340.474	1017.31
340.702	1008.31
340.93	996.31
341.158	1034.31
341.386	1020.31
341.614	1062.31
341.842	1051.31
342.07	1025.31
342.298	1028.31
342.526	995.31
342.754	1010.31
342.981	974.31
343.209	1010.31
343.437	1059.31
343.665	1084.31
343.893	1116.31
344.12	1142.31
344.348	1145.31
344.576	1148.31
344.804	1142.31
345.031	1093.31
345.259	1091.31
345.487	1037.31
345.714	1042.31
345.942	1027.31
346.17	1068.31
346.397	1018.31
346.625	998.31
346.853	977.31
347.08	977.31
347.308	1015.31
347.535	1008.31
347.763	996.31
347.99	968.31
348.218	960.31
348.445	990.31
348.673	977.31
348.9	970.31
349.128	960.31
349.355	986.31
349.583	1009.31
349.81	999.31
350.037	938.31
350.265	957.31
350.492	956.31
350.72	924.31
350.947	977.31
351.174	975.31
351.402	990.31
351.629	999.31
351.856	996.31
352.083	938.31
352.311	983.31
352.538	985.31
352.765	1006.31
352.992	936.31
353.22	944.31
353.447	957.31
353.674	945.31
353.901	924.31
354.128	918.31
354.355	952.31
354.583	909.31
354.81	947.31
355.037	918.31
355.264	957.31
355.491	931.31
355.718	946.31
355.945	956.31
356.172	943.31
356.399	951.31
356.626	945.31
356.853	963.31
357.08	923.31
357.307	924.31
357.534	957.31
357.761	929.31
357.988	948.31
358.215	937.31
358.441	942.31
358.668	929.31
358.895	966.31
359.122	960.31
359.349	892.31
359.576	930.31
359.802	959.31
360.029	966.31
360.256	938.31
360.483	931.31
360.709	950.31
360.936	912.31
361.163	965.31
361.39	946.31
361.616	929.31
361.843	958.31
362.07	975.31
362.296	1010.31
362.523	960.31
362.749	939.31
362.976	940.31
363.203	944.31
363.429	930.31
363.656	914.31
363.882	929.31
364.109	926.31
364.335	910.31
364.562	933.31
364.788	929.31
365.015	964.31
365.241	913.31
365.468	936.31
365.694	942.31
365.92	909.31
366.147	952.31
366.373	937.31
366.599	920.31
366.826	930.31
367.052	908.31
367.278	923.31
367.505	954.31
367.731	928.31
367.957	927.31
368.184	923.31
368.41	972.31
368.636	932.31
368.862	956.31
369.089	937.31
369.315	959.31
369.541	951.31
369.767	955.31
369.993	936.31
370.219	931.31
370.445	957.31
370.672	973.31
370.898	945.31
371.124	974.31
371.35	990.31
371.576	982.31
371.802	993.31
372.028	995.31
372.254	1003.31
372.48	999.31
372.706	973.31
372.932	1008.31
373.158	979.31
373.384	969.31
373.61	982.31
373.835	980.31
374.061	954.31
374.287	963.31
374.513	989.31
374.739	993.31
374.965	1017.31
375.191	1036.31
375.416	1032.31
375.642	1025.31
375.868	998.31
376.094	1028.31
376.319	998.31
376.545	963.31
376.771	939.31
376.997	937.31
377.222	1009.31
377.448	960.31
377.674	947.31
377.899	966.31
378.125	942.31
378.35	925.31
378.576	957.31
378.802	946.31
379.027	952.31
379.253	944.31
379.478	963.31
379.704	932.31
379.929	931.31
380.155	949.31
380.38	945.31
380.606	952.31
380.831	976.31
381.057	955.31
381.282	948.31
381.507	959.31
381.733	944.31
381.958	960.31
382.184	949.31
382.409	972.31
382.634	959.31
382.86	965.31
383.085	975.31
383.31	992.31
383.535	987.31
383.761	1009.31
383.986	1033.31
384.211	1026.31
384.436	1028.31
384.662	1025.31
384.887	1055.31
385.112	1052.31
385.337	1076.31
385.562	1091.31
385.787	1093.31
386.013	1105.31
386.238	1069.31
386.463	1128.31
386.688	1084.31
386.913	1105.31
387.138	1095.31
387.363	1068.31
387.588	1087.31
387.813	1112.31
388.038	1118.31
388.263	1115.31
388.488	1145.31
388.713	1143.31
388.938	1059.31
389.163	1114.31
389.387	1111.31
389.612	1100.31
389.837	1063.31
390.062	1099.31
390.287	1086.31
390.512	1088.31
390.736	1074.31
390.961	1140.31
391.186	1129.31
391.411	1113.31
391.636	1147.31
391.86	1184.31
392.085	1194.31
392.31	1178.31
392.534	1194.31
392.759	1193.31
392.984	1178.31
393.208	1175.31
393.433	1150.31
393.658	1160.31
393.882	1166.31
394.107	1172.31
394.331	1144.31
394.556	1140.31
394.78	1171.31
395.005	1159.31
395.229	1158.31
395.454	1194.31
395.678	1193.31
395.903	1204.31
396.127	1222.31
396.352	1240.31
396.576	1218.31
396.801	1217.31
397.025	1227.31
397.249	1249.31
397.474	1234.31
397.698	1245.31
397.922	1277.31
398.147	1253.31
398.371	1292.31
398.595	1332.31
398.82	1387.31
399.044	1412.31
399.268	1466.31
399.492	1614.31
399.717	1683.31
399.941	1712.31
400.165	1688.31
400.389	1616.31
400.613	1524.31
400.837	1486.31
401.062	1453.31
401.286	1434.31
401.51	1410.31
401.734	1378.31
401.958	1402.31
402.182	1439.31
402.406	1395.31
402.63	1386.31
402.854	1424.31
403.078	1420.31
403.302	1408.31
403.526	1422.31
403.75	1445.31
403.974	1411.31
404.198	1381.31
404.422	1426.31
404.645	1443.31
404.869	1419.31
405.093	1469.31
405.317	1431.31
405.541	1481.31
405.765	1467.31
405.988	1476.31
406.212	1539.31
406.436	1488.31
406.66	1476.31
406.883	1509.31
407.107	1573.31
407.331	1606.31
407.555	1669.31
407.778	1645.31
408.002	1623.31
408.226	1625.31
408.449	1631.31
408.673	1544.31
408.896	1561.31
409.12	1578.31
409.344	1568.31
409.567	1513.31
409.791	1544.31
410.014	1530.31
410.238	1496.31
410.461	1505.31
410.685	1490.31
410.908	1469.31
411.132	1449.31
411.355	1450.31
411.578	1466.31
411.802	1453.31
412.025	1425.31
412.249	1462.31
412.472	1487.31
412.695	1420.31
412.919	1393.31
413.142	1444.31
413.365	1397.31
413.589	1441.31
413.812	1385.31
414.035	1403.31
414.258	1374.31
414.482	1423.31
414.705	1414.31
414.928	1396.31
415.151	1411.31
415.374	1388.31
415.597	1396.31
415.821	1377.31
416.044	1374.31
416.267	1371.31
416.49	1380.31
416.713	1360.31
416.936	1365.31
417.159	1385.31
417.382	1392.31
417.605	1360.31
417.828	1375.31
418.051	1385.31
418.274	1393.31
418.497	1351.31
418.72	1373.31
418.943	1397.31
419.166	1515.31
419.389	1560.31
419.611	1524.31
419.834	1492.31
420.057	1482.31
420.28	1428.31
420.503	1353.31
420.726	1360.31
420.948	1382.31
421.171	1410.31
421.394	1380.31
421.617	1376.31
421.839	1390.31
422.062	1387.31
422.285	1359.31
422.507	1410.31
422.73	1414.31
422.953	1396.31
423.175	1416.31
423.398	1432.31
423.621	1376.31
423.843	1423.31
424.066	1422.31
424.288	1413.31
424.511	1408.31
424.733	1405.31
424.956	1400.31
425.178	1415.31
425.401	1419.31
425.623	1386.31
425.846	1418.31
426.068	1410.31
426.291	1377.31
426.513	1416.31
426.735	1364.31
426.958	1382.31
427.18	1338.31
427.402	1373.31
427.625	1308.31
427.847	1306.31
428.069	1336.31
428.292	1364.31
428.514	1315.31
428.736	1321.31
428.958	1377.31
429.181	1301.31
429.403	1314.31
429.625	1334.31
429.847	1295.31
430.069	1290.31
430.292	1320.31
430.514	1303.31
430.736	1317.31
430.958	1325.31
431.18	1312.31
431.402	1350.31
431.624	1284.31
431.846	1326.31
432.068	1310.31
432.29	1354.31
432.512	1304.31
432.734	1358.31
432.956	1324.31
433.178	1350.31
433.4	1373.31
433.622	1393.31
433.844	1367.31
434.066	1352.31
434.287	1389.31
434.509	1397.31
434.731	1408.31
434.953	1409.31
435.175	1449.31
435.397	1435.31
435.618	1382.31
435.84	1384.31
436.062	1384.31
436.284	1351.31
436.505	1351.31
436.727	1370.31
436.949	1292.31
437.17	1292.31
437.392	1330.31
437.614	1301.31
437.835	1280.31
438.057	1312.31
438.278	1278.31
438.5	1270.31
438.721	1296.31
438.943	1330.31
439.165	1315.31
439.386	1291.31
439.608	1297.31
439.829	1346.31
440.05	1360.31
440.272	1344.31
440.493	1355.31
440.715	1362.31
440.936	1385.31
441.158	1364.31
441.379	1377.31
441.6	1410.31
441.822	1404.31
442.043	1440.31
442.264	1409.31
442.486	1393.31
442.707	1423.31
442.928	1411.31
443.149	1436.31
443.371	1400.31
443.592	1465.31
443.813	1437.31
444.034	1436.31
444.255	1498.31
444.476	1490.31
444.698	1556.31
444.919	1608.31
445.14	1662.31
445.361	1593.31
445.582	1501.31
445.803	1431.31
446.024	1445.31
446.245	1440.31
446.466	1376.31
446.687	1352.31
446.908	1393.31
447.129	1312.31
447.35	1309.31
447.571	1316.31
447.792	1271.31
448.013	1242.31
448.234	1280.31
448.455	1255.31
448.675	1268.31
448.896	1254.31
449.117	1238.31
449.338	1262.31
449.559	1234.31
449.779	1216.31
450	1193.31
450.221	1228.31
450.442	1243.31
450.662	1241.31
450.883	1210.31
451.104	1253.31
451.324	1237.31
451.545	1230.31
451.766	1198.31
451.986	1201.31
452.207	1190.31
452.428	1215.31
452.648	1203.31
452.869	1186.31
453.089	1209.31
453.31	1205.31
453.53	1189.31
453.751	1186.31
453.971	1180.31
454.192	1194.31
454.412	1175.31
454.633	1176.31
454.853	1190.31
455.073	1164.31
455.294	1147.31
455.514	1122.31
455.734	1144.31
455.955	1144.31
456.175	1137.31
456.395	1152.31
456.616	1159.31
456.836	1166.31
457.056	1189.31
457.276	1168.31
457.497	1163.31
457.717	1187.31
457.937	1200.31
458.157	1164.31
458.377	1197.31
458.598	1242.31
458.818	1256.31
459.038	1268.31
459.258	1300.31
459.478	1334.31
459.698	1362.31
459.918	1392.31
460.138	1396.31
460.358	1445.31
460.578	1452.31
460.798	1500.31
461.018	1539.31
461.238	1494.31
461.458	1534.31
461.678	1512.31
461.898	1572.31
462.118	1562.31
462.338	1628.31
462.558	1665.31
462.777	1666.31
462.997	1732.31
463.217	1762.31
463.437	1802.31
463.657	1767.31
463.876	1721.31
464.096	1746.31
464.316	1708.31
464.536	1690.31
464.755	1646.31
464.975	1618.31
465.195	1559.31
465.414	1520.31
465.634	1432.31
465.854	1428.31
466.073	1398.31
466.293	1357.31
466.512	1316.31
466.732	1337.31
466.951	1340.31
467.171	1316.31
467.391	1318.31
467.61	1309.31
467.829	1309.31
468.049	1289.31
468.268	1278.31
468.488	1242.31
468.707	1257.31
468.927	1239.31
469.146	1267.31
469.365	1242.31
469.585	1253.31
469.804	1296.31
470.023	1326.31
470.243	1272.31
470.462	1288.31
470.681	1322.31
470.901	1282.31
471.12	1304.31
471.339	1290.31
471.558	1264.31
471.777	1306.31
471.997	1253.31
472.216	1271.31
472.435	1302.31
472.654	1248.31
472.873	1240.31
473.092	1241.31
473.311	1232.31
473.53	1224.31
473.749	1250.31
473.968	1229.31
474.187	1229.31
474.406	1264.31
474.625	1261.31
474.844	1241.31
475.063	1261.31
475.282	1282.31
475.501	1285.31
475.72	1276.31
475.939	1279.31
476.158	1280.31
476.377	1291.31
476.596	1297.31
476.814	1345.31
477.033	1313.31
477.252	1349.31
477.471	1369.31
477.69	1386.31
477.908	1407.31
478.127	1413.31
478.346	1470.31
478.564	1448.31
478.783	1500.31
479.002	1496.31
479.22	1513.31
479.439	1507.31
479.658	1503.31
479.876	1549.31
480.095	1581.31
480.313	1546.31
480.532	1543.31
480.751	1540.31
480.969	1513.31
481.188	1507.31
481.406	1500.31
481.624	1448.31
481.843	1441.31
482.061	1461.31
482.28	1461.31
482.498	1457.31
482.717	1441.31
482.935	1486.31
483.153	1422.31
483.372	1466.31
483.59	1483.31
483.808	1494.31
484.027	1442.31
484.245	1471.31
484.463	1468.31
484.681	1463.31
484.9	1459.31
485.118	1498.31
485.336	1493.31
485.554	1504.31
485.772	1508.31
485.99	1518.31
486.209	1526.31
486.427	1515.31
486.645	1477.31
486.863	1510.31
487.081	1514.31
487.299	1486.31
487.517	1506.31
487.735	1505.31
487.953	1525.31
488.171	1541.31
488.389	1507.31
488.607	1498.31
488.825	1463.31
489.043	1467.31
489.261	1513.31
489.479	1493.31
489.696	1500.31
489.914	1476.31
490.132	1473.31
490.35	1512.31
490.568	1526.31
490.786	1523.31
491.003	1514.31
491.221	1532.31
491.439	1544.31
491.657	1540.31
491.874	1592.31
492.092	1562.31
492.31	1556.31
492.527	1585.31
492.745	1604.31
492.963	1597.31
493.18	1577.31
493.398	1576.31
493.615	1582.31
