Data from Ni(NO3)2@0.0625M.TitratingCurve.Agarose3%dH2O.NegLispCup.LampEnergy10.LIBS07252019_HRD10591_18-12-57-568.txt Node
Date: Thu Jul 25 18:12:57 EDT 2019
User: cochatt
Spectrometer: HR+D1059
Trigger mode: 1
Integration Time (sec): 1.000000E-1
Scans to average: 1
Electric dark correction enabled: true
Nonlinearity correction enabled: false
Boxcar width: 0
XAxis mode: Wavelengths
Number of Pixels in Spectrum: 2048
>>>>>Begin Spectral Data<<<<<
223.165	-20.69
223.4	-20.69
223.635	-20.69
223.869	-18.69
224.104	-3.69
224.338	-15.69
224.573	-18.69
224.808	-10.69
225.042	2.31
225.277	-13.69
225.511	-3.69
225.746	2.31
225.98	9.31
226.215	2.31
226.449	8.31
226.683	15.31
226.918	33.31
227.152	32.31
227.387	31.31
227.621	41.31
227.856	37.31
228.09	44.31
228.324	46.31
228.559	54.31
228.793	73.31
229.027	88.31
229.262	116.31
229.496	135.31
229.73	125.31
229.964	133.31
230.199	145.31
230.433	142.31
230.667	126.31
230.901	126.31
231.136	131.31
231.37	147.31
231.604	150.31
231.838	146.31
232.072	164.31
232.306	155.31
232.541	173.31
232.775	140.31
233.009	143.31
233.243	148.31
233.477	155.31
233.711	162.31
233.945	172.31
234.179	175.31
234.413	168.31
234.647	154.31
234.881	155.31
235.115	165.31
235.349	162.31
235.583	164.31
235.817	170.31
236.051	159.31
236.285	157.31
236.519	158.31
236.753	169.31
236.987	172.31
237.221	161.31
237.455	163.31
237.689	157.31
237.922	171.31
238.156	182.31
238.39	177.31
238.624	179.31
238.858	185.31
239.091	188.31
239.325	193.31
239.559	174.31
239.793	180.31
240.027	198.31
240.26	191.31
240.494	191.31
240.728	188.31
240.961	194.31
241.195	204.31
241.429	190.31
241.662	189.31
241.896	193.31
242.13	216.31
242.363	203.31
242.597	214.31
242.83	223.31
243.064	211.31
243.298	240.31
243.531	208.31
243.765	217.31
243.998	215.31
244.232	226.31
244.465	235.31
244.699	256.31
244.932	234.31
245.166	236.31
245.399	243.31
245.633	235.31
245.866	238.31
246.099	231.31
246.333	242.31
246.566	243.31
246.8	245.31
247.033	235.31
247.266	239.31
247.5	239.31
247.733	235.31
247.966	242.31
248.2	265.31
248.433	250.31
248.666	252.31
248.899	243.31
249.133	269.31
249.366	250.31
249.599	259.31
249.832	278.31
250.066	267.31
250.299	283.31
250.532	272.31
250.765	264.31
250.998	281.31
251.231	275.31
251.465	279.31
251.698	302.31
251.931	278.31
252.164	279.31
252.397	281.31
252.63	309.31
252.863	301.31
253.096	302.31
253.329	295.31
253.562	308.31
253.795	309.31
254.028	289.31
254.261	278.31
254.494	294.31
254.727	313.31
254.96	309.31
255.193	305.31
255.426	313.31
255.659	302.31
255.892	297.31
256.124	306.31
256.357	315.31
256.59	314.31
256.823	319.31
257.056	326.31
257.289	341.31
257.521	323.31
257.754	317.31
257.987	332.31
258.22	343.31
258.452	323.31
258.685	336.31
258.918	345.31
259.151	329.31
259.383	332.31
259.616	334.31
259.849	342.31
260.081	331.31
260.314	334.31
260.547	349.31
260.779	354.31
261.012	343.31
261.244	358.31
261.477	359.31
261.71	347.31
261.942	346.31
262.175	340.31
262.407	335.31
262.64	366.31
262.872	351.31
263.105	356.31
263.337	363.31
263.57	377.31
263.802	377.31
264.035	376.31
264.267	364.31
264.499	383.31
264.732	379.31
264.964	385.31
265.197	389.31
265.429	379.31
265.661	380.31
265.894	399.31
266.126	389.31
266.358	397.31
266.591	376.31
266.823	392.31
267.055	389.31
267.287	397.31
267.52	388.31
267.752	390.31
267.984	390.31
268.216	372.31
268.448	396.31
268.681	389.31
268.913	413.31
269.145	405.31
269.377	403.31
269.609	409.31
269.841	413.31
270.073	410.31
270.306	403.31
270.538	402.31
270.77	407.31
271.002	422.31
271.234	406.31
271.466	436.31
271.698	412.31
271.93	426.31
272.162	389.31
272.394	429.31
272.626	430.31
272.858	431.31
273.09	443.31
273.322	429.31
273.553	437.31
273.785	457.31
274.017	426.31
274.249	476.31
274.481	442.31
274.713	435.31
274.945	468.31
275.176	473.31
275.408	468.31
275.64	468.31
275.872	458.31
276.104	451.31
276.335	446.31
276.567	458.31
276.799	461.31
277.031	454.31
277.262	475.31
277.494	439.31
277.726	468.31
277.957	470.31
278.189	474.31
278.421	482.31
278.652	474.31
278.884	488.31
279.115	481.31
279.347	482.31
279.579	489.31
279.81	470.31
280.042	475.31
280.273	516.31
280.505	485.31
280.736	492.31
280.968	495.31
281.199	495.31
281.431	505.31
281.662	486.31
281.894	511.31
282.125	522.31
282.356	517.31
282.588	517.31
282.819	501.31
283.051	524.31
283.282	525.31
283.513	524.31
283.745	533.31
283.976	522.31
284.207	527.31
284.439	514.31
284.67	527.31
284.901	524.31
285.132	536.31
285.364	542.31
285.595	531.31
285.826	534.31
286.057	553.31
286.288	536.31
286.52	551.31
286.751	533.31
286.982	548.31
287.213	537.31
287.444	553.31
287.675	555.31
287.906	564.31
288.138	574.31
288.369	556.31
288.6	549.31
288.831	546.31
289.062	561.31
289.293	579.31
289.524	577.31
289.755	577.31
289.986	586.31
290.217	586.31
290.448	573.31
290.679	574.31
290.91	563.31
291.141	575.31
291.371	553.31
291.602	598.31
291.833	579.31
292.064	575.31
292.295	574.31
292.526	587.31
292.757	557.31
292.987	572.31
293.218	575.31
293.449	594.31
293.68	595.31
293.91	602.31
294.141	573.31
294.372	571.31
294.603	579.31
294.833	603.31
295.064	580.31
295.295	574.31
295.525	561.31
295.756	591.31
295.987	596.31
296.217	602.31
296.448	602.31
296.679	601.31
296.909	586.31
297.14	617.31
297.37	605.31
297.601	627.31
297.831	630.31
298.062	652.31
298.292	642.31
298.523	673.31
298.753	630.31
298.984	622.31
299.214	645.31
299.445	619.31
299.675	601.31
299.905	636.31
300.136	632.31
300.366	648.31
300.597	623.31
300.827	649.31
301.057	661.31
301.288	675.31
301.518	652.31
301.748	673.31
301.979	675.31
302.209	646.31
302.439	637.31
302.669	651.31
302.9	638.31
303.13	639.31
303.36	634.31
303.59	641.31
303.82	641.31
304.051	631.31
304.281	659.31
304.511	655.31
304.741	654.31
304.971	634.31
305.201	633.31
305.431	644.31
305.661	622.31
305.891	625.31
306.121	637.31
306.352	648.31
306.582	656.31
306.812	625.31
307.042	658.31
307.272	626.31
307.502	629.31
307.731	637.31
307.961	625.31
308.191	615.31
308.421	645.31
308.651	623.31
308.881	618.31
309.111	631.31
309.341	625.31
309.571	632.31
309.8	628.31
310.03	623.31
310.26	641.31
310.49	633.31
310.72	650.31
310.949	648.31
311.179	667.31
311.409	651.31
311.639	638.31
311.868	654.31
312.098	653.31
312.328	655.31
312.557	664.31
312.787	669.31
313.017	653.31
313.246	682.31
313.476	673.31
313.706	680.31
313.935	681.31
314.165	692.31
314.394	671.31
314.624	687.31
314.853	649.31
315.083	674.31
315.312	680.31
315.542	697.31
315.771	683.31
316.001	679.31
316.23	648.31
316.46	683.31
316.689	661.31
316.919	677.31
317.148	657.31
317.377	675.31
317.607	668.31
317.836	652.31
318.065	678.31
318.295	665.31
318.524	671.31
318.753	650.31
318.983	675.31
319.212	655.31
319.441	670.31
319.67	665.31
319.9	678.31
320.129	677.31
320.358	652.31
320.587	667.31
320.816	663.31
321.046	673.31
321.275	683.31
321.504	670.31
321.733	654.31
321.962	654.31
322.191	671.31
322.42	680.31
322.649	683.31
322.878	676.31
323.108	685.31
323.337	671.31
323.566	699.31
323.795	681.31
324.024	708.31
324.253	689.31
324.482	697.31
324.71	706.31
324.939	689.31
325.168	702.31
325.397	707.31
325.626	713.31
325.855	734.31
326.084	738.31
326.313	738.31
326.542	742.31
326.77	751.31
326.999	751.31
327.228	712.31
327.457	725.31
327.686	740.31
327.914	715.31
328.143	748.31
328.372	733.31
328.6	739.31
328.829	713.31
329.058	740.31
329.287	738.31
329.515	702.31
329.744	751.31
329.972	781.31
330.201	737.31
330.43	763.31
330.658	777.31
330.887	781.31
331.115	779.31
331.344	785.31
331.572	782.31
331.801	798.31
332.03	807.31
332.258	831.31
332.486	884.31
332.715	905.31
332.943	912.31
333.172	965.31
333.4	1009.31
333.629	1027.31
333.857	1037.31
334.085	1009.31
334.314	974.31
334.542	965.31
334.771	970.31
334.999	948.31
335.227	939.31
335.455	952.31
335.684	894.31
335.912	910.31
336.14	929.31
336.369	885.31
336.597	911.31
336.825	913.31
337.053	874.31
337.281	888.31
337.51	833.31
337.738	831.31
337.966	836.31
338.194	849.31
338.422	819.31
338.65	799.31
338.878	807.31
339.106	805.31
339.334	826.31
339.562	809.31
339.79	773.31
340.018	778.31
340.246	756.31
340.474	777.31
340.702	733.31
340.93	782.31
341.158	797.31
341.386	778.31
341.614	795.31
341.842	774.31
342.07	759.31
342.298	790.31
342.526	774.31
342.754	773.31
342.981	764.31
343.209	804.31
343.437	852.31
343.665	881.31
343.893	965.31
344.12	993.31
344.348	930.31
344.576	895.31
344.804	849.31
345.031	825.31
345.259	809.31
345.487	780.31
345.714	755.31
345.942	745.31
346.17	773.31
346.397	775.31
346.625	763.31
346.853	776.31
347.08	747.31
347.308	759.31
347.535	765.31
347.763	770.31
347.99	775.31
348.218	758.31
348.445	793.31
348.673	753.31
348.9	745.31
349.128	772.31
349.355	725.31
349.583	751.31
349.81	739.31
350.037	734.31
350.265	705.31
350.492	723.31
350.72	750.31
350.947	739.31
351.174	731.31
351.402	740.31
351.629	727.31
351.856	732.31
352.083	728.31
352.311	708.31
352.538	712.31
352.765	743.31
352.992	727.31
353.22	719.31
353.447	702.31
353.674	692.31
353.901	728.31
354.128	732.31
354.355	713.31
354.583	723.31
354.81	700.31
355.037	713.31
355.264	725.31
355.491	727.31
355.718	730.31
355.945	732.31
356.172	734.31
356.399	718.31
356.626	725.31
356.853	739.31
357.08	733.31
357.307	728.31
357.534	728.31
357.761	731.31
357.988	750.31
358.215	737.31
358.441	718.31
358.668	718.31
358.895	714.31
359.122	736.31
359.349	741.31
359.576	733.31
359.802	717.31
360.029	719.31
360.256	707.31
360.483	716.31
360.709	731.31
360.936	721.31
361.163	715.31
361.39	709.31
361.616	719.31
361.843	730.31
362.07	735.31
362.296	699.31
362.523	715.31
362.749	732.31
362.976	716.31
363.203	721.31
363.429	706.31
363.656	719.31
363.882	721.31
364.109	729.31
364.335	723.31
364.562	716.31
364.788	719.31
365.015	733.31
365.241	739.31
365.468	735.31
365.694	733.31
365.92	700.31
366.147	724.31
366.373	728.31
366.599	710.31
366.826	716.31
367.052	725.31
367.278	699.31
367.505	725.31
367.731	730.31
367.957	729.31
368.184	731.31
368.41	718.31
368.636	738.31
368.862	744.31
369.089	734.31
369.315	753.31
369.541	745.31
369.767	726.31
369.993	732.31
370.219	742.31
370.445	754.31
370.672	764.31
370.898	780.31
371.124	795.31
371.35	789.31
371.576	809.31
371.802	801.31
372.028	805.31
372.254	769.31
372.48	803.31
372.706	798.31
372.932	831.31
373.158	812.31
373.384	810.31
373.61	790.31
373.835	789.31
374.061	789.31
374.287	783.31
374.513	779.31
374.739	829.31
374.965	861.31
375.191	887.31
375.416	870.31
375.642	864.31
375.868	836.31
376.094	851.31
376.319	817.31
376.545	818.31
376.771	794.31
376.997	801.31
377.222	798.31
377.448	803.31
377.674	789.31
377.899	779.31
378.125	762.31
378.35	787.31
378.576	795.31
378.802	758.31
379.027	804.31
379.253	766.31
379.478	785.31
379.704	783.31
379.929	785.31
380.155	782.31
380.38	780.31
380.606	774.31
380.831	767.31
381.057	801.31
381.282	809.31
381.507	793.31
381.733	793.31
381.958	807.31
382.184	804.31
382.409	795.31
382.634	804.31
382.86	829.31
383.085	845.31
383.31	857.31
383.535	899.31
383.761	851.31
383.986	903.31
384.211	897.31
384.436	926.31
384.662	918.31
384.887	954.31
385.112	941.31
385.337	969.31
385.562	961.31
385.787	972.31
386.013	983.31
386.238	987.31
386.463	991.31
386.688	990.31
386.913	941.31
387.138	947.31
387.363	934.31
387.588	953.31
387.813	926.31
388.038	917.31
388.263	932.31
388.488	933.31
388.713	950.31
388.938	943.31
389.163	917.31
389.387	927.31
389.612	951.31
389.837	907.31
390.062	917.31
390.287	928.31
390.512	953.31
390.736	941.31
390.961	963.31
391.186	968.31
391.411	1002.31
391.636	1017.31
391.86	1045.31
392.085	1077.31
392.31	1089.31
392.534	1081.31
392.759	1046.31
392.984	1030.31
393.208	998.31
393.433	980.31
393.658	1015.31
393.882	1012.31
394.107	1023.31
394.331	1020.31
394.556	1030.31
394.78	1044.31
395.005	1032.31
395.229	1060.31
395.454	1039.31
395.678	1078.31
395.903	1083.31
396.127	1096.31
396.352	1013.31
396.576	988.31
396.801	999.31
397.025	1025.31
397.249	1045.31
397.474	1035.31
397.698	1048.31
397.922	1066.31
398.147	1069.31
398.371	1067.31
398.595	1095.31
398.82	1186.31
399.044	1253.31
399.268	1361.31
399.492	1602.31
399.717	1879.31
399.941	1889.31
400.165	1635.31
400.389	1436.31
400.613	1351.31
400.837	1249.31
401.062	1215.31
401.286	1175.31
401.51	1213.31
401.734	1179.31
401.958	1198.31
402.182	1219.31
402.406	1245.31
402.63	1235.31
402.854	1269.31
403.078	1290.31
403.302	1352.31
403.526	1347.31
403.75	1371.31
403.974	1429.31
404.198	1403.31
404.422	1466.31
404.645	1409.31
404.869	1371.31
405.093	1355.31
405.317	1340.31
405.541	1361.31
405.765	1333.31
405.988	1324.31
406.212	1327.31
406.436	1283.31
406.66	1353.31
406.883	1372.31
407.107	1457.31
407.331	1553.31
407.555	1577.31
407.778	1585.31
408.002	1552.31
408.226	1460.31
408.449	1458.31
408.673	1391.31
408.896	1388.31
409.12	1351.31
409.344	1358.31
409.567	1400.31
409.791	1409.31
410.014	1373.31
410.238	1385.31
410.461	1358.31
410.685	1358.31
410.908	1330.31
411.132	1277.31
411.355	1254.31
411.578	1273.31
411.802	1243.31
412.025	1263.31
412.249	1254.31
412.472	1244.31
412.695	1244.31
412.919	1191.31
413.142	1185.31
413.365	1217.31
413.589	1209.31
413.812	1198.31
414.035	1179.31
414.258	1198.31
414.482	1226.31
414.705	1235.31
414.928	1257.31
415.151	1235.31
415.374	1218.31
415.597	1206.31
415.821	1161.31
416.044	1184.31
416.267	1155.31
416.49	1194.31
416.713	1170.31
416.936	1175.31
417.159	1168.31
417.382	1160.31
417.605	1179.31
417.828	1221.31
418.051	1196.31
418.274	1168.31
418.497	1203.31
418.72	1228.31
418.943	1242.31
419.166	1315.31
419.389	1387.31
419.611	1325.31
419.834	1247.31
420.057	1241.31
420.28	1228.31
420.503	1188.31
420.726	1164.31
420.948	1158.31
421.171	1198.31
421.394	1182.31
421.617	1187.31
421.839	1185.31
422.062	1214.31
422.285	1167.31
422.507	1234.31
422.73	1228.31
422.953	1235.31
423.175	1277.31
423.398	1281.31
423.621	1289.31
423.843	1286.31
424.066	1292.31
424.288	1270.31
424.511	1284.31
424.733	1232.31
424.956	1258.31
425.178	1260.31
425.401	1208.31
425.623	1209.31
425.846	1163.31
426.068	1201.31
426.291	1151.31
426.513	1132.31
426.735	1127.31
426.958	1126.31
427.18	1091.31
427.402	1100.31
427.625	1114.31
427.847	1068.31
428.069	1060.31
428.292	1084.31
428.514	1051.31
428.736	1065.31
428.958	1043.31
429.181	1015.31
429.403	1028.31
429.625	982.31
429.847	1027.31
430.069	1030.31
430.292	1064.31
430.514	1029.31
430.736	1029.31
430.958	1017.31
431.18	1015.31
431.402	1010.31
431.624	1013.31
431.846	1066.31
432.068	1070.31
432.29	1072.31
432.512	1062.31
432.734	1065.31
432.956	1056.31
433.178	1068.31
433.4	1066.31
433.622	1086.31
433.844	1094.31
434.066	1093.31
434.287	1117.31
434.509	1116.31
434.731	1179.31
434.953	1198.31
435.175	1235.31
435.397	1205.31
435.618	1123.31
435.84	1088.31
436.062	1087.31
436.284	1073.31
436.505	1041.31
436.727	1036.31
436.949	1083.31
437.17	1088.31
437.392	1079.31
437.614	1022.31
437.835	1025.31
438.057	1033.31
438.278	1016.31
438.5	1013.31
438.721	1021.31
438.943	1025.31
439.165	1031.31
439.386	1036.31
439.608	1080.31
439.829	1046.31
440.05	1067.31
440.272	1071.31
440.493	1080.31
440.715	1073.31
440.936	1086.31
441.158	1138.31
441.379	1174.31
441.6	1190.31
441.822	1227.31
442.043	1200.31
442.264	1204.31
442.486	1172.31
442.707	1188.31
442.928	1188.31
443.149	1212.31
443.371	1166.31
443.592	1172.31
443.813	1213.31
444.034	1230.31
444.255	1257.31
444.476	1314.31
444.698	1425.31
444.919	1501.31
445.14	1512.31
445.361	1370.31
445.582	1240.31
445.803	1183.31
446.024	1154.31
446.245	1094.31
446.466	1107.31
446.687	1041.31
446.908	1070.31
447.129	1036.31
447.35	1032.31
447.571	1044.31
447.792	954.31
448.013	1043.31
448.234	968.31
448.455	977.31
448.675	967.31
448.896	1013.31
449.117	955.31
449.338	952.31
449.559	950.31
449.779	948.31
450	966.31
450.221	975.31
450.442	965.31
450.662	1019.31
450.883	998.31
451.104	1003.31
451.324	1006.31
451.545	1014.31
451.766	996.31
451.986	985.31
452.207	958.31
452.428	1009.31
452.648	1014.31
452.869	972.31
453.089	958.31
453.31	961.31
453.53	976.31
453.751	972.31
453.971	938.31
454.192	931.31
454.412	949.31
454.633	927.31
454.853	927.31
455.073	937.31
455.294	953.31
455.514	940.31
455.734	890.31
455.955	920.31
456.175	883.31
456.395	897.31
456.616	910.31
456.836	914.31
457.056	913.31
457.276	880.31
457.497	887.31
457.717	917.31
457.937	930.31
458.157	935.31
458.377	943.31
458.598	978.31
458.818	981.31
459.038	995.31
459.258	1039.31
459.478	1073.31
459.698	1123.31
459.918	1133.31
460.138	1188.31
460.358	1269.31
460.578	1287.31
460.798	1314.31
461.018	1289.31
461.238	1267.31
461.458	1271.31
461.678	1257.31
461.898	1250.31
462.118	1314.31
462.338	1357.31
462.558	1363.31
462.777	1418.31
462.997	1565.31
463.217	1741.31
463.437	1797.31
463.657	1613.31
463.876	1532.31
464.096	1495.31
464.316	1506.31
464.536	1528.31
464.755	1471.31
464.975	1396.31
465.195	1334.31
465.414	1257.31
465.634	1167.31
465.854	1142.31
466.073	1121.31
466.293	1079.31
466.512	1078.31
466.732	1054.31
466.951	1008.31
467.171	1044.31
467.391	1027.31
467.61	1021.31
467.829	1013.31
468.049	1007.31
468.268	979.31
468.488	979.31
468.707	981.31
468.927	955.31
469.146	936.31
469.365	1002.31
469.585	1003.31
469.804	1027.31
470.023	1025.31
470.243	1055.31
470.462	1086.31
470.681	1069.31
470.901	1068.31
471.12	1049.31
471.339	1049.31
471.558	1026.31
471.777	1013.31
471.997	972.31
472.216	963.31
472.435	980.31
472.654	925.31
472.873	923.31
473.092	934.31
473.311	941.31
473.53	974.31
473.749	961.31
473.968	942.31
474.187	948.31
474.406	946.31
474.625	951.31
474.844	937.31
475.063	956.31
475.282	969.31
475.501	958.31
475.72	983.31
475.939	963.31
476.158	969.31
476.377	985.31
476.596	1001.31
476.814	1012.31
477.033	982.31
477.252	1040.31
477.471	1061.31
477.69	1076.31
477.908	1110.31
478.127	1136.31
478.346	1159.31
478.564	1146.31
478.783	1178.31
479.002	1214.31
479.22	1218.31
479.439	1226.31
479.658	1178.31
479.876	1225.31
480.095	1204.31
480.313	1281.31
480.532	1305.31
480.751	1267.31
480.969	1267.31
481.188	1171.31
481.406	1160.31
481.624	1159.31
481.843	1098.31
482.061	1099.31
482.28	1096.31
482.498	1085.31
482.717	1063.31
482.935	1089.31
483.153	1084.31
483.372	1092.31
483.59	1101.31
483.808	1101.31
484.027	1097.31
484.245	1091.31
484.463	1108.31
484.681	1131.31
484.9	1141.31
485.118	1127.31
485.336	1149.31
485.554	1150.31
485.772	1165.31
485.99	1172.31
486.209	1199.31
486.427	1169.31
486.645	1180.31
486.863	1149.31
487.081	1149.31
487.299	1159.31
487.517	1146.31
487.735	1134.31
487.953	1185.31
488.171	1162.31
488.389	1153.31
488.607	1147.31
488.825	1139.31
489.043	1117.31
489.261	1157.31
489.479	1137.31
489.696	1157.31
489.914	1158.31
490.132	1148.31
490.35	1171.31
490.568	1169.31
490.786	1139.31
491.003	1151.31
491.221	1164.31
491.439	1180.31
491.657	1151.31
491.874	1125.31
492.092	1171.31
492.31	1166.31
492.527	1190.31
492.745	1196.31
492.963	1185.31
493.18	1188.31
493.398	1193.31
493.615	1206.31
493.833	1181.31
494.05	1223.31
494.268	1203.31
494.485	1225.31
494.703	1191.31
494.92	1246.31
495.138	1221.31
495.355	1209.31
495.573	1206.31
495.79	1196.31
496.008	1286.31
