Data from Ni(NO3)2@0.25M.TitratingCurve.Agarose3%dH2O.NegLispCup.LampEnergy10.LIBS07252019_HRD10591_18-03-09-565.txt Node
Date: Thu Jul 25 18:03:09 EDT 2019
User: cochatt
Spectrometer: HR+D1059
Trigger mode: 1
Integration Time (sec): 1.000000E-1
Scans to average: 1
Electric dark correction enabled: true
Nonlinearity correction enabled: false
Boxcar width: 0
XAxis mode: Wavelengths
Number of Pixels in Spectrum: 2048
>>>>>Begin Spectral Data<<<<<
223.165	-17.06
223.4	-17.06
223.635	-17.06
223.869	-19.06
224.104	-27.06
224.338	-17.06
224.573	-6.06
224.808	-4.06
225.042	6.94
225.277	5.94
225.511	-8.06
225.746	7.94
225.98	-1.06
226.215	-3.06
226.449	14.94
226.683	18.94
226.918	32.94
227.152	14.94
227.387	45.94
227.621	32.94
227.856	46.94
228.09	39.94
228.324	47.94
228.559	34.94
228.793	38.94
229.027	71.94
229.262	82.94
229.496	85.94
229.73	76.94
229.964	90.94
230.199	100.94
230.433	94.94
230.667	101.94
230.901	92.94
231.136	99.94
231.37	84.94
231.604	103.94
231.838	101.94
232.072	120.94
232.306	112.94
232.541	89.94
232.775	97.94
233.009	100.94
233.243	97.94
233.477	116.94
233.711	106.94
233.945	80.94
234.179	95.94
234.413	85.94
234.647	112.94
234.881	108.94
235.115	115.94
235.349	93.94
235.583	86.94
235.817	90.94
236.051	108.94
236.285	107.94
236.519	98.94
236.753	96.94
236.987	106.94
237.221	97.94
237.455	92.94
237.689	103.94
237.922	98.94
238.156	107.94
238.39	92.94
238.624	91.94
238.858	100.94
239.091	112.94
239.325	103.94
239.559	103.94
239.793	112.94
240.027	103.94
240.26	115.94
240.494	100.94
240.728	102.94
240.961	110.94
241.195	105.94
241.429	112.94
241.662	96.94
241.896	114.94
242.13	116.94
242.363	101.94
242.597	110.94
242.83	99.94
243.064	104.94
243.298	117.94
243.531	111.94
243.765	117.94
243.998	98.94
244.232	124.94
244.465	128.94
244.699	115.94
244.932	123.94
245.166	116.94
245.399	120.94
245.633	117.94
245.866	131.94
246.099	126.94
246.333	124.94
246.566	130.94
246.8	122.94
247.033	133.94
247.266	134.94
247.5	131.94
247.733	138.94
247.966	142.94
248.2	145.94
248.433	146.94
248.666	148.94
248.899	152.94
249.133	164.94
249.366	155.94
249.599	161.94
249.832	175.94
250.066	178.94
250.299	172.94
250.532	178.94
250.765	187.94
250.998	186.94
251.231	210.94
251.465	208.94
251.698	203.94
251.931	198.94
252.164	210.94
252.397	225.94
252.63	222.94
252.863	218.94
253.096	246.94
253.329	246.94
253.562	263.94
253.795	242.94
254.028	259.94
254.261	261.94
254.494	257.94
254.727	256.94
254.96	264.94
255.193	263.94
255.426	260.94
255.659	274.94
255.892	278.94
256.124	280.94
256.357	289.94
256.59	278.94
256.823	299.94
257.056	296.94
257.289	298.94
257.521	282.94
257.754	291.94
257.987	311.94
258.22	315.94
258.452	304.94
258.685	316.94
258.918	313.94
259.151	343.94
259.383	333.94
259.616	321.94
259.849	350.94
260.081	336.94
260.314	351.94
260.547	351.94
260.779	346.94
261.012	368.94
261.244	370.94
261.477	364.94
261.71	335.94
261.942	357.94
262.175	368.94
262.407	364.94
262.64	337.94
262.872	350.94
263.105	383.94
263.337	378.94
263.57	354.94
263.802	371.94
264.035	382.94
264.267	359.94
264.499	363.94
264.732	370.94
264.964	366.94
265.197	362.94
265.429	400.94
265.661	384.94
265.894	384.94
266.126	386.94
266.358	410.94
266.591	388.94
266.823	390.94
267.055	389.94
267.287	400.94
267.52	380.94
267.752	382.94
267.984	406.94
268.216	404.94
268.448	404.94
268.681	403.94
268.913	402.94
269.145	398.94
269.377	417.94
269.609	407.94
269.841	421.94
270.073	412.94
270.306	381.94
270.538	405.94
270.77	400.94
271.002	400.94
271.234	420.94
271.466	414.94
271.698	399.94
271.93	422.94
272.162	419.94
272.394	421.94
272.626	418.94
272.858	413.94
273.09	412.94
273.322	410.94
273.553	401.94
273.785	411.94
274.017	413.94
274.249	415.94
274.481	407.94
274.713	420.94
274.945	409.94
275.176	419.94
275.408	429.94
275.64	416.94
275.872	402.94
276.104	402.94
276.335	397.94
276.567	442.94
276.799	393.94
277.031	437.94
277.262	405.94
277.494	414.94
277.726	415.94
277.957	411.94
278.189	423.94
278.421	408.94
278.652	416.94
278.884	420.94
279.115	416.94
279.347	406.94
279.579	415.94
279.81	419.94
280.042	414.94
280.273	422.94
280.505	414.94
280.736	409.94
280.968	405.94
281.199	429.94
281.431	406.94
281.662	412.94
281.894	390.94
282.125	426.94
282.356	433.94
282.588	407.94
282.819	407.94
283.051	414.94
283.282	398.94
283.513	419.94
283.745	414.94
283.976	414.94
284.207	420.94
284.439	402.94
284.67	421.94
284.901	428.94
285.132	416.94
285.364	410.94
285.595	419.94
285.826	415.94
286.057	408.94
286.288	420.94
286.52	430.94
286.751	410.94
286.982	416.94
287.213	433.94
287.444	414.94
287.675	408.94
287.906	408.94
288.138	413.94
288.369	412.94
288.6	414.94
288.831	399.94
289.062	401.94
289.293	405.94
289.524	410.94
289.755	414.94
289.986	407.94
290.217	407.94
290.448	417.94
290.679	414.94
290.91	399.94
291.141	416.94
291.371	423.94
291.602	414.94
291.833	410.94
292.064	427.94
292.295	420.94
292.526	393.94
292.757	367.94
292.987	399.94
293.218	392.94
293.449	415.94
293.68	383.94
293.91	387.94
294.141	384.94
294.372	417.94
294.603	415.94
294.833	376.94
295.064	384.94
295.295	396.94
295.525	403.94
295.756	389.94
295.987	402.94
296.217	389.94
296.448	384.94
296.679	399.94
296.909	416.94
297.14	423.94
297.37	413.94
297.601	400.94
297.831	398.94
298.062	405.94
298.292	431.94
298.523	428.94
298.753	404.94
298.984	414.94
299.214	408.94
299.445	410.94
299.675	407.94
299.905	407.94
300.136	416.94
300.366	442.94
300.597	420.94
300.827	437.94
301.057	429.94
301.288	438.94
301.518	440.94
301.748	436.94
301.979	431.94
302.209	436.94
302.439	420.94
302.669	444.94
302.9	442.94
303.13	439.94
303.36	437.94
303.59	423.94
303.82	440.94
304.051	454.94
304.281	449.94
304.511	448.94
304.741	446.94
304.971	436.94
305.201	461.94
305.431	475.94
305.661	478.94
305.891	458.94
306.121	464.94
306.352	456.94
306.582	444.94
306.812	439.94
307.042	462.94
307.272	465.94
307.502	455.94
307.731	479.94
307.961	469.94
308.191	456.94
308.421	450.94
308.651	480.94
308.881	480.94
309.111	493.94
309.341	470.94
309.571	498.94
309.8	506.94
310.03	495.94
310.26	512.94
310.49	512.94
310.72	523.94
310.949	478.94
311.179	495.94
311.409	516.94
311.639	521.94
311.868	540.94
312.098	520.94
312.328	533.94
312.557	563.94
312.787	532.94
313.017	550.94
313.246	553.94
313.476	562.94
313.706	557.94
313.935	591.94
314.165	596.94
314.394	579.94
314.624	560.94
314.853	582.94
315.083	604.94
315.312	612.94
315.542	615.94
315.771	601.94
316.001	630.94
316.23	619.94
316.46	635.94
316.689	611.94
316.919	627.94
317.148	649.94
317.377	642.94
317.607	669.94
317.836	661.94
318.065	669.94
318.295	676.94
318.524	682.94
318.753	690.94
318.983	694.94
319.212	682.94
319.441	691.94
319.67	719.94
319.9	706.94
320.129	718.94
320.358	740.94
320.587	735.94
320.816	756.94
321.046	740.94
321.275	768.94
321.504	759.94
321.733	773.94
321.962	775.94
322.191	801.94
322.42	798.94
322.649	806.94
322.878	804.94
323.108	813.94
323.337	858.94
323.566	798.94
323.795	847.94
324.024	851.94
324.253	849.94
324.482	861.94
324.71	851.94
324.939	868.94
325.168	861.94
325.397	896.94
325.626	899.94
325.855	894.94
326.084	918.94
326.313	929.94
326.542	914.94
326.77	947.94
326.999	935.94
327.228	933.94
327.457	950.94
327.686	948.94
327.914	943.94
328.143	984.94
328.372	979.94
328.6	1000.94
328.829	995.94
329.058	987.94
329.287	998.94
329.515	1024.94
329.744	1010.94
329.972	1031.94
330.201	1021.94
330.43	1036.94
330.658	1038.94
330.887	1038.94
331.115	1049.94
331.344	1058.94
331.572	1059.94
331.801	1052.94
332.03	1068.94
332.258	1062.94
332.486	1070.94
332.715	1092.94
332.943	1094.94
333.172	1083.94
333.4	1136.94
333.629	1123.94
333.857	1118.94
334.085	1124.94
334.314	1145.94
334.542	1146.94
334.771	1168.94
334.999	1135.94
335.227	1156.94
335.455	1151.94
335.684	1176.94
335.912	1162.94
336.14	1178.94
336.369	1153.94
336.597	1169.94
336.825	1185.94
337.053	1140.94
337.281	1156.94
337.51	1164.94
337.738	1154.94
337.966	1176.94
338.194	1197.94
338.422	1172.94
338.65	1150.94
338.878	1162.94
339.106	1146.94
339.334	1154.94
339.562	1152.94
339.79	1157.94
340.018	1162.94
340.246	1154.94
340.474	1184.94
340.702	1163.94
340.93	1173.94
341.158	1147.94
341.386	1166.94
341.614	1190.94
341.842	1166.94
342.07	1170.94
342.298	1170.94
342.526	1196.94
342.754	1175.94
342.981	1190.94
343.209	1147.94
343.437	1206.94
343.665	1200.94
343.893	1225.94
344.12	1188.94
344.348	1166.94
344.576	1179.94
344.804	1191.94
345.031	1188.94
345.259	1202.94
345.487	1186.94
345.714	1207.94
345.942	1154.94
346.17	1172.94
346.397	1149.94
346.625	1154.94
346.853	1179.94
347.08	1140.94
347.308	1160.94
347.535	1150.94
347.763	1155.94
347.99	1113.94
348.218	1157.94
348.445	1151.94
348.673	1159.94
348.9	1147.94
349.128	1146.94
349.355	1149.94
349.583	1146.94
349.81	1149.94
350.037	1170.94
350.265	1125.94
350.492	1157.94
350.72	1156.94
350.947	1141.94
351.174	1158.94
351.402	1168.94
351.629	1143.94
351.856	1140.94
352.083	1113.94
352.311	1114.94
352.538	1130.94
352.765	1121.94
352.992	1123.94
353.22	1099.94
353.447	1097.94
353.674	1114.94
353.901	1112.94
354.128	1100.94
354.355	1093.94
354.583	1136.94
354.81	1118.94
355.037	1122.94
355.264	1138.94
355.491	1117.94
355.718	1102.94
355.945	1143.94
356.172	1114.94
356.399	1132.94
356.626	1135.94
356.853	1139.94
357.08	1119.94
357.307	1112.94
357.534	1092.94
357.761	1095.94
357.988	1113.94
358.215	1114.94
358.441	1104.94
358.668	1101.94
358.895	1105.94
359.122	1125.94
359.349	1104.94
359.576	1092.94
359.802	1114.94
360.029	1089.94
360.256	1090.94
360.483	1079.94
360.709	1092.94
360.936	1102.94
361.163	1099.94
361.39	1127.94
361.616	1094.94
361.843	1102.94
362.07	1106.94
362.296	1101.94
362.523	1120.94
362.749	1087.94
362.976	1082.94
363.203	1100.94
363.429	1085.94
363.656	1075.94
363.882	1113.94
364.109	1101.94
364.335	1073.94
364.562	1112.94
364.788	1059.94
365.015	1099.94
365.241	1085.94
365.468	1075.94
365.694	1056.94
365.92	1070.94
366.147	1088.94
366.373	1082.94
366.599	1071.94
366.826	1080.94
367.052	1069.94
367.278	1090.94
367.505	1082.94
367.731	1079.94
367.957	1090.94
368.184	1073.94
368.41	1087.94
368.636	1092.94
368.862	1102.94
369.089	1078.94
369.315	1077.94
369.541	1078.94
369.767	1088.94
369.993	1071.94
370.219	1078.94
370.445	1074.94
370.672	1070.94
370.898	1059.94
371.124	1061.94
371.35	1061.94
371.576	1031.94
371.802	1078.94
372.028	1070.94
372.254	1088.94
372.48	1063.94
372.706	1051.94
372.932	1055.94
373.158	1066.94
373.384	1047.94
373.61	1034.94
373.835	1039.94
374.061	1055.94
374.287	1041.94
374.513	1055.94
374.739	1050.94
374.965	1080.94
375.191	1048.94
375.416	1060.94
375.642	1063.94
375.868	1031.94
376.094	1007.94
376.319	1022.94
376.545	1016.94
376.771	1035.94
376.997	989.94
377.222	984.94
377.448	993.94
377.674	1045.94
377.899	987.94
378.125	1006.94
378.35	978.94
378.576	984.94
378.802	994.94
379.027	995.94
379.253	966.94
379.478	979.94
379.704	967.94
379.929	974.94
380.155	979.94
380.38	952.94
380.606	978.94
380.831	989.94
381.057	974.94
381.282	969.94
381.507	967.94
381.733	976.94
381.958	958.94
382.184	976.94
382.409	992.94
382.634	989.94
382.86	975.94
383.085	968.94
383.31	989.94
383.535	987.94
383.761	969.94
383.986	979.94
384.211	972.94
384.436	995.94
384.662	998.94
384.887	973.94
385.112	970.94
385.337	978.94
385.562	971.94
385.787	994.94
386.013	1026.94
386.238	1009.94
386.463	1015.94
386.688	1017.94
386.913	981.94
387.138	961.94
387.363	1011.94
387.588	978.94
387.813	1001.94
388.038	1022.94
388.263	997.94
388.488	990.94
388.713	1032.94
388.938	994.94
389.163	1001.94
389.387	1023.94
389.612	1008.94
389.837	981.94
390.062	1028.94
390.287	990.94
390.512	996.94
390.736	1002.94
390.961	998.94
391.186	1003.94
391.411	1013.94
391.636	1037.94
391.86	1036.94
392.085	1005.94
392.31	1033.94
392.534	1032.94
392.759	1019.94
392.984	1004.94
393.208	1023.94
393.433	1023.94
393.658	1023.94
393.882	1004.94
394.107	1018.94
394.331	1035.94
394.556	976.94
394.78	1008.94
395.005	987.94
395.229	1018.94
395.454	1012.94
395.678	1002.94
395.903	1024.94
396.127	1010.94
396.352	1054.94
396.576	1022.94
396.801	1045.94
397.025	1062.94
397.249	1051.94
397.474	1060.94
397.698	1038.94
397.922	1068.94
398.147	1059.94
398.371	1036.94
398.595	1091.94
398.82	1085.94
399.044	1111.94
399.268	1116.94
399.492	1153.94
399.717	1175.94
399.941	1192.94
400.165	1155.94
400.389	1139.94
400.613	1182.94
400.837	1127.94
401.062	1132.94
401.286	1132.94
401.51	1119.94
401.734	1117.94
401.958	1120.94
402.182	1143.94
402.406	1146.94
402.63	1110.94
402.854	1125.94
403.078	1124.94
403.302	1126.94
403.526	1144.94
403.75	1110.94
403.974	1137.94
404.198	1127.94
404.422	1161.94
404.645	1140.94
404.869	1132.94
405.093	1178.94
405.317	1163.94
405.541	1160.94
405.765	1161.94
405.988	1162.94
406.212	1180.94
406.436	1199.94
406.66	1233.94
406.883	1199.94
407.107	1246.94
407.331	1205.94
407.555	1231.94
407.778	1213.94
408.002	1220.94
408.226	1255.94
408.449	1274.94
408.673	1191.94
408.896	1231.94
409.12	1237.94
409.344	1246.94
409.567	1202.94
409.791	1198.94
410.014	1198.94
410.238	1199.94
410.461	1242.94
410.685	1239.94
410.908	1210.94
411.132	1216.94
411.355	1192.94
411.578	1215.94
411.802	1210.94
412.025	1228.94
412.249	1190.94
412.472	1229.94
412.695	1200.94
412.919	1181.94
413.142	1181.94
413.365	1210.94
413.589	1198.94
413.812	1173.94
414.035	1179.94
414.258	1196.94
414.482	1188.94
414.705	1221.94
414.928	1198.94
415.151	1212.94
415.374	1203.94
415.597	1210.94
415.821	1178.94
416.044	1184.94
416.267	1199.94
416.49	1200.94
416.713	1191.94
416.936	1194.94
417.159	1181.94
417.382	1196.94
417.605	1154.94
417.828	1166.94
418.051	1211.94
418.274	1200.94
418.497	1187.94
418.72	1188.94
418.943	1230.94
419.166	1244.94
419.389	1314.94
419.611	1307.94
419.834	1279.94
420.057	1287.94
420.28	1229.94
420.503	1184.94
420.726	1194.94
420.948	1189.94
421.171	1220.94
421.394	1224.94
421.617	1195.94
421.839	1237.94
422.062	1220.94
422.285	1222.94
422.507	1213.94
422.73	1238.94
422.953	1239.94
423.175	1206.94
423.398	1257.94
423.621	1251.94
423.843	1246.94
424.066	1266.94
424.288	1227.94
424.511	1267.94
424.733	1231.94
424.956	1242.94
425.178	1258.94
425.401	1251.94
425.623	1240.94
425.846	1232.94
426.068	1248.94
426.291	1237.94
426.513	1224.94
426.735	1276.94
426.958	1258.94
427.18	1243.94
427.402	1225.94
427.625	1254.94
427.847	1250.94
428.069	1246.94
428.292	1262.94
428.514	1241.94
428.736	1237.94
428.958	1275.94
429.181	1252.94
429.403	1239.94
429.625	1264.94
429.847	1266.94
430.069	1275.94
430.292	1270.94
430.514	1256.94
430.736	1268.94
430.958	1260.94
431.18	1273.94
431.402	1293.94
431.624	1271.94
431.846	1270.94
432.068	1248.94
432.29	1267.94
432.512	1288.94
432.734	1280.94
432.956	1256.94
433.178	1268.94
433.4	1308.94
433.622	1303.94
433.844	1289.94
434.066	1312.94
434.287	1279.94
434.509	1245.94
434.731	1314.94
434.953	1268.94
435.175	1271.94
435.397	1324.94
435.618	1328.94
435.84	1323.94
436.062	1271.94
436.284	1278.94
436.505	1268.94
436.727	1298.94
436.949	1298.94
437.17	1274.94
437.392	1278.94
437.614	1265.94
437.835	1230.94
438.057	1247.94
438.278	1230.94
438.5	1219.94
438.721	1300.94
438.943	1292.94
439.165	1262.94
439.386	1253.94
439.608	1292.94
439.829	1306.94
440.05	1269.94
440.272	1260.94
440.493	1294.94
440.715	1308.94
440.936	1326.94
441.158	1304.94
441.379	1297.94
441.6	1317.94
441.822	1296.94
442.043	1349.94
442.264	1350.94
442.486	1300.94
442.707	1331.94
442.928	1325.94
443.149	1320.94
443.371	1346.94
443.592	1340.94
443.813	1283.94
444.034	1310.94
444.255	1330.94
444.476	1299.94
444.698	1334.94
444.919	1378.94
445.14	1387.94
445.361	1371.94
445.582	1315.94
445.803	1289.94
446.024	1317.94
446.245	1281.94
446.466	1258.94
446.687	1278.94
446.908	1282.94
447.129	1288.94
447.35	1265.94
447.571	1250.94
447.792	1254.94
448.013	1226.94
448.234	1256.94
448.455	1228.94
448.675	1234.94
448.896	1229.94
449.117	1234.94
449.338	1239.94
449.559	1210.94
449.779	1219.94
450	1204.94
450.221	1194.94
450.442	1204.94
450.662	1195.94
450.883	1219.94
451.104	1223.94
451.324	1249.94
451.545	1220.94
451.766	1220.94
451.986	1172.94
452.207	1207.94
452.428	1200.94
452.648	1174.94
452.869	1176.94
453.089	1149.94
453.31	1194.94
453.53	1157.94
453.751	1182.94
453.971	1156.94
454.192	1165.94
454.412	1188.94
454.633	1161.94
454.853	1197.94
455.073	1157.94
455.294	1200.94
455.514	1170.94
455.734	1137.94
455.955	1150.94
456.175	1163.94
456.395	1154.94
456.616	1196.94
456.836	1182.94
457.056	1181.94
457.276	1140.94
457.497	1176.94
457.717	1159.94
457.937	1186.94
458.157	1194.94
458.377	1180.94
458.598	1189.94
458.818	1192.94
459.038	1209.94
459.258	1230.94
459.478	1223.94
459.698	1228.94
459.918	1246.94
460.138	1234.94
460.358	1287.94
460.578	1298.94
460.798	1263.94
461.018	1284.94
461.238	1263.94
461.458	1292.94
461.678	1299.94
461.898	1328.94
462.118	1287.94
462.338	1311.94
462.558	1326.94
462.777	1324.94
462.997	1345.94
463.217	1404.94
463.437	1396.94
463.657	1369.94
463.876	1352.94
464.096	1362.94
464.316	1358.94
464.536	1335.94
464.755	1336.94
464.975	1326.94
465.195	1292.94
465.414	1326.94
465.634	1258.94
465.854	1246.94
466.073	1263.94
466.293	1261.94
466.512	1218.94
466.732	1265.94
466.951	1258.94
467.171	1273.94
467.391	1248.94
467.61	1232.94
467.829	1241.94
468.049	1253.94
468.268	1231.94
468.488	1253.94
468.707	1267.94
468.927	1261.94
469.146	1258.94
469.365	1280.94
469.585	1241.94
469.804	1260.94
470.023	1288.94
470.243	1287.94
470.462	1278.94
470.681	1264.94
470.901	1296.94
471.12	1288.94
471.339	1294.94
471.558	1288.94
471.777	1296.94
471.997	1297.94
472.216	1306.94
472.435	1314.94
472.654	1291.94
472.873	1287.94
473.092	1298.94
473.311	1332.94
473.53	1316.94
473.749	1301.94
473.968	1312.94
474.187	1287.94
474.406	1280.94
474.625	1327.94
474.844	1332.94
475.063	1336.94
475.282	1368.94
475.501	1377.94
475.72	1320.94
475.939	1388.94
476.158	1373.94
476.377	1380.94
476.596	1406.94
476.814	1406.94
477.033	1367.94
477.252	1382.94
477.471	1386.94
477.69	1432.94
477.908	1424.94
478.127	1431.94
478.346	1463.94
478.564	1517.94
478.783	1488.94
479.002	1491.94
479.22	1528.94
479.439	1498.94
479.658	1522.94
479.876	1511.94
480.095	1512.94
480.313	1511.94
480.532	1531.94
480.751	1514.94
480.969	1511.94
481.188	1546.94
481.406	1506.94
481.624	1560.94
481.843	1525.94
482.061	1534.94
482.28	1566.94
482.498	1559.94
482.717	1530.94
482.935	1560.94
483.153	1588.94
483.372	1590.94
483.59	1583.94
483.808	1587.94
484.027	1591.94
484.245	1587.94
484.463	1608.94
484.681	1604.94
484.9	1630.94
485.118	1627.94
485.336	1585.94
485.554	1550.94
485.772	1593.94
485.99	1615.94
486.209	1599.94
486.427	1604.94
486.645	1580.94
486.863	1650.94
487.081	1645.94
487.299	1642.94
487.517	1635.94
487.735	1614.94
487.953	1701.94
488.171	1631.94
488.389	1675.94
488.607	1639.94
488.825	1636.94
489.043	1644.94
489.261	1601.94
489.479	1626.94
489.696	1668.94
489.914	1630.94
490.132	1634.94
490.35	1679.94
490.568	1660.94
490.786	1686.94
491.003	1656.94
491.221	1679.94
491.439	1688.94
491.657	1668.94
491.874	1741.94
492.092	1723.94
492.31	1782.94
492.527	1719.94
