Data from Ni(NO3)2@0.25M.TitratingCurve.Agarose3%dH2O.NegLispCup.LampEnergy10.LIBS07252019_HRD10591_18-04-49-570.txt Node
Date: Thu Jul 25 18:04:49 EDT 2019
User: cochatt
Spectrometer: HR+D1059
Trigger mode: 1
Integration Time (sec): 1.000000E-1
Scans to average: 1
Electric dark correction enabled: true
Nonlinearity correction enabled: false
Boxcar width: 0
XAxis mode: Wavelengths
Number of Pixels in Spectrum: 2048
>>>>>Begin Spectral Data<<<<<
223.165	-14.62
223.4	-14.62
223.635	-14.62
223.869	-22.62
224.104	-29.62
224.338	-13.62
224.573	-23.62
224.808	-14.62
225.042	0.38
225.277	-4.62
225.511	-0.62
225.746	1.38
225.98	7.38
226.215	11.38
226.449	14.38
226.683	27.38
226.918	31.38
227.152	30.38
227.387	16.38
227.621	38.38
227.856	44.38
228.09	34.38
228.324	29.38
228.559	59.38
228.793	67.38
229.027	104.38
229.262	107.38
229.496	120.38
229.73	124.38
229.964	131.38
230.199	120.38
230.433	116.38
230.667	135.38
230.901	140.38
231.136	130.38
231.37	122.38
231.604	126.38
231.838	151.38
232.072	151.38
232.306	147.38
232.541	147.38
232.775	148.38
233.009	152.38
233.243	147.38
233.477	146.38
233.711	149.38
233.945	151.38
234.179	159.38
234.413	159.38
234.647	162.38
234.881	147.38
235.115	151.38
235.349	142.38
235.583	139.38
235.817	146.38
236.051	147.38
236.285	158.38
236.519	151.38
236.753	139.38
236.987	147.38
237.221	146.38
237.455	175.38
237.689	154.38
237.922	161.38
238.156	161.38
238.39	169.38
238.624	132.38
238.858	158.38
239.091	154.38
239.325	161.38
239.559	168.38
239.793	186.38
240.027	164.38
240.26	171.38
240.494	178.38
240.728	160.38
240.961	172.38
241.195	182.38
241.429	179.38
241.662	197.38
241.896	193.38
242.13	182.38
242.363	192.38
242.597	196.38
242.83	185.38
243.064	188.38
243.298	188.38
243.531	203.38
243.765	197.38
243.998	226.38
244.232	188.38
244.465	194.38
244.699	207.38
244.932	211.38
245.166	208.38
245.399	218.38
245.633	210.38
245.866	225.38
246.099	222.38
246.333	213.38
246.566	217.38
246.8	221.38
247.033	226.38
247.266	230.38
247.5	238.38
247.733	231.38
247.966	219.38
248.2	239.38
248.433	240.38
248.666	260.38
248.899	247.38
249.133	241.38
249.366	255.38
249.599	261.38
249.832	262.38
250.066	270.38
250.299	266.38
250.532	278.38
250.765	281.38
250.998	296.38
251.231	282.38
251.465	283.38
251.698	299.38
251.931	291.38
252.164	297.38
252.397	297.38
252.63	311.38
252.863	312.38
253.096	310.38
253.329	315.38
253.562	306.38
253.795	320.38
254.028	307.38
254.261	305.38
254.494	345.38
254.727	330.38
254.96	356.38
255.193	331.38
255.426	342.38
255.659	320.38
255.892	353.38
256.124	355.38
256.357	347.38
256.59	340.38
256.823	343.38
257.056	367.38
257.289	367.38
257.521	366.38
257.754	350.38
257.987	370.38
258.22	382.38
258.452	384.38
258.685	378.38
258.918	373.38
259.151	388.38
259.383	402.38
259.616	400.38
259.849	387.38
260.081	374.38
260.314	404.38
260.547	413.38
260.779	416.38
261.012	417.38
261.244	402.38
261.477	415.38
261.71	417.38
261.942	425.38
262.175	404.38
262.407	415.38
262.64	411.38
262.872	420.38
263.105	401.38
263.337	402.38
263.57	422.38
263.802	453.38
264.035	434.38
264.267	441.38
264.499	418.38
264.732	423.38
264.964	438.38
265.197	452.38
265.429	454.38
265.661	432.38
265.894	441.38
266.126	447.38
266.358	447.38
266.591	430.38
266.823	448.38
267.055	462.38
267.287	446.38
267.52	468.38
267.752	442.38
267.984	443.38
268.216	451.38
268.448	436.38
268.681	473.38
268.913	472.38
269.145	474.38
269.377	462.38
269.609	480.38
269.841	477.38
270.073	472.38
270.306	485.38
270.538	458.38
270.77	477.38
271.002	467.38
271.234	459.38
271.466	488.38
271.698	503.38
271.93	479.38
272.162	494.38
272.394	471.38
272.626	478.38
272.858	474.38
273.09	496.38
273.322	490.38
273.553	484.38
273.785	525.38
274.017	488.38
274.249	500.38
274.481	514.38
274.713	522.38
274.945	502.38
275.176	512.38
275.408	519.38
275.64	521.38
275.872	506.38
276.104	517.38
276.335	491.38
276.567	513.38
276.799	537.38
277.031	522.38
277.262	547.38
277.494	532.38
277.726	521.38
277.957	540.38
278.189	527.38
278.421	524.38
278.652	541.38
278.884	543.38
279.115	545.38
279.347	533.38
279.579	547.38
279.81	569.38
280.042	545.38
280.273	549.38
280.505	576.38
280.736	559.38
280.968	550.38
281.199	530.38
281.431	552.38
281.662	549.38
281.894	543.38
282.125	546.38
282.356	566.38
282.588	514.38
282.819	555.38
283.051	582.38
283.282	557.38
283.513	548.38
283.745	565.38
283.976	556.38
284.207	558.38
284.439	546.38
284.67	582.38
284.901	572.38
285.132	570.38
285.364	579.38
285.595	564.38
285.826	581.38
286.057	582.38
286.288	544.38
286.52	577.38
286.751	573.38
286.982	604.38
287.213	599.38
287.444	597.38
287.675	579.38
287.906	595.38
288.138	593.38
288.369	594.38
288.6	601.38
288.831	566.38
289.062	584.38
289.293	617.38
289.524	592.38
289.755	601.38
289.986	582.38
290.217	580.38
290.448	578.38
290.679	597.38
290.91	592.38
291.141	603.38
291.371	608.38
291.602	609.38
291.833	572.38
292.064	590.38
292.295	610.38
292.526	586.38
292.757	603.38
292.987	595.38
293.218	583.38
293.449	598.38
293.68	593.38
293.91	588.38
294.141	599.38
294.372	587.38
294.603	596.38
294.833	602.38
295.064	612.38
295.295	592.38
295.525	574.38
295.756	603.38
295.987	585.38
296.217	596.38
296.448	615.38
296.679	613.38
296.909	608.38
297.14	625.38
297.37	638.38
297.601	618.38
297.831	625.38
298.062	615.38
298.292	653.38
298.523	651.38
298.753	663.38
298.984	659.38
299.214	643.38
299.445	628.38
299.675	644.38
299.905	630.38
300.136	631.38
300.366	642.38
300.597	686.38
300.827	666.38
301.057	676.38
301.288	667.38
301.518	646.38
301.748	666.38
301.979	678.38
302.209	675.38
302.439	676.38
302.669	671.38
302.9	667.38
303.13	667.38
303.36	681.38
303.59	674.38
303.82	688.38
304.051	686.38
304.281	666.38
304.511	701.38
304.741	679.38
304.971	700.38
305.201	700.38
305.431	693.38
305.661	714.38
305.891	687.38
306.121	676.38
306.352	662.38
306.582	677.38
306.812	683.38
307.042	665.38
307.272	702.38
307.502	662.38
307.731	672.38
307.961	691.38
308.191	696.38
308.421	686.38
308.651	689.38
308.881	686.38
309.111	684.38
309.341	674.38
309.571	696.38
309.8	699.38
310.03	701.38
310.26	721.38
310.49	704.38
310.72	708.38
310.949	723.38
311.179	723.38
311.409	715.38
311.639	726.38
311.868	722.38
312.098	719.38
312.328	746.38
312.557	727.38
312.787	730.38
313.017	743.38
313.246	767.38
313.476	776.38
313.706	738.38
313.935	765.38
314.165	779.38
314.394	766.38
314.624	761.38
314.853	770.38
315.083	769.38
315.312	772.38
315.542	801.38
315.771	788.38
316.001	793.38
316.23	771.38
316.46	787.38
316.689	827.38
316.919	799.38
317.148	798.38
317.377	793.38
317.607	805.38
317.836	774.38
318.065	800.38
318.295	827.38
318.524	798.38
318.753	816.38
318.983	820.38
319.212	791.38
319.441	826.38
319.67	808.38
319.9	844.38
320.129	844.38
320.358	829.38
320.587	834.38
320.816	841.38
321.046	845.38
321.275	854.38
321.504	859.38
321.733	833.38
321.962	853.38
322.191	879.38
322.42	880.38
322.649	858.38
322.878	883.38
323.108	879.38
323.337	905.38
323.566	880.38
323.795	910.38
324.024	911.38
324.253	899.38
324.482	909.38
324.71	899.38
324.939	929.38
325.168	936.38
325.397	914.38
325.626	920.38
325.855	911.38
326.084	953.38
326.313	950.38
326.542	973.38
326.77	971.38
326.999	938.38
327.228	973.38
327.457	976.38
327.686	964.38
327.914	964.38
328.143	1025.38
328.372	993.38
328.6	972.38
328.829	1002.38
329.058	986.38
329.287	1036.38
329.515	1008.38
329.744	1009.38
329.972	999.38
330.201	1046.38
330.43	1078.38
330.658	1046.38
330.887	1036.38
331.115	1080.38
331.344	1065.38
331.572	1030.38
331.801	1068.38
332.03	1085.38
332.258	1104.38
332.486	1138.38
332.715	1091.38
332.943	1134.38
333.172	1175.38
333.4	1198.38
333.629	1203.38
333.857	1234.38
334.085	1223.38
334.314	1227.38
334.542	1237.38
334.771	1238.38
334.999	1264.38
335.227	1251.38
335.455	1251.38
335.684	1269.38
335.912	1268.38
336.14	1252.38
336.369	1240.38
336.597	1227.38
336.825	1216.38
337.053	1251.38
337.281	1234.38
337.51	1204.38
337.738	1223.38
337.966	1211.38
338.194	1172.38
338.422	1178.38
338.65	1157.38
338.878	1171.38
339.106	1171.38
339.334	1202.38
339.562	1164.38
339.79	1138.38
340.018	1137.38
340.246	1111.38
340.474	1116.38
340.702	1134.38
340.93	1156.38
341.158	1134.38
341.386	1152.38
341.614	1165.38
341.842	1131.38
342.07	1141.38
342.298	1141.38
342.526	1121.38
342.754	1144.38
342.981	1146.38
343.209	1136.38
343.437	1178.38
343.665	1232.38
343.893	1240.38
344.12	1248.38
344.348	1255.38
344.576	1251.38
344.804	1231.38
345.031	1173.38
345.259	1160.38
345.487	1149.38
345.714	1167.38
345.942	1173.38
346.17	1171.38
346.397	1142.38
346.625	1108.38
346.853	1104.38
347.08	1100.38
347.308	1110.38
347.535	1074.38
347.763	1099.38
347.99	1098.38
348.218	1081.38
348.445	1098.38
348.673	1084.38
348.9	1071.38
349.128	1086.38
349.355	1077.38
349.583	1093.38
349.81	1075.38
350.037	1084.38
350.265	1074.38
350.492	1057.38
350.72	1056.38
350.947	1044.38
351.174	1077.38
351.402	1094.38
351.629	1059.38
351.856	1070.38
352.083	1065.38
352.311	1072.38
352.538	1098.38
352.765	1101.38
352.992	1033.38
353.22	1042.38
353.447	1008.38
353.674	1023.38
353.901	1057.38
354.128	1024.38
354.355	1076.38
354.583	1020.38
354.81	1054.38
355.037	1050.38
355.264	1027.38
355.491	1036.38
355.718	1060.38
355.945	1008.38
356.172	1048.38
356.399	1060.38
356.626	1090.38
356.853	1075.38
357.08	1050.38
357.307	1064.38
357.534	1071.38
357.761	1047.38
357.988	1045.38
358.215	1041.38
358.441	1035.38
358.668	1060.38
358.895	1042.38
359.122	1036.38
359.349	1065.38
359.576	1045.38
359.802	1046.38
360.029	1035.38
360.256	1059.38
360.483	1072.38
360.709	1059.38
360.936	1073.38
361.163	1046.38
361.39	1062.38
361.616	1057.38
361.843	1053.38
362.07	1065.38
362.296	1095.38
362.523	1029.38
362.749	1059.38
362.976	1053.38
363.203	1054.38
363.429	1030.38
363.656	1059.38
363.882	1038.38
364.109	1048.38
364.335	1031.38
364.562	1048.38
364.788	1055.38
365.015	1056.38
365.241	1047.38
365.468	1054.38
365.694	1027.38
365.92	1024.38
366.147	1015.38
366.373	1044.38
366.599	1047.38
366.826	1032.38
367.052	1034.38
367.278	1047.38
367.505	1042.38
367.731	1048.38
367.957	1035.38
368.184	1049.38
368.41	1056.38
368.636	1056.38
368.862	1054.38
369.089	1078.38
369.315	1071.38
369.541	1037.38
369.767	1090.38
369.993	1092.38
370.219	1070.38
370.445	1066.38
370.672	1118.38
370.898	1081.38
371.124	1079.38
371.35	1074.38
371.576	1084.38
371.802	1070.38
372.028	1088.38
372.254	1084.38
372.48	1081.38
372.706	1108.38
372.932	1110.38
373.158	1089.38
373.384	1092.38
373.61	1107.38
373.835	1086.38
374.061	1096.38
374.287	1079.38
374.513	1104.38
374.739	1127.38
374.965	1145.38
375.191	1130.38
375.416	1156.38
375.642	1100.38
375.868	1128.38
376.094	1066.38
376.319	1065.38
376.545	1106.38
376.771	1083.38
376.997	1080.38
377.222	1088.38
377.448	1065.38
377.674	1074.38
377.899	1036.38
378.125	1080.38
378.35	1062.38
378.576	1025.38
378.802	1021.38
379.027	1043.38
379.253	1044.38
379.478	1027.38
379.704	1037.38
379.929	1064.38
380.155	1058.38
380.38	1044.38
380.606	1062.38
380.831	1068.38
381.057	1076.38
381.282	1034.38
381.507	1033.38
381.733	1084.38
381.958	1044.38
382.184	1080.38
382.409	1072.38
382.634	1104.38
382.86	1079.38
383.085	1102.38
383.31	1137.38
383.535	1101.38
383.761	1129.38
383.986	1138.38
384.211	1130.38
384.436	1134.38
384.662	1168.38
384.887	1148.38
385.112	1205.38
385.337	1152.38
385.562	1165.38
385.787	1176.38
386.013	1202.38
386.238	1227.38
386.463	1205.38
386.688	1228.38
386.913	1192.38
387.138	1220.38
387.363	1226.38
387.588	1209.38
387.813	1227.38
388.038	1201.38
388.263	1234.38
388.488	1246.38
388.713	1242.38
388.938	1249.38
389.163	1184.38
389.387	1217.38
389.612	1207.38
389.837	1219.38
390.062	1220.38
390.287	1221.38
390.512	1206.38
390.736	1199.38
390.961	1230.38
391.186	1287.38
391.411	1265.38
391.636	1264.38
391.86	1322.38
392.085	1322.38
392.31	1303.38
392.534	1286.38
392.759	1290.38
392.984	1297.38
393.208	1276.38
393.433	1282.38
393.658	1262.38
393.882	1293.38
394.107	1291.38
394.331	1283.38
394.556	1271.38
394.78	1291.38
395.005	1300.38
395.229	1288.38
395.454	1319.38
395.678	1312.38
395.903	1355.38
396.127	1333.38
396.352	1316.38
396.576	1338.38
396.801	1346.38
397.025	1349.38
397.249	1321.38
397.474	1361.38
397.698	1420.38
397.922	1412.38
398.147	1414.38
398.371	1440.38
398.595	1453.38
398.82	1484.38
399.044	1587.38
399.268	1646.38
399.492	1695.38
399.717	1808.38
399.941	1848.38
400.165	1819.38
400.389	1790.38
400.613	1672.38
400.837	1616.38
401.062	1575.38
401.286	1552.38
401.51	1540.38
401.734	1531.38
401.958	1542.38
402.182	1513.38
402.406	1488.38
402.63	1548.38
402.854	1530.38
403.078	1521.38
403.302	1537.38
403.526	1554.38
403.75	1570.38
403.974	1528.38
404.198	1568.38
404.422	1564.38
404.645	1573.38
404.869	1531.38
405.093	1589.38
405.317	1541.38
405.541	1587.38
405.765	1608.38
405.988	1617.38
406.212	1574.38
406.436	1597.38
406.66	1666.38
406.883	1651.38
407.107	1750.38
407.331	1684.38
407.555	1748.38
407.778	1796.38
408.002	1746.38
408.226	1732.38
408.449	1762.38
408.673	1722.38
408.896	1731.38
409.12	1626.38
409.344	1658.38
409.567	1611.38
409.791	1664.38
410.014	1676.38
410.238	1638.38
410.461	1611.38
410.685	1632.38
410.908	1601.38
411.132	1589.38
411.355	1563.38
411.578	1572.38
411.802	1566.38
412.025	1593.38
412.249	1592.38
412.472	1617.38
412.695	1564.38
412.919	1535.38
413.142	1555.38
413.365	1568.38
413.589	1573.38
413.812	1534.38
414.035	1514.38
414.258	1557.38
414.482	1543.38
414.705	1572.38
414.928	1531.38
415.151	1547.38
415.374	1532.38
415.597	1551.38
415.821	1525.38
416.044	1491.38
416.267	1488.38
416.49	1479.38
416.713	1490.38
416.936	1488.38
417.159	1488.38
417.382	1492.38
417.605	1480.38
417.828	1496.38
418.051	1523.38
418.274	1486.38
418.497	1466.38
418.72	1505.38
418.943	1492.38
419.166	1611.38
419.389	1668.38
419.611	1662.38
419.834	1601.38
420.057	1564.38
420.28	1546.38
420.503	1490.38
420.726	1483.38
420.948	1502.38
421.171	1516.38
421.394	1510.38
421.617	1478.38
421.839	1496.38
422.062	1504.38
422.285	1475.38
422.507	1535.38
422.73	1523.38
422.953	1511.38
423.175	1488.38
423.398	1502.38
423.621	1502.38
423.843	1529.38
424.066	1558.38
424.288	1495.38
424.511	1506.38
424.733	1550.38
424.956	1518.38
425.178	1523.38
425.401	1557.38
425.623	1532.38
425.846	1512.38
426.068	1534.38
426.291	1506.38
426.513	1513.38
426.735	1494.38
426.958	1492.38
427.18	1484.38
427.402	1487.38
427.625	1483.38
427.847	1471.38
428.069	1436.38
428.292	1460.38
428.514	1435.38
428.736	1461.38
428.958	1432.38
429.181	1444.38
429.403	1454.38
429.625	1449.38
429.847	1412.38
430.069	1443.38
430.292	1419.38
430.514	1434.38
430.736	1468.38
430.958	1451.38
431.18	1469.38
431.402	1454.38
431.624	1429.38
431.846	1458.38
432.068	1425.38
432.29	1470.38
432.512	1463.38
432.734	1507.38
432.956	1479.38
433.178	1483.38
433.4	1491.38
433.622	1495.38
433.844	1484.38
434.066	1504.38
434.287	1487.38
434.509	1515.38
434.731	1538.38
434.953	1556.38
435.175	1538.38
435.397	1569.38
435.618	1551.38
435.84	1568.38
436.062	1504.38
436.284	1474.38
436.505	1466.38
436.727	1443.38
436.949	1487.38
437.17	1446.38
437.392	1468.38
437.614	1467.38
437.835	1401.38
438.057	1410.38
438.278	1404.38
438.5	1386.38
438.721	1385.38
438.943	1435.38
439.165	1406.38
439.386	1413.38
439.608	1438.38
439.829	1465.38
440.05	1440.38
440.272	1484.38
440.493	1445.38
440.715	1478.38
440.936	1494.38
441.158	1496.38
441.379	1514.38
441.6	1555.38
441.822	1511.38
442.043	1558.38
442.264	1541.38
442.486	1532.38
442.707	1547.38
442.928	1552.38
443.149	1552.38
443.371	1560.38
443.592	1556.38
443.813	1592.38
444.034	1573.38
444.255	1585.38
444.476	1598.38
444.698	1657.38
444.919	1678.38
445.14	1767.38
445.361	1690.38
445.582	1678.38
445.803	1555.38
446.024	1526.38
446.245	1546.38
446.466	1506.38
446.687	1481.38
446.908	1503.38
447.129	1456.38
447.35	1431.38
447.571	1432.38
447.792	1393.38
448.013	1394.38
448.234	1394.38
448.455	1398.38
448.675	1356.38
448.896	1379.38
449.117	1346.38
449.338	1350.38
449.559	1335.38
449.779	1355.38
450	1335.38
450.221	1350.38
450.442	1323.38
450.662	1347.38
450.883	1367.38
451.104	1346.38
451.324	1337.38
451.545	1326.38
451.766	1383.38
451.986	1323.38
452.207	1362.38
452.428	1338.38
452.648	1337.38
452.869	1279.38
453.089	1264.38
453.31	1318.38
453.53	1280.38
453.751	1338.38
453.971	1293.38
454.192	1277.38
454.412	1289.38
454.633	1306.38
454.853	1242.38
455.073	1275.38
455.294	1276.38
455.514	1266.38
455.734	1282.38
455.955	1272.38
456.175	1273.38
456.395	1293.38
456.616	1241.38
456.836	1282.38
457.056	1266.38
457.276	1241.38
457.497	1322.38
457.717	1287.38
457.937	1306.38
458.157	1324.38
458.377	1362.38
458.598	1331.38
458.818	1363.38
459.038	1391.38
459.258	1439.38
459.478	1476.38
459.698	1508.38
459.918	1518.38
460.138	1551.38
460.358	1595.38
460.578	1560.38
460.798	1606.38
461.018	1656.38
461.238	1632.38
461.458	1632.38
461.678	1635.38
461.898	1703.38
462.118	1662.38
462.338	1731.38
462.558	1751.38
462.777	1789.38
462.997	1871.38
463.217	1911.38
463.437	1914.38
463.657	1898.38
463.876	1889.38
464.096	1834.38
464.316	1786.38
464.536	1796.38
464.755	1737.38
464.975	1730.38
465.195	1660.38
465.414	1631.38
465.634	1584.38
465.854	1568.38
466.073	1527.38
466.293	1499.38
466.512	1484.38
466.732	1457.38
466.951	1458.38
467.171	1436.38
467.391	1427.38
467.61	1412.38
467.829	1413.38
468.049	1426.38
468.268	1396.38
468.488	1394.38
468.707	1384.38
468.927	1397.38
469.146	1410.38
469.365	1395.38
469.585	1376.38
469.804	1412.38
470.023	1426.38
470.243	1399.38
470.462	1422.38
470.681	1437.38
470.901	1442.38
471.12	1442.38
471.339	1395.38
471.558	1404.38
471.777	1402.38
471.997	1423.38
472.216	1426.38
472.435	1389.38
472.654	1373.38
472.873	1372.38
473.092	1418.38
473.311	1414.38
473.53	1397.38
473.749	1383.38
473.968	1377.38
474.187	1393.38
474.406	1358.38
474.625	1416.38
474.844	1400.38
475.063	1400.38
475.282	1431.38
475.501	1410.38
475.72	1414.38
475.939	1410.38
476.158	1447.38
476.377	1454.38
476.596	1481.38
476.814	1454.38
477.033	1478.38
477.252	1469.38
477.471	1527.38
477.69	1562.38
477.908	1580.38
478.127	1578.38
478.346	1576.38
478.564	1613.38
478.783	1641.38
479.002	1654.38
479.22	1670.38
479.439	1650.38
479.658	1666.38
479.876	1686.38
480.095	1664.38
480.313	1724.38
480.532	1718.38
480.751	1720.38
480.969	1719.38
481.188	1672.38
481.406	1656.38
481.624	1632.38
481.843	1616.38
482.061	1626.38
482.28	1633.38
482.498	1635.38
482.717	1604.38
482.935	1616.38
483.153	1632.38
483.372	1624.38
483.59	1640.38
483.808	1667.38
484.027	1639.38
484.245	1654.38
484.463	1658.38
484.681	1656.38
484.9	1632.38
485.118	1672.38
485.336	1675.38
485.554	1673.38
485.772	1700.38
485.99	1634.38
486.209	1661.38
486.427	1662.38
486.645	1706.38
486.863	1651.38
487.081	1680.38
487.299	1672.38
487.517	1672.38
487.735	1683.38
487.953	1679.38
488.171	1676.38
488.389	1664.38
488.607	1671.38
488.825	1666.38
489.043	1702.38
489.261	1686.38
489.479	1679.38
489.696	1659.38
489.914	1714.38
490.132	1691.38
490.35	1682.38
490.568	1730.38
490.786	1682.38
491.003	1722.38
491.221	1700.38
491.439	1738.38
491.657	1765.38
