Data from Ni(NO3)2@0.125M.TitratingCurve.Agarose3%dH2O.NegLispCup.LampEnergy10.LIBS07252019_HRD10591_18-10-17-568.txt Node
Date: Thu Jul 25 18:10:17 EDT 2019
User: cochatt
Spectrometer: HR+D1059
Trigger mode: 1
Integration Time (sec): 1.000000E-1
Scans to average: 1
Electric dark correction enabled: true
Nonlinearity correction enabled: false
Boxcar width: 0
XAxis mode: Wavelengths
Number of Pixels in Spectrum: 2048
>>>>>Begin Spectral Data<<<<<
223.165	-9.88
223.4	-9.88
223.635	-9.88
223.869	-13.88
224.104	-24.88
224.338	1.12
224.573	-21.88
224.808	-10.88
225.042	-9.88
225.277	12.12
225.511	-13.88
225.746	1.12
225.98	-7.88
226.215	17.12
226.449	20.12
226.683	10.12
226.918	19.12
227.152	32.12
227.387	35.12
227.621	48.12
227.856	47.12
228.09	43.12
228.324	47.12
228.559	51.12
228.793	69.12
229.027	117.12
229.262	125.12
229.496	119.12
229.73	127.12
229.964	125.12
230.199	136.12
230.433	146.12
230.667	155.12
230.901	149.12
231.136	147.12
231.37	136.12
231.604	147.12
231.838	157.12
232.072	158.12
232.306	155.12
232.541	165.12
232.775	162.12
233.009	168.12
233.243	177.12
233.477	168.12
233.711	177.12
233.945	183.12
234.179	184.12
234.413	174.12
234.647	165.12
234.881	180.12
235.115	170.12
235.349	167.12
235.583	187.12
235.817	157.12
236.051	183.12
236.285	166.12
236.519	177.12
236.753	174.12
236.987	177.12
237.221	169.12
237.455	181.12
237.689	168.12
237.922	184.12
238.156	182.12
238.39	197.12
238.624	191.12
238.858	198.12
239.091	195.12
239.325	190.12
239.559	199.12
239.793	196.12
240.027	205.12
240.26	182.12
240.494	201.12
240.728	194.12
240.961	211.12
241.195	219.12
241.429	212.12
241.662	205.12
241.896	213.12
242.13	228.12
242.363	220.12
242.597	231.12
242.83	223.12
243.064	239.12
243.298	232.12
243.531	235.12
243.765	241.12
243.998	218.12
244.232	243.12
244.465	245.12
244.699	266.12
244.932	248.12
245.166	245.12
245.399	252.12
245.633	265.12
245.866	263.12
246.099	265.12
246.333	265.12
246.566	248.12
246.8	254.12
247.033	263.12
247.266	272.12
247.5	269.12
247.733	278.12
247.966	255.12
248.2	262.12
248.433	289.12
248.666	293.12
248.899	283.12
249.133	292.12
249.366	300.12
249.599	298.12
249.832	302.12
250.066	306.12
250.299	305.12
250.532	307.12
250.765	328.12
250.998	310.12
251.231	301.12
251.465	305.12
251.698	313.12
251.931	317.12
252.164	311.12
252.397	319.12
252.63	326.12
252.863	344.12
253.096	326.12
253.329	337.12
253.562	338.12
253.795	299.12
254.028	343.12
254.261	343.12
254.494	350.12
254.727	332.12
254.96	323.12
255.193	332.12
255.426	345.12
255.659	339.12
255.892	337.12
256.124	359.12
256.357	347.12
256.59	366.12
256.823	366.12
257.056	371.12
257.289	339.12
257.521	368.12
257.754	356.12
257.987	364.12
258.22	360.12
258.452	382.12
258.685	375.12
258.918	379.12
259.151	376.12
259.383	380.12
259.616	378.12
259.849	380.12
260.081	389.12
260.314	387.12
260.547	369.12
260.779	382.12
261.012	400.12
261.244	396.12
261.477	397.12
261.71	395.12
261.942	414.12
262.175	382.12
262.407	406.12
262.64	399.12
262.872	379.12
263.105	425.12
263.337	426.12
263.57	421.12
263.802	408.12
264.035	433.12
264.267	403.12
264.499	426.12
264.732	440.12
264.964	411.12
265.197	424.12
265.429	426.12
265.661	422.12
265.894	428.12
266.126	437.12
266.358	437.12
266.591	430.12
266.823	433.12
267.055	449.12
267.287	427.12
267.52	440.12
267.752	457.12
267.984	452.12
268.216	473.12
268.448	455.12
268.681	458.12
268.913	466.12
269.145	473.12
269.377	460.12
269.609	461.12
269.841	476.12
270.073	470.12
270.306	452.12
270.538	445.12
270.77	457.12
271.002	483.12
271.234	461.12
271.466	483.12
271.698	483.12
271.93	452.12
272.162	492.12
272.394	480.12
272.626	474.12
272.858	494.12
273.09	502.12
273.322	465.12
273.553	503.12
273.785	480.12
274.017	499.12
274.249	493.12
274.481	488.12
274.713	481.12
274.945	499.12
275.176	495.12
275.408	477.12
275.64	505.12
275.872	521.12
276.104	523.12
276.335	535.12
276.567	533.12
276.799	539.12
277.031	546.12
277.262	549.12
277.494	530.12
277.726	540.12
277.957	547.12
278.189	541.12
278.421	533.12
278.652	550.12
278.884	548.12
279.115	550.12
279.347	553.12
279.579	552.12
279.81	545.12
280.042	571.12
280.273	550.12
280.505	551.12
280.736	522.12
280.968	550.12
281.199	575.12
281.431	570.12
281.662	563.12
281.894	582.12
282.125	569.12
282.356	586.12
282.588	582.12
282.819	572.12
283.051	587.12
283.282	582.12
283.513	594.12
283.745	602.12
283.976	586.12
284.207	567.12
284.439	601.12
284.67	604.12
284.901	593.12
285.132	591.12
285.364	598.12
285.595	586.12
285.826	603.12
286.057	626.12
286.288	610.12
286.52	623.12
286.751	604.12
286.982	622.12
287.213	626.12
287.444	619.12
287.675	621.12
287.906	619.12
288.138	639.12
288.369	627.12
288.6	644.12
288.831	664.12
289.062	637.12
289.293	667.12
289.524	659.12
289.755	625.12
289.986	637.12
290.217	656.12
290.448	641.12
290.679	641.12
290.91	637.12
291.141	654.12
291.371	657.12
291.602	649.12
291.833	662.12
292.064	656.12
292.295	650.12
292.526	649.12
292.757	651.12
292.987	636.12
293.218	646.12
293.449	658.12
293.68	650.12
293.91	649.12
294.141	665.12
294.372	639.12
294.603	676.12
294.833	649.12
295.064	681.12
295.295	666.12
295.525	655.12
295.756	671.12
295.987	682.12
296.217	679.12
296.448	677.12
296.679	676.12
296.909	650.12
297.14	680.12
297.37	694.12
297.601	685.12
297.831	696.12
298.062	708.12
298.292	700.12
298.523	735.12
298.753	717.12
298.984	716.12
299.214	700.12
299.445	707.12
299.675	718.12
299.905	705.12
300.136	706.12
300.366	712.12
300.597	737.12
300.827	748.12
301.057	742.12
301.288	736.12
301.518	737.12
301.748	744.12
301.979	748.12
302.209	770.12
302.439	762.12
302.669	744.12
302.9	710.12
303.13	727.12
303.36	739.12
303.59	740.12
303.82	731.12
304.051	747.12
304.281	731.12
304.511	718.12
304.741	719.12
304.971	764.12
305.201	749.12
305.431	727.12
305.661	729.12
305.891	729.12
306.121	759.12
306.352	747.12
306.582	742.12
306.812	761.12
307.042	718.12
307.272	717.12
307.502	709.12
307.731	717.12
307.961	743.12
308.191	749.12
308.421	722.12
308.651	705.12
308.881	714.12
309.111	727.12
309.341	728.12
309.571	731.12
309.8	734.12
310.03	737.12
310.26	737.12
310.49	729.12
310.72	732.12
310.949	727.12
311.179	728.12
311.409	744.12
311.639	732.12
311.868	762.12
312.098	753.12
312.328	756.12
312.557	767.12
312.787	766.12
313.017	731.12
313.246	769.12
313.476	781.12
313.706	767.12
313.935	803.12
314.165	777.12
314.394	798.12
314.624	804.12
314.853	771.12
315.083	793.12
315.312	773.12
315.542	806.12
315.771	760.12
316.001	758.12
316.23	768.12
316.46	775.12
316.689	780.12
316.919	799.12
317.148	742.12
317.377	769.12
317.607	762.12
317.836	763.12
318.065	783.12
318.295	746.12
318.524	772.12
318.753	743.12
318.983	783.12
319.212	748.12
319.441	759.12
319.67	759.12
319.9	765.12
320.129	770.12
320.358	789.12
320.587	774.12
320.816	786.12
321.046	771.12
321.275	803.12
321.504	805.12
321.733	794.12
321.962	782.12
322.191	773.12
322.42	783.12
322.649	781.12
322.878	768.12
323.108	790.12
323.337	790.12
323.566	778.12
323.795	817.12
324.024	827.12
324.253	813.12
324.482	801.12
324.71	800.12
324.939	795.12
325.168	823.12
325.397	831.12
325.626	845.12
325.855	819.12
326.084	838.12
326.313	859.12
326.542	872.12
326.77	862.12
326.999	860.12
327.228	859.12
327.457	857.12
327.686	823.12
327.914	854.12
328.143	869.12
328.372	839.12
328.6	842.12
328.829	854.12
329.058	859.12
329.287	859.12
329.515	847.12
329.744	851.12
329.972	873.12
330.201	852.12
330.43	915.12
330.658	875.12
330.887	877.12
331.115	890.12
331.344	899.12
331.572	886.12
331.801	930.12
332.03	938.12
332.258	972.12
332.486	989.12
332.715	1020.12
332.943	1114.12
333.172	1139.12
333.4	1149.12
333.629	1182.12
333.857	1234.12
334.085	1171.12
334.314	1167.12
334.542	1134.12
334.771	1129.12
334.999	1117.12
335.227	1109.12
335.455	1091.12
335.684	1075.12
335.912	1046.12
336.14	1051.12
336.369	1018.12
336.597	1054.12
336.825	1069.12
337.053	1001.12
337.281	1017.12
337.51	1009.12
337.738	989.12
337.966	966.12
338.194	985.12
338.422	975.12
338.65	952.12
338.878	933.12
339.106	966.12
339.334	968.12
339.562	917.12
339.79	917.12
340.018	892.12
340.246	920.12
340.474	899.12
340.702	914.12
340.93	894.12
341.158	924.12
341.386	939.12
341.614	895.12
341.842	905.12
342.07	878.12
342.298	882.12
342.526	879.12
342.754	894.12
342.981	909.12
343.209	918.12
343.437	967.12
343.665	1044.12
343.893	1105.12
344.12	1134.12
344.348	1106.12
344.576	1020.12
344.804	989.12
345.031	954.12
345.259	949.12
345.487	905.12
345.714	909.12
345.942	915.12
346.17	894.12
346.397	877.12
346.625	906.12
346.853	877.12
347.08	870.12
347.308	884.12
347.535	884.12
347.763	890.12
347.99	891.12
348.218	891.12
348.445	876.12
348.673	854.12
348.9	864.12
349.128	871.12
349.355	884.12
349.583	889.12
349.81	874.12
350.037	861.12
350.265	846.12
350.492	844.12
350.72	831.12
350.947	830.12
351.174	833.12
351.402	829.12
351.629	861.12
351.856	870.12
352.083	840.12
352.311	844.12
352.538	833.12
352.765	838.12
352.992	851.12
353.22	832.12
353.447	811.12
353.674	823.12
353.901	838.12
354.128	840.12
354.355	827.12
354.583	835.12
354.81	839.12
355.037	828.12
355.264	868.12
355.491	855.12
355.718	871.12
355.945	847.12
356.172	852.12
356.399	856.12
356.626	838.12
356.853	835.12
357.08	849.12
357.307	857.12
357.534	841.12
357.761	825.12
357.988	827.12
358.215	847.12
358.441	825.12
358.668	827.12
358.895	852.12
359.122	845.12
359.349	847.12
359.576	857.12
359.802	852.12
360.029	833.12
360.256	845.12
360.483	850.12
360.709	834.12
360.936	811.12
361.163	826.12
361.39	835.12
361.616	850.12
361.843	860.12
362.07	843.12
362.296	819.12
362.523	844.12
362.749	841.12
362.976	826.12
363.203	812.12
363.429	831.12
363.656	845.12
363.882	846.12
364.109	831.12
364.335	828.12
364.562	832.12
364.788	813.12
365.015	850.12
365.241	841.12
365.468	841.12
365.694	867.12
365.92	833.12
366.147	830.12
366.373	801.12
366.599	838.12
366.826	819.12
367.052	844.12
367.278	845.12
367.505	844.12
367.731	858.12
367.957	855.12
368.184	856.12
368.41	865.12
368.636	860.12
368.862	863.12
369.089	852.12
369.315	855.12
369.541	868.12
369.767	888.12
369.993	857.12
370.219	865.12
370.445	890.12
370.672	887.12
370.898	883.12
371.124	911.12
371.35	898.12
371.576	891.12
371.802	901.12
372.028	887.12
372.254	917.12
372.48	920.12
372.706	924.12
372.932	943.12
373.158	966.12
373.384	955.12
373.61	912.12
373.835	923.12
374.061	914.12
374.287	912.12
374.513	949.12
374.739	993.12
374.965	1011.12
375.191	1035.12
375.416	1033.12
375.642	960.12
375.868	974.12
376.094	942.12
376.319	946.12
376.545	936.12
376.771	926.12
376.997	930.12
377.222	928.12
377.448	937.12
377.674	892.12
377.899	927.12
378.125	895.12
378.35	873.12
378.576	878.12
378.802	885.12
379.027	927.12
379.253	900.12
379.478	895.12
379.704	915.12
379.929	923.12
380.155	879.12
380.38	895.12
380.606	923.12
380.831	911.12
381.057	917.12
381.282	931.12
381.507	930.12
381.733	901.12
381.958	911.12
382.184	924.12
382.409	934.12
382.634	994.12
382.86	941.12
383.085	967.12
383.31	1009.12
383.535	1019.12
383.761	1022.12
383.986	1005.12
384.211	1037.12
384.436	1095.12
384.662	1117.12
384.887	1112.12
385.112	1115.12
385.337	1128.12
385.562	1103.12
385.787	1096.12
386.013	1096.12
386.238	1113.12
386.463	1130.12
386.688	1145.12
386.913	1101.12
387.138	1096.12
387.363	1075.12
387.588	1102.12
387.813	1118.12
388.038	1087.12
388.263	1088.12
388.488	1094.12
388.713	1114.12
388.938	1078.12
389.163	1077.12
389.387	1059.12
389.612	1057.12
389.837	1086.12
390.062	1082.12
390.287	1077.12
390.512	1050.12
390.736	1102.12
390.961	1074.12
391.186	1119.12
391.411	1173.12
391.636	1212.12
391.86	1245.12
392.085	1259.12
392.31	1258.12
392.534	1202.12
392.759	1175.12
392.984	1141.12
393.208	1154.12
393.433	1143.12
393.658	1153.12
393.882	1173.12
394.107	1181.12
394.331	1186.12
394.556	1179.12
394.78	1165.12
395.005	1189.12
395.229	1155.12
395.454	1207.12
395.678	1260.12
395.903	1236.12
396.127	1232.12
396.352	1200.12
396.576	1171.12
396.801	1127.12
397.025	1152.12
397.249	1189.12
397.474	1226.12
397.698	1201.12
397.922	1214.12
398.147	1238.12
398.371	1226.12
398.595	1281.12
398.82	1380.12
399.044	1455.12
399.268	1610.12
399.492	1868.12
399.717	2136.12
399.941	2158.12
400.165	1866.12
400.389	1668.12
400.613	1526.12
400.837	1444.12
401.062	1415.12
401.286	1382.12
401.51	1411.12
401.734	1381.12
401.958	1382.12
402.182	1433.12
402.406	1450.12
402.63	1445.12
402.854	1475.12
403.078	1508.12
403.302	1523.12
403.526	1555.12
403.75	1609.12
403.974	1642.12
404.198	1621.12
404.422	1624.12
404.645	1596.12
404.869	1610.12
405.093	1563.12
405.317	1509.12
405.541	1538.12
405.765	1547.12
405.988	1512.12
406.212	1539.12
406.436	1511.12
406.66	1557.12
406.883	1593.12
407.107	1661.12
407.331	1773.12
407.555	1842.12
407.778	1799.12
408.002	1795.12
408.226	1690.12
408.449	1693.12
408.673	1561.12
408.896	1579.12
409.12	1544.12
409.344	1615.12
409.567	1573.12
409.791	1616.12
410.014	1595.12
410.238	1555.12
410.461	1548.12
410.685	1539.12
410.908	1519.12
411.132	1466.12
411.355	1418.12
411.578	1439.12
411.802	1446.12
412.025	1440.12
412.249	1474.12
412.472	1453.12
412.695	1418.12
412.919	1380.12
413.142	1363.12
413.365	1395.12
413.589	1379.12
413.812	1368.12
414.035	1354.12
414.258	1377.12
414.482	1362.12
414.705	1439.12
414.928	1423.12
415.151	1420.12
415.374	1410.12
415.597	1412.12
415.821	1367.12
416.044	1357.12
416.267	1359.12
416.49	1339.12
416.713	1349.12
416.936	1343.12
417.159	1341.12
417.382	1354.12
417.605	1346.12
417.828	1358.12
418.051	1372.12
418.274	1349.12
418.497	1340.12
418.72	1406.12
418.943	1395.12
419.166	1487.12
419.389	1580.12
419.611	1555.12
419.834	1469.12
420.057	1401.12
420.28	1385.12
420.503	1341.12
420.726	1367.12
420.948	1341.12
421.171	1354.12
421.394	1365.12
421.617	1356.12
421.839	1363.12
422.062	1384.12
422.285	1363.12
422.507	1409.12
422.73	1454.12
422.953	1419.12
423.175	1444.12
423.398	1463.12
423.621	1454.12
423.843	1485.12
424.066	1469.12
424.288	1459.12
424.511	1441.12
424.733	1444.12
424.956	1440.12
425.178	1393.12
425.401	1386.12
425.623	1359.12
425.846	1315.12
426.068	1307.12
426.291	1294.12
426.513	1326.12
426.735	1335.12
426.958	1267.12
427.18	1251.12
427.402	1260.12
427.625	1244.12
427.847	1234.12
428.069	1238.12
428.292	1184.12
428.514	1219.12
428.736	1223.12
428.958	1194.12
429.181	1165.12
429.403	1175.12
429.625	1185.12
429.847	1174.12
430.069	1187.12
430.292	1160.12
430.514	1177.12
430.736	1183.12
430.958	1186.12
431.18	1179.12
431.402	1193.12
431.624	1192.12
431.846	1199.12
432.068	1212.12
432.29	1247.12
432.512	1203.12
432.734	1197.12
432.956	1179.12
433.178	1219.12
433.4	1223.12
433.622	1206.12
433.844	1249.12
434.066	1242.12
434.287	1242.12
434.509	1283.12
434.731	1351.12
434.953	1416.12
435.175	1373.12
435.397	1393.12
435.618	1294.12
435.84	1267.12
436.062	1259.12
436.284	1193.12
436.505	1211.12
436.727	1217.12
436.949	1244.12
437.17	1241.12
437.392	1182.12
437.614	1185.12
437.835	1126.12
438.057	1171.12
438.278	1130.12
438.5	1145.12
438.721	1164.12
438.943	1173.12
439.165	1159.12
439.386	1188.12
439.608	1218.12
439.829	1213.12
440.05	1204.12
440.272	1220.12
440.493	1218.12
440.715	1255.12
440.936	1254.12
441.158	1307.12
441.379	1305.12
441.6	1362.12
441.822	1383.12
442.043	1403.12
442.264	1347.12
442.486	1335.12
442.707	1355.12
442.928	1338.12
443.149	1329.12
443.371	1359.12
443.592	1347.12
443.813	1352.12
444.034	1385.12
444.255	1440.12
444.476	1489.12
444.698	1615.12
444.919	1709.12
445.14	1700.12
445.361	1567.12
445.582	1405.12
445.803	1319.12
446.024	1286.12
446.245	1277.12
446.466	1257.12
446.687	1203.12
446.908	1223.12
447.129	1180.12
447.35	1181.12
447.571	1186.12
447.792	1149.12
448.013	1155.12
448.234	1161.12
448.455	1163.12
448.675	1137.12
448.896	1083.12
449.117	1092.12
449.338	1085.12
449.559	1104.12
449.779	1093.12
450	1079.12
450.221	1080.12
450.442	1139.12
450.662	1105.12
450.883	1124.12
451.104	1165.12
451.324	1135.12
451.545	1107.12
451.766	1151.12
451.986	1124.12
452.207	1128.12
452.428	1140.12
452.648	1104.12
452.869	1105.12
453.089	1076.12
453.31	1082.12
453.53	1080.12
453.751	1064.12
453.971	1073.12
454.192	1061.12
454.412	1068.12
454.633	1041.12
454.853	1065.12
455.073	1040.12
455.294	1069.12
455.514	1004.12
455.734	1007.12
455.955	1021.12
456.175	1015.12
456.395	1027.12
456.616	1014.12
456.836	1051.12
457.056	1010.12
457.276	1023.12
457.497	1041.12
457.717	1046.12
457.937	1054.12
458.157	1057.12
458.377	1065.12
458.598	1100.12
458.818	1125.12
459.038	1157.12
459.258	1162.12
459.478	1237.12
459.698	1283.12
459.918	1290.12
460.138	1333.12
460.358	1427.12
460.578	1452.12
460.798	1469.12
461.018	1482.12
461.238	1438.12
461.458	1404.12
461.678	1413.12
461.898	1466.12
462.118	1484.12
462.338	1545.12
462.558	1608.12
462.777	1651.12
462.997	1766.12
463.217	1971.12
463.437	2021.12
463.657	1831.12
463.876	1719.12
464.096	1687.12
464.316	1693.12
464.536	1759.12
464.755	1643.12
464.975	1568.12
465.195	1485.12
465.414	1386.12
465.634	1274.12
465.854	1256.12
466.073	1246.12
466.293	1225.12
466.512	1194.12
466.732	1175.12
466.951	1162.12
467.171	1141.12
467.391	1173.12
467.61	1165.12
467.829	1153.12
468.049	1147.12
468.268	1124.12
468.488	1097.12
468.707	1082.12
468.927	1095.12
469.146	1096.12
469.365	1142.12
469.585	1099.12
469.804	1144.12
470.023	1201.12
470.243	1197.12
470.462	1206.12
470.681	1217.12
470.901	1215.12
471.12	1170.12
471.339	1167.12
471.558	1150.12
471.777	1130.12
471.997	1111.12
472.216	1131.12
472.435	1101.12
472.654	1115.12
472.873	1069.12
473.092	1076.12
473.311	1053.12
473.53	1073.12
473.749	1066.12
473.968	1054.12
474.187	1051.12
474.406	1083.12
474.625	1070.12
474.844	1067.12
475.063	1080.12
475.282	1071.12
475.501	1085.12
475.72	1074.12
475.939	1086.12
476.158	1113.12
476.377	1149.12
476.596	1105.12
476.814	1151.12
477.033	1160.12
477.252	1153.12
477.471	1185.12
477.69	1208.12
477.908	1263.12
478.127	1284.12
478.346	1305.12
478.564	1303.12
478.783	1332.12
479.002	1370.12
479.22	1380.12
479.439	1384.12
479.658	1350.12
479.876	1377.12
480.095	1373.12
480.313	1406.12
480.532	1500.12
480.751	1497.12
480.969	1406.12
481.188	1351.12
481.406	1313.12
481.624	1278.12
481.843	1278.12
482.061	1266.12
482.28	1230.12
482.498	1245.12
482.717	1221.12
482.935	1214.12
483.153	1231.12
483.372	1231.12
483.59	1256.12
483.808	1251.12
484.027	1242.12
484.245	1251.12
484.463	1227.12
484.681	1257.12
484.9	1289.12
485.118	1290.12
485.336	1305.12
485.554	1301.12
485.772	1334.12
485.99	1347.12
486.209	1322.12
486.427	1317.12
486.645	1346.12
486.863	1324.12
487.081	1302.12
487.299	1320.12
487.517	1301.12
487.735	1323.12
487.953	1332.12
488.171	1303.12
488.389	1301.12
488.607	1282.12
488.825	1294.12
489.043	1252.12
489.261	1281.12
489.479	1278.12
489.696	1321.12
489.914	1306.12
490.132	1323.12
490.35	1293.12
490.568	1283.12
490.786	1311.12
491.003	1290.12
491.221	1323.12
491.439	1291.12
491.657	1314.12
491.874	1283.12
492.092	1322.12
492.31	1314.12
492.527	1326.12
492.745	1344.12
492.963	1350.12
493.18	1314.12
493.398	1350.12
493.615	1366.12
493.833	1350.12
494.05	1384.12
494.268	1358.12
