Data from Ni(NO3)2@0.0625M.TitratingCurve.Agarose3%dH2O.NegLispCup.LampEnergy10.LIBS07252019_HRD10591_18-15-32-569.txt Node
Date: Thu Jul 25 18:15:32 EDT 2019
User: cochatt
Spectrometer: HR+D1059
Trigger mode: 1
Integration Time (sec): 1.000000E-1
Scans to average: 1
Electric dark correction enabled: true
Nonlinearity correction enabled: false
Boxcar width: 0
XAxis mode: Wavelengths
Number of Pixels in Spectrum: 2048
>>>>>Begin Spectral Data<<<<<
223.165	-12.38
223.4	-12.38
223.635	-12.38
223.869	-11.38
224.104	-25.38
224.338	-21.38
224.573	-21.38
224.808	-12.38
225.042	-13.38
225.277	-2.38
225.511	11.62
225.746	5.62
225.98	3.62
226.215	9.62
226.449	20.62
226.683	23.62
226.918	14.62
227.152	30.62
227.387	35.62
227.621	40.62
227.856	40.62
228.09	34.62
228.324	50.62
228.559	46.62
228.793	82.62
229.027	113.62
229.262	114.62
229.496	140.62
229.73	150.62
229.964	142.62
230.199	148.62
230.433	136.62
230.667	156.62
230.901	146.62
231.136	155.62
231.37	148.62
231.604	150.62
231.838	153.62
232.072	152.62
232.306	166.62
232.541	176.62
232.775	152.62
233.009	169.62
233.243	160.62
233.477	161.62
233.711	163.62
233.945	165.62
234.179	173.62
234.413	176.62
234.647	168.62
234.881	160.62
235.115	179.62
235.349	170.62
235.583	170.62
235.817	173.62
236.051	182.62
236.285	171.62
236.519	186.62
236.753	180.62
236.987	184.62
237.221	187.62
237.455	188.62
237.689	202.62
237.922	191.62
238.156	180.62
238.39	186.62
238.624	199.62
238.858	204.62
239.091	201.62
239.325	186.62
239.559	192.62
239.793	193.62
240.027	203.62
240.26	206.62
240.494	202.62
240.728	201.62
240.961	216.62
241.195	217.62
241.429	230.62
241.662	228.62
241.896	216.62
242.13	222.62
242.363	207.62
242.597	223.62
242.83	242.62
243.064	224.62
243.298	233.62
243.531	246.62
243.765	229.62
243.998	237.62
244.232	241.62
244.465	240.62
244.699	241.62
244.932	254.62
245.166	245.62
245.399	270.62
245.633	263.62
245.866	255.62
246.099	257.62
246.333	260.62
246.566	271.62
246.8	256.62
247.033	243.62
247.266	274.62
247.5	284.62
247.733	274.62
247.966	261.62
248.2	266.62
248.433	287.62
248.666	284.62
248.899	265.62
249.133	302.62
249.366	282.62
249.599	282.62
249.832	281.62
250.066	313.62
250.299	281.62
250.532	294.62
250.765	325.62
250.998	303.62
251.231	294.62
251.465	300.62
251.698	327.62
251.931	313.62
252.164	315.62
252.397	325.62
252.63	314.62
252.863	314.62
253.096	315.62
253.329	313.62
253.562	329.62
253.795	327.62
254.028	336.62
254.261	323.62
254.494	328.62
254.727	323.62
254.96	339.62
255.193	337.62
255.426	344.62
255.659	332.62
255.892	341.62
256.124	354.62
256.357	348.62
256.59	332.62
256.823	348.62
257.056	350.62
257.289	353.62
257.521	375.62
257.754	364.62
257.987	357.62
258.22	370.62
258.452	354.62
258.685	344.62
258.918	349.62
259.151	363.62
259.383	372.62
259.616	359.62
259.849	371.62
260.081	384.62
260.314	390.62
260.547	369.62
260.779	375.62
261.012	375.62
261.244	382.62
261.477	386.62
261.71	398.62
261.942	385.62
262.175	386.62
262.407	391.62
262.64	383.62
262.872	395.62
263.105	403.62
263.337	402.62
263.57	414.62
263.802	385.62
264.035	401.62
264.267	428.62
264.499	389.62
264.732	397.62
264.964	412.62
265.197	427.62
265.429	425.62
265.661	408.62
265.894	416.62
266.126	421.62
266.358	422.62
266.591	420.62
266.823	423.62
267.055	417.62
267.287	423.62
267.52	442.62
267.752	408.62
267.984	418.62
268.216	444.62
268.448	431.62
268.681	445.62
268.913	453.62
269.145	453.62
269.377	457.62
269.609	451.62
269.841	466.62
270.073	451.62
270.306	447.62
270.538	450.62
270.77	454.62
271.002	450.62
271.234	448.62
271.466	467.62
271.698	460.62
271.93	486.62
272.162	454.62
272.394	454.62
272.626	486.62
272.858	467.62
273.09	471.62
273.322	486.62
273.553	472.62
273.785	474.62
274.017	506.62
274.249	481.62
274.481	480.62
274.713	507.62
274.945	503.62
275.176	503.62
275.408	499.62
275.64	490.62
275.872	509.62
276.104	530.62
276.335	522.62
276.567	491.62
276.799	501.62
277.031	525.62
277.262	490.62
277.494	510.62
277.726	525.62
277.957	524.62
278.189	517.62
278.421	517.62
278.652	512.62
278.884	530.62
279.115	527.62
279.347	505.62
279.579	537.62
279.81	545.62
280.042	547.62
280.273	526.62
280.505	534.62
280.736	566.62
280.968	546.62
281.199	549.62
281.431	549.62
281.662	570.62
281.894	566.62
282.125	576.62
282.356	582.62
282.588	564.62
282.819	570.62
283.051	565.62
283.282	593.62
283.513	584.62
283.745	586.62
283.976	582.62
284.207	577.62
284.439	593.62
284.67	602.62
284.901	602.62
285.132	585.62
285.364	591.62
285.595	585.62
285.826	594.62
286.057	590.62
286.288	604.62
286.52	595.62
286.751	585.62
286.982	631.62
287.213	615.62
287.444	613.62
287.675	621.62
287.906	613.62
288.138	623.62
288.369	611.62
288.6	632.62
288.831	648.62
289.062	621.62
289.293	636.62
289.524	639.62
289.755	610.62
289.986	648.62
290.217	661.62
290.448	653.62
290.679	645.62
290.91	647.62
291.141	626.62
291.371	655.62
291.602	643.62
291.833	651.62
292.064	633.62
292.295	645.62
292.526	649.62
292.757	670.62
292.987	650.62
293.218	617.62
293.449	642.62
293.68	636.62
293.91	662.62
294.141	646.62
294.372	633.62
294.603	662.62
294.833	653.62
295.064	630.62
295.295	673.62
295.525	657.62
295.756	675.62
295.987	663.62
296.217	641.62
296.448	683.62
296.679	669.62
296.909	691.62
297.14	666.62
297.37	691.62
297.601	668.62
297.831	682.62
298.062	682.62
298.292	721.62
298.523	701.62
298.753	723.62
298.984	694.62
299.214	714.62
299.445	679.62
299.675	711.62
299.905	715.62
300.136	711.62
300.366	709.62
300.597	717.62
300.827	732.62
301.057	747.62
301.288	748.62
301.518	727.62
301.748	743.62
301.979	772.62
302.209	747.62
302.439	737.62
302.669	729.62
302.9	741.62
303.13	726.62
303.36	723.62
303.59	722.62
303.82	727.62
304.051	734.62
304.281	708.62
304.511	707.62
304.741	725.62
304.971	744.62
305.201	719.62
305.431	737.62
305.661	730.62
305.891	738.62
306.121	722.62
306.352	705.62
306.582	716.62
306.812	698.62
307.042	709.62
307.272	725.62
307.502	721.62
307.731	721.62
307.961	696.62
308.191	696.62
308.421	684.62
308.651	714.62
308.881	726.62
309.111	714.62
309.341	700.62
309.571	704.62
309.8	708.62
310.03	708.62
310.26	723.62
310.49	723.62
310.72	714.62
310.949	724.62
311.179	731.62
311.409	728.62
311.639	742.62
311.868	729.62
312.098	721.62
312.328	730.62
312.557	727.62
312.787	766.62
313.017	768.62
313.246	774.62
313.476	778.62
313.706	772.62
313.935	791.62
314.165	755.62
314.394	776.62
314.624	770.62
314.853	783.62
315.083	747.62
315.312	774.62
315.542	747.62
315.771	733.62
316.001	755.62
316.23	781.62
316.46	757.62
316.689	763.62
316.919	735.62
317.148	747.62
317.377	734.62
317.607	770.62
317.836	749.62
318.065	765.62
318.295	794.62
318.524	752.62
318.753	749.62
318.983	749.62
319.212	736.62
319.441	759.62
319.67	766.62
319.9	729.62
320.129	769.62
320.358	780.62
320.587	737.62
320.816	724.62
321.046	748.62
321.275	747.62
321.504	759.62
321.733	752.62
321.962	760.62
322.191	777.62
322.42	766.62
322.649	756.62
322.878	774.62
323.108	776.62
323.337	797.62
323.566	774.62
323.795	777.62
324.024	795.62
324.253	804.62
324.482	793.62
324.71	754.62
324.939	794.62
325.168	767.62
325.397	786.62
325.626	789.62
325.855	825.62
326.084	834.62
326.313	835.62
326.542	829.62
326.77	845.62
326.999	818.62
327.228	823.62
327.457	844.62
327.686	814.62
327.914	848.62
328.143	833.62
328.372	835.62
328.6	816.62
328.829	817.62
329.058	870.62
329.287	854.62
329.515	869.62
329.744	836.62
329.972	880.62
330.201	832.62
330.43	842.62
330.658	869.62
330.887	884.62
331.115	889.62
331.344	877.62
331.572	868.62
331.801	904.62
332.03	951.62
332.258	952.62
332.486	988.62
332.715	1029.62
332.943	1031.62
333.172	1082.62
333.4	1116.62
333.629	1154.62
333.857	1158.62
334.085	1131.62
334.314	1110.62
334.542	1117.62
334.771	1089.62
334.999	1056.62
335.227	1038.62
335.455	1052.62
335.684	1029.62
335.912	1041.62
336.14	1030.62
336.369	999.62
336.597	1031.62
336.825	1023.62
337.053	1014.62
337.281	985.62
337.51	964.62
337.738	949.62
337.966	933.62
338.194	957.62
338.422	916.62
338.65	928.62
338.878	900.62
339.106	946.62
339.334	910.62
339.562	910.62
339.79	876.62
340.018	896.62
340.246	860.62
340.474	869.62
340.702	861.62
340.93	912.62
341.158	876.62
341.386	888.62
341.614	888.62
341.842	854.62
342.07	849.62
342.298	857.62
342.526	867.62
342.754	871.62
342.981	874.62
343.209	888.62
343.437	904.62
343.665	992.62
343.893	1051.62
344.12	1106.62
344.348	1063.62
344.576	997.62
344.804	955.62
345.031	920.62
345.259	906.62
345.487	894.62
345.714	878.62
345.942	875.62
346.17	872.62
346.397	853.62
346.625	872.62
346.853	834.62
347.08	838.62
347.308	865.62
347.535	844.62
347.763	863.62
347.99	839.62
348.218	855.62
348.445	858.62
348.673	840.62
348.9	833.62
349.128	837.62
349.355	840.62
349.583	844.62
349.81	813.62
350.037	831.62
350.265	805.62
350.492	842.62
350.72	796.62
350.947	845.62
351.174	816.62
351.402	812.62
351.629	848.62
351.856	813.62
352.083	828.62
352.311	841.62
352.538	832.62
352.765	813.62
352.992	796.62
353.22	782.62
353.447	812.62
353.674	793.62
353.901	778.62
354.128	794.62
354.355	803.62
354.583	818.62
354.81	803.62
355.037	831.62
355.264	838.62
355.491	813.62
355.718	826.62
355.945	836.62
356.172	816.62
356.399	856.62
356.626	841.62
356.853	817.62
357.08	824.62
357.307	828.62
357.534	843.62
357.761	806.62
357.988	829.62
358.215	836.62
358.441	822.62
358.668	825.62
358.895	818.62
359.122	807.62
359.349	826.62
359.576	837.62
359.802	839.62
360.029	786.62
360.256	829.62
360.483	796.62
360.709	803.62
360.936	812.62
361.163	791.62
361.39	830.62
361.616	829.62
361.843	823.62
362.07	854.62
362.296	808.62
362.523	798.62
362.749	845.62
362.976	807.62
363.203	806.62
363.429	806.62
363.656	819.62
363.882	839.62
364.109	806.62
364.335	814.62
364.562	818.62
364.788	790.62
365.015	814.62
365.241	801.62
365.468	792.62
365.694	816.62
365.92	813.62
366.147	792.62
366.373	803.62
366.599	827.62
366.826	809.62
367.052	804.62
367.278	824.62
367.505	843.62
367.731	818.62
367.957	850.62
368.184	834.62
368.41	813.62
368.636	830.62
368.862	819.62
369.089	866.62
369.315	864.62
369.541	835.62
369.767	846.62
369.993	858.62
370.219	828.62
370.445	853.62
370.672	843.62
370.898	886.62
371.124	870.62
371.35	884.62
371.576	908.62
371.802	864.62
372.028	884.62
372.254	888.62
372.48	876.62
372.706	914.62
372.932	920.62
373.158	927.62
373.384	914.62
373.61	885.62
373.835	889.62
374.061	908.62
374.287	904.62
374.513	893.62
374.739	953.62
374.965	979.62
375.191	1027.62
375.416	1001.62
375.642	955.62
375.868	941.62
376.094	917.62
376.319	896.62
376.545	921.62
376.771	892.62
376.997	924.62
377.222	911.62
377.448	899.62
377.674	897.62
377.899	867.62
378.125	890.62
378.35	896.62
378.576	891.62
378.802	878.62
379.027	848.62
379.253	888.62
379.478	859.62
379.704	882.62
379.929	875.62
380.155	897.62
380.38	866.62
380.606	885.62
380.831	893.62
381.057	899.62
381.282	896.62
381.507	846.62
381.733	900.62
381.958	877.62
382.184	911.62
382.409	902.62
382.634	929.62
382.86	940.62
383.085	942.62
383.31	964.62
383.535	1003.62
383.761	978.62
383.986	1000.62
384.211	1037.62
384.436	1031.62
384.662	1064.62
384.887	1080.62
385.112	1095.62
385.337	1069.62
385.562	1098.62
385.787	1094.62
386.013	1120.62
386.238	1084.62
386.463	1091.62
386.688	1090.62
386.913	1062.62
387.138	1073.62
387.363	1063.62
387.588	1071.62
387.813	1070.62
388.038	1042.62
388.263	1075.62
388.488	1086.62
388.713	1068.62
388.938	1061.62
389.163	1065.62
389.387	1049.62
389.612	1052.62
389.837	1045.62
390.062	1036.62
390.287	1040.62
390.512	1042.62
390.736	1061.62
390.961	1056.62
391.186	1124.62
391.411	1146.62
391.636	1180.62
391.86	1229.62
392.085	1248.62
392.31	1218.62
392.534	1196.62
392.759	1154.62
392.984	1142.62
393.208	1090.62
393.433	1125.62
393.658	1141.62
393.882	1186.62
394.107	1152.62
394.331	1160.62
394.556	1145.62
394.78	1195.62
395.005	1148.62
395.229	1151.62
395.454	1215.62
395.678	1248.62
395.903	1212.62
396.127	1170.62
396.352	1156.62
396.576	1143.62
396.801	1151.62
397.025	1163.62
397.249	1203.62
397.474	1208.62
397.698	1187.62
397.922	1202.62
398.147	1194.62
398.371	1226.62
398.595	1264.62
398.82	1306.62
399.044	1411.62
399.268	1570.62
399.492	1880.62
399.717	2150.62
399.941	2134.62
400.165	1859.62
400.389	1638.62
400.613	1500.62
400.837	1445.62
401.062	1394.62
401.286	1354.62
401.51	1357.62
401.734	1347.62
401.958	1365.62
402.182	1366.62
402.406	1400.62
402.63	1410.62
402.854	1423.62
403.078	1482.62
403.302	1485.62
403.526	1526.62
403.75	1573.62
403.974	1594.62
404.198	1621.62
404.422	1594.62
404.645	1610.62
404.869	1549.62
405.093	1575.62
405.317	1494.62
405.541	1483.62
405.765	1511.62
405.988	1482.62
406.212	1506.62
406.436	1481.62
406.66	1494.62
406.883	1549.62
407.107	1667.62
407.331	1735.62
407.555	1764.62
407.778	1768.62
408.002	1715.62
408.226	1664.62
408.449	1637.62
408.673	1608.62
408.896	1526.62
409.12	1533.62
409.344	1587.62
409.567	1495.62
409.791	1549.62
410.014	1529.62
410.238	1508.62
410.461	1508.62
410.685	1491.62
410.908	1500.62
411.132	1451.62
411.355	1429.62
411.578	1398.62
411.802	1393.62
412.025	1436.62
412.249	1408.62
412.472	1460.62
412.695	1404.62
412.919	1355.62
413.142	1377.62
413.365	1371.62
413.589	1365.62
413.812	1352.62
414.035	1319.62
414.258	1380.62
414.482	1333.62
414.705	1416.62
414.928	1373.62
415.151	1358.62
415.374	1349.62
415.597	1344.62
415.821	1335.62
416.044	1309.62
416.267	1310.62
416.49	1336.62
416.713	1292.62
416.936	1303.62
417.159	1305.62
417.382	1301.62
417.605	1331.62
417.828	1302.62
418.051	1371.62
418.274	1314.62
418.497	1318.62
418.72	1405.62
418.943	1365.62
419.166	1461.62
419.389	1508.62
419.611	1520.62
419.834	1442.62
420.057	1361.62
420.28	1393.62
420.503	1321.62
420.726	1323.62
420.948	1301.62
421.171	1351.62
421.394	1296.62
421.617	1354.62
421.839	1337.62
422.062	1317.62
422.285	1324.62
422.507	1374.62
422.73	1389.62
422.953	1389.62
423.175	1396.62
423.398	1399.62
423.621	1444.62
423.843	1447.62
424.066	1422.62
424.288	1430.62
424.511	1432.62
424.733	1386.62
424.956	1365.62
425.178	1306.62
425.401	1325.62
425.623	1325.62
425.846	1307.62
426.068	1269.62
426.291	1274.62
426.513	1225.62
426.735	1241.62
426.958	1240.62
427.18	1198.62
427.402	1218.62
427.625	1204.62
427.847	1193.62
428.069	1164.62
428.292	1181.62
428.514	1152.62
428.736	1168.62
428.958	1166.62
429.181	1168.62
429.403	1168.62
429.625	1155.62
429.847	1123.62
430.069	1113.62
430.292	1123.62
430.514	1100.62
430.736	1158.62
430.958	1150.62
431.18	1146.62
431.402	1147.62
431.624	1161.62
431.846	1177.62
432.068	1184.62
432.29	1200.62
432.512	1160.62
432.734	1155.62
432.956	1180.62
433.178	1160.62
433.4	1174.62
433.622	1180.62
433.844	1215.62
434.066	1187.62
434.287	1225.62
434.509	1235.62
434.731	1309.62
434.953	1354.62
435.175	1319.62
435.397	1308.62
435.618	1286.62
435.84	1228.62
436.062	1176.62
436.284	1148.62
436.505	1134.62
436.727	1180.62
436.949	1177.62
437.17	1156.62
437.392	1167.62
437.614	1153.62
437.835	1110.62
438.057	1129.62
438.278	1104.62
438.5	1098.62
438.721	1096.62
438.943	1130.62
439.165	1144.62
439.386	1145.62
439.608	1157.62
439.829	1137.62
440.05	1176.62
440.272	1178.62
440.493	1201.62
440.715	1202.62
440.936	1229.62
441.158	1223.62
441.379	1240.62
441.6	1311.62
441.822	1345.62
442.043	1344.62
442.264	1283.62
442.486	1279.62
442.707	1341.62
442.928	1269.62
443.149	1296.62
443.371	1312.62
443.592	1330.62
443.813	1338.62
444.034	1311.62
444.255	1368.62
444.476	1404.62
444.698	1554.62
444.919	1618.62
445.14	1660.62
445.361	1468.62
445.582	1353.62
445.803	1301.62
446.024	1229.62
446.245	1245.62
446.466	1201.62
446.687	1158.62
446.908	1188.62
447.129	1149.62
447.35	1114.62
447.571	1141.62
447.792	1104.62
448.013	1146.62
448.234	1102.62
448.455	1068.62
448.675	1086.62
448.896	1063.62
449.117	1076.62
449.338	1068.62
449.559	1067.62
449.779	1051.62
450	1045.62
450.221	1063.62
450.442	1087.62
450.662	1086.62
450.883	1101.62
451.104	1096.62
451.324	1114.62
451.545	1126.62
451.766	1061.62
451.986	1075.62
452.207	1081.62
452.428	1081.62
452.648	1038.62
452.869	1047.62
453.089	1055.62
453.31	1088.62
453.53	1042.62
453.751	1044.62
453.971	1042.62
454.192	1025.62
454.412	1045.62
454.633	1013.62
454.853	1034.62
455.073	1012.62
455.294	1005.62
455.514	993.62
455.734	1020.62
455.955	962.62
456.175	965.62
456.395	953.62
456.616	993.62
456.836	1012.62
457.056	998.62
457.276	974.62
457.497	1010.62
457.717	1015.62
457.937	993.62
458.157	1012.62
458.377	1043.62
458.598	1080.62
458.818	1074.62
459.038	1140.62
459.258	1146.62
459.478	1155.62
459.698	1193.62
459.918	1273.62
460.138	1275.62
460.358	1394.62
460.578	1384.62
460.798	1413.62
461.018	1454.62
461.238	1408.62
461.458	1356.62
461.678	1394.62
461.898	1404.62
462.118	1388.62
462.338	1479.62
462.558	1522.62
462.777	1564.62
462.997	1708.62
463.217	1913.62
463.437	1939.62
463.657	1739.62
463.876	1623.62
464.096	1652.62
464.316	1600.62
464.536	1671.62
464.755	1621.62
464.975	1520.62
465.195	1457.62
465.414	1353.62
465.634	1282.62
465.854	1237.62
466.073	1164.62
466.293	1192.62
466.512	1165.62
466.732	1131.62
466.951	1140.62
467.171	1154.62
467.391	1149.62
467.61	1108.62
467.829	1120.62
468.049	1065.62
468.268	1062.62
468.488	1087.62
468.707	1065.62
468.927	1064.62
469.146	1092.62
469.365	1090.62
469.585	1104.62
469.804	1107.62
470.023	1121.62
470.243	1173.62
470.462	1156.62
470.681	1162.62
470.901	1145.62
471.12	1144.62
471.339	1094.62
471.558	1090.62
471.777	1101.62
471.997	1084.62
472.216	1088.62
472.435	1061.62
472.654	1050.62
472.873	1039.62
473.092	1057.62
473.311	1037.62
473.53	1036.62
473.749	1053.62
473.968	1028.62
474.187	1030.62
474.406	1033.62
474.625	1076.62
474.844	1037.62
475.063	1044.62
475.282	1037.62
475.501	1060.62
475.72	1078.62
475.939	1072.62
476.158	1066.62
476.377	1100.62
476.596	1088.62
476.814	1107.62
477.033	1124.62
477.252	1110.62
477.471	1136.62
477.69	1185.62
477.908	1198.62
478.127	1213.62
478.346	1262.62
478.564	1235.62
478.783	1298.62
479.002	1300.62
479.22	1314.62
479.439	1317.62
479.658	1311.62
479.876	1325.62
480.095	1337.62
480.313	1408.62
480.532	1430.62
480.751	1422.62
480.969	1361.62
481.188	1292.62
481.406	1278.62
481.624	1249.62
481.843	1222.62
482.061	1187.62
482.28	1208.62
482.498	1172.62
482.717	1216.62
482.935	1187.62
483.153	1173.62
483.372	1167.62
483.59	1150.62
483.808	1201.62
484.027	1234.62
484.245	1209.62
484.463	1201.62
484.681	1261.62
484.9	1224.62
485.118	1241.62
485.336	1212.62
485.554	1238.62
485.772	1291.62
485.99	1257.62
486.209	1269.62
486.427	1276.62
486.645	1258.62
486.863	1275.62
487.081	1290.62
487.299	1241.62
487.517	1240.62
487.735	1252.62
487.953	1275.62
488.171	1250.62
488.389	1214.62
488.607	1224.62
488.825	1230.62
489.043	1245.62
489.261	1224.62
489.479	1212.62
489.696	1247.62
489.914	1224.62
490.132	1262.62
490.35	1241.62
490.568	1238.62
490.786	1234.62
491.003	1240.62
491.221	1265.62
491.439	1266.62
491.657	1283.62
491.874	1272.62
492.092	1240.62
492.31	1254.62
492.527	1289.62
492.745	1276.62
492.963	1288.62
493.18	1287.62
493.398	1282.62
493.615	1334.62
493.833	1316.62
494.05	1304.62
494.268	1321.62
494.485	1325.62
