Data from Ni(NO3)2Standard.Agarose3%.GreenCap.LampEnergy5.5.E.O_HRD10591_14-41-02-188.txt Node
Date: Mon Jul 22 14:41:02 EDT 2019
User: cochatt
Spectrometer: HR+D1059
Trigger mode: 1
Integration Time (sec): 1.000000E-1
Scans to average: 1
Electric dark correction enabled: true
Nonlinearity correction enabled: false
Boxcar width: 0
XAxis mode: Wavelengths
Number of Pixels in Spectrum: 2048
>>>>>Begin Spectral Data<<<<<
223.165	-31.69
223.4	-31.69
223.635	-31.69
223.869	-12.69
224.104	-25.69
224.338	-11.69
224.573	-1.69
224.808	-26.69
225.042	-0.69
225.277	-11.69
225.511	5.31
225.746	14.31
225.98	-1.69
226.215	9.31
226.449	15.31
226.683	23.31
226.918	21.31
227.152	35.31
227.387	33.31
227.621	29.31
227.856	39.31
228.09	43.31
228.324	36.31
228.559	55.31
228.793	44.31
229.027	49.31
229.262	61.31
229.496	58.31
229.73	66.31
229.964	71.31
230.199	60.31
230.433	77.31
230.667	63.31
230.901	73.31
231.136	72.31
231.37	85.31
231.604	84.31
231.838	71.31
232.072	74.31
232.306	91.31
232.541	91.31
232.775	73.31
233.009	82.31
233.243	94.31
233.477	65.31
233.711	86.31
233.945	75.31
234.179	85.31
234.413	79.31
234.647	86.31
234.881	81.31
235.115	81.31
235.349	88.31
235.583	82.31
235.817	82.31
236.051	68.31
236.285	80.31
236.519	81.31
236.753	80.31
236.987	72.31
237.221	67.31
237.455	87.31
237.689	84.31
237.922	75.31
238.156	75.31
238.39	70.31
238.624	72.31
238.858	91.31
239.091	83.31
239.325	68.31
239.559	78.31
239.793	76.31
240.027	72.31
240.26	66.31
240.494	73.31
240.728	82.31
240.961	74.31
241.195	77.31
241.429	87.31
241.662	67.31
241.896	60.31
242.13	81.31
242.363	74.31
242.597	77.31
242.83	81.31
243.064	80.31
243.298	70.31
243.531	87.31
243.765	63.31
243.998	65.31
244.232	72.31
244.465	77.31
244.699	68.31
244.932	71.31
245.166	85.31
245.399	70.31
245.633	70.31
245.866	87.31
246.099	84.31
246.333	74.31
246.566	76.31
246.8	71.31
247.033	80.31
247.266	69.31
247.5	66.31
247.733	80.31
247.966	89.31
248.2	59.31
248.433	82.31
248.666	85.31
248.899	72.31
249.133	77.31
249.366	77.31
249.599	73.31
249.832	75.31
250.066	81.31
250.299	97.31
250.532	82.31
250.765	75.31
250.998	74.31
251.231	83.31
251.465	69.31
251.698	72.31
251.931	77.31
252.164	85.31
252.397	80.31
252.63	80.31
252.863	75.31
253.096	95.31
253.329	87.31
253.562	89.31
253.795	81.31
254.028	76.31
254.261	76.31
254.494	80.31
254.727	98.31
254.96	70.31
255.193	78.31
255.426	82.31
255.659	88.31
255.892	99.31
256.124	81.31
256.357	79.31
256.59	80.31
256.823	82.31
257.056	85.31
257.289	59.31
257.521	85.31
257.754	73.31
257.987	72.31
258.22	83.31
258.452	73.31
258.685	82.31
258.918	87.31
259.151	92.31
259.383	79.31
259.616	72.31
259.849	82.31
260.081	83.31
260.314	90.31
260.547	80.31
260.779	77.31
261.012	85.31
261.244	79.31
261.477	77.31
261.71	78.31
261.942	69.31
262.175	82.31
262.407	84.31
262.64	77.31
262.872	81.31
263.105	84.31
263.337	72.31
263.57	73.31
263.802	88.31
264.035	87.31
264.267	93.31
264.499	81.31
264.732	71.31
264.964	74.31
265.197	72.31
265.429	79.31
265.661	69.31
265.894	74.31
266.126	79.31
266.358	97.31
266.591	83.31
266.823	75.31
267.055	71.31
267.287	91.31
267.52	61.31
267.752	90.31
267.984	86.31
268.216	86.31
268.448	76.31
268.681	82.31
268.913	75.31
269.145	83.31
269.377	73.31
269.609	71.31
269.841	78.31
270.073	68.31
270.306	75.31
270.538	74.31
270.77	88.31
271.002	87.31
271.234	65.31
271.466	83.31
271.698	63.31
271.93	79.31
272.162	77.31
272.394	76.31
272.626	67.31
272.858	74.31
273.09	93.31
273.322	84.31
273.553	82.31
273.785	93.31
274.017	96.31
274.249	87.31
274.481	75.31
274.713	75.31
274.945	85.31
275.176	92.31
275.408	91.31
275.64	84.31
275.872	82.31
276.104	69.31
276.335	73.31
276.567	79.31
276.799	88.31
277.031	81.31
277.262	88.31
277.494	93.31
277.726	85.31
277.957	85.31
278.189	83.31
278.421	83.31
278.652	72.31
278.884	82.31
279.115	84.31
279.347	76.31
279.579	76.31
279.81	82.31
280.042	86.31
280.273	72.31
280.505	81.31
280.736	81.31
280.968	85.31
281.199	83.31
281.431	88.31
281.662	80.31
281.894	90.31
282.125	79.31
282.356	88.31
282.588	80.31
282.819	90.31
283.051	83.31
283.282	97.31
283.513	94.31
283.745	63.31
283.976	83.31
284.207	80.31
284.439	79.31
284.67	88.31
284.901	90.31
285.132	75.31
285.364	80.31
285.595	80.31
285.826	90.31
286.057	91.31
286.288	81.31
286.52	92.31
286.751	74.31
286.982	86.31
287.213	90.31
287.444	83.31
287.675	101.31
287.906	83.31
288.138	79.31
288.369	72.31
288.6	91.31
288.831	91.31
289.062	88.31
289.293	76.31
289.524	81.31
289.755	85.31
289.986	82.31
290.217	97.31
290.448	85.31
290.679	75.31
290.91	80.31
291.141	90.31
291.371	83.31
291.602	80.31
291.833	89.31
292.064	86.31
292.295	91.31
292.526	94.31
292.757	85.31
292.987	73.31
293.218	99.31
293.449	75.31
293.68	97.31
293.91	91.31
294.141	85.31
294.372	84.31
294.603	94.31
294.833	88.31
295.064	75.31
295.295	79.31
295.525	84.31
295.756	102.31
295.987	77.31
296.217	87.31
296.448	73.31
296.679	69.31
296.909	89.31
297.14	95.31
297.37	98.31
297.601	90.31
297.831	76.31
298.062	84.31
298.292	87.31
298.523	93.31
298.753	72.31
298.984	88.31
299.214	84.31
299.445	81.31
299.675	87.31
299.905	83.31
300.136	88.31
300.366	73.31
300.597	71.31
300.827	87.31
301.057	83.31
301.288	88.31
301.518	85.31
301.748	89.31
301.979	87.31
302.209	91.31
302.439	77.31
302.669	74.31
302.9	76.31
303.13	89.31
303.36	100.31
303.59	85.31
303.82	104.31
304.051	84.31
304.281	89.31
304.511	103.31
304.741	88.31
304.971	96.31
305.201	97.31
305.431	76.31
305.661	85.31
305.891	87.31
306.121	78.31
306.352	90.31
306.582	77.31
306.812	86.31
307.042	84.31
307.272	98.31
307.502	78.31
307.731	74.31
307.961	94.31
308.191	91.31
308.421	91.31
308.651	80.31
308.881	80.31
309.111	84.31
309.341	91.31
309.571	81.31
309.8	98.31
310.03	76.31
310.26	95.31
310.49	77.31
310.72	89.31
310.949	80.31
311.179	76.31
311.409	72.31
311.639	82.31
311.868	80.31
312.098	83.31
312.328	90.31
312.557	84.31
312.787	86.31
313.017	98.31
313.246	98.31
313.476	76.31
313.706	82.31
313.935	92.31
314.165	99.31
314.394	84.31
314.624	77.31
314.853	85.31
315.083	79.31
315.312	97.31
315.542	91.31
315.771	83.31
316.001	93.31
316.23	94.31
316.46	76.31
316.689	70.31
316.919	96.31
317.148	66.31
317.377	84.31
317.607	94.31
317.836	91.31
318.065	91.31
318.295	92.31
318.524	94.31
318.753	83.31
318.983	79.31
319.212	94.31
319.441	89.31
319.67	85.31
319.9	93.31
320.129	72.31
320.358	90.31
320.587	103.31
320.816	92.31
321.046	82.31
321.275	82.31
321.504	88.31
321.733	75.31
321.962	84.31
322.191	104.31
322.42	87.31
322.649	84.31
322.878	82.31
323.108	94.31
323.337	84.31
323.566	82.31
323.795	78.31
324.024	85.31
324.253	81.31
324.482	87.31
324.71	102.31
324.939	78.31
325.168	96.31
325.397	90.31
325.626	93.31
325.855	89.31
326.084	89.31
326.313	93.31
326.542	102.31
326.77	80.31
326.999	86.31
327.228	83.31
327.457	91.31
327.686	98.31
327.914	86.31
328.143	95.31
328.372	97.31
328.6	102.31
328.829	93.31
329.058	82.31
329.287	83.31
329.515	95.31
329.744	91.31
329.972	88.31
330.201	94.31
330.43	91.31
330.658	97.31
330.887	81.31
331.115	73.31
331.344	92.31
331.572	88.31
331.801	96.31
332.03	80.31
332.258	83.31
332.486	84.31
332.715	71.31
332.943	85.31
333.172	84.31
333.4	88.31
333.629	92.31
333.857	103.31
334.085	90.31
334.314	92.31
334.542	71.31
334.771	92.31
334.999	79.31
335.227	71.31
335.455	82.31
335.684	83.31
335.912	88.31
336.14	96.31
336.369	103.31
336.597	80.31
336.825	87.31
337.053	87.31
337.281	87.31
337.51	82.31
337.738	84.31
337.966	87.31
338.194	90.31
338.422	100.31
338.65	97.31
338.878	86.31
339.106	95.31
339.334	73.31
339.562	81.31
339.79	80.31
340.018	85.31
340.246	82.31
340.474	84.31
340.702	91.31
340.93	95.31
341.158	83.31
341.386	98.31
341.614	87.31
341.842	81.31
342.07	87.31
342.298	94.31
342.526	87.31
342.754	70.31
342.981	73.31
343.209	77.31
343.437	91.31
343.665	98.31
343.893	88.31
344.12	85.31
344.348	92.31
344.576	83.31
344.804	92.31
345.031	84.31
345.259	84.31
345.487	82.31
345.714	97.31
345.942	81.31
346.17	93.31
346.397	81.31
346.625	98.31
346.853	95.31
347.08	93.31
347.308	91.31
347.535	87.31
347.763	92.31
347.99	106.31
348.218	99.31
348.445	93.31
348.673	100.31
348.9	90.31
349.128	73.31
349.355	71.31
349.583	82.31
349.81	81.31
350.037	86.31
350.265	90.31
350.492	87.31
350.72	97.31
350.947	95.31
351.174	82.31
351.402	96.31
351.629	74.31
351.856	87.31
352.083	84.31
352.311	93.31
352.538	75.31
352.765	102.31
352.992	91.31
353.22	79.31
353.447	85.31
353.674	82.31
353.901	92.31
354.128	87.31
354.355	87.31
354.583	90.31
354.81	79.31
355.037	84.31
355.264	85.31
355.491	86.31
355.718	83.31
355.945	94.31
356.172	93.31
356.399	83.31
356.626	71.31
356.853	91.31
357.08	80.31
357.307	75.31
357.534	87.31
357.761	86.31
357.988	97.31
358.215	96.31
358.441	74.31
358.668	85.31
358.895	81.31
359.122	78.31
359.349	76.31
359.576	88.31
359.802	81.31
360.029	88.31
360.256	92.31
360.483	103.31
360.709	80.31
360.936	87.31
361.163	98.31
361.39	85.31
361.616	80.31
361.843	93.31
362.07	91.31
362.296	93.31
362.523	72.31
362.749	86.31
362.976	98.31
363.203	93.31
363.429	82.31
363.656	83.31
363.882	102.31
364.109	77.31
364.335	88.31
364.562	74.31
364.788	89.31
365.015	83.31
365.241	97.31
365.468	81.31
365.694	89.31
365.92	94.31
366.147	76.31
366.373	81.31
366.599	88.31
366.826	86.31
367.052	77.31
367.278	87.31
367.505	77.31
367.731	88.31
367.957	106.31
368.184	89.31
368.41	100.31
368.636	90.31
368.862	80.31
369.089	92.31
369.315	81.31
369.541	72.31
369.767	67.31
369.993	77.31
370.219	85.31
370.445	87.31
370.672	78.31
370.898	80.31
371.124	88.31
371.35	88.31
371.576	90.31
371.802	80.31
372.028	82.31
372.254	71.31
372.48	84.31
372.706	82.31
372.932	85.31
373.158	90.31
373.384	87.31
373.61	83.31
373.835	87.31
374.061	74.31
374.287	87.31
374.513	90.31
374.739	86.31
374.965	90.31
375.191	78.31
375.416	93.31
375.642	66.31
375.868	88.31
376.094	87.31
376.319	75.31
376.545	76.31
376.771	103.31
376.997	73.31
377.222	88.31
377.448	83.31
377.674	83.31
377.899	94.31
378.125	87.31
378.35	87.31
378.576	86.31
378.802	85.31
379.027	97.31
379.253	86.31
379.478	91.31
379.704	97.31
379.929	97.31
380.155	94.31
380.38	72.31
380.606	72.31
380.831	68.31
381.057	82.31
381.282	89.31
381.507	81.31
381.733	96.31
381.958	88.31
382.184	92.31
382.409	85.31
382.634	85.31
382.86	88.31
383.085	92.31
383.31	89.31
383.535	90.31
383.761	84.31
383.986	82.31
384.211	71.31
384.436	92.31
384.662	84.31
384.887	79.31
385.112	84.31
385.337	81.31
385.562	80.31
385.787	81.31
386.013	88.31
386.238	91.31
386.463	93.31
386.688	85.31
386.913	96.31
387.138	78.31
387.363	63.31
387.588	77.31
387.813	82.31
388.038	86.31
388.263	93.31
388.488	80.31
388.713	93.31
388.938	85.31
389.163	88.31
389.387	86.31
389.612	95.31
389.837	84.31
390.062	80.31
390.287	86.31
390.512	101.31
390.736	86.31
390.961	84.31
391.186	78.31
391.411	71.31
391.636	98.31
391.86	87.31
392.085	88.31
392.31	76.31
392.534	75.31
392.759	79.31
392.984	77.31
393.208	92.31
393.433	82.31
393.658	85.31
393.882	76.31
394.107	83.31
394.331	75.31
394.556	91.31
394.78	104.31
395.005	89.31
395.229	84.31
395.454	80.31
395.678	66.31
395.903	83.31
396.127	85.31
396.352	86.31
396.576	105.31
396.801	65.31
397.025	85.31
397.249	95.31
397.474	75.31
397.698	77.31
397.922	96.31
398.147	90.31
398.371	80.31
398.595	96.31
398.82	91.31
399.044	93.31
399.268	91.31
399.492	85.31
399.717	104.31
399.941	87.31
400.165	79.31
400.389	83.31
400.613	85.31
400.837	83.31
401.062	87.31
401.286	89.31
401.51	89.31
401.734	83.31
401.958	83.31
402.182	81.31
402.406	82.31
402.63	87.31
402.854	88.31
403.078	87.31
403.302	85.31
403.526	71.31
403.75	84.31
403.974	88.31
404.198	80.31
404.422	73.31
404.645	83.31
404.869	77.31
405.093	88.31
405.317	93.31
405.541	78.31
405.765	88.31
405.988	82.31
406.212	90.31
406.436	77.31
406.66	80.31
406.883	80.31
407.107	93.31
407.331	79.31
407.555	83.31
407.778	85.31
408.002	81.31
408.226	93.31
408.449	88.31
408.673	87.31
408.896	90.31
409.12	69.31
409.344	85.31
409.567	82.31
409.791	94.31
410.014	91.31
410.238	80.31
410.461	70.31
410.685	99.31
410.908	91.31
411.132	95.31
411.355	89.31
411.578	72.31
411.802	84.31
412.025	83.31
412.249	68.31
412.472	92.31
412.695	94.31
412.919	75.31
413.142	87.31
413.365	84.31
413.589	92.31
413.812	88.31
414.035	87.31
414.258	74.31
414.482	77.31
414.705	88.31
414.928	95.31
415.151	88.31
415.374	80.31
415.597	81.31
415.821	90.31
416.044	86.31
416.267	78.31
416.49	91.31
416.713	89.31
416.936	81.31
417.159	80.31
417.382	89.31
417.605	73.31
417.828	87.31
418.051	65.31
418.274	86.31
418.497	74.31
418.72	87.31
418.943	80.31
419.166	79.31
419.389	91.31
419.611	71.31
419.834	91.31
420.057	84.31
420.28	95.31
420.503	93.31
420.726	81.31
420.948	74.31
421.171	84.31
421.394	92.31
421.617	80.31
421.839	90.31
422.062	73.31
422.285	98.31
422.507	89.31
422.73	82.31
422.953	76.31
423.175	68.31
423.398	80.31
423.621	77.31
423.843	79.31
424.066	83.31
424.288	90.31
424.511	96.31
424.733	82.31
424.956	80.31
425.178	76.31
425.401	86.31
425.623	81.31
425.846	75.31
426.068	87.31
426.291	85.31
426.513	73.31
426.735	91.31
426.958	81.31
427.18	72.31
427.402	92.31
427.625	89.31
427.847	84.31
428.069	86.31
428.292	83.31
428.514	77.31
428.736	84.31
428.958	75.31
429.181	95.31
429.403	94.31
429.625	75.31
429.847	72.31
430.069	93.31
430.292	79.31
430.514	82.31
430.736	83.31
430.958	97.31
431.18	72.31
431.402	89.31
431.624	91.31
431.846	89.31
432.068	75.31
432.29	90.31
432.512	88.31
432.734	83.31
432.956	94.31
433.178	88.31
433.4	91.31
433.622	88.31
433.844	83.31
434.066	77.31
434.287	85.31
434.509	79.31
434.731	71.31
434.953	79.31
435.175	91.31
435.397	91.31
435.618	82.31
435.84	88.31
436.062	91.31
436.284	96.31
436.505	87.31
436.727	73.31
436.949	91.31
437.17	87.31
437.392	91.31
437.614	88.31
437.835	81.31
438.057	79.31
438.278	72.31
438.5	82.31
438.721	88.31
438.943	94.31
439.165	93.31
439.386	74.31
439.608	89.31
439.829	77.31
440.05	89.31
440.272	95.31
440.493	74.31
440.715	92.31
440.936	90.31
441.158	70.31
441.379	87.31
441.6	99.31
441.822	81.31
442.043	91.31
442.264	95.31
442.486	72.31
442.707	84.31
442.928	67.31
443.149	87.31
443.371	94.31
443.592	92.31
443.813	79.31
444.034	79.31
444.255	91.31
444.476	94.31
444.698	85.31
444.919	81.31
445.14	210.31
445.361	151.31
445.582	88.31
445.803	74.31
446.024	76.31
446.245	101.31
446.466	81.31
446.687	74.31
446.908	78.31
447.129	76.31
447.35	78.31
447.571	87.31
447.792	75.31
448.013	81.31
448.234	82.31
448.455	75.31
448.675	80.31
448.896	78.31
449.117	93.31
449.338	77.31
449.559	79.31
449.779	90.31
450	89.31
450.221	93.31
450.442	86.31
450.662	79.31
450.883	84.31
451.104	85.31
451.324	97.31
451.545	88.31
451.766	91.31
451.986	88.31
452.207	86.31
452.428	75.31
452.648	79.31
452.869	74.31
453.089	75.31
453.31	72.31
453.53	74.31
453.751	87.31
453.971	96.31
454.192	75.31
454.412	89.31
454.633	78.31
454.853	80.31
455.073	83.31
455.294	70.31
455.514	78.31
455.734	84.31
455.955	72.31
456.175	83.31
456.395	77.31
456.616	102.31
456.836	101.31
457.056	78.31
457.276	79.31
457.497	85.31
457.717	92.31
457.937	83.31
458.157	86.31
458.377	87.31
458.598	96.31
458.818	89.31
459.038	80.31
459.258	83.31
459.478	80.31
459.698	80.31
459.918	89.31
460.138	103.31
460.358	92.31
460.578	83.31
460.798	80.31
461.018	75.31
461.238	79.31
461.458	76.31
461.678	89.31
461.898	89.31
462.118	97.31
462.338	77.31
462.558	78.31
462.777	83.31
462.997	103.31
463.217	98.31
463.437	99.31
463.657	99.31
463.876	99.31
464.096	94.31
464.316	80.31
464.536	91.31
464.755	77.31
464.975	69.31
465.195	92.31
465.414	82.31
465.634	84.31
465.854	88.31
466.073	82.31
466.293	85.31
466.512	89.31
466.732	85.31
466.951	97.31
467.171	88.31
467.391	88.31
467.61	85.31
467.829	86.31
468.049	100.31
468.268	82.31
468.488	101.31
468.707	74.31
468.927	79.31
469.146	75.31
469.365	105.31
469.585	97.31
469.804	96.31
470.023	98.31
470.243	82.31
470.462	76.31
470.681	93.31
470.901	83.31
471.12	94.31
471.339	96.31
471.558	88.31
471.777	103.31
471.997	101.31
472.216	90.31
472.435	76.31
472.654	81.31
472.873	81.31
473.092	89.31
473.311	89.31
473.53	73.31
473.749	102.31
473.968	101.31
474.187	76.31
474.406	73.31
474.625	78.31
474.844	80.31
475.063	87.31
475.282	84.31
475.501	93.31
475.72	100.31
475.939	84.31
476.158	110.31
476.377	78.31
476.596	81.31
476.814	102.31
477.033	71.31
477.252	90.31
477.471	86.31
477.69	75.31
477.908	98.31
478.127	86.31
478.346	83.31
478.564	86.31
478.783	88.31
479.002	104.31
479.22	75.31
479.439	97.31
479.658	87.31
479.876	80.31
480.095	80.31
480.313	83.31
480.532	73.31
480.751	71.31
480.969	82.31
481.188	95.31
481.406	103.31
481.624	90.31
481.843	87.31
482.061	94.31
482.28	80.31
482.498	106.31
482.717	102.31
482.935	91.31
483.153	90.31
483.372	97.31
483.59	88.31
483.808	84.31
484.027	85.31
484.245	89.31
484.463	83.31
484.681	88.31
484.9	87.31
485.118	94.31
485.336	96.31
485.554	80.31
485.772	86.31
485.99	96.31
486.209	84.31
486.427	91.31
486.645	94.31
486.863	100.31
487.081	89.31
487.299	99.31
487.517	106.31
487.735	89.31
487.953	108.31
488.171	83.31
488.389	89.31
488.607	90.31
488.825	75.31
489.043	74.31
489.261	107.31
489.479	94.31
489.696	82.31
489.914	88.31
490.132	79.31
490.35	101.31
490.568	94.31
490.786	83.31
491.003	83.31
491.221	80.31
491.439	89.31
491.657	98.31
491.874	113.31
492.092	113.31
492.31	107.31
492.527	89.31
492.745	85.31
492.963	94.31
493.18	89.31
493.398	100.31
493.615	98.31
493.833	98.31
494.05	94.31
494.268	92.31
494.485	96.31
494.703	96.31
494.92	104.31
495.138	105.31
495.355	88.31
495.573	102.31
495.79	90.31
496.008	91.31
496.225	81.31
496.442	104.31
496.66	103.31
496.877	99.31
497.094	99.31
497.312	98.31
497.529	106.31
497.746	98.31
497.963	103.31
498.181	89.31
498.398	83.31
498.615	88.31
498.832	108.31
499.049	105.31
499.267	85.31
499.484	89.31
499.701	115.31
499.918	121.31
500.135	116.31
500.352	99.31
500.569	101.31
500.786	109.31
501.003	115.31
501.22	117.31
501.437	111.31
501.654	102.31
501.871	101.31
502.088	101.31
502.305	105.31
502.522	102.31
502.739	105.31
502.956	100.31
503.172	95.31
503.389	84.31
503.606	97.31
503.823	88.31
504.04	97.31
504.256	91.31
504.473	85.31
504.69	102.31
504.907	106.31
505.123	94.31
505.34	87.31
505.557	94.31
505.773	105.31
505.99	100.31
506.207	102.31
506.423	83.31
506.64	100.31
506.856	105.31
507.073	85.31
507.289	84.31
507.506	90.31
507.722	94.31
507.939	91.31
508.155	88.31
508.372	86.31
508.588	99.31
508.805	105.31
509.021	99.31
509.238	86.31
509.454	84.31
509.67	90.31
509.887	98.31
510.103	104.31
510.319	92.31
510.536	92.31
510.752	85.31
510.968	89.31
511.184	79.31
511.401	91.31
511.617	87.31
511.833	85.31
512.049	101.31
512.265	92.31
512.481	91.31
512.698	96.31
512.914	81.31
513.13	86.31
513.346	73.31
513.562	83.31
513.778	91.31
513.994	90.31
514.21	103.31
514.426	102.31
514.642	93.31
514.858	92.31
515.074	95.31
515.29	97.31
515.506	105.31
515.721	79.31
515.937	87.31
516.153	96.31
516.369	86.31
516.585	90.31
516.801	97.31
517.016	90.31
517.232	91.31
517.448	97.31
517.664	86.31
517.879	90.31
518.095	105.31
