Data from Ni(NO3)2@0.0625M.TitratingCurve.Agarose3%dH2O.NegLispCup.LampEnergy10.LIBS07252019_HRD10591_18-13-08-569.txt Node
Date: Thu Jul 25 18:13:08 EDT 2019
User: cochatt
Spectrometer: HR+D1059
Trigger mode: 1
Integration Time (sec): 1.000000E-1
Scans to average: 1
Electric dark correction enabled: true
Nonlinearity correction enabled: false
Boxcar width: 0
XAxis mode: Wavelengths
Number of Pixels in Spectrum: 2048
>>>>>Begin Spectral Data<<<<<
223.165	-11.62
223.4	-11.62
223.635	-11.62
223.869	-20.62
224.104	-21.62
224.338	-14.62
224.573	-7.62
224.808	-15.62
225.042	-13.62
225.277	-6.62
225.511	5.38
225.746	-9.62
225.98	14.38
226.215	13.38
226.449	20.38
226.683	20.38
226.918	32.38
227.152	15.38
227.387	30.38
227.621	46.38
227.856	44.38
228.09	46.38
228.324	57.38
228.559	60.38
228.793	71.38
229.027	99.38
229.262	88.38
229.496	96.38
229.73	105.38
229.964	109.38
230.199	110.38
230.433	121.38
230.667	118.38
230.901	105.38
231.136	115.38
231.37	105.38
231.604	111.38
231.838	108.38
232.072	137.38
232.306	133.38
232.541	139.38
232.775	131.38
233.009	113.38
233.243	122.38
233.477	109.38
233.711	126.38
233.945	137.38
234.179	134.38
234.413	139.38
234.647	129.38
234.881	127.38
235.115	130.38
235.349	127.38
235.583	124.38
235.817	129.38
236.051	117.38
236.285	133.38
236.519	138.38
236.753	135.38
236.987	137.38
237.221	131.38
237.455	116.38
237.689	133.38
237.922	148.38
238.156	126.38
238.39	145.38
238.624	128.38
238.858	136.38
239.091	145.38
239.325	135.38
239.559	138.38
239.793	157.38
240.027	128.38
240.26	142.38
240.494	146.38
240.728	137.38
240.961	149.38
241.195	149.38
241.429	144.38
241.662	147.38
241.896	157.38
242.13	155.38
242.363	139.38
242.597	153.38
242.83	164.38
243.064	148.38
243.298	166.38
243.531	165.38
243.765	141.38
243.998	150.38
244.232	165.38
244.465	169.38
244.699	175.38
244.932	179.38
245.166	165.38
245.399	171.38
245.633	164.38
245.866	159.38
246.099	163.38
246.333	171.38
246.566	183.38
246.8	166.38
247.033	180.38
247.266	165.38
247.5	179.38
247.733	203.38
247.966	165.38
248.2	184.38
248.433	178.38
248.666	201.38
248.899	174.38
249.133	180.38
249.366	202.38
249.599	190.38
249.832	182.38
250.066	183.38
250.299	193.38
250.532	199.38
250.765	203.38
250.998	190.38
251.231	188.38
251.465	195.38
251.698	198.38
251.931	192.38
252.164	195.38
252.397	203.38
252.63	208.38
252.863	200.38
253.096	195.38
253.329	209.38
253.562	208.38
253.795	207.38
254.028	205.38
254.261	215.38
254.494	197.38
254.727	190.38
254.96	221.38
255.193	215.38
255.426	198.38
255.659	213.38
255.892	217.38
256.124	205.38
256.357	209.38
256.59	215.38
256.823	225.38
257.056	215.38
257.289	209.38
257.521	220.38
257.754	231.38
257.987	228.38
258.22	232.38
258.452	208.38
258.685	237.38
258.918	214.38
259.151	222.38
259.383	226.38
259.616	223.38
259.849	221.38
260.081	229.38
260.314	254.38
260.547	243.38
260.779	234.38
261.012	249.38
261.244	243.38
261.477	226.38
261.71	236.38
261.942	257.38
262.175	238.38
262.407	232.38
262.64	219.38
262.872	242.38
263.105	249.38
263.337	260.38
263.57	259.38
263.802	247.38
264.035	243.38
264.267	260.38
264.499	264.38
264.732	247.38
264.964	252.38
265.197	263.38
265.429	235.38
265.661	251.38
265.894	243.38
266.126	261.38
266.358	244.38
266.591	262.38
266.823	248.38
267.055	260.38
267.287	271.38
267.52	261.38
267.752	269.38
267.984	261.38
268.216	272.38
268.448	271.38
268.681	271.38
268.913	278.38
269.145	261.38
269.377	287.38
269.609	279.38
269.841	270.38
270.073	275.38
270.306	259.38
270.538	287.38
270.77	258.38
271.002	264.38
271.234	266.38
271.466	280.38
271.698	271.38
271.93	265.38
272.162	273.38
272.394	265.38
272.626	293.38
272.858	276.38
273.09	286.38
273.322	295.38
273.553	289.38
273.785	307.38
274.017	300.38
274.249	309.38
274.481	309.38
274.713	296.38
274.945	309.38
275.176	287.38
275.408	300.38
275.64	291.38
275.872	296.38
276.104	289.38
276.335	292.38
276.567	288.38
276.799	307.38
277.031	313.38
277.262	292.38
277.494	316.38
277.726	312.38
277.957	305.38
278.189	303.38
278.421	312.38
278.652	307.38
278.884	309.38
279.115	307.38
279.347	293.38
279.579	322.38
279.81	307.38
280.042	336.38
280.273	315.38
280.505	325.38
280.736	322.38
280.968	320.38
281.199	345.38
281.431	330.38
281.662	331.38
281.894	322.38
282.125	310.38
282.356	330.38
282.588	335.38
282.819	335.38
283.051	338.38
283.282	328.38
283.513	342.38
283.745	354.38
283.976	334.38
284.207	349.38
284.439	339.38
284.67	327.38
284.901	341.38
285.132	359.38
285.364	349.38
285.595	347.38
285.826	332.38
286.057	356.38
286.288	354.38
286.52	345.38
286.751	344.38
286.982	362.38
287.213	360.38
287.444	353.38
287.675	364.38
287.906	353.38
288.138	351.38
288.369	357.38
288.6	367.38
288.831	371.38
289.062	374.38
289.293	360.38
289.524	359.38
289.755	362.38
289.986	371.38
290.217	364.38
290.448	368.38
290.679	353.38
290.91	375.38
291.141	381.38
291.371	381.38
291.602	380.38
291.833	360.38
292.064	369.38
292.295	378.38
292.526	368.38
292.757	361.38
292.987	389.38
293.218	371.38
293.449	361.38
293.68	390.38
293.91	373.38
294.141	383.38
294.372	385.38
294.603	368.38
294.833	374.38
295.064	381.38
295.295	379.38
295.525	369.38
295.756	385.38
295.987	376.38
296.217	392.38
296.448	384.38
296.679	385.38
296.909	390.38
297.14	391.38
297.37	417.38
297.601	410.38
297.831	402.38
298.062	405.38
298.292	423.38
298.523	418.38
298.753	414.38
298.984	416.38
299.214	410.38
299.445	421.38
299.675	396.38
299.905	398.38
300.136	419.38
300.366	406.38
300.597	419.38
300.827	415.38
301.057	436.38
301.288	423.38
301.518	424.38
301.748	427.38
301.979	429.38
302.209	431.38
302.439	424.38
302.669	405.38
302.9	399.38
303.13	401.38
303.36	421.38
303.59	389.38
303.82	401.38
304.051	419.38
304.281	432.38
304.511	428.38
304.741	429.38
304.971	402.38
305.201	416.38
305.431	410.38
305.661	407.38
305.891	419.38
306.121	403.38
306.352	409.38
306.582	408.38
306.812	402.38
307.042	411.38
307.272	428.38
307.502	410.38
307.731	418.38
307.961	423.38
308.191	406.38
308.421	419.38
308.651	404.38
308.881	429.38
309.111	401.38
309.341	419.38
309.571	406.38
309.8	420.38
310.03	418.38
310.26	411.38
310.49	406.38
310.72	388.38
310.949	423.38
311.179	413.38
311.409	410.38
311.639	427.38
311.868	419.38
312.098	414.38
312.328	447.38
312.557	447.38
312.787	432.38
313.017	433.38
313.246	440.38
313.476	425.38
313.706	451.38
313.935	415.38
314.165	448.38
314.394	443.38
314.624	442.38
314.853	437.38
315.083	450.38
315.312	440.38
315.542	438.38
315.771	436.38
316.001	453.38
316.23	424.38
316.46	441.38
316.689	441.38
316.919	421.38
317.148	443.38
317.377	432.38
317.607	435.38
317.836	419.38
318.065	446.38
318.295	453.38
318.524	441.38
318.753	413.38
318.983	435.38
319.212	429.38
319.441	434.38
319.67	433.38
319.9	429.38
320.129	441.38
320.358	445.38
320.587	435.38
320.816	441.38
321.046	427.38
321.275	439.38
321.504	457.38
321.733	455.38
321.962	427.38
322.191	453.38
322.42	462.38
322.649	436.38
322.878	446.38
323.108	454.38
323.337	450.38
323.566	454.38
323.795	460.38
324.024	441.38
324.253	453.38
324.482	441.38
324.71	472.38
324.939	461.38
325.168	448.38
325.397	458.38
325.626	447.38
325.855	457.38
326.084	476.38
326.313	462.38
326.542	474.38
326.77	463.38
326.999	473.38
327.228	472.38
327.457	473.38
327.686	478.38
327.914	476.38
328.143	484.38
328.372	492.38
328.6	484.38
328.829	476.38
329.058	488.38
329.287	484.38
329.515	477.38
329.744	476.38
329.972	518.38
330.201	478.38
330.43	492.38
330.658	496.38
330.887	478.38
331.115	508.38
331.344	500.38
331.572	492.38
331.801	543.38
332.03	527.38
332.258	528.38
332.486	569.38
332.715	581.38
332.943	603.38
333.172	622.38
333.4	666.38
333.629	679.38
333.857	671.38
334.085	640.38
334.314	624.38
334.542	641.38
334.771	623.38
334.999	608.38
335.227	608.38
335.455	606.38
335.684	607.38
335.912	596.38
336.14	555.38
336.369	575.38
336.597	601.38
336.825	584.38
337.053	586.38
337.281	576.38
337.51	545.38
337.738	539.38
337.966	536.38
338.194	545.38
338.422	534.38
338.65	511.38
338.878	511.38
339.106	524.38
339.334	517.38
339.562	533.38
339.79	523.38
340.018	502.38
340.246	503.38
340.474	496.38
340.702	500.38
340.93	500.38
341.158	519.38
341.386	506.38
341.614	526.38
341.842	527.38
342.07	490.38
342.298	507.38
342.526	517.38
342.754	497.38
342.981	509.38
343.209	523.38
343.437	557.38
343.665	585.38
343.893	601.38
344.12	633.38
344.348	599.38
344.576	571.38
344.804	537.38
345.031	541.38
345.259	521.38
345.487	524.38
345.714	508.38
345.942	520.38
346.17	511.38
346.397	502.38
346.625	487.38
346.853	488.38
347.08	497.38
347.308	514.38
347.535	519.38
347.763	518.38
347.99	537.38
348.218	503.38
348.445	489.38
348.673	517.38
348.9	500.38
349.128	492.38
349.355	490.38
349.583	484.38
349.81	466.38
350.037	482.38
350.265	516.38
350.492	483.38
350.72	491.38
350.947	485.38
351.174	496.38
351.402	489.38
351.629	481.38
351.856	478.38
352.083	477.38
352.311	469.38
352.538	502.38
352.765	478.38
352.992	462.38
353.22	456.38
353.447	472.38
353.674	477.38
353.901	464.38
354.128	477.38
354.355	473.38
354.583	475.38
354.81	487.38
355.037	485.38
355.264	489.38
355.491	497.38
355.718	469.38
355.945	484.38
356.172	494.38
356.399	488.38
356.626	491.38
356.853	500.38
357.08	485.38
357.307	497.38
357.534	470.38
357.761	478.38
357.988	491.38
358.215	480.38
358.441	475.38
358.668	470.38
358.895	472.38
359.122	468.38
359.349	477.38
359.576	477.38
359.802	479.38
360.029	477.38
360.256	464.38
360.483	479.38
360.709	488.38
360.936	482.38
361.163	491.38
361.39	491.38
361.616	465.38
361.843	482.38
362.07	474.38
362.296	467.38
362.523	479.38
362.749	477.38
362.976	483.38
363.203	491.38
363.429	478.38
363.656	484.38
363.882	471.38
364.109	485.38
364.335	475.38
364.562	472.38
364.788	476.38
365.015	463.38
365.241	477.38
365.468	475.38
365.694	468.38
365.92	479.38
366.147	484.38
366.373	456.38
366.599	468.38
366.826	483.38
367.052	464.38
367.278	485.38
367.505	491.38
367.731	478.38
367.957	486.38
368.184	481.38
368.41	461.38
368.636	482.38
368.862	485.38
369.089	500.38
369.315	502.38
369.541	500.38
369.767	513.38
369.993	516.38
370.219	509.38
370.445	484.38
370.672	514.38
370.898	517.38
371.124	524.38
371.35	529.38
371.576	522.38
371.802	523.38
372.028	496.38
372.254	544.38
372.48	516.38
372.706	542.38
372.932	541.38
373.158	533.38
373.384	536.38
373.61	527.38
373.835	529.38
374.061	561.38
374.287	544.38
374.513	544.38
374.739	560.38
374.965	576.38
375.191	583.38
375.416	566.38
375.642	548.38
375.868	546.38
376.094	552.38
376.319	509.38
376.545	519.38
376.771	530.38
376.997	529.38
377.222	537.38
377.448	504.38
377.674	514.38
377.899	522.38
378.125	513.38
378.35	521.38
378.576	526.38
378.802	544.38
379.027	526.38
379.253	508.38
379.478	506.38
379.704	516.38
379.929	523.38
380.155	508.38
380.38	521.38
380.606	522.38
380.831	508.38
381.057	504.38
381.282	495.38
381.507	529.38
381.733	542.38
381.958	535.38
382.184	535.38
382.409	537.38
382.634	557.38
382.86	533.38
383.085	548.38
383.31	557.38
383.535	577.38
383.761	589.38
383.986	594.38
384.211	598.38
384.436	609.38
384.662	633.38
384.887	637.38
385.112	615.38
385.337	629.38
385.562	639.38
385.787	637.38
386.013	636.38
386.238	623.38
386.463	657.38
386.688	629.38
386.913	620.38
387.138	609.38
387.363	638.38
387.588	571.38
387.813	587.38
388.038	616.38
388.263	596.38
388.488	629.38
388.713	595.38
388.938	601.38
389.163	588.38
389.387	600.38
389.612	591.38
389.837	611.38
390.062	609.38
390.287	608.38
390.512	612.38
390.736	616.38
390.961	606.38
391.186	642.38
391.411	677.38
391.636	681.38
391.86	711.38
392.085	688.38
392.31	706.38
392.534	694.38
392.759	677.38
392.984	664.38
393.208	668.38
393.433	670.38
393.658	653.38
393.882	665.38
394.107	667.38
394.331	656.38
394.556	661.38
394.78	671.38
395.005	643.38
395.229	678.38
395.454	702.38
395.678	683.38
395.903	703.38
396.127	684.38
396.352	622.38
396.576	638.38
396.801	638.38
397.025	646.38
397.249	669.38
397.474	699.38
397.698	659.38
397.922	679.38
398.147	685.38
398.371	703.38
398.595	718.38
398.82	750.38
399.044	792.38
399.268	909.38
399.492	1053.38
399.717	1217.38
399.941	1191.38
400.165	1045.38
400.389	927.38
400.613	812.38
400.837	785.38
401.062	765.38
401.286	792.38
401.51	756.38
401.734	776.38
401.958	772.38
402.182	791.38
402.406	786.38
402.63	799.38
402.854	857.38
403.078	856.38
403.302	884.38
403.526	889.38
403.75	892.38
403.974	931.38
404.198	911.38
404.422	941.38
404.645	892.38
404.869	883.38
405.093	902.38
405.317	857.38
405.541	862.38
405.765	844.38
405.988	830.38
406.212	836.38
406.436	850.38
406.66	876.38
406.883	880.38
407.107	926.38
407.331	986.38
407.555	1032.38
407.778	987.38
408.002	985.38
408.226	958.38
408.449	907.38
408.673	905.38
408.896	879.38
409.12	864.38
409.344	885.38
409.567	895.38
409.791	895.38
410.014	879.38
410.238	890.38
410.461	875.38
410.685	845.38
410.908	824.38
411.132	811.38
411.355	821.38
411.578	821.38
411.802	784.38
412.025	816.38
412.249	807.38
412.472	823.38
412.695	793.38
412.919	752.38
413.142	759.38
413.365	793.38
413.589	775.38
413.812	765.38
414.035	769.38
414.258	751.38
414.482	772.38
414.705	789.38
414.928	823.38
415.151	791.38
415.374	775.38
415.597	773.38
415.821	785.38
416.044	776.38
416.267	759.38
416.49	746.38
416.713	768.38
416.936	772.38
417.159	788.38
417.382	771.38
417.605	751.38
417.828	780.38
418.051	780.38
418.274	798.38
418.497	763.38
418.72	792.38
418.943	809.38
419.166	836.38
419.389	893.38
419.611	872.38
419.834	835.38
420.057	795.38
420.28	783.38
420.503	753.38
420.726	769.38
420.948	756.38
421.171	751.38
421.394	787.38
421.617	767.38
421.839	768.38
422.062	786.38
422.285	775.38
422.507	781.38
422.73	781.38
422.953	815.38
423.175	840.38
423.398	828.38
423.621	839.38
423.843	839.38
424.066	840.38
424.288	828.38
424.511	829.38
424.733	831.38
424.956	814.38
425.178	791.38
425.401	805.38
425.623	775.38
425.846	765.38
426.068	759.38
426.291	739.38
426.513	714.38
426.735	710.38
426.958	705.38
427.18	695.38
427.402	718.38
427.625	749.38
427.847	703.38
428.069	689.38
428.292	666.38
428.514	685.38
428.736	690.38
428.958	697.38
429.181	662.38
429.403	673.38
429.625	681.38
429.847	671.38
430.069	667.38
430.292	664.38
430.514	712.38
430.736	681.38
430.958	675.38
431.18	677.38
431.402	691.38
431.624	677.38
431.846	688.38
432.068	696.38
432.29	708.38
432.512	677.38
432.734	691.38
432.956	685.38
433.178	712.38
433.4	686.38
433.622	709.38
433.844	699.38
434.066	696.38
434.287	738.38
434.509	707.38
434.731	776.38
434.953	761.38
435.175	796.38
435.397	789.38
435.618	746.38
435.84	713.38
436.062	697.38
436.284	685.38
436.505	709.38
436.727	705.38
436.949	685.38
437.17	717.38
437.392	665.38
437.614	669.38
437.835	675.38
438.057	670.38
438.278	666.38
438.5	658.38
438.721	681.38
438.943	683.38
439.165	700.38
439.386	680.38
439.608	675.38
439.829	699.38
440.05	709.38
440.272	715.38
440.493	712.38
440.715	701.38
440.936	717.38
441.158	736.38
441.379	763.38
441.6	797.38
441.822	797.38
442.043	788.38
442.264	773.38
442.486	793.38
442.707	762.38
442.928	789.38
443.149	795.38
443.371	783.38
443.592	797.38
443.813	791.38
444.034	794.38
444.255	808.38
444.476	864.38
444.698	963.38
444.919	947.38
445.14	1008.38
445.361	897.38
445.582	815.38
445.803	779.38
446.024	749.38
446.245	744.38
446.466	696.38
446.687	715.38
446.908	715.38
447.129	673.38
447.35	695.38
447.571	676.38
447.792	657.38
448.013	653.38
448.234	652.38
448.455	647.38
448.675	671.38
448.896	662.38
449.117	633.38
449.338	635.38
449.559	644.38
449.779	652.38
450	635.38
450.221	650.38
450.442	664.38
450.662	673.38
450.883	665.38
451.104	696.38
451.324	676.38
451.545	693.38
451.766	670.38
451.986	661.38
452.207	639.38
452.428	660.38
452.648	666.38
452.869	652.38
453.089	655.38
453.31	663.38
453.53	632.38
453.751	654.38
453.971	621.38
454.192	620.38
454.412	632.38
454.633	628.38
454.853	609.38
455.073	631.38
455.294	624.38
455.514	608.38
455.734	592.38
455.955	610.38
456.175	629.38
456.395	593.38
456.616	589.38
456.836	583.38
457.056	619.38
457.276	629.38
457.497	613.38
457.717	609.38
457.937	626.38
458.157	585.38
458.377	622.38
458.598	625.38
458.818	647.38
459.038	663.38
459.258	692.38
459.478	705.38
459.698	741.38
459.918	757.38
460.138	796.38
460.358	836.38
460.578	840.38
460.798	839.38
461.018	838.38
461.238	842.38
461.458	844.38
461.678	824.38
461.898	854.38
462.118	837.38
462.338	864.38
462.558	905.38
462.777	949.38
462.997	1028.38
463.217	1125.38
463.437	1159.38
463.657	1045.38
463.876	992.38
464.096	978.38
464.316	958.38
464.536	998.38
464.755	928.38
464.975	900.38
465.195	855.38
465.414	803.38
465.634	790.38
465.854	747.38
466.073	720.38
466.293	697.38
466.512	689.38
466.732	673.38
466.951	715.38
467.171	695.38
467.391	681.38
467.61	676.38
467.829	649.38
468.049	676.38
468.268	663.38
468.488	656.38
468.707	653.38
468.927	667.38
469.146	664.38
469.365	659.38
469.585	641.38
469.804	697.38
470.023	685.38
470.243	705.38
470.462	714.38
470.681	716.38
470.901	715.38
471.12	682.38
471.339	678.38
471.558	657.38
471.777	673.38
471.997	647.38
472.216	639.38
472.435	644.38
472.654	638.38
472.873	624.38
473.092	620.38
473.311	641.38
473.53	637.38
473.749	642.38
473.968	634.38
474.187	637.38
474.406	625.38
474.625	639.38
474.844	643.38
475.063	624.38
475.282	637.38
475.501	641.38
475.72	658.38
475.939	669.38
476.158	650.38
476.377	641.38
476.596	651.38
476.814	670.38
477.033	671.38
477.252	662.38
477.471	692.38
477.69	719.38
477.908	730.38
478.127	769.38
478.346	755.38
478.564	760.38
478.783	766.38
479.002	790.38
479.22	829.38
479.439	783.38
479.658	768.38
479.876	821.38
480.095	814.38
480.313	829.38
480.532	869.38
480.751	854.38
480.969	811.38
481.188	782.38
481.406	751.38
481.624	763.38
481.843	742.38
482.061	737.38
482.28	739.38
482.498	710.38
482.717	717.38
482.935	712.38
483.153	713.38
483.372	702.38
483.59	731.38
483.808	711.38
484.027	729.38
484.245	724.38
484.463	766.38
484.681	737.38
484.9	786.38
485.118	771.38
485.336	751.38
485.554	786.38
485.772	755.38
485.99	773.38
486.209	779.38
486.427	769.38
486.645	755.38
486.863	773.38
487.081	757.38
487.299	753.38
487.517	768.38
487.735	771.38
487.953	784.38
488.171	755.38
488.389	779.38
488.607	735.38
488.825	772.38
489.043	747.38
489.261	769.38
489.479	756.38
489.696	768.38
489.914	768.38
490.132	749.38
490.35	762.38
490.568	762.38
490.786	760.38
491.003	763.38
491.221	744.38
491.439	758.38
491.657	776.38
491.874	759.38
492.092	769.38
492.31	783.38
492.527	783.38
492.745	801.38
492.963	780.38
493.18	766.38
493.398	785.38
493.615	776.38
493.833	781.38
494.05	802.38
494.268	786.38
494.485	831.38
494.703	829.38
494.92	819.38
495.138	783.38
495.355	823.38
495.573	791.38
495.79	797.38
496.008	819.38
496.225	825.38
496.442	835.38
496.66	819.38
496.877	845.38
497.094	885.38
497.312	831.38
497.529	853.38
497.746	897.38
497.963	888.38
498.181	944.38
498.398	996.38
498.615	1047.38
498.832	1132.38
499.049	1218.38
499.267	1283.38
499.484	1417.38
499.701	1617.38
499.918	1793.38
500.135	2023.38
500.352	2385.38
500.569	2543.38
500.786	2483.38
501.003	2261.38
501.22	1985.38
