Data from Ni(NO3)2@0.0625M.TitratingCurve.Agarose3%dH2O.NegLispCup.LampEnergy10.LIBS07252019_HRD10591_18-13-07-569.txt Node
Date: Thu Jul 25 18:13:07 EDT 2019
User: cochatt
Spectrometer: HR+D1059
Trigger mode: 1
Integration Time (sec): 1.000000E-1
Scans to average: 1
Electric dark correction enabled: true
Nonlinearity correction enabled: false
Boxcar width: 0
XAxis mode: Wavelengths
Number of Pixels in Spectrum: 2048
>>>>>Begin Spectral Data<<<<<
223.165	-21.5
223.4	-21.5
223.635	-21.5
223.869	-3.5
224.104	-20.5
224.338	-16.5
224.573	-20.5
224.808	-21.5
225.042	-0.5
225.277	-1.5
225.511	-12.5
225.746	1.5
225.98	10.5
226.215	2.5
226.449	21.5
226.683	24.5
226.918	23.5
227.152	34.5
227.387	22.5
227.621	52.5
227.856	43.5
228.09	39.5
228.324	58.5
228.559	58.5
228.793	76.5
229.027	103.5
229.262	128.5
229.496	130.5
229.73	134.5
229.964	151.5
230.199	151.5
230.433	159.5
230.667	157.5
230.901	148.5
231.136	148.5
231.37	153.5
231.604	158.5
231.838	147.5
232.072	159.5
232.306	169.5
232.541	151.5
232.775	158.5
233.009	166.5
233.243	172.5
233.477	177.5
233.711	176.5
233.945	162.5
234.179	156.5
234.413	160.5
234.647	171.5
234.881	175.5
235.115	169.5
235.349	195.5
235.583	163.5
235.817	165.5
236.051	162.5
236.285	166.5
236.519	166.5
236.753	170.5
236.987	190.5
237.221	180.5
237.455	180.5
237.689	192.5
237.922	186.5
238.156	192.5
238.39	186.5
238.624	185.5
238.858	202.5
239.091	196.5
239.325	188.5
239.559	199.5
239.793	213.5
240.027	195.5
240.26	188.5
240.494	208.5
240.728	212.5
240.961	213.5
241.195	208.5
241.429	223.5
241.662	221.5
241.896	214.5
242.13	236.5
242.363	239.5
242.597	235.5
242.83	222.5
243.064	204.5
243.298	234.5
243.531	224.5
243.765	235.5
243.998	249.5
244.232	258.5
244.465	245.5
244.699	251.5
244.932	239.5
245.166	248.5
245.399	255.5
245.633	243.5
245.866	258.5
246.099	268.5
246.333	256.5
246.566	247.5
246.8	241.5
247.033	262.5
247.266	256.5
247.5	274.5
247.733	248.5
247.966	271.5
248.2	270.5
248.433	281.5
248.666	275.5
248.899	268.5
249.133	274.5
249.366	304.5
249.599	294.5
249.832	292.5
250.066	289.5
250.299	287.5
250.532	303.5
250.765	290.5
250.998	305.5
251.231	314.5
251.465	315.5
251.698	331.5
251.931	323.5
252.164	298.5
252.397	327.5
252.63	324.5
252.863	328.5
253.096	336.5
253.329	345.5
253.562	308.5
253.795	301.5
254.028	328.5
254.261	318.5
254.494	350.5
254.727	328.5
254.96	325.5
255.193	344.5
255.426	335.5
255.659	341.5
255.892	351.5
256.124	346.5
256.357	350.5
256.59	354.5
256.823	342.5
257.056	332.5
257.289	358.5
257.521	358.5
257.754	351.5
257.987	353.5
258.22	354.5
258.452	377.5
258.685	361.5
258.918	379.5
259.151	373.5
259.383	368.5
259.616	392.5
259.849	372.5
260.081	380.5
260.314	382.5
260.547	385.5
260.779	369.5
261.012	389.5
261.244	379.5
261.477	398.5
261.71	393.5
261.942	378.5
262.175	400.5
262.407	381.5
262.64	396.5
262.872	421.5
263.105	399.5
263.337	425.5
263.57	408.5
263.802	406.5
264.035	405.5
264.267	395.5
264.499	403.5
264.732	421.5
264.964	421.5
265.197	417.5
265.429	430.5
265.661	419.5
265.894	411.5
266.126	423.5
266.358	435.5
266.591	433.5
266.823	446.5
267.055	454.5
267.287	440.5
267.52	422.5
267.752	430.5
267.984	457.5
268.216	457.5
268.448	450.5
268.681	455.5
268.913	444.5
269.145	431.5
269.377	453.5
269.609	437.5
269.841	445.5
270.073	442.5
270.306	458.5
270.538	443.5
270.77	477.5
271.002	432.5
271.234	458.5
271.466	454.5
271.698	455.5
271.93	464.5
272.162	488.5
272.394	485.5
272.626	470.5
272.858	455.5
273.09	477.5
273.322	494.5
273.553	477.5
273.785	476.5
274.017	465.5
274.249	494.5
274.481	500.5
274.713	505.5
274.945	515.5
275.176	503.5
275.408	515.5
275.64	543.5
275.872	534.5
276.104	513.5
276.335	514.5
276.567	497.5
276.799	515.5
277.031	519.5
277.262	537.5
277.494	536.5
277.726	517.5
277.957	518.5
278.189	540.5
278.421	531.5
278.652	534.5
278.884	526.5
279.115	498.5
279.347	523.5
279.579	547.5
279.81	533.5
280.042	554.5
280.273	547.5
280.505	560.5
280.736	567.5
280.968	548.5
281.199	555.5
281.431	560.5
281.662	571.5
281.894	575.5
282.125	560.5
282.356	576.5
282.588	586.5
282.819	572.5
283.051	559.5
283.282	579.5
283.513	577.5
283.745	575.5
283.976	563.5
284.207	579.5
284.439	594.5
284.67	605.5
284.901	600.5
285.132	587.5
285.364	591.5
285.595	610.5
285.826	593.5
286.057	611.5
286.288	594.5
286.52	611.5
286.751	626.5
286.982	613.5
287.213	616.5
287.444	603.5
287.675	608.5
287.906	625.5
288.138	614.5
288.369	629.5
288.6	641.5
288.831	614.5
289.062	631.5
289.293	616.5
289.524	633.5
289.755	619.5
289.986	619.5
290.217	631.5
290.448	620.5
290.679	633.5
290.91	630.5
291.141	641.5
291.371	636.5
291.602	665.5
291.833	658.5
292.064	652.5
292.295	622.5
292.526	660.5
292.757	634.5
292.987	656.5
293.218	662.5
293.449	670.5
293.68	646.5
293.91	654.5
294.141	633.5
294.372	646.5
294.603	641.5
294.833	681.5
295.064	635.5
295.295	635.5
295.525	651.5
295.756	676.5
295.987	674.5
296.217	682.5
296.448	687.5
296.679	666.5
296.909	665.5
297.14	669.5
297.37	658.5
297.601	700.5
297.831	695.5
298.062	691.5
298.292	680.5
298.523	706.5
298.753	722.5
298.984	690.5
299.214	704.5
299.445	722.5
299.675	701.5
299.905	692.5
300.136	715.5
300.366	751.5
300.597	729.5
300.827	750.5
301.057	741.5
301.288	763.5
301.518	740.5
301.748	737.5
301.979	759.5
302.209	745.5
302.439	744.5
302.669	742.5
302.9	726.5
303.13	730.5
303.36	727.5
303.59	728.5
303.82	735.5
304.051	729.5
304.281	744.5
304.511	733.5
304.741	732.5
304.971	733.5
305.201	725.5
305.431	768.5
305.661	706.5
305.891	735.5
306.121	742.5
306.352	726.5
306.582	676.5
306.812	687.5
307.042	739.5
307.272	718.5
307.502	711.5
307.731	751.5
307.961	732.5
308.191	704.5
308.421	707.5
308.651	718.5
308.881	714.5
309.111	702.5
309.341	731.5
309.571	728.5
309.8	730.5
310.03	714.5
310.26	730.5
310.49	743.5
310.72	736.5
310.949	728.5
311.179	728.5
311.409	744.5
311.639	770.5
311.868	758.5
312.098	735.5
312.328	753.5
312.557	761.5
312.787	743.5
313.017	777.5
313.246	780.5
313.476	789.5
313.706	778.5
313.935	775.5
314.165	794.5
314.394	785.5
314.624	792.5
314.853	776.5
315.083	775.5
315.312	759.5
315.542	767.5
315.771	749.5
316.001	771.5
316.23	774.5
316.46	789.5
316.689	754.5
316.919	757.5
317.148	745.5
317.377	764.5
317.607	767.5
317.836	753.5
318.065	747.5
318.295	785.5
318.524	768.5
318.753	741.5
318.983	741.5
319.212	767.5
319.441	754.5
319.67	755.5
319.9	759.5
320.129	764.5
320.358	758.5
320.587	767.5
320.816	759.5
321.046	771.5
321.275	774.5
321.504	779.5
321.733	755.5
321.962	755.5
322.191	777.5
322.42	778.5
322.649	776.5
322.878	767.5
323.108	785.5
323.337	802.5
323.566	780.5
323.795	799.5
324.024	803.5
324.253	792.5
324.482	799.5
324.71	773.5
324.939	795.5
325.168	784.5
325.397	794.5
325.626	814.5
325.855	847.5
326.084	808.5
326.313	869.5
326.542	858.5
326.77	843.5
326.999	850.5
327.228	834.5
327.457	807.5
327.686	838.5
327.914	851.5
328.143	862.5
328.372	860.5
328.6	870.5
328.829	827.5
329.058	857.5
329.287	894.5
329.515	848.5
329.744	833.5
329.972	861.5
330.201	852.5
330.43	898.5
330.658	865.5
330.887	844.5
331.115	882.5
331.344	867.5
331.572	878.5
331.801	914.5
332.03	937.5
332.258	971.5
332.486	974.5
332.715	1035.5
332.943	1054.5
333.172	1092.5
333.4	1137.5
333.629	1170.5
333.857	1189.5
334.085	1183.5
334.314	1126.5
334.542	1112.5
334.771	1112.5
334.999	1065.5
335.227	1080.5
335.455	1079.5
335.684	1038.5
335.912	1055.5
336.14	1061.5
336.369	1041.5
336.597	1017.5
336.825	1041.5
337.053	1043.5
337.281	1001.5
337.51	972.5
337.738	985.5
337.966	972.5
338.194	976.5
338.422	937.5
338.65	915.5
338.878	953.5
339.106	932.5
339.334	946.5
339.562	924.5
339.79	930.5
340.018	904.5
340.246	853.5
340.474	894.5
340.702	888.5
340.93	899.5
341.158	922.5
341.386	911.5
341.614	924.5
341.842	898.5
342.07	880.5
342.298	888.5
342.526	892.5
342.754	898.5
342.981	871.5
343.209	930.5
343.437	938.5
343.665	993.5
343.893	1096.5
344.12	1109.5
344.348	1066.5
344.576	996.5
344.804	980.5
345.031	926.5
345.259	903.5
345.487	880.5
345.714	906.5
345.942	907.5
346.17	887.5
346.397	884.5
346.625	865.5
346.853	854.5
347.08	840.5
347.308	863.5
347.535	905.5
347.763	857.5
347.99	875.5
348.218	858.5
348.445	842.5
348.673	879.5
348.9	854.5
349.128	876.5
349.355	878.5
349.583	854.5
349.81	851.5
350.037	849.5
350.265	865.5
350.492	856.5
350.72	812.5
350.947	818.5
351.174	845.5
351.402	845.5
351.629	844.5
351.856	827.5
352.083	852.5
352.311	815.5
352.538	820.5
352.765	841.5
352.992	839.5
353.22	817.5
353.447	819.5
353.674	845.5
353.901	806.5
354.128	816.5
354.355	825.5
354.583	817.5
354.81	821.5
355.037	828.5
355.264	842.5
355.491	828.5
355.718	825.5
355.945	816.5
356.172	834.5
356.399	828.5
356.626	857.5
356.853	872.5
357.08	847.5
357.307	866.5
357.534	818.5
357.761	845.5
357.988	802.5
358.215	830.5
358.441	832.5
358.668	838.5
358.895	830.5
359.122	832.5
359.349	818.5
359.576	830.5
359.802	823.5
360.029	818.5
360.256	823.5
360.483	862.5
360.709	822.5
360.936	821.5
361.163	846.5
361.39	823.5
361.616	803.5
361.843	839.5
362.07	852.5
362.296	834.5
362.523	839.5
362.749	836.5
362.976	837.5
363.203	808.5
363.429	836.5
363.656	811.5
363.882	822.5
364.109	851.5
364.335	835.5
364.562	841.5
364.788	821.5
365.015	806.5
365.241	824.5
365.468	807.5
365.694	818.5
365.92	837.5
366.147	820.5
366.373	834.5
366.599	815.5
366.826	830.5
367.052	830.5
367.278	815.5
367.505	795.5
367.731	846.5
367.957	838.5
368.184	866.5
368.41	855.5
368.636	830.5
368.862	854.5
369.089	888.5
369.315	857.5
369.541	847.5
369.767	864.5
369.993	873.5
370.219	858.5
370.445	887.5
370.672	863.5
370.898	898.5
371.124	881.5
371.35	894.5
371.576	882.5
371.802	887.5
372.028	892.5
372.254	879.5
372.48	903.5
372.706	934.5
372.932	953.5
373.158	914.5
373.384	919.5
373.61	878.5
373.835	889.5
374.061	905.5
374.287	924.5
374.513	950.5
374.739	949.5
374.965	995.5
375.191	1001.5
375.416	1003.5
375.642	961.5
375.868	970.5
376.094	923.5
376.319	926.5
376.545	921.5
376.771	921.5
376.997	893.5
377.222	882.5
377.448	873.5
377.674	899.5
377.899	916.5
378.125	898.5
378.35	913.5
378.576	879.5
378.802	892.5
379.027	882.5
379.253	884.5
379.478	869.5
379.704	878.5
379.929	894.5
380.155	862.5
380.38	885.5
380.606	894.5
380.831	904.5
381.057	908.5
381.282	923.5
381.507	900.5
381.733	913.5
381.958	931.5
382.184	946.5
382.409	958.5
382.634	938.5
382.86	966.5
383.085	978.5
383.31	973.5
383.535	977.5
383.761	991.5
383.986	1014.5
384.211	1030.5
384.436	1073.5
384.662	1085.5
384.887	1104.5
385.112	1096.5
385.337	1097.5
385.562	1096.5
385.787	1097.5
386.013	1124.5
386.238	1129.5
386.463	1101.5
386.688	1097.5
386.913	1105.5
387.138	1090.5
387.363	1082.5
387.588	1057.5
387.813	1090.5
388.038	1062.5
388.263	1096.5
388.488	1073.5
388.713	1078.5
388.938	1066.5
389.163	1067.5
389.387	1086.5
389.612	1046.5
389.837	1029.5
390.062	1071.5
390.287	1075.5
390.512	1057.5
390.736	1073.5
390.961	1096.5
391.186	1104.5
391.411	1162.5
391.636	1179.5
391.86	1266.5
392.085	1241.5
392.31	1252.5
392.534	1212.5
392.759	1171.5
392.984	1164.5
393.208	1150.5
393.433	1170.5
393.658	1177.5
393.882	1170.5
394.107	1164.5
394.331	1165.5
394.556	1154.5
394.78	1165.5
395.005	1192.5
395.229	1219.5
395.454	1191.5
395.678	1216.5
395.903	1232.5
396.127	1167.5
396.352	1188.5
396.576	1137.5
396.801	1165.5
397.025	1143.5
397.249	1172.5
397.474	1206.5
397.698	1278.5
397.922	1258.5
398.147	1256.5
398.371	1268.5
398.595	1296.5
398.82	1336.5
399.044	1431.5
399.268	1579.5
399.492	1831.5
399.717	2116.5
399.941	2118.5
400.165	1858.5
400.389	1624.5
400.613	1538.5
400.837	1435.5
401.062	1419.5
401.286	1366.5
401.51	1349.5
401.734	1356.5
401.958	1369.5
402.182	1391.5
402.406	1423.5
402.63	1451.5
402.854	1446.5
403.078	1465.5
403.302	1543.5
403.526	1566.5
403.75	1566.5
403.974	1603.5
404.198	1611.5
404.422	1641.5
404.645	1617.5
404.869	1570.5
405.093	1518.5
405.317	1523.5
405.541	1531.5
405.765	1472.5
405.988	1494.5
406.212	1486.5
406.436	1493.5
406.66	1520.5
406.883	1579.5
407.107	1641.5
407.331	1761.5
407.555	1801.5
407.778	1800.5
408.002	1726.5
408.226	1620.5
408.449	1615.5
408.673	1627.5
408.896	1602.5
409.12	1534.5
409.344	1560.5
409.567	1567.5
409.791	1601.5
410.014	1577.5
410.238	1551.5
410.461	1528.5
410.685	1525.5
410.908	1483.5
411.132	1463.5
411.355	1395.5
411.578	1427.5
411.802	1411.5
412.025	1425.5
412.249	1465.5
412.472	1421.5
412.695	1392.5
412.919	1347.5
413.142	1394.5
413.365	1357.5
413.589	1368.5
413.812	1342.5
414.035	1381.5
414.258	1310.5
414.482	1374.5
414.705	1387.5
414.928	1402.5
415.151	1348.5
415.374	1359.5
415.597	1378.5
415.821	1334.5
416.044	1329.5
416.267	1335.5
416.49	1318.5
416.713	1323.5
416.936	1363.5
417.159	1339.5
417.382	1335.5
417.605	1328.5
417.828	1323.5
418.051	1346.5
418.274	1352.5
418.497	1339.5
418.72	1398.5
418.943	1394.5
419.166	1468.5
419.389	1567.5
419.611	1538.5
419.834	1444.5
420.057	1435.5
420.28	1370.5
420.503	1328.5
420.726	1354.5
420.948	1332.5
421.171	1352.5
421.394	1348.5
421.617	1336.5
421.839	1335.5
422.062	1369.5
422.285	1333.5
422.507	1380.5
422.73	1378.5
422.953	1389.5
423.175	1392.5
423.398	1405.5
423.621	1384.5
423.843	1461.5
424.066	1458.5
424.288	1428.5
424.511	1399.5
424.733	1384.5
424.956	1360.5
425.178	1373.5
425.401	1343.5
425.623	1354.5
425.846	1273.5
426.068	1322.5
426.291	1297.5
426.513	1297.5
426.735	1266.5
426.958	1266.5
427.18	1203.5
427.402	1208.5
427.625	1223.5
427.847	1216.5
428.069	1211.5
428.292	1212.5
428.514	1168.5
428.736	1203.5
428.958	1209.5
429.181	1153.5
429.403	1159.5
429.625	1146.5
429.847	1158.5
430.069	1171.5
430.292	1142.5
430.514	1152.5
430.736	1124.5
430.958	1170.5
431.18	1176.5
431.402	1171.5
431.624	1166.5
431.846	1170.5
432.068	1216.5
432.29	1206.5
432.512	1162.5
432.734	1217.5
432.956	1183.5
433.178	1222.5
433.4	1221.5
433.622	1227.5
433.844	1204.5
434.066	1216.5
434.287	1219.5
434.509	1312.5
434.731	1296.5
434.953	1348.5
435.175	1360.5
435.397	1342.5
435.618	1247.5
435.84	1200.5
436.062	1226.5
436.284	1180.5
436.505	1163.5
436.727	1185.5
436.949	1191.5
437.17	1194.5
437.392	1160.5
437.614	1177.5
437.835	1134.5
438.057	1146.5
438.278	1151.5
438.5	1152.5
438.721	1151.5
438.943	1154.5
439.165	1156.5
439.386	1114.5
439.608	1158.5
439.829	1198.5
440.05	1170.5
440.272	1187.5
440.493	1192.5
440.715	1218.5
440.936	1232.5
441.158	1252.5
441.379	1265.5
441.6	1346.5
441.822	1383.5
442.043	1362.5
442.264	1304.5
442.486	1279.5
442.707	1328.5
442.928	1293.5
443.149	1317.5
443.371	1288.5
443.592	1316.5
443.813	1360.5
444.034	1385.5
444.255	1403.5
444.476	1481.5
444.698	1549.5
444.919	1606.5
445.14	1633.5
445.361	1478.5
445.582	1408.5
445.803	1312.5
446.024	1260.5
446.245	1238.5
446.466	1222.5
446.687	1186.5
446.908	1206.5
447.129	1176.5
447.35	1178.5
447.571	1143.5
447.792	1107.5
448.013	1104.5
448.234	1098.5
448.455	1111.5
448.675	1070.5
448.896	1081.5
449.117	1065.5
449.338	1076.5
449.559	1046.5
449.779	1079.5
450	1044.5
450.221	1078.5
450.442	1107.5
450.662	1120.5
450.883	1111.5
451.104	1127.5
451.324	1108.5
451.545	1120.5
451.766	1125.5
451.986	1098.5
452.207	1093.5
452.428	1096.5
452.648	1080.5
452.869	1057.5
453.089	1061.5
453.31	1081.5
453.53	1054.5
453.751	1078.5
453.971	1057.5
454.192	1055.5
454.412	1003.5
454.633	998.5
454.853	1042.5
455.073	1022.5
455.294	1057.5
455.514	997.5
455.734	1014.5
455.955	1013.5
456.175	1001.5
456.395	998.5
456.616	997.5
456.836	981.5
457.056	990.5
457.276	984.5
457.497	1027.5
457.717	996.5
457.937	986.5
458.157	1039.5
458.377	1048.5
458.598	1042.5
458.818	1083.5
459.038	1143.5
459.258	1163.5
459.478	1166.5
459.698	1232.5
459.918	1259.5
460.138	1310.5
460.358	1367.5
460.578	1406.5
460.798	1399.5
461.018	1427.5
461.238	1392.5
461.458	1372.5
461.678	1403.5
461.898	1410.5
462.118	1398.5
462.338	1488.5
462.558	1552.5
462.777	1608.5
462.997	1776.5
463.217	1881.5
463.437	1918.5
463.657	1794.5
463.876	1669.5
464.096	1668.5
464.316	1650.5
464.536	1639.5
464.755	1562.5
464.975	1498.5
465.195	1441.5
465.414	1380.5
465.634	1282.5
465.854	1263.5
466.073	1236.5
466.293	1188.5
466.512	1132.5
466.732	1160.5
466.951	1164.5
467.171	1130.5
467.391	1157.5
467.61	1126.5
467.829	1118.5
468.049	1128.5
468.268	1082.5
468.488	1070.5
468.707	1074.5
468.927	1116.5
469.146	1096.5
469.365	1111.5
469.585	1075.5
469.804	1154.5
470.023	1182.5
470.243	1202.5
470.462	1187.5
470.681	1176.5
470.901	1180.5
471.12	1148.5
471.339	1131.5
471.558	1086.5
471.777	1120.5
471.997	1121.5
472.216	1087.5
472.435	1054.5
472.654	1072.5
472.873	1060.5
473.092	1055.5
473.311	1047.5
473.53	1052.5
473.749	1047.5
473.968	1058.5
474.187	1054.5
474.406	1027.5
474.625	1064.5
474.844	1061.5
475.063	1082.5
475.282	1057.5
475.501	1095.5
475.72	1088.5
475.939	1091.5
476.158	1103.5
476.377	1094.5
476.596	1119.5
476.814	1124.5
477.033	1112.5
477.252	1137.5
477.471	1143.5
477.69	1198.5
477.908	1204.5
478.127	1266.5
478.346	1249.5
478.564	1328.5
478.783	1296.5
479.002	1368.5
479.22	1360.5
479.439	1296.5
479.658	1343.5
479.876	1353.5
480.095	1372.5
480.313	1410.5
480.532	1440.5
480.751	1442.5
480.969	1380.5
481.188	1305.5
481.406	1302.5
481.624	1250.5
481.843	1239.5
482.061	1219.5
482.28	1215.5
482.498	1205.5
482.717	1199.5
482.935	1227.5
483.153	1232.5
483.372	1216.5
483.59	1238.5
483.808	1232.5
484.027	1224.5
484.245	1253.5
484.463	1268.5
484.681	1266.5
484.9	1298.5
485.118	1284.5
485.336	1277.5
485.554	1292.5
485.772	1318.5
485.99	1335.5
486.209	1321.5
486.427	1345.5
486.645	1335.5
486.863	1337.5
487.081	1320.5
487.299	1320.5
487.517	1295.5
487.735	1309.5
487.953	1299.5
488.171	1305.5
488.389	1315.5
488.607	1267.5
488.825	1295.5
489.043	1283.5
489.261	1292.5
489.479	1277.5
489.696	1283.5
489.914	1260.5
490.132	1292.5
490.35	1287.5
490.568	1280.5
490.786	1263.5
491.003	1274.5
491.221	1273.5
491.439	1275.5
491.657	1290.5
491.874	1269.5
492.092	1282.5
492.31	1290.5
492.527	1301.5
492.745	1330.5
492.963	1290.5
493.18	1305.5
493.398	1311.5
493.615	1335.5
493.833	1285.5
494.05	1330.5
494.268	1347.5
494.485	1363.5
494.703	1340.5
494.92	1359.5
495.138	1297.5
495.355	1345.5
495.573	1336.5
495.79	1325.5
496.008	1345.5
496.225	1349.5
496.442	1363.5
496.66	1394.5
496.877	1390.5
497.094	1457.5
497.312	1446.5
497.529	1467.5
497.746	1500.5
497.963	1569.5
498.181	1670.5
498.398	1700.5
498.615	1834.5
498.832	1941.5
499.049	2084.5
499.267	2269.5
499.484	2488.5
499.701	2772.5
499.918	3073.5
500.135	3500.5
500.352	3996.5
500.569	4185.5
500.786	4161.5
501.003	3833.5
501.22	3418.5
501.437	2970.5
501.654	2616.5
501.871	2409.5
502.088	2162.5
502.305	2044.5
502.522	1925.5
502.739	1843.5
502.956	1777.5
503.172	1702.5
503.389	1599.5
503.606	1548.5
503.823	1518.5
504.04	1522.5
504.256	1570.5
504.473	1593.5
504.69	1663.5
504.907	1625.5
505.123	1478.5
505.34	1403.5
505.557	1344.5
505.773	1309.5
505.99	1285.5
506.207	1262.5
506.423	1231.5
506.64	1218.5
506.856	1185.5
507.073	1205.5
507.289	1158.5
507.506	1185.5
507.722	1190.5
507.939	1183.5
508.155	1170.5
508.372	1164.5
508.588	1150.5
508.805	1093.5
509.021	1124.5
509.238	1099.5
509.454	1106.5
509.67	1107.5
509.887	1087.5
510.103	1123.5
510.319	1089.5
510.536	1086.5
510.752	1081.5
