Data from Ni(NO3)2@0.125M.TitratingCurve.Agarose3%dH2O.NegLispCup.LampEnergy10.LIBS07252019_HRD10591_18-10-22-567.txt Node
Date: Thu Jul 25 18:10:22 EDT 2019
User: cochatt
Spectrometer: HR+D1059
Trigger mode: 1
Integration Time (sec): 1.000000E-1
Scans to average: 1
Electric dark correction enabled: true
Nonlinearity correction enabled: false
Boxcar width: 0
XAxis mode: Wavelengths
Number of Pixels in Spectrum: 2048
>>>>>Begin Spectral Data<<<<<
223.165	-6.5
223.4	-6.5
223.635	-6.5
223.869	-16.5
224.104	-19.5
224.338	-11.5
224.573	-3.5
224.808	-16.5
225.042	-12.5
225.277	2.5
225.511	-10.5
225.746	10.5
225.98	-0.5
226.215	5.5
226.449	10.5
226.683	26.5
226.918	4.5
227.152	37.5
227.387	37.5
227.621	33.5
227.856	40.5
228.09	47.5
228.324	55.5
228.559	61.5
228.793	54.5
229.027	87.5
229.262	87.5
229.496	105.5
229.73	107.5
229.964	98.5
230.199	117.5
230.433	97.5
230.667	109.5
230.901	134.5
231.136	114.5
231.37	113.5
231.604	119.5
231.838	99.5
232.072	113.5
232.306	125.5
232.541	110.5
232.775	119.5
233.009	126.5
233.243	141.5
233.477	127.5
233.711	124.5
233.945	113.5
234.179	121.5
234.413	122.5
234.647	115.5
234.881	123.5
235.115	121.5
235.349	130.5
235.583	115.5
235.817	112.5
236.051	130.5
236.285	112.5
236.519	108.5
236.753	132.5
236.987	123.5
237.221	136.5
237.455	124.5
237.689	123.5
237.922	131.5
238.156	128.5
238.39	141.5
238.624	139.5
238.858	140.5
239.091	132.5
239.325	127.5
239.559	135.5
239.793	134.5
240.027	151.5
240.26	136.5
240.494	156.5
240.728	136.5
240.961	140.5
241.195	145.5
241.429	123.5
241.662	137.5
241.896	139.5
242.13	147.5
242.363	149.5
242.597	146.5
242.83	147.5
243.064	151.5
243.298	150.5
243.531	148.5
243.765	157.5
243.998	173.5
244.232	148.5
244.465	140.5
244.699	170.5
244.932	165.5
245.166	164.5
245.399	151.5
245.633	174.5
245.866	162.5
246.099	171.5
246.333	170.5
246.566	169.5
246.8	177.5
247.033	157.5
247.266	163.5
247.5	167.5
247.733	176.5
247.966	173.5
248.2	183.5
248.433	163.5
248.666	166.5
248.899	173.5
249.133	189.5
249.366	189.5
249.599	192.5
249.832	177.5
250.066	185.5
250.299	182.5
250.532	197.5
250.765	193.5
250.998	183.5
251.231	200.5
251.465	196.5
251.698	199.5
251.931	198.5
252.164	197.5
252.397	203.5
252.63	201.5
252.863	229.5
253.096	212.5
253.329	213.5
253.562	202.5
253.795	225.5
254.028	201.5
254.261	217.5
254.494	230.5
254.727	227.5
254.96	206.5
255.193	204.5
255.426	214.5
255.659	202.5
255.892	201.5
256.124	212.5
256.357	217.5
256.59	232.5
256.823	231.5
257.056	228.5
257.289	211.5
257.521	222.5
257.754	228.5
257.987	216.5
258.22	223.5
258.452	216.5
258.685	226.5
258.918	225.5
259.151	228.5
259.383	228.5
259.616	222.5
259.849	232.5
260.081	240.5
260.314	246.5
260.547	250.5
260.779	241.5
261.012	235.5
261.244	238.5
261.477	230.5
261.71	241.5
261.942	230.5
262.175	250.5
262.407	242.5
262.64	252.5
262.872	241.5
263.105	255.5
263.337	256.5
263.57	245.5
263.802	261.5
264.035	250.5
264.267	242.5
264.499	265.5
264.732	245.5
264.964	253.5
265.197	272.5
265.429	253.5
265.661	263.5
265.894	251.5
266.126	272.5
266.358	263.5
266.591	265.5
266.823	271.5
267.055	264.5
267.287	272.5
267.52	275.5
267.752	281.5
267.984	287.5
268.216	273.5
268.448	276.5
268.681	302.5
268.913	284.5
269.145	269.5
269.377	267.5
269.609	279.5
269.841	262.5
270.073	268.5
270.306	278.5
270.538	276.5
270.77	285.5
271.002	291.5
271.234	301.5
271.466	281.5
271.698	277.5
271.93	290.5
272.162	277.5
272.394	271.5
272.626	274.5
272.858	280.5
273.09	297.5
273.322	285.5
273.553	293.5
273.785	291.5
274.017	277.5
274.249	296.5
274.481	296.5
274.713	293.5
274.945	312.5
275.176	311.5
275.408	300.5
275.64	304.5
275.872	304.5
276.104	319.5
276.335	315.5
276.567	311.5
276.799	304.5
277.031	307.5
277.262	326.5
277.494	316.5
277.726	308.5
277.957	294.5
278.189	321.5
278.421	318.5
278.652	321.5
278.884	325.5
279.115	323.5
279.347	324.5
279.579	332.5
279.81	331.5
280.042	322.5
280.273	332.5
280.505	337.5
280.736	343.5
280.968	321.5
281.199	321.5
281.431	332.5
281.662	334.5
281.894	344.5
282.125	332.5
282.356	348.5
282.588	327.5
282.819	358.5
283.051	353.5
283.282	349.5
283.513	364.5
283.745	347.5
283.976	356.5
284.207	346.5
284.439	371.5
284.67	354.5
284.901	360.5
285.132	375.5
285.364	376.5
285.595	365.5
285.826	366.5
286.057	353.5
286.288	344.5
286.52	377.5
286.751	367.5
286.982	369.5
287.213	372.5
287.444	349.5
287.675	377.5
287.906	365.5
288.138	372.5
288.369	367.5
288.6	374.5
288.831	368.5
289.062	383.5
289.293	365.5
289.524	382.5
289.755	395.5
289.986	382.5
290.217	361.5
290.448	371.5
290.679	373.5
290.91	369.5
291.141	396.5
291.371	392.5
291.602	398.5
291.833	392.5
292.064	404.5
292.295	386.5
292.526	396.5
292.757	376.5
292.987	375.5
293.218	384.5
293.449	377.5
293.68	377.5
293.91	406.5
294.141	388.5
294.372	391.5
294.603	387.5
294.833	397.5
295.064	375.5
295.295	396.5
295.525	381.5
295.756	402.5
295.987	399.5
296.217	399.5
296.448	389.5
296.679	389.5
296.909	384.5
297.14	407.5
297.37	420.5
297.601	402.5
297.831	404.5
298.062	424.5
298.292	426.5
298.523	421.5
298.753	452.5
298.984	420.5
299.214	411.5
299.445	420.5
299.675	399.5
299.905	436.5
300.136	427.5
300.366	430.5
300.597	442.5
300.827	434.5
301.057	458.5
301.288	436.5
301.518	431.5
301.748	431.5
301.979	453.5
302.209	467.5
302.439	447.5
302.669	444.5
302.9	431.5
303.13	440.5
303.36	427.5
303.59	407.5
303.82	439.5
304.051	420.5
304.281	443.5
304.511	443.5
304.741	430.5
304.971	422.5
305.201	425.5
305.431	423.5
305.661	414.5
305.891	426.5
306.121	422.5
306.352	433.5
306.582	435.5
306.812	446.5
307.042	439.5
307.272	423.5
307.502	417.5
307.731	404.5
307.961	416.5
308.191	417.5
308.421	403.5
308.651	413.5
308.881	427.5
309.111	412.5
309.341	431.5
309.571	439.5
309.8	417.5
310.03	422.5
310.26	431.5
310.49	411.5
310.72	424.5
310.949	416.5
311.179	440.5
311.409	422.5
311.639	425.5
311.868	440.5
312.098	440.5
312.328	444.5
312.557	437.5
312.787	441.5
313.017	450.5
313.246	455.5
313.476	433.5
313.706	447.5
313.935	459.5
314.165	461.5
314.394	448.5
314.624	466.5
314.853	455.5
315.083	462.5
315.312	448.5
315.542	458.5
315.771	444.5
316.001	432.5
316.23	432.5
316.46	411.5
316.689	450.5
316.919	440.5
317.148	452.5
317.377	420.5
317.607	437.5
317.836	449.5
318.065	436.5
318.295	435.5
318.524	429.5
318.753	440.5
318.983	452.5
319.212	448.5
319.441	440.5
319.67	446.5
319.9	439.5
320.129	445.5
320.358	444.5
320.587	438.5
320.816	458.5
321.046	448.5
321.275	449.5
321.504	459.5
321.733	451.5
321.962	425.5
322.191	460.5
322.42	439.5
322.649	465.5
322.878	462.5
323.108	455.5
323.337	473.5
323.566	455.5
323.795	446.5
324.024	463.5
324.253	442.5
324.482	466.5
324.71	447.5
324.939	472.5
325.168	491.5
325.397	477.5
325.626	479.5
325.855	482.5
326.084	510.5
326.313	506.5
326.542	510.5
326.77	515.5
326.999	499.5
327.228	494.5
327.457	490.5
327.686	492.5
327.914	461.5
328.143	509.5
328.372	500.5
328.6	485.5
328.829	489.5
329.058	488.5
329.287	504.5
329.515	508.5
329.744	493.5
329.972	513.5
330.201	511.5
330.43	510.5
330.658	516.5
330.887	510.5
331.115	508.5
331.344	527.5
331.572	519.5
331.801	567.5
332.03	573.5
332.258	571.5
332.486	582.5
332.715	591.5
332.943	608.5
333.172	653.5
333.4	687.5
333.629	695.5
333.857	694.5
334.085	693.5
334.314	668.5
334.542	659.5
334.771	617.5
334.999	651.5
335.227	595.5
335.455	627.5
335.684	619.5
335.912	621.5
336.14	592.5
336.369	601.5
336.597	587.5
336.825	611.5
337.053	623.5
337.281	581.5
337.51	575.5
337.738	569.5
337.966	570.5
338.194	568.5
338.422	535.5
338.65	521.5
338.878	546.5
339.106	541.5
339.334	569.5
339.562	540.5
339.79	527.5
340.018	535.5
340.246	531.5
340.474	512.5
340.702	535.5
340.93	527.5
341.158	530.5
341.386	497.5
341.614	519.5
341.842	517.5
342.07	512.5
342.298	517.5
342.526	538.5
342.754	525.5
342.981	525.5
343.209	547.5
343.437	520.5
343.665	608.5
343.893	655.5
344.12	657.5
344.348	640.5
344.576	581.5
344.804	560.5
345.031	544.5
345.259	537.5
345.487	526.5
345.714	548.5
345.942	513.5
346.17	504.5
346.397	515.5
346.625	505.5
346.853	529.5
347.08	487.5
347.308	519.5
347.535	541.5
347.763	522.5
347.99	513.5
348.218	513.5
348.445	531.5
348.673	506.5
348.9	527.5
349.128	521.5
349.355	482.5
349.583	508.5
349.81	496.5
350.037	483.5
350.265	496.5
350.492	511.5
350.72	496.5
350.947	474.5
351.174	500.5
351.402	487.5
351.629	487.5
351.856	499.5
352.083	479.5
352.311	478.5
352.538	476.5
352.765	502.5
352.992	493.5
353.22	491.5
353.447	509.5
353.674	475.5
353.901	475.5
354.128	488.5
354.355	479.5
354.583	505.5
354.81	481.5
355.037	478.5
355.264	517.5
355.491	496.5
355.718	501.5
355.945	493.5
356.172	491.5
356.399	497.5
356.626	500.5
356.853	513.5
357.08	474.5
357.307	517.5
357.534	488.5
357.761	495.5
357.988	501.5
358.215	472.5
358.441	472.5
358.668	507.5
358.895	497.5
359.122	488.5
359.349	459.5
359.576	490.5
359.802	504.5
360.029	496.5
360.256	517.5
360.483	498.5
360.709	511.5
360.936	494.5
361.163	494.5
361.39	496.5
361.616	476.5
361.843	486.5
362.07	475.5
362.296	517.5
362.523	494.5
362.749	500.5
362.976	493.5
363.203	509.5
363.429	476.5
363.656	471.5
363.882	487.5
364.109	500.5
364.335	460.5
364.562	488.5
364.788	491.5
365.015	492.5
365.241	500.5
365.468	493.5
365.694	474.5
365.92	475.5
366.147	485.5
366.373	485.5
366.599	473.5
366.826	484.5
367.052	483.5
367.278	484.5
367.505	495.5
367.731	476.5
367.957	471.5
368.184	484.5
368.41	477.5
368.636	512.5
368.862	506.5
369.089	491.5
369.315	493.5
369.541	492.5
369.767	505.5
369.993	510.5
370.219	488.5
370.445	500.5
370.672	485.5
370.898	531.5
371.124	535.5
371.35	529.5
371.576	518.5
371.802	537.5
372.028	521.5
372.254	524.5
372.48	551.5
372.706	530.5
372.932	542.5
373.158	536.5
373.384	543.5
373.61	525.5
373.835	514.5
374.061	522.5
374.287	549.5
374.513	555.5
374.739	555.5
374.965	588.5
375.191	597.5
375.416	589.5
375.642	568.5
375.868	576.5
376.094	569.5
376.319	551.5
376.545	547.5
376.771	526.5
376.997	543.5
377.222	542.5
377.448	541.5
377.674	541.5
377.899	544.5
378.125	542.5
378.35	535.5
378.576	525.5
378.802	523.5
379.027	525.5
379.253	543.5
379.478	543.5
379.704	508.5
379.929	531.5
380.155	514.5
380.38	521.5
380.606	512.5
380.831	535.5
381.057	534.5
381.282	529.5
381.507	511.5
381.733	546.5
381.958	549.5
382.184	524.5
382.409	535.5
382.634	559.5
382.86	571.5
383.085	575.5
383.31	569.5
383.535	591.5
383.761	595.5
383.986	594.5
384.211	626.5
384.436	585.5
384.662	639.5
384.887	624.5
385.112	642.5
385.337	653.5
385.562	639.5
385.787	637.5
386.013	664.5
386.238	629.5
386.463	672.5
386.688	660.5
386.913	637.5
387.138	640.5
387.363	612.5
387.588	629.5
387.813	625.5
388.038	624.5
388.263	619.5
388.488	622.5
388.713	648.5
388.938	621.5
389.163	587.5
389.387	621.5
389.612	626.5
389.837	624.5
390.062	624.5
390.287	619.5
390.512	633.5
390.736	619.5
390.961	654.5
391.186	625.5
391.411	661.5
391.636	693.5
391.86	696.5
392.085	711.5
392.31	711.5
392.534	680.5
392.759	658.5
392.984	669.5
393.208	661.5
393.433	646.5
393.658	667.5
393.882	685.5
394.107	665.5
394.331	701.5
394.556	644.5
394.78	676.5
395.005	669.5
395.229	695.5
395.454	711.5
395.678	751.5
395.903	718.5
396.127	701.5
396.352	667.5
396.576	664.5
396.801	698.5
397.025	680.5
397.249	667.5
397.474	717.5
397.698	698.5
397.922	712.5
398.147	683.5
398.371	716.5
398.595	739.5
398.82	749.5
399.044	836.5
399.268	915.5
399.492	1094.5
399.717	1253.5
399.941	1248.5
400.165	1058.5
400.389	966.5
400.613	872.5
400.837	816.5
401.062	825.5
401.286	799.5
401.51	790.5
401.734	794.5
401.958	820.5
402.182	804.5
402.406	835.5
402.63	830.5
402.854	869.5
403.078	867.5
403.302	906.5
403.526	924.5
403.75	952.5
403.974	988.5
404.198	951.5
404.422	957.5
404.645	967.5
404.869	958.5
405.093	932.5
405.317	893.5
405.541	887.5
405.765	865.5
405.988	883.5
406.212	867.5
406.436	870.5
406.66	900.5
406.883	900.5
407.107	984.5
407.331	1015.5
407.555	1042.5
407.778	1074.5
408.002	1021.5
408.226	997.5
408.449	962.5
408.673	913.5
408.896	919.5
409.12	907.5
409.344	932.5
409.567	940.5
409.791	952.5
410.014	893.5
410.238	920.5
410.461	901.5
410.685	899.5
410.908	892.5
411.132	848.5
411.355	844.5
411.578	831.5
411.802	833.5
412.025	857.5
412.249	861.5
412.472	836.5
412.695	817.5
412.919	814.5
413.142	811.5
413.365	801.5
413.589	815.5
413.812	816.5
414.035	793.5
414.258	790.5
414.482	832.5
414.705	818.5
414.928	838.5
415.151	819.5
415.374	822.5
415.597	818.5
415.821	775.5
416.044	793.5
416.267	799.5
416.49	772.5
416.713	776.5
416.936	771.5
417.159	765.5
417.382	820.5
417.605	795.5
417.828	808.5
418.051	816.5
418.274	818.5
418.497	810.5
418.72	828.5
418.943	840.5
419.166	881.5
419.389	928.5
419.611	897.5
419.834	871.5
420.057	838.5
420.28	818.5
420.503	803.5
420.726	799.5
420.948	811.5
421.171	807.5
421.394	797.5
421.617	802.5
421.839	790.5
422.062	829.5
422.285	807.5
422.507	822.5
422.73	817.5
422.953	811.5
423.175	862.5
423.398	873.5
423.621	856.5
423.843	901.5
424.066	891.5
424.288	862.5
424.511	887.5
424.733	853.5
424.956	860.5
425.178	803.5
425.401	804.5
425.623	818.5
425.846	781.5
426.068	781.5
426.291	754.5
426.513	766.5
426.735	737.5
426.958	727.5
427.18	720.5
427.402	727.5
427.625	738.5
427.847	717.5
428.069	731.5
428.292	699.5
428.514	712.5
428.736	719.5
428.958	708.5
429.181	687.5
429.403	715.5
429.625	715.5
429.847	684.5
430.069	693.5
430.292	697.5
430.514	716.5
430.736	725.5
430.958	705.5
431.18	715.5
431.402	702.5
431.624	708.5
431.846	719.5
432.068	722.5
432.29	757.5
432.512	701.5
432.734	720.5
432.956	713.5
433.178	736.5
433.4	719.5
433.622	713.5
433.844	722.5
434.066	722.5
434.287	740.5
434.509	777.5
434.731	795.5
434.953	831.5
435.175	832.5
435.397	800.5
435.618	750.5
435.84	738.5
436.062	736.5
436.284	741.5
436.505	704.5
436.727	725.5
436.949	731.5
437.17	709.5
437.392	723.5
437.614	717.5
437.835	685.5
438.057	692.5
438.278	702.5
438.5	699.5
438.721	671.5
438.943	700.5
439.165	696.5
439.386	717.5
439.608	675.5
439.829	730.5
440.05	750.5
440.272	726.5
440.493	737.5
440.715	733.5
440.936	752.5
441.158	789.5
441.379	769.5
441.6	836.5
441.822	845.5
442.043	813.5
442.264	792.5
442.486	796.5
442.707	814.5
442.928	818.5
443.149	831.5
443.371	797.5
443.592	817.5
443.813	832.5
444.034	836.5
444.255	851.5
444.476	901.5
444.698	980.5
444.919	1000.5
445.14	1067.5
445.361	925.5
445.582	854.5
445.803	777.5
446.024	791.5
446.245	782.5
446.466	748.5
446.687	747.5
446.908	741.5
447.129	698.5
447.35	713.5
447.571	704.5
447.792	691.5
448.013	682.5
448.234	692.5
448.455	690.5
448.675	657.5
448.896	686.5
449.117	656.5
449.338	663.5
449.559	673.5
449.779	668.5
450	671.5
450.221	650.5
450.442	673.5
450.662	672.5
450.883	674.5
451.104	699.5
451.324	693.5
451.545	688.5
451.766	699.5
451.986	667.5
452.207	665.5
452.428	673.5
452.648	649.5
452.869	646.5
453.089	664.5
453.31	641.5
453.53	656.5
453.751	655.5
453.971	645.5
454.192	650.5
454.412	645.5
454.633	633.5
454.853	633.5
455.073	647.5
455.294	652.5
455.514	631.5
455.734	624.5
455.955	598.5
456.175	639.5
456.395	625.5
456.616	624.5
456.836	616.5
457.056	648.5
457.276	597.5
457.497	625.5
457.717	616.5
457.937	619.5
458.157	626.5
458.377	653.5
458.598	636.5
458.818	663.5
459.038	654.5
459.258	713.5
459.478	752.5
459.698	743.5
459.918	763.5
460.138	773.5
460.358	869.5
460.578	864.5
460.798	880.5
461.018	887.5
461.238	854.5
461.458	860.5
461.678	847.5
461.898	859.5
462.118	845.5
462.338	935.5
462.558	952.5
462.777	994.5
462.997	1064.5
463.217	1203.5
463.437	1199.5
463.657	1093.5
463.876	985.5
464.096	1010.5
464.316	1035.5
464.536	1038.5
464.755	959.5
464.975	958.5
465.195	905.5
465.414	849.5
465.634	788.5
465.854	753.5
466.073	754.5
466.293	725.5
466.512	718.5
466.732	715.5
466.951	713.5
467.171	685.5
467.391	695.5
467.61	712.5
467.829	713.5
468.049	697.5
468.268	693.5
468.488	652.5
468.707	651.5
468.927	664.5
469.146	673.5
469.365	676.5
469.585	692.5
469.804	696.5
470.023	719.5
470.243	725.5
470.462	740.5
470.681	750.5
470.901	721.5
471.12	691.5
471.339	681.5
471.558	685.5
471.777	693.5
471.997	660.5
472.216	653.5
472.435	672.5
472.654	626.5
472.873	652.5
473.092	647.5
473.311	651.5
473.53	648.5
473.749	653.5
473.968	657.5
474.187	659.5
474.406	658.5
474.625	673.5
474.844	632.5
475.063	665.5
475.282	648.5
475.501	647.5
475.72	661.5
475.939	680.5
476.158	665.5
476.377	659.5
476.596	666.5
476.814	698.5
477.033	708.5
477.252	689.5
477.471	710.5
477.69	719.5
477.908	725.5
478.127	758.5
478.346	773.5
478.564	785.5
478.783	787.5
479.002	788.5
479.22	834.5
479.439	825.5
479.658	811.5
479.876	814.5
480.095	828.5
480.313	870.5
480.532	887.5
480.751	873.5
480.969	813.5
481.188	786.5
481.406	758.5
481.624	743.5
481.843	734.5
482.061	725.5
482.28	727.5
482.498	711.5
482.717	708.5
482.935	737.5
483.153	742.5
483.372	741.5
483.59	744.5
483.808	736.5
484.027	707.5
484.245	742.5
484.463	710.5
484.681	743.5
484.9	765.5
485.118	753.5
485.336	750.5
485.554	761.5
485.772	769.5
485.99	773.5
486.209	800.5
486.427	768.5
486.645	783.5
486.863	776.5
487.081	799.5
487.299	749.5
487.517	761.5
487.735	769.5
487.953	792.5
488.171	772.5
488.389	770.5
488.607	753.5
488.825	744.5
489.043	767.5
489.261	760.5
489.479	745.5
489.696	767.5
489.914	782.5
490.132	784.5
490.35	781.5
490.568	745.5
490.786	785.5
491.003	812.5
491.221	785.5
491.439	776.5
491.657	799.5
491.874	796.5
492.092	765.5
492.31	827.5
492.527	789.5
492.745	789.5
492.963	832.5
493.18	782.5
493.398	805.5
493.615	787.5
493.833	819.5
494.05	796.5
494.268	819.5
494.485	835.5
494.703	848.5
494.92	789.5
495.138	830.5
495.355	819.5
495.573	824.5
495.79	835.5
496.008	817.5
496.225	813.5
496.442	843.5
496.66	844.5
496.877	846.5
497.094	851.5
497.312	909.5
497.529	900.5
497.746	917.5
497.963	941.5
498.181	972.5
498.398	1003.5
498.615	1083.5
498.832	1164.5
499.049	1228.5
499.267	1357.5
499.484	1508.5
499.701	1703.5
499.918	1834.5
500.135	2197.5
500.352	2534.5
500.569	2730.5
500.786	2649.5
501.003	2439.5
501.22	2097.5
501.437	1875.5
501.654	1569.5
501.871	1420.5
502.088	1298.5
502.305	1226.5
502.522	1156.5
502.739	1111.5
502.956	1039.5
503.172	1005.5
503.389	953.5
503.606	912.5
503.823	932.5
504.04	925.5
504.256	917.5
504.473	953.5
504.69	993.5
504.907	993.5
505.123	914.5
505.34	887.5
505.557	808.5
505.773	805.5
505.99	790.5
506.207	767.5
506.423	761.5
506.64	739.5
506.856	728.5
507.073	744.5
507.289	729.5
507.506	743.5
507.722	733.5
507.939	715.5
508.155	699.5
508.372	692.5
508.588	684.5
508.805	692.5
509.021	684.5
509.238	675.5
509.454	671.5
509.67	667.5
509.887	664.5
510.103	653.5
510.319	678.5
510.536	643.5
510.752	669.5
510.968	670.5
511.184	673.5
511.401	661.5
511.617	670.5
511.833	659.5
512.049	678.5
512.265	637.5
512.481	664.5
512.698	662.5
512.914	639.5
513.13	672.5
513.346	662.5
513.562	666.5
513.778	671.5
513.994	658.5
514.21	642.5
514.426	679.5
514.642	662.5
514.858	677.5
515.074	688.5
515.29	694.5
515.506	678.5
515.721	700.5
515.937	712.5
516.153	738.5
516.369	731.5
516.585	747.5
516.801	798.5
517.016	819.5
517.232	837.5
517.448	942.5
517.664	957.5
517.879	962.5
518.095	968.5
518.311	927.5
518.527	860.5
518.742	853.5
518.958	807.5
