Data from Ni(NO3)2@0.5M.TitratingCurve.Agarose3%dH2O.NegLispCup.LampEnergy10.LIBS07252019_HRD10591_17-58-14-564.txt Node
Date: Thu Jul 25 17:58:14 EDT 2019
User: cochatt
Spectrometer: HR+D1059
Trigger mode: 1
Integration Time (sec): 1.000000E-1
Scans to average: 1
Electric dark correction enabled: true
Nonlinearity correction enabled: false
Boxcar width: 0
XAxis mode: Wavelengths
Number of Pixels in Spectrum: 2048
>>>>>Begin Spectral Data<<<<<
223.165	-18.31
223.4	-18.31
223.635	-18.31
223.869	-19.31
224.104	-13.31
224.338	2.69
224.573	-14.31
224.808	-21.31
225.042	-3.31
225.277	-10.31
225.511	3.69
225.746	1.69
225.98	-12.31
226.215	12.69
226.449	29.69
226.683	12.69
226.918	28.69
227.152	20.69
227.387	27.69
227.621	22.69
227.856	50.69
228.09	52.69
228.324	56.69
228.559	64.69
228.793	77.69
229.027	132.69
229.262	156.69
229.496	150.69
229.73	143.69
229.964	181.69
230.199	178.69
230.433	204.69
230.667	201.69
230.901	165.69
231.136	163.69
231.37	155.69
231.604	190.69
231.838	214.69
232.072	193.69
232.306	194.69
232.541	198.69
232.775	172.69
233.009	157.69
233.243	162.69
233.477	172.69
233.711	173.69
233.945	172.69
234.179	176.69
234.413	179.69
234.647	177.69
234.881	173.69
235.115	184.69
235.349	168.69
235.583	154.69
235.817	157.69
236.051	169.69
236.285	172.69
236.519	174.69
236.753	178.69
236.987	160.69
237.221	184.69
237.455	185.69
237.689	185.69
237.922	187.69
238.156	183.69
238.39	188.69
238.624	165.69
238.858	197.69
239.091	185.69
239.325	198.69
239.559	218.69
239.793	235.69
240.027	220.69
240.26	193.69
240.494	200.69
240.728	210.69
240.961	213.69
241.195	190.69
241.429	192.69
241.662	224.69
241.896	259.69
242.13	247.69
242.363	233.69
242.597	219.69
242.83	209.69
243.064	220.69
243.298	240.69
243.531	240.69
243.765	232.69
243.998	258.69
244.232	246.69
244.465	226.69
244.699	235.69
244.932	253.69
245.166	251.69
245.399	238.69
245.633	245.69
245.866	248.69
246.099	250.69
246.333	250.69
246.566	248.69
246.8	265.69
247.033	233.69
247.266	259.69
247.5	266.69
247.733	264.69
247.966	263.69
248.2	266.69
248.433	277.69
248.666	277.69
248.899	279.69
249.133	286.69
249.366	314.69
249.599	288.69
249.832	290.69
250.066	298.69
250.299	309.69
250.532	306.69
250.765	308.69
250.998	313.69
251.231	328.69
251.465	356.69
251.698	338.69
251.931	341.69
252.164	320.69
252.397	333.69
252.63	326.69
252.863	326.69
253.096	345.69
253.329	337.69
253.562	332.69
253.795	332.69
254.028	349.69
254.261	358.69
254.494	354.69
254.727	360.69
254.96	351.69
255.193	359.69
255.426	391.69
255.659	363.69
255.892	384.69
256.124	378.69
256.357	350.69
256.59	376.69
256.823	378.69
257.056	389.69
257.289	393.69
257.521	395.69
257.754	404.69
257.987	396.69
258.22	392.69
258.452	398.69
258.685	403.69
258.918	402.69
259.151	405.69
259.383	405.69
259.616	407.69
259.849	395.69
260.081	413.69
260.314	419.69
260.547	404.69
260.779	440.69
261.012	431.69
261.244	434.69
261.477	445.69
261.71	451.69
261.942	425.69
262.175	427.69
262.407	439.69
262.64	436.69
262.872	465.69
263.105	450.69
263.337	470.69
263.57	457.69
263.802	461.69
264.035	465.69
264.267	465.69
264.499	465.69
264.732	452.69
264.964	467.69
265.197	472.69
265.429	486.69
265.661	471.69
265.894	504.69
266.126	496.69
266.358	470.69
266.591	489.69
266.823	457.69
267.055	499.69
267.287	486.69
267.52	504.69
267.752	492.69
267.984	496.69
268.216	491.69
268.448	503.69
268.681	497.69
268.913	494.69
269.145	507.69
269.377	494.69
269.609	500.69
269.841	497.69
270.073	512.69
270.306	507.69
270.538	516.69
270.77	519.69
271.002	496.69
271.234	519.69
271.466	521.69
271.698	516.69
271.93	526.69
272.162	513.69
272.394	543.69
272.626	534.69
272.858	536.69
273.09	556.69
273.322	562.69
273.553	552.69
273.785	553.69
274.017	568.69
274.249	561.69
274.481	559.69
274.713	548.69
274.945	553.69
275.176	545.69
275.408	585.69
275.64	593.69
275.872	569.69
276.104	563.69
276.335	564.69
276.567	564.69
276.799	575.69
277.031	578.69
277.262	579.69
277.494	588.69
277.726	593.69
277.957	595.69
278.189	553.69
278.421	564.69
278.652	581.69
278.884	589.69
279.115	596.69
279.347	608.69
279.579	597.69
279.81	618.69
280.042	593.69
280.273	603.69
280.505	601.69
280.736	618.69
280.968	605.69
281.199	594.69
281.431	605.69
281.662	609.69
281.894	619.69
282.125	617.69
282.356	620.69
282.588	615.69
282.819	626.69
283.051	640.69
283.282	628.69
283.513	620.69
283.745	632.69
283.976	620.69
284.207	633.69
284.439	628.69
284.67	635.69
284.901	642.69
285.132	634.69
285.364	644.69
285.595	620.69
285.826	644.69
286.057	638.69
286.288	650.69
286.52	653.69
286.751	664.69
286.982	670.69
287.213	656.69
287.444	647.69
287.675	666.69
287.906	669.69
288.138	674.69
288.369	664.69
288.6	668.69
288.831	682.69
289.062	670.69
289.293	676.69
289.524	668.69
289.755	683.69
289.986	668.69
290.217	653.69
290.448	692.69
290.679	664.69
290.91	677.69
291.141	683.69
291.371	695.69
291.602	699.69
291.833	689.69
292.064	681.69
292.295	696.69
292.526	685.69
292.757	686.69
292.987	677.69
293.218	678.69
293.449	717.69
293.68	680.69
293.91	683.69
294.141	673.69
294.372	685.69
294.603	688.69
294.833	705.69
295.064	686.69
295.295	694.69
295.525	680.69
295.756	688.69
295.987	668.69
296.217	693.69
296.448	694.69
296.679	698.69
296.909	696.69
297.14	724.69
297.37	732.69
297.601	718.69
297.831	710.69
298.062	723.69
298.292	736.69
298.523	716.69
298.753	742.69
298.984	730.69
299.214	734.69
299.445	741.69
299.675	718.69
299.905	753.69
300.136	761.69
300.366	776.69
300.597	791.69
300.827	766.69
301.057	774.69
301.288	803.69
301.518	747.69
301.748	750.69
301.979	778.69
302.209	783.69
302.439	777.69
302.669	786.69
302.9	777.69
303.13	753.69
303.36	772.69
303.59	776.69
303.82	792.69
304.051	776.69
304.281	799.69
304.511	773.69
304.741	780.69
304.971	809.69
305.201	824.69
305.431	833.69
305.661	803.69
305.891	829.69
306.121	779.69
306.352	788.69
306.582	789.69
306.812	777.69
307.042	782.69
307.272	800.69
307.502	795.69
307.731	803.69
307.961	800.69
308.191	779.69
308.421	802.69
308.651	805.69
308.881	802.69
309.111	818.69
309.341	793.69
309.571	806.69
309.8	856.69
310.03	827.69
310.26	877.69
310.49	838.69
310.72	849.69
310.949	854.69
311.179	821.69
311.409	834.69
311.639	864.69
311.868	838.69
312.098	854.69
312.328	872.69
312.557	884.69
312.787	856.69
313.017	872.69
313.246	894.69
313.476	871.69
313.706	892.69
313.935	894.69
314.165	897.69
314.394	865.69
314.624	873.69
314.853	892.69
315.083	892.69
315.312	901.69
315.542	900.69
315.771	908.69
316.001	892.69
316.23	884.69
316.46	910.69
316.689	907.69
316.919	922.69
317.148	919.69
317.377	920.69
317.607	918.69
317.836	939.69
318.065	936.69
318.295	919.69
318.524	963.69
318.753	928.69
318.983	925.69
319.212	936.69
319.441	964.69
319.67	949.69
319.9	970.69
320.129	946.69
320.358	943.69
320.587	969.69
320.816	957.69
321.046	981.69
321.275	976.69
321.504	972.69
321.733	990.69
321.962	1005.69
322.191	1020.69
322.42	1005.69
322.649	1004.69
322.878	1020.69
323.108	1010.69
323.337	1011.69
323.566	1034.69
323.795	1025.69
324.024	1010.69
324.253	1026.69
324.482	1009.69
324.71	1004.69
324.939	1069.69
325.168	1020.69
325.397	1038.69
325.626	1032.69
325.855	1042.69
326.084	1036.69
326.313	1064.69
326.542	1035.69
326.77	1065.69
326.999	1069.69
327.228	1047.69
327.457	1060.69
327.686	1056.69
327.914	1060.69
328.143	1078.69
328.372	1073.69
328.6	1040.69
328.829	1063.69
329.058	1069.69
329.287	1095.69
329.515	1098.69
329.744	1105.69
329.972	1101.69
330.201	1100.69
330.43	1110.69
330.658	1116.69
330.887	1122.69
331.115	1093.69
331.344	1152.69
331.572	1122.69
331.801	1140.69
332.03	1120.69
332.258	1117.69
332.486	1128.69
332.715	1122.69
332.943	1117.69
333.172	1155.69
333.4	1138.69
333.629	1191.69
333.857	1176.69
334.085	1184.69
334.314	1194.69
334.542	1182.69
334.771	1200.69
334.999	1218.69
335.227	1201.69
335.455	1217.69
335.684	1244.69
335.912	1251.69
336.14	1212.69
336.369	1219.69
336.597	1226.69
336.825	1228.69
337.053	1242.69
337.281	1236.69
337.51	1183.69
337.738	1204.69
337.966	1227.69
338.194	1238.69
338.422	1225.69
338.65	1182.69
338.878	1186.69
339.106	1194.69
339.334	1219.69
339.562	1189.69
339.79	1155.69
340.018	1191.69
340.246	1184.69
340.474	1192.69
340.702	1171.69
340.93	1205.69
341.158	1180.69
341.386	1207.69
341.614	1256.69
341.842	1229.69
342.07	1166.69
342.298	1208.69
342.526	1204.69
342.754	1178.69
342.981	1168.69
343.209	1180.69
343.437	1239.69
343.665	1217.69
343.893	1228.69
344.12	1215.69
344.348	1244.69
344.576	1231.69
344.804	1209.69
345.031	1207.69
345.259	1216.69
345.487	1206.69
345.714	1216.69
345.942	1220.69
346.17	1244.69
346.397	1202.69
346.625	1175.69
346.853	1159.69
347.08	1157.69
347.308	1165.69
347.535	1166.69
347.763	1156.69
347.99	1175.69
348.218	1125.69
348.445	1123.69
348.673	1166.69
348.9	1160.69
349.128	1187.69
349.355	1181.69
349.583	1197.69
349.81	1154.69
350.037	1147.69
350.265	1159.69
350.492	1152.69
350.72	1151.69
350.947	1164.69
351.174	1189.69
351.402	1166.69
351.629	1192.69
351.856	1207.69
352.083	1185.69
352.311	1191.69
352.538	1197.69
352.765	1193.69
352.992	1120.69
353.22	1105.69
353.447	1096.69
353.674	1129.69
353.901	1115.69
354.128	1108.69
354.355	1125.69
354.583	1147.69
354.81	1145.69
355.037	1125.69
355.264	1144.69
355.491	1097.69
355.718	1124.69
355.945	1124.69
356.172	1117.69
356.399	1100.69
356.626	1209.69
356.853	1180.69
357.08	1129.69
357.307	1140.69
357.534	1148.69
357.761	1138.69
357.988	1124.69
358.215	1148.69
358.441	1103.69
358.668	1112.69
358.895	1093.69
359.122	1117.69
359.349	1148.69
359.576	1110.69
359.802	1116.69
360.029	1125.69
360.256	1148.69
360.483	1144.69
360.709	1116.69
360.936	1137.69
361.163	1156.69
361.39	1156.69
361.616	1178.69
361.843	1193.69
362.07	1200.69
362.296	1176.69
362.523	1138.69
362.749	1153.69
362.976	1117.69
363.203	1150.69
363.429	1135.69
363.656	1133.69
363.882	1133.69
364.109	1148.69
364.335	1130.69
364.562	1156.69
364.788	1164.69
365.015	1133.69
365.241	1141.69
365.468	1121.69
365.694	1158.69
365.92	1160.69
366.147	1170.69
366.373	1150.69
366.599	1147.69
366.826	1132.69
367.052	1121.69
367.278	1174.69
367.505	1144.69
367.731	1180.69
367.957	1167.69
368.184	1158.69
368.41	1150.69
368.636	1142.69
368.862	1166.69
369.089	1160.69
369.315	1167.69
369.541	1160.69
369.767	1203.69
369.993	1186.69
370.219	1138.69
370.445	1155.69
370.672	1169.69
370.898	1190.69
371.124	1175.69
371.35	1171.69
371.576	1213.69
371.802	1190.69
372.028	1190.69
372.254	1206.69
372.48	1200.69
372.706	1193.69
372.932	1232.69
373.158	1203.69
373.384	1210.69
373.61	1188.69
373.835	1185.69
374.061	1172.69
374.287	1196.69
374.513	1167.69
374.739	1196.69
374.965	1196.69
375.191	1213.69
375.416	1220.69
375.642	1225.69
375.868	1201.69
376.094	1192.69
376.319	1164.69
376.545	1159.69
376.771	1170.69
376.997	1167.69
377.222	1171.69
377.448	1177.69
377.674	1162.69
377.899	1195.69
378.125	1174.69
378.35	1182.69
378.576	1171.69
378.802	1164.69
379.027	1156.69
379.253	1158.69
379.478	1178.69
379.704	1165.69
379.929	1173.69
380.155	1117.69
380.38	1136.69
380.606	1138.69
380.831	1190.69
381.057	1181.69
381.282	1108.69
381.507	1170.69
381.733	1158.69
381.958	1174.69
382.184	1179.69
382.409	1175.69
382.634	1166.69
382.86	1165.69
383.085	1166.69
383.31	1176.69
383.535	1182.69
383.761	1230.69
383.986	1196.69
384.211	1171.69
384.436	1229.69
384.662	1210.69
384.887	1236.69
385.112	1227.69
385.337	1231.69
385.562	1223.69
385.787	1219.69
386.013	1266.69
386.238	1268.69
386.463	1246.69
386.688	1280.69
386.913	1258.69
387.138	1260.69
387.363	1273.69
387.588	1245.69
387.813	1272.69
388.038	1274.69
388.263	1274.69
388.488	1310.69
388.713	1271.69
388.938	1256.69
389.163	1204.69
389.387	1275.69
389.612	1278.69
389.837	1260.69
390.062	1280.69
390.287	1264.69
390.512	1276.69
390.736	1258.69
390.961	1290.69
391.186	1270.69
391.411	1266.69
391.636	1293.69
391.86	1308.69
392.085	1298.69
392.31	1334.69
392.534	1270.69
392.759	1310.69
392.984	1334.69
393.208	1343.69
393.433	1346.69
393.658	1322.69
393.882	1283.69
394.107	1303.69
394.331	1310.69
394.556	1308.69
394.78	1343.69
395.005	1282.69
395.229	1305.69
395.454	1336.69
395.678	1330.69
395.903	1288.69
396.127	1317.69
396.352	1284.69
396.576	1347.69
396.801	1293.69
397.025	1337.69
397.249	1331.69
397.474	1377.69
397.698	1339.69
397.922	1362.69
398.147	1388.69
398.371	1368.69
398.595	1386.69
398.82	1414.69
399.044	1436.69
399.268	1442.69
399.492	1458.69
399.717	1480.69
399.941	1539.69
400.165	1553.69
400.389	1505.69
400.613	1470.69
400.837	1432.69
401.062	1456.69
401.286	1432.69
401.51	1453.69
401.734	1447.69
401.958	1445.69
402.182	1414.69
402.406	1418.69
402.63	1395.69
402.854	1406.69
403.078	1427.69
403.302	1459.69
403.526	1426.69
403.75	1365.69
403.974	1435.69
404.198	1464.69
404.422	1425.69
404.645	1391.69
404.869	1441.69
405.093	1428.69
405.317	1421.69
405.541	1464.69
405.765	1443.69
405.988	1468.69
406.212	1486.69
406.436	1479.69
406.66	1491.69
406.883	1471.69
407.107	1490.69
407.331	1505.69
407.555	1546.69
407.778	1564.69
408.002	1557.69
408.226	1538.69
408.449	1555.69
408.673	1552.69
408.896	1543.69
409.12	1507.69
409.344	1523.69
409.567	1483.69
409.791	1482.69
410.014	1480.69
410.238	1478.69
410.461	1486.69
410.685	1466.69
410.908	1485.69
411.132	1453.69
411.355	1459.69
411.578	1475.69
411.802	1458.69
412.025	1445.69
412.249	1448.69
412.472	1451.69
412.695	1450.69
412.919	1422.69
413.142	1442.69
413.365	1452.69
413.589	1432.69
413.812	1430.69
414.035	1440.69
414.258	1457.69
414.482	1442.69
414.705	1413.69
414.928	1408.69
415.151	1397.69
415.374	1394.69
415.597	1431.69
415.821	1394.69
416.044	1405.69
416.267	1412.69
416.49	1365.69
416.713	1375.69
416.936	1393.69
417.159	1397.69
417.382	1414.69
417.605	1376.69
417.828	1373.69
418.051	1402.69
418.274	1373.69
418.497	1342.69
418.72	1400.69
418.943	1342.69
419.166	1414.69
419.389	1523.69
419.611	1435.69
419.834	1428.69
420.057	1393.69
420.28	1377.69
420.503	1344.69
420.726	1367.69
420.948	1342.69
421.171	1348.69
421.394	1386.69
421.617	1357.69
421.839	1388.69
422.062	1408.69
422.285	1354.69
422.507	1369.69
422.73	1307.69
422.953	1355.69
423.175	1385.69
423.398	1383.69
423.621	1362.69
423.843	1396.69
424.066	1337.69
424.288	1400.69
424.511	1368.69
424.733	1389.69
424.956	1368.69
425.178	1364.69
425.401	1336.69
425.623	1397.69
425.846	1355.69
426.068	1357.69
426.291	1333.69
426.513	1401.69
426.735	1377.69
426.958	1383.69
427.18	1356.69
427.402	1358.69
427.625	1353.69
427.847	1362.69
428.069	1341.69
428.292	1344.69
428.514	1350.69
428.736	1342.69
428.958	1376.69
429.181	1365.69
429.403	1348.69
429.625	1347.69
429.847	1315.69
430.069	1328.69
430.292	1351.69
430.514	1361.69
430.736	1389.69
430.958	1347.69
431.18	1352.69
431.402	1367.69
431.624	1319.69
431.846	1342.69
432.068	1342.69
432.29	1344.69
432.512	1364.69
432.734	1350.69
432.956	1343.69
433.178	1355.69
433.4	1422.69
433.622	1411.69
433.844	1385.69
434.066	1411.69
434.287	1370.69
434.509	1372.69
434.731	1386.69
434.953	1410.69
435.175	1416.69
435.397	1415.69
435.618	1393.69
435.84	1353.69
436.062	1348.69
436.284	1358.69
436.505	1346.69
436.727	1324.69
436.949	1356.69
437.17	1399.69
437.392	1359.69
437.614	1349.69
437.835	1284.69
438.057	1338.69
438.278	1298.69
438.5	1332.69
438.721	1317.69
438.943	1336.69
439.165	1324.69
439.386	1336.69
439.608	1349.69
439.829	1359.69
440.05	1298.69
440.272	1360.69
440.493	1369.69
440.715	1378.69
440.936	1378.69
441.158	1358.69
441.379	1344.69
441.6	1399.69
441.822	1395.69
442.043	1364.69
442.264	1402.69
442.486	1356.69
442.707	1363.69
442.928	1397.69
443.149	1404.69
443.371	1399.69
443.592	1484.69
443.813	1454.69
444.034	1438.69
444.255	1396.69
444.476	1415.69
444.698	1413.69
444.919	1420.69
445.14	1513.69
445.361	1477.69
445.582	1439.69
445.803	1394.69
446.024	1356.69
446.245	1373.69
446.466	1337.69
446.687	1337.69
446.908	1348.69
447.129	1300.69
447.35	1312.69
447.571	1286.69
447.792	1285.69
448.013	1283.69
448.234	1275.69
448.455	1291.69
448.675	1235.69
448.896	1233.69
449.117	1275.69
449.338	1253.69
449.559	1237.69
449.779	1241.69
450	1215.69
450.221	1239.69
450.442	1255.69
450.662	1242.69
450.883	1275.69
451.104	1298.69
451.324	1265.69
451.545	1223.69
451.766	1280.69
451.986	1252.69
452.207	1245.69
452.428	1228.69
452.648	1284.69
452.869	1214.69
453.089	1255.69
453.31	1282.69
453.53	1234.69
453.751	1218.69
453.971	1219.69
454.192	1274.69
454.412	1259.69
454.633	1234.69
454.853	1224.69
455.073	1228.69
455.294	1225.69
455.514	1222.69
455.734	1265.69
455.955	1236.69
456.175	1257.69
456.395	1216.69
456.616	1204.69
456.836	1238.69
457.056	1221.69
457.276	1203.69
457.497	1235.69
457.717	1247.69
457.937	1227.69
458.157	1249.69
458.377	1284.69
458.598	1274.69
458.818	1243.69
459.038	1255.69
459.258	1306.69
459.478	1356.69
459.698	1397.69
459.918	1416.69
460.138	1381.69
460.358	1393.69
460.578	1430.69
460.798	1415.69
461.018	1424.69
461.238	1428.69
461.458	1385.69
461.678	1366.69
461.898	1400.69
462.118	1376.69
462.338	1422.69
462.558	1430.69
462.777	1485.69
462.997	1500.69
463.217	1511.69
463.437	1572.69
463.657	1509.69
463.876	1459.69
464.096	1498.69
464.316	1453.69
464.536	1439.69
464.755	1465.69
464.975	1407.69
465.195	1348.69
465.414	1399.69
465.634	1369.69
465.854	1333.69
466.073	1328.69
466.293	1305.69
466.512	1348.69
466.732	1330.69
466.951	1344.69
467.171	1315.69
467.391	1328.69
467.61	1300.69
467.829	1283.69
468.049	1317.69
468.268	1293.69
468.488	1296.69
468.707	1300.69
468.927	1290.69
469.146	1308.69
469.365	1315.69
469.585	1313.69
469.804	1325.69
470.023	1339.69
470.243	1300.69
470.462	1317.69
470.681	1315.69
470.901	1312.69
471.12	1288.69
471.339	1305.69
471.558	1308.69
471.777	1324.69
471.997	1355.69
472.216	1327.69
472.435	1314.69
472.654	1330.69
472.873	1334.69
473.092	1341.69
473.311	1315.69
473.53	1314.69
473.749	1338.69
473.968	1326.69
474.187	1337.69
474.406	1361.69
474.625	1338.69
474.844	1344.69
475.063	1371.69
475.282	1413.69
475.501	1394.69
475.72	1376.69
475.939	1385.69
476.158	1367.69
476.377	1426.69
476.596	1424.69
476.814	1407.69
477.033	1398.69
477.252	1430.69
477.471	1423.69
477.69	1437.69
477.908	1471.69
478.127	1456.69
478.346	1513.69
478.564	1477.69
478.783	1499.69
479.002	1541.69
479.22	1601.69
479.439	1543.69
479.658	1556.69
479.876	1544.69
480.095	1550.69
480.313	1535.69
480.532	1593.69
480.751	1570.69
480.969	1584.69
481.188	1533.69
481.406	1594.69
481.624	1579.69
481.843	1589.69
482.061	1558.69
482.28	1571.69
482.498	1604.69
482.717	1604.69
482.935	1600.69
483.153	1580.69
483.372	1643.69
483.59	1652.69
483.808	1644.69
484.027	1598.69
484.245	1608.69
484.463	1606.69
484.681	1603.69
484.9	1605.69
485.118	1596.69
485.336	1570.69
485.554	1624.69
485.772	1574.69
485.99	1591.69
486.209	1628.69
486.427	1595.69
486.645	1616.69
486.863	1630.69
487.081	1614.69
487.299	1649.69
487.517	1654.69
487.735	1675.69
487.953	1705.69
488.171	1666.69
488.389	1676.69
488.607	1649.69
488.825	1609.69
489.043	1626.69
489.261	1612.69
489.479	1576.69
489.696	1601.69
489.914	1613.69
490.132	1619.69
490.35	1669.69
490.568	1659.69
490.786	1690.69
491.003	1656.69
491.221	1656.69
