Data from Ni(NO3)2Standard.Agarose3%.GreenCap.LampEnergy5.5.E.O_HRD10591_14-43-01-188.txt Node
Date: Mon Jul 22 14:43:01 EDT 2019
User: cochatt
Spectrometer: HR+D1059
Trigger mode: 1
Integration Time (sec): 1.000000E-1
Scans to average: 1
Electric dark correction enabled: true
Nonlinearity correction enabled: false
Boxcar width: 0
XAxis mode: Wavelengths
Number of Pixels in Spectrum: 2048
>>>>>Begin Spectral Data<<<<<
223.165	-18.62
223.4	-18.62
223.635	-18.62
223.869	-6.62
224.104	-9.62
224.338	-4.62
224.573	-12.62
224.808	-21.62
225.042	-10.62
225.277	2.38
225.511	-0.62
225.746	-2.62
225.98	7.38
226.215	13.38
226.449	19.38
226.683	13.38
226.918	14.38
227.152	17.38
227.387	30.38
227.621	40.38
227.856	50.38
228.09	51.38
228.324	42.38
228.559	45.38
228.793	65.38
229.027	58.38
229.262	69.38
229.496	76.38
229.73	73.38
229.964	78.38
230.199	80.38
230.433	79.38
230.667	83.38
230.901	85.38
231.136	87.38
231.37	87.38
231.604	82.38
231.838	75.38
232.072	90.38
232.306	90.38
232.541	97.38
232.775	82.38
233.009	89.38
233.243	70.38
233.477	78.38
233.711	79.38
233.945	83.38
234.179	75.38
234.413	87.38
234.647	84.38
234.881	90.38
235.115	94.38
235.349	83.38
235.583	61.38
235.817	58.38
236.051	81.38
236.285	79.38
236.519	89.38
236.753	84.38
236.987	74.38
237.221	79.38
237.455	80.38
237.689	86.38
237.922	69.38
238.156	85.38
238.39	65.38
238.624	90.38
238.858	77.38
239.091	83.38
239.325	78.38
239.559	77.38
239.793	79.38
240.027	84.38
240.26	75.38
240.494	77.38
240.728	91.38
240.961	78.38
241.195	65.38
241.429	74.38
241.662	81.38
241.896	62.38
242.13	73.38
242.363	78.38
242.597	78.38
242.83	85.38
243.064	71.38
243.298	79.38
243.531	86.38
243.765	76.38
243.998	71.38
244.232	83.38
244.465	80.38
244.699	71.38
244.932	73.38
245.166	76.38
245.399	86.38
245.633	79.38
245.866	79.38
246.099	87.38
246.333	81.38
246.566	79.38
246.8	69.38
247.033	66.38
247.266	79.38
247.5	74.38
247.733	81.38
247.966	69.38
248.2	69.38
248.433	68.38
248.666	71.38
248.899	91.38
249.133	75.38
249.366	97.38
249.599	77.38
249.832	68.38
250.066	79.38
250.299	73.38
250.532	73.38
250.765	86.38
250.998	73.38
251.231	69.38
251.465	85.38
251.698	86.38
251.931	74.38
252.164	77.38
252.397	70.38
252.63	90.38
252.863	77.38
253.096	72.38
253.329	71.38
253.562	69.38
253.795	77.38
254.028	81.38
254.261	72.38
254.494	82.38
254.727	93.38
254.96	94.38
255.193	78.38
255.426	82.38
255.659	64.38
255.892	85.38
256.124	88.38
256.357	84.38
256.59	74.38
256.823	79.38
257.056	86.38
257.289	81.38
257.521	76.38
257.754	91.38
257.987	83.38
258.22	77.38
258.452	87.38
258.685	96.38
258.918	90.38
259.151	66.38
259.383	76.38
259.616	81.38
259.849	64.38
260.081	83.38
260.314	98.38
260.547	82.38
260.779	78.38
261.012	81.38
261.244	79.38
261.477	85.38
261.71	85.38
261.942	82.38
262.175	76.38
262.407	64.38
262.64	87.38
262.872	83.38
263.105	71.38
263.337	78.38
263.57	77.38
263.802	91.38
264.035	79.38
264.267	79.38
264.499	90.38
264.732	95.38
264.964	71.38
265.197	90.38
265.429	79.38
265.661	74.38
265.894	68.38
266.126	81.38
266.358	94.38
266.591	78.38
266.823	81.38
267.055	78.38
267.287	85.38
267.52	86.38
267.752	87.38
267.984	70.38
268.216	85.38
268.448	86.38
268.681	82.38
268.913	70.38
269.145	88.38
269.377	84.38
269.609	89.38
269.841	82.38
270.073	76.38
270.306	79.38
270.538	83.38
270.77	97.38
271.002	103.38
271.234	78.38
271.466	71.38
271.698	78.38
271.93	86.38
272.162	93.38
272.394	79.38
272.626	78.38
272.858	90.38
273.09	83.38
273.322	94.38
273.553	70.38
273.785	93.38
274.017	77.38
274.249	88.38
274.481	86.38
274.713	80.38
274.945	78.38
275.176	82.38
275.408	77.38
275.64	83.38
275.872	76.38
276.104	94.38
276.335	92.38
276.567	83.38
276.799	77.38
277.031	89.38
277.262	64.38
277.494	75.38
277.726	68.38
277.957	85.38
278.189	89.38
278.421	96.38
278.652	86.38
278.884	82.38
279.115	89.38
279.347	80.38
279.579	94.38
279.81	76.38
280.042	88.38
280.273	82.38
280.505	83.38
280.736	93.38
280.968	87.38
281.199	87.38
281.431	83.38
281.662	80.38
281.894	86.38
282.125	97.38
282.356	77.38
282.588	81.38
282.819	87.38
283.051	94.38
283.282	85.38
283.513	85.38
283.745	84.38
283.976	85.38
284.207	90.38
284.439	86.38
284.67	87.38
284.901	83.38
285.132	81.38
285.364	87.38
285.595	90.38
285.826	71.38
286.057	90.38
286.288	98.38
286.52	77.38
286.751	86.38
286.982	88.38
287.213	103.38
287.444	87.38
287.675	88.38
287.906	88.38
288.138	84.38
288.369	93.38
288.6	85.38
288.831	75.38
289.062	95.38
289.293	87.38
289.524	93.38
289.755	88.38
289.986	85.38
290.217	80.38
290.448	71.38
290.679	82.38
290.91	84.38
291.141	82.38
291.371	82.38
291.602	97.38
291.833	94.38
292.064	89.38
292.295	94.38
292.526	93.38
292.757	76.38
292.987	86.38
293.218	83.38
293.449	102.38
293.68	91.38
293.91	92.38
294.141	87.38
294.372	90.38
294.603	82.38
294.833	91.38
295.064	88.38
295.295	85.38
295.525	88.38
295.756	90.38
295.987	83.38
296.217	84.38
296.448	78.38
296.679	92.38
296.909	97.38
297.14	67.38
297.37	96.38
297.601	83.38
297.831	90.38
298.062	80.38
298.292	87.38
298.523	59.38
298.753	78.38
298.984	87.38
299.214	81.38
299.445	84.38
299.675	95.38
299.905	85.38
300.136	78.38
300.366	84.38
300.597	89.38
300.827	85.38
301.057	80.38
301.288	85.38
301.518	85.38
301.748	82.38
301.979	84.38
302.209	83.38
302.439	74.38
302.669	89.38
302.9	105.38
303.13	100.38
303.36	83.38
303.59	81.38
303.82	92.38
304.051	87.38
304.281	83.38
304.511	77.38
304.741	77.38
304.971	64.38
305.201	95.38
305.431	83.38
305.661	71.38
305.891	78.38
306.121	84.38
306.352	84.38
306.582	80.38
306.812	80.38
307.042	83.38
307.272	90.38
307.502	87.38
307.731	79.38
307.961	94.38
308.191	89.38
308.421	71.38
308.651	93.38
308.881	83.38
309.111	90.38
309.341	90.38
309.571	84.38
309.8	89.38
310.03	76.38
310.26	79.38
310.49	78.38
310.72	109.38
310.949	87.38
311.179	81.38
311.409	101.38
311.639	92.38
311.868	87.38
312.098	84.38
312.328	90.38
312.557	80.38
312.787	83.38
313.017	83.38
313.246	98.38
313.476	95.38
313.706	83.38
313.935	92.38
314.165	78.38
314.394	87.38
314.624	77.38
314.853	87.38
315.083	78.38
315.312	93.38
315.542	83.38
315.771	92.38
316.001	87.38
316.23	77.38
316.46	83.38
316.689	75.38
316.919	79.38
317.148	77.38
317.377	90.38
317.607	94.38
317.836	89.38
318.065	90.38
318.295	92.38
318.524	82.38
318.753	98.38
318.983	87.38
319.212	89.38
319.441	86.38
319.67	80.38
319.9	89.38
320.129	86.38
320.358	87.38
320.587	75.38
320.816	87.38
321.046	75.38
321.275	93.38
321.504	71.38
321.733	87.38
321.962	81.38
322.191	96.38
322.42	86.38
322.649	88.38
322.878	82.38
323.108	93.38
323.337	89.38
323.566	83.38
323.795	91.38
324.024	95.38
324.253	101.38
324.482	81.38
324.71	82.38
324.939	79.38
325.168	89.38
325.397	106.38
325.626	99.38
325.855	89.38
326.084	91.38
326.313	86.38
326.542	75.38
326.77	94.38
326.999	77.38
327.228	77.38
327.457	100.38
327.686	93.38
327.914	93.38
328.143	82.38
328.372	80.38
328.6	71.38
328.829	72.38
329.058	88.38
329.287	92.38
329.515	94.38
329.744	94.38
329.972	91.38
330.201	79.38
330.43	80.38
330.658	77.38
330.887	96.38
331.115	84.38
331.344	67.38
331.572	85.38
331.801	83.38
332.03	87.38
332.258	90.38
332.486	78.38
332.715	73.38
332.943	89.38
333.172	90.38
333.4	85.38
333.629	87.38
333.857	98.38
334.085	83.38
334.314	90.38
334.542	79.38
334.771	92.38
334.999	91.38
335.227	91.38
335.455	76.38
335.684	98.38
335.912	97.38
336.14	82.38
336.369	76.38
336.597	81.38
336.825	81.38
337.053	76.38
337.281	87.38
337.51	85.38
337.738	89.38
337.966	76.38
338.194	88.38
338.422	92.38
338.65	83.38
338.878	84.38
339.106	95.38
339.334	92.38
339.562	74.38
339.79	88.38
340.018	86.38
340.246	88.38
340.474	86.38
340.702	85.38
340.93	90.38
341.158	90.38
341.386	77.38
341.614	87.38
341.842	93.38
342.07	89.38
342.298	74.38
342.526	93.38
342.754	89.38
342.981	87.38
343.209	105.38
343.437	87.38
343.665	85.38
343.893	92.38
344.12	91.38
344.348	94.38
344.576	86.38
344.804	94.38
345.031	100.38
345.259	90.38
345.487	85.38
345.714	89.38
345.942	85.38
346.17	86.38
346.397	84.38
346.625	93.38
346.853	81.38
347.08	57.38
347.308	81.38
347.535	79.38
347.763	86.38
347.99	86.38
348.218	81.38
348.445	70.38
348.673	86.38
348.9	85.38
349.128	90.38
349.355	94.38
349.583	89.38
349.81	97.38
350.037	95.38
350.265	74.38
350.492	74.38
350.72	89.38
350.947	107.38
351.174	76.38
351.402	93.38
351.629	74.38
351.856	83.38
352.083	88.38
352.311	98.38
352.538	79.38
352.765	85.38
352.992	82.38
353.22	77.38
353.447	85.38
353.674	86.38
353.901	98.38
354.128	85.38
354.355	73.38
354.583	86.38
354.81	97.38
355.037	83.38
355.264	79.38
355.491	82.38
355.718	85.38
355.945	102.38
356.172	89.38
356.399	85.38
356.626	80.38
356.853	96.38
357.08	85.38
357.307	92.38
357.534	84.38
357.761	80.38
357.988	84.38
358.215	77.38
358.441	78.38
358.668	91.38
358.895	83.38
359.122	86.38
359.349	89.38
359.576	88.38
359.802	89.38
360.029	85.38
360.256	98.38
360.483	90.38
360.709	87.38
360.936	88.38
361.163	84.38
361.39	100.38
361.616	82.38
361.843	79.38
362.07	76.38
362.296	83.38
362.523	90.38
362.749	94.38
362.976	89.38
363.203	85.38
363.429	88.38
363.656	72.38
363.882	92.38
364.109	85.38
364.335	87.38
364.562	92.38
364.788	82.38
365.015	68.38
365.241	97.38
365.468	88.38
365.694	102.38
365.92	86.38
366.147	94.38
366.373	76.38
366.599	83.38
366.826	98.38
367.052	86.38
367.278	89.38
367.505	98.38
367.731	81.38
367.957	73.38
368.184	80.38
368.41	86.38
368.636	81.38
368.862	75.38
369.089	102.38
369.315	91.38
369.541	92.38
369.767	92.38
369.993	74.38
370.219	88.38
370.445	87.38
370.672	79.38
370.898	81.38
371.124	86.38
371.35	84.38
371.576	84.38
371.802	72.38
372.028	85.38
372.254	70.38
372.48	98.38
372.706	94.38
372.932	79.38
373.158	70.38
373.384	88.38
373.61	97.38
373.835	92.38
374.061	78.38
374.287	84.38
374.513	76.38
374.739	87.38
374.965	89.38
375.191	73.38
375.416	68.38
375.642	89.38
375.868	90.38
376.094	85.38
376.319	88.38
376.545	90.38
376.771	92.38
376.997	80.38
377.222	77.38
377.448	95.38
377.674	86.38
377.899	90.38
378.125	90.38
378.35	107.38
378.576	77.38
378.802	83.38
379.027	74.38
379.253	93.38
379.478	65.38
379.704	91.38
379.929	89.38
380.155	97.38
380.38	76.38
380.606	81.38
380.831	78.38
381.057	89.38
381.282	86.38
381.507	88.38
381.733	84.38
381.958	84.38
382.184	83.38
382.409	73.38
382.634	78.38
382.86	74.38
383.085	89.38
383.31	79.38
383.535	92.38
383.761	93.38
383.986	87.38
384.211	79.38
384.436	89.38
384.662	84.38
384.887	67.38
385.112	99.38
385.337	68.38
385.562	80.38
385.787	83.38
386.013	85.38
386.238	83.38
386.463	79.38
386.688	86.38
386.913	92.38
387.138	85.38
387.363	86.38
387.588	86.38
387.813	91.38
388.038	83.38
388.263	94.38
388.488	85.38
388.713	85.38
388.938	85.38
389.163	69.38
389.387	83.38
389.612	87.38
389.837	75.38
390.062	92.38
390.287	88.38
390.512	84.38
390.736	101.38
390.961	97.38
391.186	81.38
391.411	91.38
391.636	77.38
391.86	83.38
392.085	90.38
392.31	75.38
392.534	93.38
392.759	79.38
392.984	88.38
393.208	90.38
393.433	80.38
393.658	76.38
393.882	86.38
394.107	82.38
394.331	78.38
394.556	90.38
394.78	83.38
395.005	90.38
395.229	94.38
395.454	92.38
395.678	98.38
395.903	81.38
396.127	78.38
396.352	83.38
396.576	93.38
396.801	85.38
397.025	70.38
397.249	81.38
397.474	84.38
397.698	86.38
397.922	82.38
398.147	89.38
398.371	92.38
398.595	86.38
398.82	87.38
399.044	92.38
399.268	85.38
399.492	93.38
399.717	90.38
399.941	102.38
400.165	83.38
400.389	81.38
400.613	82.38
400.837	94.38
401.062	83.38
401.286	79.38
401.51	78.38
401.734	93.38
401.958	85.38
402.182	73.38
402.406	78.38
402.63	83.38
402.854	76.38
403.078	85.38
403.302	88.38
403.526	91.38
403.75	87.38
403.974	85.38
404.198	94.38
404.422	88.38
404.645	81.38
404.869	84.38
405.093	100.38
405.317	77.38
405.541	92.38
405.765	81.38
405.988	94.38
406.212	83.38
406.436	83.38
406.66	85.38
406.883	89.38
407.107	89.38
407.331	71.38
407.555	84.38
407.778	99.38
408.002	101.38
408.226	80.38
408.449	75.38
408.673	85.38
408.896	83.38
409.12	90.38
409.344	77.38
409.567	87.38
409.791	82.38
410.014	87.38
410.238	93.38
410.461	98.38
410.685	98.38
410.908	87.38
411.132	79.38
411.355	87.38
411.578	91.38
411.802	73.38
412.025	84.38
412.249	83.38
412.472	103.38
412.695	79.38
412.919	83.38
413.142	88.38
413.365	84.38
413.589	88.38
413.812	84.38
414.035	88.38
414.258	89.38
414.482	86.38
414.705	91.38
414.928	77.38
415.151	80.38
415.374	87.38
415.597	98.38
415.821	80.38
416.044	82.38
416.267	95.38
416.49	74.38
416.713	98.38
416.936	75.38
417.159	81.38
417.382	83.38
417.605	86.38
417.828	81.38
418.051	99.38
418.274	92.38
418.497	93.38
418.72	79.38
418.943	93.38
419.166	73.38
419.389	77.38
419.611	83.38
419.834	85.38
420.057	70.38
420.28	94.38
420.503	81.38
420.726	92.38
420.948	87.38
421.171	82.38
421.394	80.38
421.617	81.38
421.839	77.38
422.062	86.38
422.285	87.38
422.507	86.38
422.73	78.38
422.953	101.38
423.175	77.38
423.398	89.38
423.621	81.38
423.843	88.38
424.066	81.38
424.288	86.38
424.511	82.38
424.733	85.38
424.956	75.38
425.178	79.38
425.401	86.38
425.623	80.38
425.846	72.38
426.068	67.38
426.291	94.38
426.513	82.38
426.735	87.38
426.958	89.38
427.18	74.38
427.402	90.38
427.625	84.38
427.847	93.38
428.069	92.38
428.292	71.38
428.514	80.38
428.736	77.38
428.958	86.38
429.181	74.38
429.403	87.38
429.625	86.38
429.847	84.38
430.069	78.38
430.292	90.38
430.514	85.38
430.736	86.38
430.958	92.38
431.18	76.38
431.402	77.38
431.624	92.38
431.846	79.38
432.068	86.38
432.29	80.38
432.512	72.38
432.734	86.38
432.956	88.38
433.178	86.38
433.4	89.38
433.622	91.38
433.844	89.38
434.066	86.38
434.287	99.38
434.509	86.38
434.731	56.38
434.953	93.38
435.175	84.38
435.397	70.38
435.618	92.38
435.84	106.38
436.062	85.38
436.284	96.38
436.505	94.38
436.727	86.38
436.949	77.38
437.17	75.38
437.392	72.38
437.614	85.38
437.835	75.38
438.057	74.38
438.278	97.38
438.5	86.38
438.721	87.38
438.943	82.38
439.165	84.38
439.386	79.38
439.608	85.38
439.829	79.38
440.05	92.38
440.272	89.38
440.493	79.38
440.715	85.38
440.936	75.38
441.158	76.38
441.379	77.38
441.6	80.38
441.822	91.38
442.043	80.38
442.264	100.38
442.486	84.38
442.707	83.38
442.928	89.38
443.149	87.38
443.371	81.38
443.592	83.38
443.813	73.38
444.034	76.38
444.255	83.38
444.476	77.38
444.698	79.38
444.919	83.38
445.14	191.38
445.361	142.38
445.582	93.38
445.803	95.38
446.024	86.38
446.245	90.38
446.466	77.38
446.687	81.38
446.908	85.38
447.129	94.38
447.35	71.38
447.571	93.38
447.792	86.38
448.013	84.38
448.234	83.38
448.455	77.38
448.675	65.38
448.896	89.38
449.117	79.38
449.338	83.38
449.559	78.38
449.779	89.38
450	84.38
450.221	88.38
450.442	73.38
450.662	87.38
450.883	78.38
451.104	88.38
451.324	71.38
451.545	66.38
451.766	89.38
451.986	95.38
452.207	93.38
452.428	92.38
452.648	77.38
452.869	90.38
453.089	90.38
453.31	74.38
453.53	87.38
453.751	86.38
453.971	63.38
454.192	76.38
454.412	96.38
454.633	85.38
454.853	82.38
455.073	82.38
455.294	101.38
455.514	87.38
455.734	84.38
455.955	77.38
456.175	89.38
456.395	70.38
456.616	64.38
456.836	75.38
457.056	94.38
457.276	66.38
457.497	83.38
457.717	80.38
457.937	79.38
458.157	78.38
458.377	90.38
458.598	79.38
458.818	83.38
459.038	97.38
459.258	87.38
459.478	82.38
459.698	85.38
459.918	79.38
460.138	93.38
460.358	86.38
460.578	81.38
460.798	82.38
461.018	79.38
461.238	97.38
461.458	99.38
461.678	92.38
461.898	85.38
462.118	78.38
462.338	75.38
462.558	78.38
462.777	87.38
462.997	82.38
463.217	93.38
463.437	94.38
463.657	86.38
463.876	99.38
464.096	90.38
464.316	79.38
464.536	80.38
464.755	87.38
464.975	85.38
465.195	91.38
465.414	76.38
465.634	95.38
465.854	82.38
466.073	67.38
466.293	83.38
466.512	85.38
466.732	80.38
466.951	84.38
467.171	88.38
467.391	77.38
467.61	82.38
467.829	97.38
468.049	92.38
468.268	97.38
468.488	82.38
468.707	75.38
468.927	82.38
469.146	65.38
469.365	96.38
469.585	95.38
469.804	89.38
470.023	89.38
470.243	78.38
470.462	77.38
470.681	92.38
470.901	86.38
471.12	79.38
471.339	91.38
471.558	82.38
471.777	91.38
471.997	76.38
472.216	87.38
472.435	79.38
472.654	98.38
472.873	81.38
473.092	78.38
473.311	77.38
473.53	80.38
473.749	76.38
473.968	82.38
474.187	78.38
474.406	88.38
474.625	85.38
474.844	91.38
475.063	84.38
475.282	80.38
475.501	70.38
475.72	91.38
475.939	87.38
476.158	89.38
476.377	70.38
476.596	93.38
476.814	90.38
477.033	87.38
477.252	96.38
477.471	80.38
477.69	87.38
477.908	84.38
478.127	84.38
478.346	82.38
478.564	78.38
478.783	83.38
479.002	97.38
479.22	86.38
479.439	88.38
479.658	96.38
479.876	77.38
480.095	90.38
480.313	91.38
480.532	86.38
480.751	82.38
480.969	90.38
481.188	91.38
481.406	80.38
481.624	67.38
481.843	78.38
482.061	79.38
482.28	97.38
482.498	89.38
482.717	96.38
482.935	89.38
483.153	94.38
483.372	93.38
483.59	88.38
483.808	92.38
484.027	92.38
484.245	103.38
484.463	81.38
484.681	95.38
484.9	87.38
485.118	108.38
485.336	98.38
485.554	95.38
485.772	84.38
485.99	92.38
486.209	79.38
486.427	90.38
486.645	96.38
486.863	87.38
487.081	84.38
487.299	87.38
487.517	85.38
487.735	80.38
487.953	88.38
488.171	96.38
488.389	85.38
488.607	94.38
488.825	99.38
489.043	86.38
489.261	91.38
489.479	82.38
489.696	94.38
489.914	86.38
490.132	92.38
490.35	86.38
490.568	93.38
490.786	91.38
491.003	91.38
491.221	91.38
491.439	75.38
491.657	82.38
491.874	108.38
492.092	97.38
492.31	87.38
492.527	108.38
492.745	93.38
492.963	84.38
493.18	96.38
493.398	84.38
493.615	84.38
493.833	90.38
494.05	93.38
494.268	98.38
494.485	91.38
494.703	89.38
494.92	93.38
495.138	90.38
495.355	93.38
495.573	103.38
495.79	87.38
496.008	111.38
496.225	93.38
496.442	95.38
496.66	97.38
496.877	91.38
497.094	81.38
497.312	73.38
497.529	83.38
497.746	87.38
497.963	91.38
498.181	94.38
498.398	99.38
498.615	90.38
498.832	96.38
499.049	89.38
499.267	116.38
499.484	100.38
499.701	105.38
499.918	118.38
500.135	113.38
500.352	102.38
500.569	104.38
500.786	95.38
501.003	98.38
501.22	118.38
501.437	97.38
501.654	105.38
501.871	98.38
502.088	107.38
502.305	100.38
502.522	95.38
502.739	95.38
502.956	85.38
503.172	90.38
503.389	85.38
503.606	90.38
503.823	92.38
504.04	97.38
504.256	80.38
504.473	91.38
504.69	102.38
504.907	92.38
505.123	94.38
505.34	94.38
505.557	76.38
505.773	96.38
505.99	107.38
506.207	103.38
506.423	87.38
506.64	93.38
506.856	85.38
507.073	74.38
507.289	116.38
507.506	95.38
507.722	101.38
507.939	79.38
508.155	93.38
508.372	98.38
508.588	83.38
508.805	92.38
509.021	97.38
509.238	85.38
509.454	85.38
509.67	96.38
509.887	85.38
510.103	90.38
510.319	94.38
510.536	70.38
510.752	81.38
510.968	85.38
511.184	84.38
511.401	93.38
511.617	86.38
511.833	79.38
512.049	105.38
512.265	75.38
512.481	86.38
512.698	91.38
512.914	104.38
513.13	83.38
513.346	88.38
513.562	86.38
513.778	96.38
513.994	94.38
514.21	87.38
514.426	91.38
514.642	99.38
514.858	78.38
515.074	92.38
515.29	87.38
515.506	83.38
515.721	102.38
515.937	79.38
516.153	98.38
516.369	91.38
516.585	93.38
516.801	88.38
517.016	94.38
517.232	78.38
517.448	96.38
517.664	88.38
517.879	96.38
518.095	79.38
518.311	92.38
518.527	104.38
518.742	93.38
