Data from Ni(NO3)2@0.5M.TitratingCurve.Agarose3%dH2O.NegLispCup.LampEnergy10.LIBS07252019_HRD10591_17-58-50-564.txt Node
Date: Thu Jul 25 17:58:50 EDT 2019
User: cochatt
Spectrometer: HR+D1059
Trigger mode: 1
Integration Time (sec): 1.000000E-1
Scans to average: 1
Electric dark correction enabled: true
Nonlinearity correction enabled: false
Boxcar width: 0
XAxis mode: Wavelengths
Number of Pixels in Spectrum: 2048
>>>>>Begin Spectral Data<<<<<
223.165	-17.81
223.4	-17.81
223.635	-17.81
223.869	-15.81
224.104	-20.81
224.338	-15.81
224.573	-9.81
224.808	-14.81
225.042	-9.81
225.277	4.19
225.511	-1.81
225.746	3.19
225.98	12.19
226.215	18.19
226.449	-1.81
226.683	22.19
226.918	20.19
227.152	28.19
227.387	19.19
227.621	36.19
227.856	50.19
228.09	54.19
228.324	48.19
228.559	65.19
228.793	66.19
229.027	104.19
229.262	122.19
229.496	115.19
229.73	120.19
229.964	146.19
230.199	168.19
230.433	168.19
230.667	159.19
230.901	153.19
231.136	134.19
231.37	148.19
231.604	145.19
231.838	178.19
232.072	186.19
232.306	166.19
232.541	148.19
232.775	137.19
233.009	136.19
233.243	156.19
233.477	135.19
233.711	134.19
233.945	144.19
234.179	135.19
234.413	126.19
234.647	139.19
234.881	148.19
235.115	146.19
235.349	142.19
235.583	138.19
235.817	145.19
236.051	128.19
236.285	141.19
236.519	140.19
236.753	142.19
236.987	162.19
237.221	155.19
237.455	133.19
237.689	135.19
237.922	155.19
238.156	162.19
238.39	138.19
238.624	135.19
238.858	154.19
239.091	154.19
239.325	161.19
239.559	174.19
239.793	188.19
240.027	178.19
240.26	168.19
240.494	156.19
240.728	124.19
240.961	160.19
241.195	155.19
241.429	156.19
241.662	154.19
241.896	183.19
242.13	178.19
242.363	174.19
242.597	159.19
242.83	159.19
243.064	159.19
243.298	160.19
243.531	166.19
243.765	182.19
243.998	182.19
244.232	178.19
244.465	179.19
244.699	173.19
244.932	172.19
245.166	191.19
245.399	159.19
245.633	178.19
245.866	166.19
246.099	183.19
246.333	174.19
246.566	191.19
246.8	176.19
247.033	172.19
247.266	184.19
247.5	198.19
247.733	196.19
247.966	189.19
248.2	184.19
248.433	185.19
248.666	194.19
248.899	190.19
249.133	191.19
249.366	208.19
249.599	184.19
249.832	191.19
250.066	200.19
250.299	189.19
250.532	221.19
250.765	216.19
250.998	209.19
251.231	208.19
251.465	215.19
251.698	200.19
251.931	201.19
252.164	211.19
252.397	228.19
252.63	226.19
252.863	234.19
253.096	220.19
253.329	218.19
253.562	208.19
253.795	213.19
254.028	212.19
254.261	220.19
254.494	235.19
254.727	229.19
254.96	216.19
255.193	248.19
255.426	223.19
255.659	228.19
255.892	234.19
256.124	233.19
256.357	239.19
256.59	228.19
256.823	238.19
257.056	234.19
257.289	232.19
257.521	238.19
257.754	238.19
257.987	235.19
258.22	219.19
258.452	238.19
258.685	221.19
258.918	246.19
259.151	233.19
259.383	261.19
259.616	264.19
259.849	268.19
260.081	248.19
260.314	259.19
260.547	249.19
260.779	249.19
261.012	247.19
261.244	262.19
261.477	267.19
261.71	255.19
261.942	263.19
262.175	270.19
262.407	265.19
262.64	278.19
262.872	267.19
263.105	272.19
263.337	283.19
263.57	277.19
263.802	267.19
264.035	284.19
264.267	276.19
264.499	277.19
264.732	284.19
264.964	284.19
265.197	282.19
265.429	282.19
265.661	288.19
265.894	296.19
266.126	295.19
266.358	289.19
266.591	286.19
266.823	290.19
267.055	306.19
267.287	291.19
267.52	270.19
267.752	297.19
267.984	295.19
268.216	309.19
268.448	300.19
268.681	290.19
268.913	301.19
269.145	290.19
269.377	295.19
269.609	317.19
269.841	291.19
270.073	294.19
270.306	312.19
270.538	324.19
270.77	291.19
271.002	298.19
271.234	305.19
271.466	308.19
271.698	309.19
271.93	315.19
272.162	319.19
272.394	321.19
272.626	308.19
272.858	318.19
273.09	306.19
273.322	331.19
273.553	314.19
273.785	306.19
274.017	327.19
274.249	337.19
274.481	329.19
274.713	322.19
274.945	326.19
275.176	334.19
275.408	336.19
275.64	312.19
275.872	329.19
276.104	333.19
276.335	325.19
276.567	326.19
276.799	326.19
277.031	342.19
277.262	330.19
277.494	356.19
277.726	336.19
277.957	344.19
278.189	347.19
278.421	344.19
278.652	348.19
278.884	356.19
279.115	338.19
279.347	347.19
279.579	352.19
279.81	343.19
280.042	330.19
280.273	341.19
280.505	338.19
280.736	349.19
280.968	356.19
281.199	339.19
281.431	368.19
281.662	355.19
281.894	377.19
282.125	370.19
282.356	375.19
282.588	378.19
282.819	361.19
283.051	366.19
283.282	358.19
283.513	376.19
283.745	355.19
283.976	346.19
284.207	382.19
284.439	386.19
284.67	366.19
284.901	366.19
285.132	368.19
285.364	380.19
285.595	370.19
285.826	356.19
286.057	363.19
286.288	375.19
286.52	381.19
286.751	381.19
286.982	378.19
287.213	384.19
287.444	386.19
287.675	375.19
287.906	364.19
288.138	398.19
288.369	390.19
288.6	386.19
288.831	390.19
289.062	376.19
289.293	386.19
289.524	395.19
289.755	411.19
289.986	400.19
290.217	396.19
290.448	364.19
290.679	386.19
290.91	389.19
291.141	390.19
291.371	410.19
291.602	399.19
291.833	384.19
292.064	412.19
292.295	405.19
292.526	408.19
292.757	388.19
292.987	416.19
293.218	407.19
293.449	413.19
293.68	425.19
293.91	376.19
294.141	408.19
294.372	392.19
294.603	410.19
294.833	409.19
295.064	398.19
295.295	399.19
295.525	398.19
295.756	420.19
295.987	410.19
296.217	422.19
296.448	393.19
296.679	392.19
296.909	418.19
297.14	425.19
297.37	420.19
297.601	429.19
297.831	420.19
298.062	396.19
298.292	422.19
298.523	404.19
298.753	437.19
298.984	414.19
299.214	440.19
299.445	431.19
299.675	432.19
299.905	446.19
300.136	435.19
300.366	455.19
300.597	480.19
300.827	454.19
301.057	439.19
301.288	479.19
301.518	453.19
301.748	446.19
301.979	451.19
302.209	440.19
302.439	454.19
302.669	443.19
302.9	452.19
303.13	438.19
303.36	444.19
303.59	448.19
303.82	463.19
304.051	475.19
304.281	461.19
304.511	455.19
304.741	466.19
304.971	458.19
305.201	476.19
305.431	490.19
305.661	466.19
305.891	465.19
306.121	480.19
306.352	465.19
306.582	452.19
306.812	469.19
307.042	474.19
307.272	460.19
307.502	453.19
307.731	475.19
307.961	469.19
308.191	466.19
308.421	456.19
308.651	480.19
308.881	461.19
309.111	450.19
309.341	465.19
309.571	453.19
309.8	475.19
310.03	485.19
310.26	496.19
310.49	507.19
310.72	483.19
310.949	460.19
311.179	475.19
311.409	483.19
311.639	483.19
311.868	483.19
312.098	476.19
312.328	483.19
312.557	476.19
312.787	479.19
313.017	487.19
313.246	512.19
313.476	512.19
313.706	492.19
313.935	514.19
314.165	474.19
314.394	501.19
314.624	492.19
314.853	489.19
315.083	494.19
315.312	491.19
315.542	505.19
315.771	503.19
316.001	486.19
316.23	514.19
316.46	511.19
316.689	493.19
316.919	512.19
317.148	500.19
317.377	493.19
317.607	525.19
317.836	534.19
318.065	527.19
318.295	502.19
318.524	508.19
318.753	499.19
318.983	532.19
319.212	520.19
319.441	514.19
319.67	521.19
319.9	538.19
320.129	531.19
320.358	512.19
320.587	545.19
320.816	542.19
321.046	506.19
321.275	520.19
321.504	531.19
321.733	522.19
321.962	516.19
322.191	551.19
322.42	546.19
322.649	554.19
322.878	541.19
323.108	557.19
323.337	530.19
323.566	537.19
323.795	543.19
324.024	540.19
324.253	550.19
324.482	565.19
324.71	537.19
324.939	572.19
325.168	548.19
325.397	555.19
325.626	529.19
325.855	534.19
326.084	565.19
326.313	569.19
326.542	566.19
326.77	570.19
326.999	566.19
327.228	573.19
327.457	551.19
327.686	556.19
327.914	566.19
328.143	582.19
328.372	577.19
328.6	573.19
328.829	567.19
329.058	551.19
329.287	590.19
329.515	585.19
329.744	569.19
329.972	578.19
330.201	580.19
330.43	568.19
330.658	578.19
330.887	605.19
331.115	620.19
331.344	602.19
331.572	591.19
331.801	613.19
332.03	590.19
332.258	614.19
332.486	626.19
332.715	646.19
332.943	597.19
333.172	604.19
333.4	644.19
333.629	664.19
333.857	638.19
334.085	644.19
334.314	655.19
334.542	649.19
334.771	646.19
334.999	650.19
335.227	647.19
335.455	679.19
335.684	694.19
335.912	650.19
336.14	674.19
336.369	659.19
336.597	671.19
336.825	666.19
337.053	672.19
337.281	687.19
337.51	660.19
337.738	657.19
337.966	650.19
338.194	672.19
338.422	677.19
338.65	634.19
338.878	620.19
339.106	624.19
339.334	671.19
339.562	680.19
339.79	635.19
340.018	615.19
340.246	596.19
340.474	603.19
340.702	633.19
340.93	622.19
341.158	637.19
341.386	648.19
341.614	676.19
341.842	652.19
342.07	640.19
342.298	648.19
342.526	659.19
342.754	626.19
342.981	615.19
343.209	610.19
343.437	654.19
343.665	654.19
343.893	653.19
344.12	676.19
344.348	648.19
344.576	678.19
344.804	676.19
345.031	662.19
345.259	643.19
345.487	655.19
345.714	654.19
345.942	657.19
346.17	663.19
346.397	670.19
346.625	632.19
346.853	623.19
347.08	609.19
347.308	626.19
347.535	602.19
347.763	594.19
347.99	600.19
348.218	610.19
348.445	595.19
348.673	590.19
348.9	598.19
349.128	637.19
349.355	626.19
349.583	639.19
349.81	598.19
350.037	609.19
350.265	612.19
350.492	591.19
350.72	588.19
350.947	618.19
351.174	592.19
351.402	626.19
351.629	665.19
351.856	644.19
352.083	596.19
352.311	632.19
352.538	634.19
352.765	635.19
352.992	593.19
353.22	594.19
353.447	567.19
353.674	571.19
353.901	571.19
354.128	582.19
354.355	585.19
354.583	583.19
354.81	580.19
355.037	600.19
355.264	594.19
355.491	573.19
355.718	581.19
355.945	573.19
356.172	621.19
356.399	595.19
356.626	597.19
356.853	603.19
357.08	597.19
357.307	604.19
357.534	589.19
357.761	601.19
357.988	588.19
358.215	582.19
358.441	575.19
358.668	595.19
358.895	579.19
359.122	591.19
359.349	571.19
359.576	598.19
359.802	584.19
360.029	607.19
360.256	591.19
360.483	608.19
360.709	581.19
360.936	589.19
361.163	581.19
361.39	615.19
361.616	604.19
361.843	627.19
362.07	654.19
362.296	652.19
362.523	588.19
362.749	610.19
362.976	592.19
363.203	583.19
363.429	585.19
363.656	576.19
363.882	587.19
364.109	583.19
364.335	593.19
364.562	607.19
364.788	600.19
365.015	602.19
365.241	580.19
365.468	589.19
365.694	605.19
365.92	601.19
366.147	586.19
366.373	610.19
366.599	600.19
366.826	576.19
367.052	591.19
367.278	620.19
367.505	587.19
367.731	612.19
367.957	595.19
368.184	612.19
368.41	613.19
368.636	611.19
368.862	591.19
369.089	610.19
369.315	610.19
369.541	618.19
369.767	637.19
369.993	613.19
370.219	632.19
370.445	611.19
370.672	618.19
370.898	643.19
371.124	621.19
371.35	638.19
371.576	636.19
371.802	634.19
372.028	636.19
372.254	640.19
372.48	649.19
372.706	647.19
372.932	638.19
373.158	619.19
373.384	654.19
373.61	628.19
373.835	645.19
374.061	643.19
374.287	630.19
374.513	622.19
374.739	637.19
374.965	642.19
375.191	654.19
375.416	649.19
375.642	641.19
375.868	654.19
376.094	596.19
376.319	636.19
376.545	632.19
376.771	636.19
376.997	642.19
377.222	632.19
377.448	607.19
377.674	636.19
377.899	634.19
378.125	617.19
378.35	626.19
378.576	598.19
378.802	623.19
379.027	635.19
379.253	648.19
379.478	628.19
379.704	612.19
379.929	630.19
380.155	610.19
380.38	635.19
380.606	614.19
380.831	614.19
381.057	637.19
381.282	623.19
381.507	612.19
381.733	620.19
381.958	617.19
382.184	644.19
382.409	623.19
382.634	631.19
382.86	654.19
383.085	644.19
383.31	659.19
383.535	656.19
383.761	644.19
383.986	675.19
384.211	667.19
384.436	663.19
384.662	670.19
384.887	702.19
385.112	693.19
385.337	687.19
385.562	685.19
385.787	701.19
386.013	712.19
386.238	695.19
386.463	708.19
386.688	700.19
386.913	683.19
387.138	702.19
387.363	699.19
387.588	693.19
387.813	699.19
388.038	677.19
388.263	694.19
388.488	698.19
388.713	697.19
388.938	700.19
389.163	703.19
389.387	725.19
389.612	701.19
389.837	687.19
390.062	688.19
390.287	718.19
390.512	728.19
390.736	718.19
390.961	739.19
391.186	754.19
391.411	714.19
391.636	722.19
391.86	738.19
392.085	767.19
392.31	746.19
392.534	731.19
392.759	748.19
392.984	752.19
393.208	722.19
393.433	707.19
393.658	700.19
393.882	714.19
394.107	736.19
394.331	727.19
394.556	708.19
394.78	730.19
395.005	731.19
395.229	722.19
395.454	761.19
395.678	740.19
395.903	751.19
396.127	748.19
396.352	742.19
396.576	755.19
396.801	750.19
397.025	744.19
397.249	775.19
397.474	756.19
397.698	762.19
397.922	757.19
398.147	775.19
398.371	787.19
398.595	809.19
398.82	802.19
399.044	848.19
399.268	894.19
399.492	919.19
399.717	923.19
399.941	982.19
400.165	923.19
400.389	890.19
400.613	883.19
400.837	862.19
401.062	826.19
401.286	829.19
401.51	855.19
401.734	818.19
401.958	841.19
402.182	845.19
402.406	818.19
402.63	803.19
402.854	833.19
403.078	829.19
403.302	841.19
403.526	840.19
403.75	830.19
403.974	851.19
404.198	841.19
404.422	846.19
404.645	814.19
404.869	849.19
405.093	834.19
405.317	846.19
405.541	890.19
405.765	862.19
405.988	868.19
406.212	905.19
406.436	876.19
406.66	921.19
406.883	880.19
407.107	908.19
407.331	928.19
407.555	964.19
407.778	952.19
408.002	951.19
408.226	938.19
408.449	924.19
408.673	913.19
408.896	922.19
409.12	902.19
409.344	902.19
409.567	877.19
409.791	875.19
410.014	869.19
410.238	864.19
410.461	879.19
410.685	885.19
410.908	862.19
411.132	864.19
411.355	856.19
411.578	863.19
411.802	872.19
412.025	857.19
412.249	823.19
412.472	869.19
412.695	863.19
412.919	855.19
413.142	842.19
413.365	844.19
413.589	858.19
413.812	821.19
414.035	815.19
414.258	807.19
414.482	835.19
414.705	841.19
414.928	808.19
415.151	836.19
415.374	825.19
415.597	802.19
415.821	817.19
416.044	810.19
416.267	816.19
416.49	806.19
416.713	823.19
416.936	813.19
417.159	807.19
417.382	824.19
417.605	808.19
417.828	789.19
418.051	829.19
418.274	808.19
418.497	799.19
418.72	796.19
418.943	823.19
419.166	832.19
419.389	890.19
419.611	861.19
419.834	843.19
420.057	827.19
420.28	819.19
420.503	788.19
420.726	785.19
420.948	781.19
421.171	785.19
421.394	788.19
421.617	795.19
421.839	819.19
422.062	822.19
422.285	771.19
422.507	818.19
422.73	830.19
422.953	784.19
423.175	795.19
423.398	814.19
423.621	796.19
423.843	803.19
424.066	782.19
424.288	804.19
424.511	818.19
424.733	791.19
424.956	827.19
425.178	775.19
425.401	789.19
425.623	807.19
425.846	792.19
426.068	784.19
426.291	779.19
426.513	776.19
426.735	802.19
426.958	764.19
427.18	782.19
427.402	791.19
427.625	789.19
427.847	772.19
428.069	781.19
428.292	793.19
428.514	765.19
428.736	752.19
428.958	767.19
429.181	748.19
429.403	774.19
429.625	768.19
429.847	762.19
430.069	763.19
430.292	772.19
430.514	757.19
430.736	774.19
430.958	770.19
431.18	763.19
431.402	760.19
431.624	789.19
431.846	788.19
432.068	760.19
432.29	762.19
432.512	783.19
432.734	780.19
432.956	802.19
433.178	792.19
433.4	812.19
433.622	812.19
433.844	818.19
434.066	812.19
434.287	798.19
434.509	826.19
434.731	811.19
434.953	829.19
435.175	854.19
435.397	855.19
435.618	818.19
435.84	784.19
436.062	787.19
436.284	777.19
436.505	770.19
436.727	758.19
436.949	796.19
437.17	802.19
437.392	824.19
437.614	767.19
437.835	736.19
438.057	751.19
438.278	747.19
438.5	755.19
438.721	773.19
438.943	759.19
439.165	742.19
439.386	742.19
439.608	779.19
439.829	790.19
440.05	764.19
440.272	788.19
440.493	822.19
440.715	802.19
440.936	778.19
441.158	796.19
441.379	815.19
441.6	831.19
441.822	840.19
442.043	822.19
442.264	829.19
442.486	807.19
442.707	838.19
442.928	805.19
443.149	820.19
443.371	832.19
443.592	844.19
443.813	884.19
444.034	821.19
444.255	859.19
444.476	882.19
444.698	851.19
444.919	885.19
445.14	1004.19
445.361	902.19
445.582	859.19
445.803	802.19
446.024	812.19
446.245	820.19
446.466	774.19
446.687	759.19
446.908	771.19
447.129	785.19
447.35	754.19
447.571	746.19
447.792	763.19
448.013	749.19
448.234	736.19
448.455	731.19
448.675	721.19
448.896	724.19
449.117	716.19
449.338	727.19
449.559	713.19
449.779	743.19
450	727.19
450.221	715.19
450.442	690.19
450.662	689.19
450.883	725.19
451.104	766.19
451.324	745.19
451.545	726.19
451.766	699.19
451.986	701.19
452.207	691.19
452.428	713.19
452.648	708.19
452.869	693.19
453.089	714.19
453.31	748.19
453.53	731.19
453.751	684.19
453.971	715.19
454.192	723.19
454.412	713.19
454.633	715.19
454.853	677.19
455.073	691.19
455.294	719.19
455.514	727.19
455.734	727.19
455.955	731.19
456.175	720.19
456.395	692.19
456.616	689.19
456.836	706.19
457.056	686.19
457.276	677.19
457.497	703.19
457.717	742.19
457.937	734.19
458.157	714.19
458.377	703.19
458.598	696.19
458.818	752.19
459.038	742.19
459.258	750.19
459.478	813.19
459.698	884.19
459.918	892.19
460.138	868.19
460.358	857.19
460.578	854.19
460.798	892.19
461.018	905.19
461.238	859.19
461.458	826.19
461.678	832.19
461.898	863.19
462.118	861.19
462.338	895.19
462.558	879.19
462.777	932.19
462.997	967.19
463.217	976.19
463.437	1019.19
463.657	991.19
463.876	947.19
464.096	923.19
464.316	915.19
464.536	946.19
464.755	905.19
464.975	867.19
465.195	836.19
465.414	853.19
465.634	812.19
465.854	780.19
466.073	759.19
466.293	787.19
466.512	763.19
466.732	759.19
466.951	780.19
467.171	777.19
467.391	774.19
467.61	747.19
467.829	763.19
468.049	741.19
468.268	755.19
468.488	754.19
468.707	737.19
468.927	754.19
469.146	751.19
469.365	764.19
469.585	758.19
469.804	752.19
470.023	754.19
470.243	775.19
470.462	762.19
470.681	762.19
470.901	763.19
471.12	791.19
471.339	782.19
471.558	744.19
471.777	739.19
471.997	756.19
472.216	747.19
472.435	743.19
472.654	734.19
472.873	741.19
473.092	730.19
473.311	727.19
473.53	744.19
473.749	733.19
473.968	751.19
474.187	735.19
474.406	760.19
474.625	757.19
474.844	749.19
475.063	761.19
475.282	758.19
475.501	760.19
475.72	791.19
475.939	782.19
476.158	791.19
476.377	790.19
476.596	763.19
476.814	776.19
477.033	789.19
477.252	778.19
477.471	805.19
477.69	828.19
477.908	806.19
478.127	826.19
478.346	834.19
478.564	864.19
478.783	858.19
479.002	893.19
479.22	935.19
479.439	912.19
479.658	883.19
479.876	898.19
480.095	892.19
480.313	892.19
480.532	887.19
480.751	902.19
480.969	874.19
481.188	875.19
481.406	856.19
481.624	864.19
481.843	829.19
482.061	834.19
482.28	858.19
482.498	878.19
482.717	886.19
482.935	860.19
483.153	899.19
483.372	911.19
483.59	929.19
483.808	910.19
484.027	900.19
484.245	880.19
484.463	882.19
484.681	893.19
484.9	890.19
485.118	900.19
485.336	906.19
485.554	885.19
485.772	894.19
485.99	880.19
486.209	877.19
486.427	869.19
486.645	906.19
486.863	914.19
487.081	883.19
487.299	880.19
487.517	935.19
487.735	928.19
487.953	940.19
488.171	930.19
488.389	886.19
488.607	918.19
488.825	897.19
489.043	866.19
489.261	918.19
489.479	887.19
489.696	886.19
489.914	915.19
490.132	902.19
490.35	922.19
490.568	879.19
490.786	920.19
491.003	907.19
491.221	911.19
491.439	914.19
491.657	919.19
491.874	908.19
492.092	943.19
492.31	932.19
492.527	946.19
492.745	936.19
492.963	936.19
493.18	941.19
493.398	942.19
493.615	942.19
493.833	953.19
494.05	946.19
494.268	943.19
494.485	916.19
494.703	932.19
494.92	956.19
495.138	918.19
495.355	956.19
495.573	970.19
495.79	965.19
496.008	948.19
496.225	950.19
496.442	961.19
496.66	987.19
496.877	982.19
497.094	1028.19
497.312	1012.19
497.529	1026.19
497.746	996.19
497.963	1036.19
498.181	1080.19
498.398	1083.19
498.615	1124.19
498.832	1159.19
499.049	1195.19
499.267	1247.19
499.484	1298.19
499.701	1354.19
499.918	1432.19
500.135	1494.19
500.352	1557.19
500.569	1592.19
500.786	1580.19
501.003	1532.19
501.22	1482.19
