Data from Ni(NO3)2@0.5M.TitratingCurve.Agarose3%dH2O.NegLispCup.LampEnergy10.LIBS07252019_HRD10591_17-58-37-564.txt Node
Date: Thu Jul 25 17:58:37 EDT 2019
User: cochatt
Spectrometer: HR+D1059
Trigger mode: 1
Integration Time (sec): 1.000000E-1
Scans to average: 1
Electric dark correction enabled: true
Nonlinearity correction enabled: false
Boxcar width: 0
XAxis mode: Wavelengths
Number of Pixels in Spectrum: 2048
>>>>>Begin Spectral Data<<<<<
223.165	-20.19
223.4	-20.19
223.635	-20.19
223.869	-15.19
224.104	-8.19
224.338	-8.19
224.573	-15.19
224.808	-11.19
225.042	-9.19
225.277	-3.19
225.511	-14.19
225.746	9.81
225.98	11.81
226.215	10.81
226.449	8.81
226.683	12.81
226.918	21.81
227.152	28.81
227.387	36.81
227.621	42.81
227.856	27.81
228.09	34.81
228.324	36.81
228.559	48.81
228.793	66.81
229.027	107.81
229.262	108.81
229.496	95.81
229.73	118.81
229.964	139.81
230.199	143.81
230.433	141.81
230.667	132.81
230.901	142.81
231.136	129.81
231.37	119.81
231.604	130.81
231.838	156.81
232.072	140.81
232.306	142.81
232.541	140.81
232.775	134.81
233.009	132.81
233.243	115.81
233.477	127.81
233.711	126.81
233.945	143.81
234.179	130.81
234.413	125.81
234.647	140.81
234.881	128.81
235.115	129.81
235.349	122.81
235.583	121.81
235.817	126.81
236.051	110.81
236.285	119.81
236.519	119.81
236.753	128.81
236.987	126.81
237.221	134.81
237.455	129.81
237.689	128.81
237.922	126.81
238.156	119.81
238.39	137.81
238.624	124.81
238.858	136.81
239.091	135.81
239.325	139.81
239.559	144.81
239.793	159.81
240.027	145.81
240.26	146.81
240.494	127.81
240.728	138.81
240.961	140.81
241.195	141.81
241.429	130.81
241.662	146.81
241.896	148.81
242.13	170.81
242.363	165.81
242.597	134.81
242.83	149.81
243.064	150.81
243.298	148.81
243.531	139.81
243.765	152.81
243.998	174.81
244.232	161.81
244.465	163.81
244.699	165.81
244.932	156.81
245.166	164.81
245.399	163.81
245.633	162.81
245.866	170.81
246.099	158.81
246.333	171.81
246.566	152.81
246.8	150.81
247.033	148.81
247.266	174.81
247.5	174.81
247.733	154.81
247.966	174.81
248.2	169.81
248.433	177.81
248.666	156.81
248.899	189.81
249.133	164.81
249.366	172.81
249.599	183.81
249.832	192.81
250.066	182.81
250.299	190.81
250.532	190.81
250.765	203.81
250.998	203.81
251.231	207.81
251.465	214.81
251.698	199.81
251.931	177.81
252.164	182.81
252.397	192.81
252.63	205.81
252.863	191.81
253.096	198.81
253.329	202.81
253.562	202.81
253.795	197.81
254.028	195.81
254.261	231.81
254.494	195.81
254.727	207.81
254.96	224.81
255.193	210.81
255.426	208.81
255.659	212.81
255.892	208.81
256.124	222.81
256.357	220.81
256.59	238.81
256.823	214.81
257.056	230.81
257.289	233.81
257.521	229.81
257.754	212.81
257.987	244.81
258.22	233.81
258.452	226.81
258.685	223.81
258.918	241.81
259.151	226.81
259.383	219.81
259.616	227.81
259.849	231.81
260.081	221.81
260.314	244.81
260.547	243.81
260.779	218.81
261.012	248.81
261.244	255.81
261.477	258.81
261.71	244.81
261.942	239.81
262.175	241.81
262.407	230.81
262.64	246.81
262.872	244.81
263.105	262.81
263.337	255.81
263.57	274.81
263.802	262.81
264.035	247.81
264.267	258.81
264.499	251.81
264.732	262.81
264.964	249.81
265.197	250.81
265.429	264.81
265.661	262.81
265.894	268.81
266.126	264.81
266.358	260.81
266.591	264.81
266.823	274.81
267.055	267.81
267.287	269.81
267.52	288.81
267.752	245.81
267.984	256.81
268.216	299.81
268.448	275.81
268.681	259.81
268.913	267.81
269.145	276.81
269.377	267.81
269.609	270.81
269.841	268.81
270.073	292.81
270.306	271.81
270.538	271.81
270.77	284.81
271.002	293.81
271.234	287.81
271.466	270.81
271.698	282.81
271.93	281.81
272.162	289.81
272.394	286.81
272.626	291.81
272.858	294.81
273.09	313.81
273.322	302.81
273.553	296.81
273.785	312.81
274.017	285.81
274.249	284.81
274.481	294.81
274.713	310.81
274.945	293.81
275.176	299.81
275.408	294.81
275.64	308.81
275.872	314.81
276.104	295.81
276.335	310.81
276.567	299.81
276.799	314.81
277.031	312.81
277.262	318.81
277.494	309.81
277.726	314.81
277.957	322.81
278.189	315.81
278.421	316.81
278.652	313.81
278.884	315.81
279.115	288.81
279.347	316.81
279.579	322.81
279.81	345.81
280.042	331.81
280.273	314.81
280.505	320.81
280.736	328.81
280.968	312.81
281.199	327.81
281.431	333.81
281.662	330.81
281.894	344.81
282.125	344.81
282.356	340.81
282.588	335.81
282.819	335.81
283.051	325.81
283.282	330.81
283.513	338.81
283.745	336.81
283.976	359.81
284.207	354.81
284.439	356.81
284.67	354.81
284.901	368.81
285.132	358.81
285.364	355.81
285.595	356.81
285.826	358.81
286.057	342.81
286.288	358.81
286.52	362.81
286.751	361.81
286.982	360.81
287.213	374.81
287.444	360.81
287.675	355.81
287.906	355.81
288.138	368.81
288.369	357.81
288.6	358.81
288.831	379.81
289.062	374.81
289.293	344.81
289.524	359.81
289.755	375.81
289.986	360.81
290.217	382.81
290.448	373.81
290.679	374.81
290.91	357.81
291.141	366.81
291.371	366.81
291.602	367.81
291.833	348.81
292.064	373.81
292.295	351.81
292.526	368.81
292.757	377.81
292.987	358.81
293.218	346.81
293.449	383.81
293.68	387.81
293.91	374.81
294.141	368.81
294.372	373.81
294.603	377.81
294.833	381.81
295.064	391.81
295.295	378.81
295.525	372.81
295.756	387.81
295.987	379.81
296.217	373.81
296.448	401.81
296.679	372.81
296.909	367.81
297.14	351.81
297.37	386.81
297.601	386.81
297.831	386.81
298.062	406.81
298.292	405.81
298.523	395.81
298.753	398.81
298.984	391.81
299.214	374.81
299.445	389.81
299.675	414.81
299.905	406.81
300.136	416.81
300.366	437.81
300.597	457.81
300.827	441.81
301.057	414.81
301.288	426.81
301.518	428.81
301.748	435.81
301.979	410.81
302.209	425.81
302.439	407.81
302.669	416.81
302.9	401.81
303.13	402.81
303.36	407.81
303.59	415.81
303.82	431.81
304.051	439.81
304.281	440.81
304.511	434.81
304.741	395.81
304.971	432.81
305.201	426.81
305.431	462.81
305.661	455.81
305.891	428.81
306.121	445.81
306.352	433.81
306.582	430.81
306.812	418.81
307.042	431.81
307.272	428.81
307.502	436.81
307.731	404.81
307.961	450.81
308.191	430.81
308.421	457.81
308.651	435.81
308.881	441.81
309.111	425.81
309.341	417.81
309.571	423.81
309.8	435.81
310.03	449.81
310.26	464.81
310.49	482.81
310.72	447.81
310.949	424.81
311.179	457.81
311.409	438.81
311.639	432.81
311.868	432.81
312.098	432.81
312.328	452.81
312.557	451.81
312.787	479.81
313.017	447.81
313.246	475.81
313.476	460.81
313.706	466.81
313.935	496.81
314.165	453.81
314.394	458.81
314.624	484.81
314.853	480.81
315.083	453.81
315.312	470.81
315.542	461.81
315.771	475.81
316.001	458.81
316.23	455.81
316.46	442.81
316.689	486.81
316.919	480.81
317.148	459.81
317.377	490.81
317.607	454.81
317.836	484.81
318.065	466.81
318.295	464.81
318.524	468.81
318.753	488.81
318.983	484.81
319.212	470.81
319.441	483.81
319.67	505.81
319.9	492.81
320.129	494.81
320.358	491.81
320.587	495.81
320.816	481.81
321.046	482.81
321.275	490.81
321.504	480.81
321.733	494.81
321.962	499.81
322.191	511.81
322.42	504.81
322.649	504.81
322.878	514.81
323.108	512.81
323.337	511.81
323.566	510.81
323.795	519.81
324.024	531.81
324.253	507.81
324.482	508.81
324.71	498.81
324.939	483.81
325.168	512.81
325.397	514.81
325.626	529.81
325.855	524.81
326.084	552.81
326.313	544.81
326.542	536.81
326.77	548.81
326.999	514.81
327.228	517.81
327.457	531.81
327.686	538.81
327.914	555.81
328.143	544.81
328.372	521.81
328.6	555.81
328.829	558.81
329.058	530.81
329.287	543.81
329.515	541.81
329.744	554.81
329.972	556.81
330.201	543.81
330.43	561.81
330.658	577.81
330.887	563.81
331.115	551.81
331.344	547.81
331.572	577.81
331.801	592.81
332.03	577.81
332.258	589.81
332.486	587.81
332.715	584.81
332.943	603.81
333.172	592.81
333.4	602.81
333.629	645.81
333.857	624.81
334.085	622.81
334.314	625.81
334.542	615.81
334.771	646.81
334.999	640.81
335.227	625.81
335.455	646.81
335.684	653.81
335.912	643.81
336.14	636.81
336.369	630.81
336.597	656.81
336.825	641.81
337.053	644.81
337.281	656.81
337.51	639.81
337.738	635.81
337.966	627.81
338.194	642.81
338.422	636.81
338.65	615.81
338.878	615.81
339.106	626.81
339.334	633.81
339.562	603.81
339.79	596.81
340.018	594.81
340.246	598.81
340.474	623.81
340.702	608.81
340.93	601.81
341.158	600.81
341.386	616.81
341.614	631.81
341.842	630.81
342.07	598.81
342.298	619.81
342.526	611.81
342.754	611.81
342.981	591.81
343.209	625.81
343.437	630.81
343.665	645.81
343.893	634.81
344.12	662.81
344.348	632.81
344.576	648.81
344.804	652.81
345.031	627.81
345.259	635.81
345.487	626.81
345.714	620.81
345.942	650.81
346.17	644.81
346.397	641.81
346.625	613.81
346.853	613.81
347.08	588.81
347.308	609.81
347.535	582.81
347.763	566.81
347.99	598.81
348.218	585.81
348.445	575.81
348.673	586.81
348.9	599.81
349.128	589.81
349.355	596.81
349.583	640.81
349.81	583.81
350.037	585.81
350.265	586.81
350.492	567.81
350.72	568.81
350.947	577.81
351.174	592.81
351.402	599.81
351.629	651.81
351.856	614.81
352.083	595.81
352.311	614.81
352.538	625.81
352.765	630.81
352.992	592.81
353.22	568.81
353.447	552.81
353.674	556.81
353.901	572.81
354.128	586.81
354.355	569.81
354.583	562.81
354.81	560.81
355.037	548.81
355.264	553.81
355.491	560.81
355.718	560.81
355.945	558.81
356.172	554.81
356.399	584.81
356.626	572.81
356.853	586.81
357.08	568.81
357.307	554.81
357.534	554.81
357.761	567.81
357.988	550.81
358.215	567.81
358.441	553.81
358.668	563.81
358.895	585.81
359.122	553.81
359.349	565.81
359.576	571.81
359.802	560.81
360.029	579.81
360.256	566.81
360.483	578.81
360.709	568.81
360.936	580.81
361.163	594.81
361.39	578.81
361.616	591.81
361.843	598.81
362.07	619.81
362.296	605.81
362.523	608.81
362.749	571.81
362.976	546.81
363.203	567.81
363.429	576.81
363.656	577.81
363.882	578.81
364.109	575.81
364.335	574.81
364.562	566.81
364.788	563.81
365.015	583.81
365.241	562.81
365.468	578.81
365.694	559.81
365.92	551.81
366.147	568.81
366.373	542.81
366.599	562.81
366.826	581.81
367.052	574.81
367.278	553.81
367.505	562.81
367.731	587.81
367.957	576.81
368.184	602.81
368.41	583.81
368.636	596.81
368.862	594.81
369.089	594.81
369.315	588.81
369.541	596.81
369.767	583.81
369.993	581.81
370.219	571.81
370.445	584.81
370.672	587.81
370.898	609.81
371.124	618.81
371.35	613.81
371.576	597.81
371.802	606.81
372.028	610.81
372.254	602.81
372.48	606.81
372.706	604.81
372.932	602.81
373.158	621.81
373.384	611.81
373.61	620.81
373.835	602.81
374.061	612.81
374.287	631.81
374.513	642.81
374.739	644.81
374.965	624.81
375.191	635.81
375.416	635.81
375.642	615.81
375.868	620.81
376.094	610.81
376.319	624.81
376.545	616.81
376.771	595.81
376.997	608.81
377.222	605.81
377.448	606.81
377.674	611.81
377.899	606.81
378.125	587.81
378.35	602.81
378.576	615.81
378.802	575.81
379.027	615.81
379.253	627.81
379.478	591.81
379.704	603.81
379.929	595.81
380.155	586.81
380.38	563.81
380.606	611.81
380.831	618.81
381.057	610.81
381.282	618.81
381.507	572.81
381.733	606.81
381.958	585.81
382.184	620.81
382.409	618.81
382.634	622.81
382.86	607.81
383.085	610.81
383.31	633.81
383.535	596.81
383.761	627.81
383.986	639.81
384.211	632.81
384.436	647.81
384.662	665.81
384.887	673.81
385.112	647.81
385.337	680.81
385.562	680.81
385.787	687.81
386.013	680.81
386.238	671.81
386.463	688.81
386.688	682.81
386.913	702.81
387.138	653.81
387.363	673.81
387.588	683.81
387.813	687.81
388.038	673.81
388.263	673.81
388.488	674.81
388.713	674.81
388.938	668.81
389.163	657.81
389.387	670.81
389.612	681.81
389.837	700.81
390.062	703.81
390.287	682.81
390.512	683.81
390.736	675.81
390.961	712.81
391.186	695.81
391.411	714.81
391.636	708.81
391.86	715.81
392.085	710.81
392.31	701.81
392.534	705.81
392.759	713.81
392.984	707.81
393.208	752.81
393.433	739.81
393.658	715.81
393.882	710.81
394.107	730.81
394.331	706.81
394.556	704.81
394.78	728.81
395.005	724.81
395.229	735.81
395.454	717.81
395.678	721.81
395.903	739.81
396.127	731.81
396.352	712.81
396.576	728.81
396.801	707.81
397.025	744.81
397.249	754.81
397.474	769.81
397.698	754.81
397.922	804.81
398.147	786.81
398.371	765.81
398.595	808.81
398.82	817.81
399.044	832.81
399.268	868.81
399.492	900.81
399.717	926.81
399.941	931.81
400.165	894.81
400.389	872.81
400.613	879.81
400.837	853.81
401.062	841.81
401.286	800.81
401.51	811.81
401.734	809.81
401.958	812.81
402.182	840.81
402.406	830.81
402.63	803.81
402.854	830.81
403.078	828.81
403.302	832.81
403.526	837.81
403.75	825.81
403.974	863.81
404.198	809.81
404.422	839.81
404.645	838.81
404.869	806.81
405.093	822.81
405.317	826.81
405.541	834.81
405.765	815.81
405.988	871.81
406.212	855.81
406.436	849.81
406.66	899.81
406.883	892.81
407.107	892.81
407.331	912.81
407.555	923.81
407.778	957.81
408.002	916.81
408.226	908.81
408.449	912.81
408.673	890.81
408.896	907.81
409.12	895.81
409.344	883.81
409.567	880.81
409.791	882.81
410.014	879.81
410.238	867.81
410.461	894.81
410.685	865.81
410.908	840.81
411.132	856.81
411.355	843.81
411.578	832.81
411.802	862.81
412.025	834.81
412.249	838.81
412.472	827.81
412.695	837.81
412.919	834.81
413.142	820.81
413.365	820.81
413.589	827.81
413.812	824.81
414.035	828.81
414.258	822.81
414.482	824.81
414.705	826.81
414.928	815.81
415.151	821.81
415.374	823.81
415.597	815.81
415.821	801.81
416.044	782.81
416.267	812.81
416.49	800.81
416.713	812.81
416.936	819.81
417.159	796.81
417.382	818.81
417.605	788.81
417.828	778.81
418.051	793.81
418.274	795.81
418.497	770.81
418.72	807.81
418.943	792.81
419.166	834.81
419.389	870.81
419.611	892.81
419.834	839.81
420.057	827.81
420.28	830.81
420.503	790.81
420.726	790.81
420.948	786.81
421.171	796.81
421.394	777.81
421.617	798.81
421.839	774.81
422.062	788.81
422.285	768.81
422.507	816.81
422.73	797.81
422.953	804.81
423.175	776.81
423.398	794.81
423.621	805.81
423.843	799.81
424.066	807.81
424.288	794.81
424.511	822.81
424.733	792.81
424.956	796.81
425.178	775.81
425.401	808.81
425.623	784.81
425.846	770.81
426.068	778.81
426.291	788.81
426.513	780.81
426.735	759.81
426.958	772.81
427.18	771.81
427.402	748.81
427.625	782.81
427.847	776.81
428.069	777.81
428.292	795.81
428.514	766.81
428.736	750.81
428.958	772.81
429.181	751.81
429.403	762.81
429.625	761.81
429.847	741.81
430.069	789.81
430.292	757.81
430.514	751.81
430.736	767.81
430.958	773.81
431.18	777.81
431.402	767.81
431.624	768.81
431.846	743.81
432.068	760.81
432.29	763.81
432.512	766.81
432.734	780.81
432.956	778.81
433.178	793.81
433.4	797.81
433.622	792.81
433.844	801.81
434.066	780.81
434.287	786.81
434.509	794.81
434.731	787.81
434.953	792.81
435.175	803.81
435.397	820.81
435.618	794.81
435.84	785.81
436.062	792.81
436.284	784.81
436.505	789.81
436.727	754.81
436.949	785.81
437.17	772.81
437.392	764.81
437.614	771.81
437.835	756.81
438.057	751.81
438.278	725.81
438.5	756.81
438.721	745.81
438.943	755.81
439.165	738.81
439.386	771.81
439.608	767.81
439.829	792.81
440.05	792.81
440.272	792.81
440.493	793.81
440.715	790.81
440.936	807.81
441.158	787.81
441.379	791.81
441.6	831.81
441.822	803.81
442.043	832.81
442.264	825.81
442.486	800.81
442.707	790.81
442.928	795.81
443.149	827.81
443.371	849.81
443.592	839.81
443.813	871.81
444.034	832.81
444.255	821.81
444.476	827.81
444.698	863.81
444.919	878.81
445.14	950.81
445.361	898.81
445.582	850.81
445.803	806.81
446.024	806.81
446.245	795.81
446.466	788.81
446.687	791.81
446.908	768.81
447.129	765.81
447.35	732.81
447.571	733.81
447.792	758.81
448.013	743.81
448.234	752.81
448.455	731.81
448.675	714.81
448.896	741.81
449.117	718.81
449.338	736.81
449.559	712.81
449.779	697.81
450	720.81
450.221	730.81
450.442	719.81
450.662	720.81
450.883	728.81
451.104	736.81
451.324	736.81
451.545	696.81
451.766	721.81
451.986	705.81
452.207	704.81
452.428	726.81
452.648	707.81
452.869	694.81
453.089	692.81
453.31	723.81
453.53	698.81
453.751	689.81
453.971	690.81
454.192	679.81
454.412	665.81
454.633	699.81
454.853	684.81
455.073	674.81
455.294	733.81
455.514	696.81
455.734	692.81
455.955	707.81
456.175	710.81
456.395	683.81
456.616	675.81
456.836	705.81
457.056	712.81
457.276	699.81
457.497	699.81
457.717	696.81
457.937	700.81
458.157	694.81
458.377	696.81
458.598	730.81
458.818	731.81
459.038	723.81
459.258	764.81
459.478	777.81
459.698	820.81
459.918	829.81
460.138	848.81
460.358	834.81
460.578	844.81
460.798	884.81
461.018	882.81
461.238	850.81
461.458	827.81
461.678	840.81
461.898	854.81
462.118	868.81
462.338	870.81
462.558	894.81
462.777	916.81
462.997	956.81
463.217	964.81
463.437	970.81
463.657	963.81
463.876	937.81
464.096	928.81
464.316	889.81
464.536	896.81
464.755	900.81
464.975	851.81
465.195	840.81
465.414	835.81
465.634	795.81
465.854	810.81
466.073	763.81
466.293	762.81
466.512	764.81
466.732	752.81
466.951	772.81
467.171	745.81
467.391	740.81
467.61	742.81
467.829	776.81
468.049	770.81
468.268	737.81
468.488	740.81
468.707	759.81
468.927	734.81
469.146	718.81
469.365	733.81
469.585	748.81
469.804	743.81
470.023	757.81
470.243	743.81
470.462	755.81
470.681	755.81
470.901	744.81
471.12	770.81
471.339	761.81
471.558	754.81
471.777	734.81
471.997	738.81
472.216	731.81
472.435	739.81
472.654	737.81
472.873	742.81
473.092	750.81
473.311	728.81
473.53	735.81
473.749	763.81
473.968	711.81
474.187	743.81
474.406	714.81
474.625	770.81
474.844	756.81
475.063	769.81
475.282	756.81
475.501	741.81
475.72	791.81
475.939	766.81
476.158	758.81
476.377	780.81
476.596	772.81
476.814	773.81
477.033	786.81
477.252	753.81
477.471	802.81
477.69	827.81
477.908	809.81
478.127	830.81
478.346	814.81
478.564	843.81
478.783	838.81
479.002	835.81
479.22	874.81
479.439	896.81
479.658	859.81
479.876	870.81
480.095	873.81
480.313	894.81
480.532	882.81
480.751	851.81
480.969	852.81
481.188	840.81
481.406	859.81
481.624	854.81
481.843	835.81
482.061	835.81
482.28	858.81
482.498	836.81
482.717	856.81
482.935	866.81
483.153	873.81
483.372	890.81
483.59	881.81
483.808	899.81
484.027	859.81
484.245	859.81
484.463	852.81
484.681	878.81
484.9	862.81
485.118	867.81
485.336	866.81
485.554	866.81
485.772	878.81
485.99	871.81
486.209	863.81
486.427	867.81
486.645	851.81
486.863	878.81
487.081	896.81
487.299	885.81
487.517	866.81
487.735	866.81
487.953	891.81
488.171	869.81
488.389	885.81
488.607	881.81
488.825	892.81
489.043	844.81
489.261	881.81
489.479	870.81
489.696	870.81
489.914	870.81
490.132	886.81
490.35	914.81
490.568	887.81
490.786	908.81
491.003	903.81
491.221	939.81
491.439	915.81
491.657	910.81
491.874	910.81
492.092	912.81
492.31	908.81
492.527	943.81
492.745	946.81
492.963	938.81
493.18	948.81
493.398	922.81
493.615	932.81
493.833	937.81
494.05	955.81
494.268	912.81
494.485	946.81
494.703	922.81
494.92	935.81
495.138	948.81
495.355	950.81
495.573	937.81
495.79	952.81
496.008	969.81
496.225	962.81
496.442	980.81
496.66	1007.81
496.877	998.81
497.094	1022.81
497.312	1012.81
497.529	1043.81
497.746	1043.81
497.963	1049.81
498.181	1111.81
498.398	1111.81
498.615	1146.81
498.832	1194.81
499.049	1223.81
499.267	1228.81
499.484	1285.81
499.701	1364.81
499.918	1447.81
500.135	1489.81
500.352	1570.81
500.569	1587.81
500.786	1552.81
501.003	1563.81
501.22	1481.81
