Data from Ni(NO3)2@0.125M.TitratingCurve.Agarose3%dH2O.NegLispCup.LampEnergy10.LIBS07252019_HRD10591_18-09-20-567.txt Node
Date: Thu Jul 25 18:09:20 EDT 2019
User: cochatt
Spectrometer: HR+D1059
Trigger mode: 1
Integration Time (sec): 1.000000E-1
Scans to average: 1
Electric dark correction enabled: true
Nonlinearity correction enabled: false
Boxcar width: 0
XAxis mode: Wavelengths
Number of Pixels in Spectrum: 2048
>>>>>Begin Spectral Data<<<<<
223.165	-17.56
223.4	-17.56
223.635	-17.56
223.869	-21.56
224.104	-17.56
224.338	-23.56
224.573	-12.56
224.808	-14.56
225.042	6.44
225.277	-5.56
225.511	1.44
225.746	-0.56
225.98	13.44
226.215	8.44
226.449	1.44
226.683	25.44
226.918	24.44
227.152	32.44
227.387	33.44
227.621	44.44
227.856	29.44
228.09	38.44
228.324	40.44
228.559	37.44
228.793	59.44
229.027	99.44
229.262	99.44
229.496	97.44
229.73	119.44
229.964	119.44
230.199	109.44
230.433	103.44
230.667	122.44
230.901	113.44
231.136	114.44
231.37	124.44
231.604	123.44
231.838	132.44
232.072	129.44
232.306	136.44
232.541	143.44
232.775	125.44
233.009	128.44
233.243	139.44
233.477	124.44
233.711	139.44
233.945	155.44
234.179	129.44
234.413	139.44
234.647	139.44
234.881	137.44
235.115	138.44
235.349	127.44
235.583	125.44
235.817	134.44
236.051	145.44
236.285	137.44
236.519	138.44
236.753	142.44
236.987	148.44
237.221	150.44
237.455	144.44
237.689	147.44
237.922	131.44
238.156	146.44
238.39	150.44
238.624	166.44
238.858	155.44
239.091	154.44
239.325	141.44
239.559	142.44
239.793	175.44
240.027	163.44
240.26	175.44
240.494	153.44
240.728	145.44
240.961	149.44
241.195	154.44
241.429	146.44
241.662	158.44
241.896	161.44
242.13	173.44
242.363	181.44
242.597	174.44
242.83	176.44
243.064	167.44
243.298	176.44
243.531	175.44
243.765	188.44
243.998	191.44
244.232	189.44
244.465	176.44
244.699	191.44
244.932	190.44
245.166	205.44
245.399	185.44
245.633	206.44
245.866	192.44
246.099	174.44
246.333	190.44
246.566	206.44
246.8	193.44
247.033	185.44
247.266	200.44
247.5	212.44
247.733	199.44
247.966	184.44
248.2	190.44
248.433	201.44
248.666	195.44
248.899	204.44
249.133	195.44
249.366	220.44
249.599	223.44
249.832	219.44
250.066	205.44
250.299	210.44
250.532	222.44
250.765	226.44
250.998	215.44
251.231	219.44
251.465	218.44
251.698	226.44
251.931	209.44
252.164	225.44
252.397	233.44
252.63	241.44
252.863	237.44
253.096	225.44
253.329	251.44
253.562	231.44
253.795	247.44
254.028	240.44
254.261	241.44
254.494	251.44
254.727	241.44
254.96	247.44
255.193	247.44
255.426	251.44
255.659	239.44
255.892	249.44
256.124	248.44
256.357	233.44
256.59	258.44
256.823	241.44
257.056	255.44
257.289	269.44
257.521	268.44
257.754	263.44
257.987	241.44
258.22	267.44
258.452	273.44
258.685	271.44
258.918	272.44
259.151	254.44
259.383	267.44
259.616	271.44
259.849	263.44
260.081	289.44
260.314	273.44
260.547	276.44
260.779	283.44
261.012	295.44
261.244	255.44
261.477	288.44
261.71	297.44
261.942	285.44
262.175	290.44
262.407	286.44
262.64	288.44
262.872	287.44
263.105	293.44
263.337	283.44
263.57	293.44
263.802	298.44
264.035	301.44
264.267	311.44
264.499	302.44
264.732	298.44
264.964	307.44
265.197	320.44
265.429	322.44
265.661	319.44
265.894	315.44
266.126	323.44
266.358	291.44
266.591	306.44
266.823	313.44
267.055	309.44
267.287	323.44
267.52	283.44
267.752	321.44
267.984	317.44
268.216	325.44
268.448	337.44
268.681	319.44
268.913	329.44
269.145	322.44
269.377	318.44
269.609	334.44
269.841	319.44
270.073	319.44
270.306	322.44
270.538	323.44
270.77	335.44
271.002	343.44
271.234	331.44
271.466	323.44
271.698	311.44
271.93	336.44
272.162	322.44
272.394	349.44
272.626	323.44
272.858	360.44
273.09	339.44
273.322	350.44
273.553	353.44
273.785	336.44
274.017	356.44
274.249	331.44
274.481	346.44
274.713	355.44
274.945	362.44
275.176	369.44
275.408	365.44
275.64	356.44
275.872	371.44
276.104	373.44
276.335	363.44
276.567	366.44
276.799	355.44
277.031	362.44
277.262	355.44
277.494	375.44
277.726	365.44
277.957	355.44
278.189	368.44
278.421	379.44
278.652	383.44
278.884	356.44
279.115	413.44
279.347	393.44
279.579	393.44
279.81	377.44
280.042	371.44
280.273	380.44
280.505	400.44
280.736	387.44
280.968	377.44
281.199	392.44
281.431	410.44
281.662	399.44
281.894	406.44
282.125	409.44
282.356	429.44
282.588	398.44
282.819	386.44
283.051	412.44
283.282	393.44
283.513	401.44
283.745	414.44
283.976	430.44
284.207	411.44
284.439	415.44
284.67	424.44
284.901	418.44
285.132	419.44
285.364	418.44
285.595	415.44
285.826	399.44
286.057	440.44
286.288	431.44
286.52	431.44
286.751	429.44
286.982	440.44
287.213	422.44
287.444	443.44
287.675	445.44
287.906	416.44
288.138	448.44
288.369	415.44
288.6	449.44
288.831	427.44
289.062	461.44
289.293	461.44
289.524	445.44
289.755	455.44
289.986	440.44
290.217	416.44
290.448	433.44
290.679	460.44
290.91	425.44
291.141	441.44
291.371	442.44
291.602	466.44
291.833	448.44
292.064	435.44
292.295	452.44
292.526	440.44
292.757	443.44
292.987	453.44
293.218	441.44
293.449	475.44
293.68	454.44
293.91	448.44
294.141	450.44
294.372	435.44
294.603	436.44
294.833	451.44
295.064	453.44
295.295	464.44
295.525	450.44
295.756	462.44
295.987	465.44
296.217	467.44
296.448	461.44
296.679	467.44
296.909	486.44
297.14	466.44
297.37	468.44
297.601	504.44
297.831	484.44
298.062	479.44
298.292	518.44
298.523	491.44
298.753	500.44
298.984	495.44
299.214	503.44
299.445	491.44
299.675	486.44
299.905	476.44
300.136	481.44
300.366	495.44
300.597	494.44
300.827	518.44
301.057	497.44
301.288	509.44
301.518	511.44
301.748	502.44
301.979	515.44
302.209	523.44
302.439	495.44
302.669	515.44
302.9	509.44
303.13	516.44
303.36	504.44
303.59	511.44
303.82	513.44
304.051	509.44
304.281	521.44
304.511	518.44
304.741	509.44
304.971	509.44
305.201	513.44
305.431	497.44
305.661	506.44
305.891	523.44
306.121	512.44
306.352	513.44
306.582	497.44
306.812	499.44
307.042	529.44
307.272	497.44
307.502	493.44
307.731	491.44
307.961	498.44
308.191	495.44
308.421	478.44
308.651	501.44
308.881	505.44
309.111	522.44
309.341	485.44
309.571	502.44
309.8	506.44
310.03	513.44
310.26	509.44
310.49	512.44
310.72	498.44
310.949	494.44
311.179	516.44
311.409	525.44
311.639	511.44
311.868	529.44
312.098	505.44
312.328	521.44
312.557	521.44
312.787	532.44
313.017	516.44
313.246	527.44
313.476	536.44
313.706	531.44
313.935	534.44
314.165	560.44
314.394	559.44
314.624	547.44
314.853	514.44
315.083	552.44
315.312	537.44
315.542	574.44
315.771	525.44
316.001	531.44
316.23	529.44
316.46	530.44
316.689	557.44
316.919	520.44
317.148	551.44
317.377	521.44
317.607	539.44
317.836	532.44
318.065	533.44
318.295	514.44
318.524	538.44
318.753	521.44
318.983	546.44
319.212	543.44
319.441	519.44
319.67	535.44
319.9	541.44
320.129	535.44
320.358	537.44
320.587	505.44
320.816	537.44
321.046	543.44
321.275	538.44
321.504	532.44
321.733	547.44
321.962	552.44
322.191	540.44
322.42	545.44
322.649	547.44
322.878	524.44
323.108	538.44
323.337	558.44
323.566	545.44
323.795	543.44
324.024	577.44
324.253	544.44
324.482	539.44
324.71	556.44
324.939	547.44
325.168	557.44
325.397	567.44
325.626	580.44
325.855	584.44
326.084	584.44
326.313	586.44
326.542	591.44
326.77	599.44
326.999	596.44
327.228	585.44
327.457	570.44
327.686	579.44
327.914	598.44
328.143	566.44
328.372	577.44
328.6	608.44
328.829	588.44
329.058	594.44
329.287	620.44
329.515	611.44
329.744	600.44
329.972	614.44
330.201	619.44
330.43	622.44
330.658	603.44
330.887	634.44
331.115	603.44
331.344	635.44
331.572	631.44
331.801	651.44
332.03	638.44
332.258	697.44
332.486	673.44
332.715	703.44
332.943	741.44
333.172	790.44
333.4	818.44
333.629	817.44
333.857	806.44
334.085	792.44
334.314	801.44
334.542	777.44
334.771	765.44
334.999	746.44
335.227	735.44
335.455	765.44
335.684	738.44
335.912	738.44
336.14	750.44
336.369	724.44
336.597	736.44
336.825	733.44
337.053	699.44
337.281	733.44
337.51	705.44
337.738	693.44
337.966	673.44
338.194	667.44
338.422	649.44
338.65	651.44
338.878	666.44
339.106	661.44
339.334	651.44
339.562	652.44
339.79	642.44
340.018	633.44
340.246	650.44
340.474	622.44
340.702	643.44
340.93	650.44
341.158	642.44
341.386	656.44
341.614	643.44
341.842	639.44
342.07	618.44
342.298	610.44
342.526	617.44
342.754	612.44
342.981	617.44
343.209	638.44
343.437	685.44
343.665	726.44
343.893	776.44
344.12	801.44
344.348	762.44
344.576	725.44
344.804	689.44
345.031	713.44
345.259	659.44
345.487	638.44
345.714	615.44
345.942	627.44
346.17	644.44
346.397	613.44
346.625	612.44
346.853	638.44
347.08	621.44
347.308	599.44
347.535	582.44
347.763	621.44
347.99	631.44
348.218	619.44
348.445	610.44
348.673	623.44
348.9	613.44
349.128	608.44
349.355	606.44
349.583	626.44
349.81	593.44
350.037	567.44
350.265	601.44
350.492	592.44
350.72	577.44
350.947	600.44
351.174	618.44
351.402	573.44
351.629	586.44
351.856	581.44
352.083	586.44
352.311	594.44
352.538	581.44
352.765	567.44
352.992	575.44
353.22	594.44
353.447	569.44
353.674	564.44
353.901	583.44
354.128	582.44
354.355	600.44
354.583	594.44
354.81	598.44
355.037	593.44
355.264	588.44
355.491	598.44
355.718	594.44
355.945	608.44
356.172	609.44
356.399	586.44
356.626	591.44
356.853	593.44
357.08	584.44
357.307	591.44
357.534	568.44
357.761	604.44
357.988	598.44
358.215	573.44
358.441	603.44
358.668	583.44
358.895	588.44
359.122	594.44
359.349	581.44
359.576	604.44
359.802	606.44
360.029	588.44
360.256	592.44
360.483	577.44
360.709	571.44
360.936	586.44
361.163	609.44
361.39	583.44
361.616	596.44
361.843	580.44
362.07	593.44
362.296	601.44
362.523	592.44
362.749	604.44
362.976	583.44
363.203	628.44
363.429	585.44
363.656	579.44
363.882	591.44
364.109	579.44
364.335	584.44
364.562	597.44
364.788	570.44
365.015	573.44
365.241	591.44
365.468	625.44
365.694	573.44
365.92	583.44
366.147	582.44
366.373	579.44
366.599	585.44
366.826	593.44
367.052	582.44
367.278	591.44
367.505	593.44
367.731	594.44
367.957	583.44
368.184	593.44
368.41	597.44
368.636	585.44
368.862	586.44
369.089	598.44
369.315	592.44
369.541	614.44
369.767	623.44
369.993	611.44
370.219	607.44
370.445	614.44
370.672	627.44
370.898	641.44
371.124	633.44
371.35	651.44
371.576	642.44
371.802	659.44
372.028	644.44
372.254	629.44
372.48	626.44
372.706	662.44
372.932	669.44
373.158	651.44
373.384	661.44
373.61	639.44
373.835	646.44
374.061	633.44
374.287	647.44
374.513	669.44
374.739	635.44
374.965	709.44
375.191	706.44
375.416	691.44
375.642	693.44
375.868	699.44
376.094	659.44
376.319	611.44
376.545	663.44
376.771	671.44
376.997	643.44
377.222	635.44
377.448	633.44
377.674	663.44
377.899	622.44
378.125	618.44
378.35	629.44
378.576	629.44
378.802	646.44
379.027	605.44
379.253	616.44
379.478	616.44
379.704	626.44
379.929	632.44
380.155	630.44
380.38	602.44
380.606	640.44
380.831	625.44
381.057	645.44
381.282	624.44
381.507	625.44
381.733	607.44
381.958	641.44
382.184	641.44
382.409	657.44
382.634	680.44
382.86	687.44
383.085	678.44
383.31	681.44
383.535	710.44
383.761	680.44
383.986	695.44
384.211	732.44
384.436	721.44
384.662	779.44
384.887	770.44
385.112	772.44
385.337	776.44
385.562	782.44
385.787	769.44
386.013	767.44
386.238	751.44
386.463	771.44
386.688	756.44
386.913	772.44
387.138	738.44
387.363	735.44
387.588	750.44
387.813	753.44
388.038	750.44
388.263	756.44
388.488	765.44
388.713	762.44
388.938	745.44
389.163	714.44
389.387	750.44
389.612	738.44
389.837	732.44
390.062	741.44
390.287	755.44
390.512	744.44
390.736	752.44
390.961	760.44
391.186	756.44
391.411	795.44
391.636	831.44
391.86	825.44
392.085	876.44
392.31	877.44
392.534	853.44
392.759	803.44
392.984	800.44
393.208	799.44
393.433	783.44
393.658	813.44
393.882	820.44
394.107	804.44
394.331	804.44
394.556	798.44
394.78	824.44
395.005	824.44
395.229	825.44
395.454	861.44
395.678	862.44
395.903	872.44
396.127	854.44
396.352	826.44
396.576	786.44
396.801	801.44
397.025	804.44
397.249	811.44
397.474	846.44
397.698	853.44
397.922	878.44
398.147	842.44
398.371	881.44
398.595	907.44
398.82	927.44
399.044	998.44
399.268	1095.44
399.492	1297.44
399.717	1412.44
399.941	1454.44
400.165	1273.44
400.389	1131.44
400.613	1088.44
400.837	994.44
401.062	983.44
401.286	961.44
401.51	913.44
401.734	963.44
401.958	953.44
402.182	976.44
402.406	968.44
402.63	1011.44
402.854	1011.44
403.078	1045.44
403.302	1077.44
403.526	1098.44
403.75	1102.44
403.974	1113.44
404.198	1114.44
404.422	1099.44
404.645	1109.44
404.869	1088.44
405.093	1113.44
405.317	1074.44
405.541	1041.44
405.765	1048.44
405.988	1030.44
406.212	1032.44
406.436	1031.44
406.66	1111.44
406.883	1091.44
407.107	1150.44
407.331	1211.44
407.555	1244.44
407.778	1244.44
408.002	1219.44
408.226	1143.44
408.449	1145.44
408.673	1115.44
408.896	1071.44
409.12	1043.44
409.344	1104.44
409.567	1071.44
409.791	1107.44
410.014	1080.44
410.238	1069.44
410.461	1069.44
410.685	1057.44
410.908	1035.44
411.132	1018.44
411.355	982.44
411.578	966.44
411.802	988.44
412.025	1008.44
412.249	1019.44
412.472	994.44
412.695	975.44
412.919	975.44
413.142	959.44
413.365	959.44
413.589	949.44
413.812	955.44
414.035	964.44
414.258	955.44
414.482	948.44
414.705	945.44
414.928	967.44
415.151	970.44
415.374	968.44
415.597	970.44
415.821	931.44
416.044	935.44
416.267	937.44
416.49	919.44
416.713	925.44
416.936	939.44
417.159	947.44
417.382	929.44
417.605	938.44
417.828	914.44
418.051	957.44
418.274	949.44
418.497	928.44
418.72	979.44
418.943	999.44
419.166	1021.44
419.389	1083.44
419.611	1063.44
419.834	1029.44
420.057	1006.44
420.28	941.44
420.503	951.44
420.726	933.44
420.948	956.44
421.171	935.44
421.394	938.44
421.617	934.44
421.839	944.44
422.062	959.44
422.285	970.44
422.507	985.44
422.73	959.44
422.953	957.44
423.175	996.44
423.398	1011.44
423.621	1007.44
423.843	1028.44
424.066	1014.44
424.288	1018.44
424.511	1010.44
424.733	1000.44
424.956	996.44
425.178	971.44
425.401	954.44
425.623	965.44
425.846	928.44
426.068	910.44
426.291	918.44
426.513	909.44
426.735	885.44
426.958	889.44
427.18	851.44
427.402	850.44
427.625	886.44
427.847	871.44
428.069	883.44
428.292	882.44
428.514	833.44
428.736	836.44
428.958	864.44
429.181	821.44
429.403	829.44
429.625	833.44
429.847	825.44
430.069	836.44
430.292	842.44
430.514	829.44
430.736	825.44
430.958	836.44
431.18	846.44
431.402	837.44
431.624	837.44
431.846	833.44
432.068	872.44
432.29	881.44
432.512	856.44
432.734	867.44
432.956	825.44
433.178	852.44
433.4	872.44
433.622	867.44
433.844	881.44
434.066	863.44
434.287	861.44
434.509	896.44
434.731	938.44
434.953	997.44
435.175	963.44
435.397	967.44
435.618	882.44
435.84	891.44
436.062	879.44
436.284	878.44
436.505	866.44
436.727	877.44
436.949	865.44
437.17	857.44
437.392	844.44
437.614	824.44
437.835	822.44
438.057	816.44
438.278	828.44
438.5	797.44
438.721	818.44
438.943	823.44
439.165	829.44
439.386	835.44
439.608	869.44
439.829	843.44
440.05	871.44
440.272	872.44
440.493	865.44
440.715	892.44
440.936	886.44
441.158	884.44
441.379	928.44
441.6	998.44
441.822	975.44
442.043	963.44
442.264	931.44
442.486	927.44
442.707	965.44
442.928	971.44
443.149	934.44
443.371	969.44
443.592	943.44
443.813	970.44
444.034	978.44
444.255	994.44
444.476	1023.44
444.698	1118.44
444.919	1159.44
445.14	1235.44
445.361	1107.44
445.582	1012.44
445.803	944.44
446.024	935.44
446.245	877.44
446.466	914.44
446.687	873.44
446.908	880.44
447.129	835.44
447.35	819.44
447.571	833.44
447.792	806.44
448.013	837.44
448.234	808.44
448.455	810.44
448.675	804.44
448.896	799.44
449.117	767.44
449.338	796.44
449.559	784.44
449.779	761.44
450	766.44
450.221	765.44
450.442	791.44
450.662	803.44
450.883	818.44
451.104	805.44
451.324	847.44
451.545	794.44
451.766	824.44
451.986	795.44
452.207	797.44
452.428	787.44
452.648	806.44
452.869	779.44
453.089	747.44
453.31	762.44
453.53	753.44
453.751	744.44
453.971	740.44
454.192	750.44
454.412	727.44
454.633	755.44
454.853	772.44
455.073	741.44
455.294	752.44
455.514	715.44
455.734	729.44
455.955	742.44
456.175	748.44
456.395	737.44
456.616	733.44
456.836	739.44
457.056	720.44
457.276	749.44
457.497	759.44
457.717	729.44
457.937	736.44
458.157	729.44
458.377	760.44
458.598	775.44
458.818	774.44
459.038	781.44
459.258	829.44
459.478	859.44
459.698	878.44
459.918	911.44
460.138	945.44
460.358	967.44
460.578	978.44
460.798	1025.44
461.018	1032.44
461.238	978.44
461.458	1023.44
461.678	1008.44
461.898	1014.44
462.118	1021.44
462.338	1067.44
462.558	1082.44
462.777	1148.44
462.997	1248.44
463.217	1373.44
463.437	1379.44
463.657	1222.44
463.876	1190.44
464.096	1141.44
464.316	1167.44
464.536	1185.44
464.755	1151.44
464.975	1077.44
465.195	1050.44
465.414	995.44
465.634	935.44
465.854	903.44
466.073	890.44
466.293	872.44
466.512	863.44
466.732	856.44
466.951	842.44
467.171	805.44
467.391	819.44
467.61	834.44
467.829	850.44
468.049	805.44
468.268	825.44
468.488	778.44
468.707	798.44
468.927	786.44
469.146	786.44
469.365	802.44
469.585	794.44
469.804	860.44
470.023	835.44
470.243	833.44
470.462	860.44
470.681	846.44
470.901	811.44
471.12	838.44
471.339	823.44
471.558	801.44
471.777	809.44
471.997	810.44
472.216	793.44
472.435	797.44
472.654	778.44
472.873	755.44
473.092	742.44
473.311	763.44
473.53	762.44
473.749	752.44
473.968	765.44
474.187	777.44
474.406	744.44
474.625	764.44
474.844	755.44
475.063	761.44
475.282	767.44
475.501	780.44
475.72	795.44
475.939	795.44
476.158	808.44
476.377	809.44
476.596	816.44
476.814	815.44
477.033	836.44
477.252	801.44
477.471	855.44
477.69	870.44
477.908	883.44
478.127	897.44
478.346	915.44
478.564	912.44
478.783	940.44
479.002	947.44
479.22	988.44
479.439	964.44
479.658	923.44
479.876	953.44
480.095	969.44
480.313	985.44
480.532	1030.44
480.751	1026.44
480.969	1011.44
481.188	947.44
481.406	962.44
481.624	910.44
481.843	895.44
482.061	881.44
482.28	884.44
482.498	867.44
482.717	890.44
482.935	881.44
483.153	864.44
483.372	872.44
483.59	898.44
483.808	883.44
484.027	883.44
484.245	889.44
484.463	888.44
484.681	898.44
484.9	905.44
485.118	883.44
485.336	896.44
485.554	906.44
485.772	936.44
485.99	907.44
486.209	906.44
486.427	936.44
486.645	930.44
486.863	949.44
487.081	931.44
487.299	917.44
487.517	929.44
487.735	936.44
487.953	957.44
488.171	923.44
488.389	921.44
488.607	908.44
488.825	913.44
489.043	907.44
489.261	909.44
489.479	909.44
489.696	899.44
489.914	904.44
490.132	930.44
490.35	887.44
490.568	922.44
490.786	929.44
491.003	915.44
491.221	961.44
491.439	955.44
491.657	929.44
491.874	943.44
492.092	941.44
492.31	929.44
492.527	959.44
492.745	943.44
492.963	943.44
493.18	964.44
493.398	967.44
493.615	996.44
493.833	988.44
494.05	957.44
494.268	967.44
494.485	992.44
494.703	970.44
494.92	949.44
495.138	971.44
495.355	952.44
495.573	985.44
495.79	942.44
496.008	970.44
496.225	1018.44
496.442	1023.44
496.66	1030.44
496.877	1037.44
497.094	1034.44
497.312	1053.44
497.529	1097.44
497.746	1079.44
497.963	1147.44
498.181	1192.44
498.398	1237.44
498.615	1315.44
498.832	1396.44
499.049	1474.44
499.267	1606.44
499.484	1754.44
499.701	1923.44
499.918	2173.44
500.135	2477.44
