Data from Ni(NO3)2@0.25M.TitratingCurve.Agarose3%dH2O.NegLispCup.LampEnergy10.LIBS07252019_HRD10591_18-02-59-565.txt Node
Date: Thu Jul 25 18:02:59 EDT 2019
User: cochatt
Spectrometer: HR+D1059
Trigger mode: 1
Integration Time (sec): 1.000000E-1
Scans to average: 1
Electric dark correction enabled: true
Nonlinearity correction enabled: false
Boxcar width: 0
XAxis mode: Wavelengths
Number of Pixels in Spectrum: 2048
>>>>>Begin Spectral Data<<<<<
223.165	-6.88
223.4	-6.88
223.635	-6.88
223.869	-10.88
224.104	-30.88
224.338	-10.88
224.573	2.12
224.808	-29.88
225.042	-14.88
225.277	-12.88
225.511	-3.88
225.746	4.12
225.98	6.12
226.215	10.12
226.449	20.12
226.683	25.12
226.918	24.12
227.152	29.12
227.387	24.12
227.621	47.12
227.856	62.12
228.09	56.12
228.324	57.12
228.559	55.12
228.793	54.12
229.027	75.12
229.262	81.12
229.496	99.12
229.73	90.12
229.964	88.12
230.199	104.12
230.433	107.12
230.667	105.12
230.901	99.12
231.136	92.12
231.37	103.12
231.604	112.12
231.838	95.12
232.072	111.12
232.306	99.12
232.541	105.12
232.775	105.12
233.009	123.12
233.243	94.12
233.477	118.12
233.711	121.12
233.945	94.12
234.179	93.12
234.413	120.12
234.647	121.12
234.881	103.12
235.115	114.12
235.349	109.12
235.583	112.12
235.817	108.12
236.051	103.12
236.285	86.12
236.519	108.12
236.753	104.12
236.987	100.12
237.221	90.12
237.455	101.12
237.689	101.12
237.922	119.12
238.156	128.12
238.39	115.12
238.624	118.12
238.858	117.12
239.091	104.12
239.325	107.12
239.559	120.12
239.793	123.12
240.027	117.12
240.26	120.12
240.494	121.12
240.728	121.12
240.961	121.12
241.195	112.12
241.429	124.12
241.662	129.12
241.896	151.12
242.13	136.12
242.363	123.12
242.597	115.12
242.83	133.12
243.064	132.12
243.298	129.12
243.531	132.12
243.765	131.12
243.998	134.12
244.232	141.12
244.465	133.12
244.699	134.12
244.932	125.12
245.166	133.12
245.399	155.12
245.633	151.12
245.866	154.12
246.099	135.12
246.333	136.12
246.566	161.12
246.8	151.12
247.033	149.12
247.266	158.12
247.5	160.12
247.733	177.12
247.966	169.12
248.2	160.12
248.433	159.12
248.666	175.12
248.899	180.12
249.133	194.12
249.366	196.12
249.599	201.12
249.832	192.12
250.066	188.12
250.299	177.12
250.532	203.12
250.765	227.12
250.998	226.12
251.231	215.12
251.465	228.12
251.698	211.12
251.931	226.12
252.164	230.12
252.397	236.12
252.63	252.12
252.863	244.12
253.096	247.12
253.329	255.12
253.562	259.12
253.795	251.12
254.028	277.12
254.261	283.12
254.494	266.12
254.727	268.12
254.96	280.12
255.193	290.12
255.426	294.12
255.659	311.12
255.892	305.12
256.124	308.12
256.357	290.12
256.59	312.12
256.823	308.12
257.056	322.12
257.289	303.12
257.521	332.12
257.754	348.12
257.987	331.12
258.22	343.12
258.452	334.12
258.685	345.12
258.918	361.12
259.151	342.12
259.383	353.12
259.616	352.12
259.849	358.12
260.081	356.12
260.314	345.12
260.547	360.12
260.779	358.12
261.012	391.12
261.244	384.12
261.477	367.12
261.71	387.12
261.942	393.12
262.175	371.12
262.407	403.12
262.64	385.12
262.872	376.12
263.105	381.12
263.337	386.12
263.57	382.12
263.802	394.12
264.035	396.12
264.267	380.12
264.499	392.12
264.732	413.12
264.964	399.12
265.197	396.12
265.429	411.12
265.661	393.12
265.894	412.12
266.126	414.12
266.358	402.12
266.591	411.12
266.823	424.12
267.055	418.12
267.287	404.12
267.52	395.12
267.752	388.12
267.984	415.12
268.216	433.12
268.448	431.12
268.681	411.12
268.913	412.12
269.145	422.12
269.377	421.12
269.609	439.12
269.841	424.12
270.073	406.12
270.306	407.12
270.538	443.12
270.77	442.12
271.002	444.12
271.234	427.12
271.466	445.12
271.698	422.12
271.93	428.12
272.162	441.12
272.394	437.12
272.626	441.12
272.858	431.12
273.09	424.12
273.322	437.12
273.553	452.12
273.785	435.12
274.017	437.12
274.249	439.12
274.481	444.12
274.713	453.12
274.945	452.12
275.176	426.12
275.408	423.12
275.64	448.12
275.872	450.12
276.104	461.12
276.335	452.12
276.567	455.12
276.799	446.12
277.031	450.12
277.262	444.12
277.494	474.12
277.726	472.12
277.957	464.12
278.189	433.12
278.421	448.12
278.652	447.12
278.884	460.12
279.115	445.12
279.347	464.12
279.579	468.12
279.81	453.12
280.042	445.12
280.273	453.12
280.505	456.12
280.736	460.12
280.968	471.12
281.199	457.12
281.431	455.12
281.662	431.12
281.894	456.12
282.125	465.12
282.356	460.12
282.588	477.12
282.819	453.12
283.051	460.12
283.282	444.12
283.513	444.12
283.745	444.12
283.976	453.12
284.207	453.12
284.439	478.12
284.67	434.12
284.901	467.12
285.132	464.12
285.364	468.12
285.595	472.12
285.826	452.12
286.057	465.12
286.288	457.12
286.52	450.12
286.751	472.12
286.982	468.12
287.213	457.12
287.444	447.12
287.675	469.12
287.906	482.12
288.138	456.12
288.369	444.12
288.6	454.12
288.831	456.12
289.062	455.12
289.293	462.12
289.524	467.12
289.755	462.12
289.986	448.12
290.217	488.12
290.448	471.12
290.679	491.12
290.91	442.12
291.141	445.12
291.371	466.12
291.602	459.12
291.833	447.12
292.064	439.12
292.295	460.12
292.526	460.12
292.757	453.12
292.987	461.12
293.218	463.12
293.449	449.12
293.68	442.12
293.91	470.12
294.141	440.12
294.372	442.12
294.603	443.12
294.833	455.12
295.064	472.12
295.295	471.12
295.525	445.12
295.756	444.12
295.987	461.12
296.217	456.12
296.448	451.12
296.679	463.12
296.909	482.12
297.14	459.12
297.37	471.12
297.601	446.12
297.831	481.12
298.062	443.12
298.292	461.12
298.523	466.12
298.753	469.12
298.984	486.12
299.214	473.12
299.445	470.12
299.675	473.12
299.905	475.12
300.136	460.12
300.366	475.12
300.597	481.12
300.827	472.12
301.057	487.12
301.288	490.12
301.518	486.12
301.748	480.12
301.979	507.12
302.209	507.12
302.439	492.12
302.669	507.12
302.9	489.12
303.13	480.12
303.36	525.12
303.59	514.12
303.82	496.12
304.051	519.12
304.281	511.12
304.511	524.12
304.741	537.12
304.971	535.12
305.201	519.12
305.431	507.12
305.661	515.12
305.891	509.12
306.121	499.12
306.352	527.12
306.582	504.12
306.812	522.12
307.042	533.12
307.272	538.12
307.502	532.12
307.731	546.12
307.961	530.12
308.191	532.12
308.421	546.12
308.651	561.12
308.881	557.12
309.111	557.12
309.341	571.12
309.571	553.12
309.8	553.12
310.03	570.12
310.26	555.12
310.49	580.12
310.72	585.12
310.949	571.12
311.179	565.12
311.409	607.12
311.639	583.12
311.868	588.12
312.098	609.12
312.328	595.12
312.557	623.12
312.787	615.12
313.017	613.12
313.246	605.12
313.476	604.12
313.706	648.12
313.935	629.12
314.165	622.12
314.394	638.12
314.624	667.12
314.853	657.12
315.083	665.12
315.312	675.12
315.542	672.12
315.771	665.12
316.001	661.12
316.23	681.12
316.46	695.12
316.689	679.12
316.919	706.12
317.148	713.12
317.377	729.12
317.607	707.12
317.836	740.12
318.065	717.12
318.295	747.12
318.524	760.12
318.753	739.12
318.983	756.12
319.212	745.12
319.441	777.12
319.67	795.12
319.9	778.12
320.129	761.12
320.358	795.12
320.587	784.12
320.816	797.12
321.046	800.12
321.275	828.12
321.504	810.12
321.733	872.12
321.962	828.12
322.191	818.12
322.42	852.12
322.649	840.12
322.878	844.12
323.108	876.12
323.337	879.12
323.566	850.12
323.795	890.12
324.024	895.12
324.253	890.12
324.482	879.12
324.71	913.12
324.939	936.12
325.168	929.12
325.397	930.12
325.626	971.12
325.855	940.12
326.084	979.12
326.313	975.12
326.542	985.12
326.77	987.12
326.999	979.12
327.228	990.12
327.457	991.12
327.686	1015.12
327.914	1045.12
328.143	1025.12
328.372	1026.12
328.6	1046.12
328.829	1038.12
329.058	993.12
329.287	1021.12
329.515	1029.12
329.744	1031.12
329.972	1063.12
330.201	1041.12
330.43	1078.12
330.658	1067.12
330.887	1100.12
331.115	1106.12
331.344	1110.12
331.572	1112.12
331.801	1115.12
332.03	1110.12
332.258	1128.12
332.486	1116.12
332.715	1115.12
332.943	1152.12
333.172	1143.12
333.4	1155.12
333.629	1161.12
333.857	1163.12
334.085	1181.12
334.314	1166.12
334.542	1169.12
334.771	1199.12
334.999	1211.12
335.227	1197.12
335.455	1213.12
335.684	1206.12
335.912	1246.12
336.14	1191.12
336.369	1208.12
336.597	1245.12
336.825	1200.12
337.053	1233.12
337.281	1224.12
337.51	1227.12
337.738	1223.12
337.966	1211.12
338.194	1215.12
338.422	1198.12
338.65	1219.12
338.878	1210.12
339.106	1199.12
339.334	1209.12
339.562	1208.12
339.79	1193.12
340.018	1256.12
340.246	1213.12
340.474	1187.12
340.702	1213.12
340.93	1208.12
341.158	1185.12
341.386	1183.12
341.614	1189.12
341.842	1203.12
342.07	1177.12
342.298	1213.12
342.526	1209.12
342.754	1200.12
342.981	1228.12
343.209	1197.12
343.437	1247.12
343.665	1245.12
343.893	1215.12
344.12	1244.12
344.348	1217.12
344.576	1263.12
344.804	1241.12
345.031	1219.12
345.259	1239.12
345.487	1219.12
345.714	1254.12
345.942	1211.12
346.17	1238.12
346.397	1207.12
346.625	1185.12
346.853	1217.12
347.08	1193.12
347.308	1193.12
347.535	1168.12
347.763	1197.12
347.99	1206.12
348.218	1186.12
348.445	1183.12
348.673	1196.12
348.9	1187.12
349.128	1199.12
349.355	1153.12
349.583	1190.12
349.81	1172.12
350.037	1181.12
350.265	1152.12
350.492	1184.12
350.72	1182.12
350.947	1205.12
351.174	1206.12
351.402	1149.12
351.629	1162.12
351.856	1159.12
352.083	1163.12
352.311	1184.12
352.538	1131.12
352.765	1149.12
352.992	1117.12
353.22	1108.12
353.447	1155.12
353.674	1169.12
353.901	1177.12
354.128	1147.12
354.355	1163.12
354.583	1161.12
354.81	1161.12
355.037	1153.12
355.264	1171.12
355.491	1177.12
355.718	1161.12
355.945	1184.12
356.172	1173.12
356.399	1194.12
356.626	1145.12
356.853	1165.12
357.08	1165.12
357.307	1168.12
357.534	1148.12
357.761	1188.12
357.988	1159.12
358.215	1164.12
358.441	1140.12
358.668	1152.12
358.895	1122.12
359.122	1132.12
359.349	1159.12
359.576	1134.12
359.802	1105.12
360.029	1132.12
360.256	1132.12
360.483	1143.12
360.709	1151.12
360.936	1153.12
361.163	1125.12
361.39	1143.12
361.616	1151.12
361.843	1161.12
362.07	1149.12
362.296	1123.12
362.523	1140.12
362.749	1139.12
362.976	1125.12
363.203	1145.12
363.429	1137.12
363.656	1109.12
363.882	1130.12
364.109	1133.12
364.335	1136.12
364.562	1128.12
364.788	1132.12
365.015	1143.12
365.241	1135.12
365.468	1132.12
365.694	1149.12
365.92	1134.12
366.147	1123.12
366.373	1134.12
366.599	1122.12
366.826	1125.12
367.052	1116.12
367.278	1126.12
367.505	1117.12
367.731	1104.12
367.957	1125.12
368.184	1145.12
368.41	1147.12
368.636	1105.12
368.862	1155.12
369.089	1153.12
369.315	1119.12
369.541	1144.12
369.767	1147.12
369.993	1124.12
370.219	1100.12
370.445	1094.12
370.672	1128.12
370.898	1137.12
371.124	1139.12
371.35	1133.12
371.576	1131.12
371.802	1136.12
372.028	1139.12
372.254	1108.12
372.48	1124.12
372.706	1141.12
372.932	1139.12
373.158	1102.12
373.384	1120.12
373.61	1119.12
373.835	1107.12
374.061	1110.12
374.287	1112.12
374.513	1110.12
374.739	1136.12
374.965	1110.12
375.191	1097.12
375.416	1123.12
375.642	1095.12
375.868	1130.12
376.094	1098.12
376.319	1087.12
376.545	1082.12
376.771	1069.12
376.997	1080.12
377.222	1075.12
377.448	1079.12
377.674	1079.12
377.899	1047.12
378.125	1079.12
378.35	1049.12
378.576	1081.12
378.802	1044.12
379.027	1079.12
379.253	1075.12
379.478	1050.12
379.704	1063.12
379.929	1064.12
380.155	1055.12
380.38	1060.12
380.606	1067.12
380.831	1042.12
381.057	1050.12
381.282	1046.12
381.507	1050.12
381.733	1056.12
381.958	1050.12
382.184	1048.12
382.409	1074.12
382.634	1056.12
382.86	1056.12
383.085	1054.12
383.31	1079.12
383.535	1051.12
383.761	1082.12
383.986	1072.12
384.211	1075.12
384.436	1075.12
384.662	1117.12
384.887	1102.12
385.112	1068.12
385.337	1116.12
385.562	1110.12
385.787	1107.12
386.013	1104.12
386.238	1097.12
386.463	1079.12
386.688	1096.12
386.913	1122.12
387.138	1130.12
387.363	1112.12
387.588	1099.12
387.813	1125.12
388.038	1122.12
388.263	1107.12
388.488	1116.12
388.713	1114.12
388.938	1120.12
389.163	1107.12
389.387	1151.12
389.612	1109.12
389.837	1143.12
390.062	1110.12
390.287	1142.12
390.512	1095.12
390.736	1135.12
390.961	1145.12
391.186	1125.12
391.411	1156.12
391.636	1161.12
391.86	1145.12
392.085	1155.12
392.31	1164.12
392.534	1139.12
392.759	1169.12
392.984	1127.12
393.208	1140.12
393.433	1145.12
393.658	1150.12
393.882	1159.12
394.107	1112.12
394.331	1127.12
394.556	1115.12
394.78	1111.12
395.005	1131.12
395.229	1150.12
395.454	1153.12
395.678	1169.12
395.903	1139.12
396.127	1161.12
396.352	1158.12
396.576	1185.12
396.801	1168.12
397.025	1180.12
397.249	1168.12
397.474	1180.12
397.698	1192.12
397.922	1199.12
398.147	1206.12
398.371	1241.12
398.595	1206.12
398.82	1211.12
399.044	1242.12
399.268	1270.12
399.492	1331.12
399.717	1276.12
399.941	1321.12
400.165	1344.12
400.389	1293.12
400.613	1258.12
400.837	1294.12
401.062	1275.12
401.286	1277.12
401.51	1293.12
401.734	1299.12
401.958	1285.12
402.182	1300.12
402.406	1284.12
402.63	1273.12
402.854	1272.12
403.078	1263.12
403.302	1253.12
403.526	1285.12
403.75	1296.12
403.974	1303.12
404.198	1295.12
404.422	1290.12
404.645	1287.12
404.869	1313.12
405.093	1323.12
405.317	1287.12
405.541	1296.12
405.765	1312.12
405.988	1340.12
406.212	1336.12
406.436	1339.12
406.66	1345.12
406.883	1320.12
407.107	1351.12
407.331	1345.12
407.555	1382.12
407.778	1381.12
408.002	1359.12
408.226	1405.12
408.449	1427.12
408.673	1372.12
408.896	1343.12
409.12	1367.12
409.344	1387.12
409.567	1367.12
409.791	1339.12
410.014	1407.12
410.238	1359.12
410.461	1359.12
410.685	1365.12
410.908	1328.12
411.132	1353.12
411.355	1322.12
411.578	1327.12
411.802	1328.12
412.025	1347.12
412.249	1343.12
412.472	1358.12
412.695	1324.12
412.919	1332.12
413.142	1365.12
413.365	1341.12
413.589	1333.12
413.812	1368.12
414.035	1336.12
414.258	1335.12
414.482	1363.12
414.705	1335.12
414.928	1350.12
415.151	1321.12
415.374	1365.12
415.597	1342.12
415.821	1323.12
416.044	1321.12
416.267	1327.12
416.49	1352.12
416.713	1336.12
416.936	1352.12
417.159	1338.12
417.382	1331.12
417.605	1286.12
417.828	1303.12
418.051	1336.12
418.274	1290.12
418.497	1299.12
418.72	1317.12
418.943	1287.12
419.166	1330.12
419.389	1486.12
419.611	1407.12
419.834	1387.12
420.057	1362.12
420.28	1330.12
420.503	1274.12
420.726	1292.12
420.948	1294.12
421.171	1361.12
421.394	1304.12
421.617	1314.12
421.839	1331.12
422.062	1362.12
422.285	1305.12
422.507	1335.12
422.73	1344.12
422.953	1325.12
423.175	1341.12
423.398	1351.12
423.621	1323.12
423.843	1355.12
424.066	1383.12
424.288	1340.12
424.511	1315.12
424.733	1357.12
424.956	1322.12
425.178	1365.12
425.401	1396.12
425.623	1378.12
425.846	1356.12
426.068	1351.12
426.291	1361.12
426.513	1397.12
426.735	1345.12
426.958	1389.12
427.18	1353.12
427.402	1370.12
427.625	1360.12
427.847	1347.12
428.069	1332.12
428.292	1412.12
428.514	1358.12
428.736	1357.12
428.958	1396.12
429.181	1360.12
429.403	1352.12
429.625	1351.12
429.847	1355.12
430.069	1370.12
430.292	1354.12
430.514	1355.12
430.736	1394.12
430.958	1396.12
431.18	1361.12
431.402	1364.12
431.624	1361.12
431.846	1361.12
432.068	1361.12
432.29	1356.12
432.512	1324.12
432.734	1403.12
432.956	1393.12
433.178	1403.12
433.4	1416.12
433.622	1419.12
433.844	1411.12
434.066	1404.12
434.287	1375.12
434.509	1399.12
434.731	1381.12
434.953	1432.12
435.175	1393.12
435.397	1431.12
435.618	1403.12
435.84	1385.12
436.062	1378.12
436.284	1400.12
436.505	1391.12
436.727	1355.12
436.949	1388.12
437.17	1347.12
437.392	1381.12
437.614	1380.12
437.835	1328.12
438.057	1380.12
438.278	1356.12
438.5	1350.12
438.721	1389.12
438.943	1384.12
439.165	1342.12
439.386	1356.12
439.608	1404.12
439.829	1382.12
440.05	1366.12
440.272	1368.12
440.493	1391.12
440.715	1385.12
440.936	1393.12
441.158	1388.12
441.379	1387.12
441.6	1402.12
441.822	1382.12
442.043	1410.12
442.264	1383.12
442.486	1382.12
442.707	1391.12
442.928	1423.12
443.149	1448.12
443.371	1415.12
443.592	1440.12
443.813	1431.12
444.034	1415.12
444.255	1385.12
444.476	1442.12
444.698	1437.12
444.919	1427.12
445.14	1524.12
445.361	1461.12
445.582	1409.12
445.803	1372.12
446.024	1397.12
446.245	1418.12
446.466	1384.12
446.687	1353.12
446.908	1395.12
447.129	1344.12
447.35	1349.12
447.571	1376.12
447.792	1322.12
448.013	1313.12
448.234	1304.12
448.455	1356.12
448.675	1327.12
448.896	1309.12
449.117	1288.12
449.338	1341.12
449.559	1313.12
449.779	1308.12
450	1274.12
450.221	1307.12
450.442	1311.12
450.662	1293.12
450.883	1320.12
451.104	1298.12
451.324	1291.12
451.545	1285.12
451.766	1279.12
451.986	1292.12
452.207	1289.12
452.428	1282.12
452.648	1283.12
452.869	1261.12
453.089	1255.12
453.31	1250.12
453.53	1253.12
453.751	1271.12
453.971	1229.12
454.192	1260.12
454.412	1247.12
454.633	1240.12
454.853	1266.12
455.073	1267.12
455.294	1266.12
455.514	1263.12
455.734	1249.12
455.955	1207.12
456.175	1268.12
456.395	1239.12
456.616	1217.12
456.836	1263.12
457.056	1265.12
457.276	1218.12
457.497	1229.12
457.717	1267.12
457.937	1236.12
458.157	1244.12
458.377	1254.12
458.598	1273.12
458.818	1294.12
459.038	1283.12
459.258	1325.12
459.478	1335.12
459.698	1335.12
459.918	1360.12
460.138	1324.12
460.358	1398.12
460.578	1365.12
460.798	1403.12
461.018	1395.12
461.238	1369.12
461.458	1431.12
461.678	1382.12
461.898	1416.12
462.118	1403.12
462.338	1436.12
462.558	1446.12
462.777	1473.12
462.997	1462.12
463.217	1465.12
463.437	1518.12
463.657	1493.12
463.876	1491.12
464.096	1462.12
464.316	1444.12
464.536	1468.12
464.755	1476.12
464.975	1413.12
465.195	1425.12
465.414	1416.12
465.634	1374.12
465.854	1373.12
466.073	1397.12
466.293	1346.12
466.512	1369.12
466.732	1355.12
466.951	1362.12
467.171	1383.12
467.391	1360.12
467.61	1370.12
467.829	1367.12
468.049	1407.12
468.268	1363.12
468.488	1324.12
468.707	1352.12
468.927	1359.12
469.146	1343.12
469.365	1345.12
469.585	1327.12
469.804	1345.12
470.023	1384.12
470.243	1357.12
470.462	1370.12
470.681	1380.12
470.901	1381.12
471.12	1375.12
471.339	1375.12
471.558	1383.12
471.777	1357.12
471.997	1384.12
472.216	1324.12
472.435	1348.12
472.654	1353.12
472.873	1353.12
473.092	1398.12
473.311	1399.12
473.53	1392.12
473.749	1380.12
473.968	1408.12
474.187	1413.12
474.406	1386.12
474.625	1421.12
474.844	1422.12
475.063	1437.12
475.282	1442.12
475.501	1439.12
475.72	1484.12
475.939	1447.12
476.158	1477.12
476.377	1461.12
476.596	1477.12
476.814	1479.12
477.033	1475.12
477.252	1506.12
477.471	1506.12
477.69	1487.12
477.908	1561.12
478.127	1563.12
478.346	1565.12
478.564	1572.12
478.783	1547.12
479.002	1644.12
479.22	1616.12
479.439	1636.12
479.658	1611.12
479.876	1617.12
480.095	1624.12
480.313	1636.12
480.532	1620.12
480.751	1641.12
480.969	1643.12
481.188	1620.12
481.406	1622.12
481.624	1607.12
481.843	1604.12
482.061	1628.12
482.28	1631.12
482.498	1644.12
482.717	1620.12
482.935	1682.12
483.153	1670.12
483.372	1661.12
483.59	1702.12
483.808	1673.12
484.027	1674.12
484.245	1676.12
484.463	1674.12
484.681	1717.12
484.9	1677.12
485.118	1697.12
485.336	1698.12
485.554	1694.12
485.772	1716.12
485.99	1714.12
486.209	1677.12
486.427	1682.12
486.645	1691.12
486.863	1742.12
487.081	1703.12
487.299	1702.12
487.517	1702.12
487.735	1748.12
487.953	1736.12
488.171	1777.12
488.389	1744.12
488.607	1700.12
488.825	1717.12
489.043	1738.12
489.261	1698.12
489.479	1719.12
489.696	1736.12
489.914	1719.12
490.132	1761.12
490.35	1751.12
490.568	1752.12
490.786	1765.12
491.003	1802.12
491.221	1777.12
491.439	1811.12
491.657	1828.12
