Data from Ni(NO3)2@0.125M.TitratingCurve.Agarose3%dH2O.NegLispCup.LampEnergy10.LIBS07252019_HRD10591_18-09-11-568.txt Node
Date: Thu Jul 25 18:09:11 EDT 2019
User: cochatt
Spectrometer: HR+D1059
Trigger mode: 1
Integration Time (sec): 1.000000E-1
Scans to average: 1
Electric dark correction enabled: true
Nonlinearity correction enabled: false
Boxcar width: 0
XAxis mode: Wavelengths
Number of Pixels in Spectrum: 2048
>>>>>Begin Spectral Data<<<<<
223.165	-14.06
223.4	-14.06
223.635	-14.06
223.869	-11.06
224.104	-29.06
224.338	-10.06
224.573	-21.06
224.808	-5.06
225.042	-13.06
225.277	-5.06
225.511	2.94
225.746	-4.06
225.98	8.94
226.215	18.94
226.449	6.94
226.683	23.94
226.918	24.94
227.152	25.94
227.387	35.94
227.621	33.94
227.856	42.94
228.09	43.94
228.324	43.94
228.559	45.94
228.793	53.94
229.027	106.94
229.262	95.94
229.496	114.94
229.73	101.94
229.964	112.94
230.199	124.94
230.433	115.94
230.667	120.94
230.901	117.94
231.136	113.94
231.37	117.94
231.604	131.94
231.838	130.94
232.072	134.94
232.306	136.94
232.541	126.94
232.775	143.94
233.009	122.94
233.243	123.94
233.477	131.94
233.711	133.94
233.945	142.94
234.179	139.94
234.413	127.94
234.647	120.94
234.881	130.94
235.115	126.94
235.349	139.94
235.583	140.94
235.817	141.94
236.051	128.94
236.285	118.94
236.519	135.94
236.753	138.94
236.987	145.94
237.221	130.94
237.455	147.94
237.689	142.94
237.922	145.94
238.156	142.94
238.39	150.94
238.624	142.94
238.858	150.94
239.091	141.94
239.325	140.94
239.559	150.94
239.793	150.94
240.027	157.94
240.26	150.94
240.494	140.94
240.728	147.94
240.961	152.94
241.195	154.94
241.429	156.94
241.662	165.94
241.896	180.94
242.13	164.94
242.363	155.94
242.597	159.94
242.83	152.94
243.064	150.94
243.298	160.94
243.531	169.94
243.765	179.94
243.998	161.94
244.232	159.94
244.465	167.94
244.699	180.94
244.932	174.94
245.166	184.94
245.399	189.94
245.633	182.94
245.866	184.94
246.099	179.94
246.333	180.94
246.566	189.94
246.8	165.94
247.033	193.94
247.266	189.94
247.5	170.94
247.733	182.94
247.966	184.94
248.2	191.94
248.433	203.94
248.666	202.94
248.899	197.94
249.133	197.94
249.366	204.94
249.599	210.94
249.832	206.94
250.066	204.94
250.299	211.94
250.532	211.94
250.765	213.94
250.998	201.94
251.231	220.94
251.465	228.94
251.698	204.94
251.931	235.94
252.164	230.94
252.397	232.94
252.63	214.94
252.863	219.94
253.096	207.94
253.329	224.94
253.562	210.94
253.795	231.94
254.028	221.94
254.261	225.94
254.494	232.94
254.727	229.94
254.96	225.94
255.193	216.94
255.426	222.94
255.659	210.94
255.892	217.94
256.124	237.94
256.357	245.94
256.59	243.94
256.823	229.94
257.056	245.94
257.289	241.94
257.521	237.94
257.754	229.94
257.987	243.94
258.22	256.94
258.452	256.94
258.685	258.94
258.918	229.94
259.151	244.94
259.383	257.94
259.616	249.94
259.849	249.94
260.081	255.94
260.314	263.94
260.547	262.94
260.779	247.94
261.012	260.94
261.244	258.94
261.477	289.94
261.71	257.94
261.942	271.94
262.175	248.94
262.407	269.94
262.64	271.94
262.872	251.94
263.105	264.94
263.337	278.94
263.57	274.94
263.802	259.94
264.035	268.94
264.267	297.94
264.499	260.94
264.732	291.94
264.964	275.94
265.197	281.94
265.429	277.94
265.661	293.94
265.894	289.94
266.126	264.94
266.358	296.94
266.591	279.94
266.823	282.94
267.055	299.94
267.287	284.94
267.52	270.94
267.752	295.94
267.984	297.94
268.216	293.94
268.448	280.94
268.681	307.94
268.913	301.94
269.145	280.94
269.377	286.94
269.609	296.94
269.841	320.94
270.073	309.94
270.306	323.94
270.538	312.94
270.77	280.94
271.002	282.94
271.234	293.94
271.466	328.94
271.698	314.94
271.93	299.94
272.162	326.94
272.394	296.94
272.626	304.94
272.858	305.94
273.09	325.94
273.322	324.94
273.553	314.94
273.785	328.94
274.017	329.94
274.249	341.94
274.481	329.94
274.713	329.94
274.945	326.94
275.176	326.94
275.408	339.94
275.64	335.94
275.872	351.94
276.104	349.94
276.335	342.94
276.567	334.94
276.799	332.94
277.031	337.94
277.262	341.94
277.494	360.94
277.726	329.94
277.957	352.94
278.189	349.94
278.421	344.94
278.652	339.94
278.884	342.94
279.115	344.94
279.347	344.94
279.579	353.94
279.81	344.94
280.042	362.94
280.273	373.94
280.505	356.94
280.736	356.94
280.968	357.94
281.199	358.94
281.431	362.94
281.662	360.94
281.894	365.94
282.125	368.94
282.356	345.94
282.588	371.94
282.819	373.94
283.051	364.94
283.282	376.94
283.513	384.94
283.745	391.94
283.976	384.94
284.207	375.94
284.439	365.94
284.67	388.94
284.901	382.94
285.132	385.94
285.364	376.94
285.595	384.94
285.826	376.94
286.057	365.94
286.288	404.94
286.52	396.94
286.751	391.94
286.982	404.94
287.213	406.94
287.444	396.94
287.675	397.94
287.906	395.94
288.138	395.94
288.369	403.94
288.6	388.94
288.831	393.94
289.062	411.94
289.293	401.94
289.524	402.94
289.755	427.94
289.986	394.94
290.217	408.94
290.448	428.94
290.679	399.94
290.91	434.94
291.141	416.94
291.371	434.94
291.602	423.94
291.833	406.94
292.064	438.94
292.295	420.94
292.526	402.94
292.757	429.94
292.987	419.94
293.218	416.94
293.449	436.94
293.68	419.94
293.91	413.94
294.141	406.94
294.372	418.94
294.603	429.94
294.833	422.94
295.064	439.94
295.295	440.94
295.525	413.94
295.756	429.94
295.987	419.94
296.217	451.94
296.448	426.94
296.679	436.94
296.909	452.94
297.14	468.94
297.37	460.94
297.601	464.94
297.831	465.94
298.062	467.94
298.292	441.94
298.523	472.94
298.753	457.94
298.984	469.94
299.214	463.94
299.445	452.94
299.675	456.94
299.905	477.94
300.136	487.94
300.366	468.94
300.597	484.94
300.827	476.94
301.057	457.94
301.288	473.94
301.518	471.94
301.748	494.94
301.979	480.94
302.209	483.94
302.439	489.94
302.669	465.94
302.9	470.94
303.13	454.94
303.36	494.94
303.59	486.94
303.82	454.94
304.051	473.94
304.281	468.94
304.511	484.94
304.741	482.94
304.971	481.94
305.201	487.94
305.431	485.94
305.661	462.94
305.891	463.94
306.121	468.94
306.352	455.94
306.582	472.94
306.812	446.94
307.042	468.94
307.272	470.94
307.502	450.94
307.731	452.94
307.961	457.94
308.191	461.94
308.421	461.94
308.651	457.94
308.881	447.94
309.111	454.94
309.341	472.94
309.571	450.94
309.8	462.94
310.03	482.94
310.26	461.94
310.49	458.94
310.72	458.94
310.949	450.94
311.179	454.94
311.409	464.94
311.639	464.94
311.868	462.94
312.098	467.94
312.328	475.94
312.557	491.94
312.787	480.94
313.017	491.94
313.246	490.94
313.476	488.94
313.706	490.94
313.935	491.94
314.165	512.94
314.394	508.94
314.624	502.94
314.853	492.94
315.083	481.94
315.312	480.94
315.542	514.94
315.771	491.94
316.001	508.94
316.23	490.94
316.46	487.94
316.689	507.94
316.919	498.94
317.148	502.94
317.377	485.94
317.607	498.94
317.836	473.94
318.065	486.94
318.295	481.94
318.524	491.94
318.753	485.94
318.983	481.94
319.212	500.94
319.441	497.94
319.67	487.94
319.9	473.94
320.129	498.94
320.358	485.94
320.587	501.94
320.816	474.94
321.046	507.94
321.275	512.94
321.504	514.94
321.733	503.94
321.962	517.94
322.191	491.94
322.42	481.94
322.649	523.94
322.878	532.94
323.108	496.94
323.337	512.94
323.566	490.94
323.795	521.94
324.024	527.94
324.253	488.94
324.482	505.94
324.71	512.94
324.939	520.94
325.168	516.94
325.397	536.94
325.626	534.94
325.855	526.94
326.084	539.94
326.313	545.94
326.542	531.94
326.77	580.94
326.999	541.94
327.228	557.94
327.457	557.94
327.686	526.94
327.914	548.94
328.143	560.94
328.372	550.94
328.6	539.94
328.829	531.94
329.058	549.94
329.287	550.94
329.515	579.94
329.744	556.94
329.972	557.94
330.201	574.94
330.43	578.94
330.658	566.94
330.887	569.94
331.115	583.94
331.344	571.94
331.572	592.94
331.801	591.94
332.03	595.94
332.258	620.94
332.486	648.94
332.715	658.94
332.943	695.94
333.172	711.94
333.4	760.94
333.629	744.94
333.857	740.94
334.085	757.94
334.314	741.94
334.542	730.94
334.771	697.94
334.999	686.94
335.227	697.94
335.455	710.94
335.684	681.94
335.912	675.94
336.14	690.94
336.369	687.94
336.597	696.94
336.825	698.94
337.053	648.94
337.281	672.94
337.51	651.94
337.738	656.94
337.966	631.94
338.194	660.94
338.422	644.94
338.65	637.94
338.878	590.94
339.106	593.94
339.334	614.94
339.562	611.94
339.79	586.94
340.018	597.94
340.246	576.94
340.474	591.94
340.702	590.94
340.93	578.94
341.158	593.94
341.386	578.94
341.614	622.94
341.842	575.94
342.07	585.94
342.298	573.94
342.526	595.94
342.754	566.94
342.981	565.94
343.209	590.94
343.437	640.94
343.665	680.94
343.893	709.94
344.12	712.94
344.348	693.94
344.576	644.94
344.804	626.94
345.031	618.94
345.259	596.94
345.487	593.94
345.714	594.94
345.942	598.94
346.17	581.94
346.397	615.94
346.625	569.94
346.853	592.94
347.08	563.94
347.308	582.94
347.535	580.94
347.763	574.94
347.99	574.94
348.218	596.94
348.445	588.94
348.673	582.94
348.9	560.94
349.128	578.94
349.355	584.94
349.583	602.94
349.81	572.94
350.037	553.94
350.265	553.94
350.492	575.94
350.72	554.94
350.947	550.94
351.174	565.94
351.402	547.94
351.629	572.94
351.856	544.94
352.083	546.94
352.311	545.94
352.538	561.94
352.765	541.94
352.992	538.94
353.22	540.94
353.447	547.94
353.674	547.94
353.901	534.94
354.128	537.94
354.355	544.94
354.583	549.94
354.81	562.94
355.037	540.94
355.264	549.94
355.491	546.94
355.718	561.94
355.945	561.94
356.172	552.94
356.399	570.94
356.626	558.94
356.853	562.94
357.08	536.94
357.307	539.94
357.534	531.94
357.761	557.94
357.988	555.94
358.215	555.94
358.441	550.94
358.668	549.94
358.895	538.94
359.122	534.94
359.349	532.94
359.576	544.94
359.802	555.94
360.029	538.94
360.256	546.94
360.483	566.94
360.709	521.94
360.936	555.94
361.163	544.94
361.39	553.94
361.616	550.94
361.843	541.94
362.07	566.94
362.296	552.94
362.523	522.94
362.749	533.94
362.976	524.94
363.203	542.94
363.429	533.94
363.656	541.94
363.882	534.94
364.109	547.94
364.335	508.94
364.562	540.94
364.788	531.94
365.015	556.94
365.241	544.94
365.468	529.94
365.694	539.94
365.92	537.94
366.147	526.94
366.373	540.94
366.599	550.94
366.826	549.94
367.052	521.94
367.278	536.94
367.505	554.94
367.731	571.94
367.957	555.94
368.184	568.94
368.41	537.94
368.636	562.94
368.862	552.94
369.089	554.94
369.315	569.94
369.541	557.94
369.767	582.94
369.993	564.94
370.219	570.94
370.445	578.94
370.672	576.94
370.898	585.94
371.124	604.94
371.35	590.94
371.576	589.94
371.802	578.94
372.028	602.94
372.254	600.94
372.48	603.94
372.706	615.94
372.932	627.94
373.158	607.94
373.384	616.94
373.61	583.94
373.835	601.94
374.061	590.94
374.287	604.94
374.513	608.94
374.739	626.94
374.965	653.94
375.191	658.94
375.416	662.94
375.642	625.94
375.868	620.94
376.094	606.94
376.319	598.94
376.545	599.94
376.771	614.94
376.997	569.94
377.222	597.94
377.448	616.94
377.674	585.94
377.899	594.94
378.125	596.94
378.35	594.94
378.576	589.94
378.802	598.94
379.027	569.94
379.253	575.94
379.478	585.94
379.704	569.94
379.929	577.94
380.155	571.94
380.38	581.94
380.606	583.94
380.831	594.94
381.057	596.94
381.282	581.94
381.507	582.94
381.733	602.94
381.958	599.94
382.184	596.94
382.409	624.94
382.634	608.94
382.86	612.94
383.085	604.94
383.31	646.94
383.535	632.94
383.761	640.94
383.986	638.94
384.211	685.94
384.436	676.94
384.662	694.94
384.887	711.94
385.112	713.94
385.337	704.94
385.562	718.94
385.787	724.94
386.013	722.94
386.238	714.94
386.463	714.94
386.688	714.94
386.913	698.94
387.138	693.94
387.363	690.94
387.588	685.94
387.813	678.94
388.038	676.94
388.263	692.94
388.488	698.94
388.713	681.94
388.938	700.94
389.163	666.94
389.387	654.94
389.612	655.94
389.837	692.94
390.062	678.94
390.287	692.94
390.512	685.94
390.736	670.94
390.961	708.94
391.186	745.94
391.411	741.94
391.636	781.94
391.86	790.94
392.085	780.94
392.31	783.94
392.534	760.94
392.759	749.94
392.984	744.94
393.208	715.94
393.433	736.94
393.658	728.94
393.882	752.94
394.107	746.94
394.331	740.94
394.556	759.94
394.78	747.94
395.005	765.94
395.229	750.94
395.454	780.94
395.678	813.94
395.903	804.94
396.127	776.94
396.352	742.94
396.576	727.94
396.801	724.94
397.025	733.94
397.249	749.94
397.474	777.94
397.698	753.94
397.922	750.94
398.147	798.94
398.371	796.94
398.595	822.94
398.82	877.94
399.044	925.94
399.268	1004.94
399.492	1189.94
399.717	1400.94
399.941	1346.94
400.165	1150.94
400.389	1035.94
400.613	952.94
400.837	922.94
401.062	872.94
401.286	893.94
401.51	875.94
401.734	867.94
401.958	890.94
402.182	892.94
402.406	909.94
402.63	925.94
402.854	925.94
403.078	959.94
403.302	994.94
403.526	998.94
403.75	980.94
403.974	1032.94
404.198	1010.94
404.422	1035.94
404.645	1020.94
404.869	996.94
405.093	1011.94
405.317	967.94
405.541	971.94
405.765	950.94
405.988	955.94
406.212	954.94
406.436	980.94
406.66	1010.94
406.883	993.94
407.107	1084.94
407.331	1146.94
407.555	1165.94
407.778	1165.94
408.002	1109.94
408.226	1070.94
408.449	1075.94
408.673	1008.94
408.896	1026.94
409.12	1012.94
409.344	1001.94
409.567	1013.94
409.791	1039.94
410.014	1045.94
410.238	1028.94
410.461	994.94
410.685	951.94
410.908	946.94
411.132	925.94
411.355	929.94
411.578	916.94
411.802	910.94
412.025	920.94
412.249	960.94
412.472	936.94
412.695	898.94
412.919	884.94
413.142	861.94
413.365	905.94
413.589	885.94
413.812	883.94
414.035	890.94
414.258	884.94
414.482	883.94
414.705	908.94
414.928	924.94
415.151	885.94
415.374	868.94
415.597	887.94
415.821	894.94
416.044	872.94
416.267	875.94
416.49	906.94
416.713	895.94
416.936	857.94
417.159	882.94
417.382	899.94
417.605	869.94
417.828	871.94
418.051	887.94
418.274	908.94
418.497	871.94
418.72	908.94
418.943	892.94
419.166	969.94
419.389	1011.94
419.611	986.94
419.834	944.94
420.057	903.94
420.28	901.94
420.503	865.94
420.726	887.94
420.948	833.94
421.171	860.94
421.394	902.94
421.617	890.94
421.839	889.94
422.062	896.94
422.285	876.94
422.507	904.94
422.73	918.94
422.953	921.94
423.175	939.94
423.398	963.94
423.621	970.94
423.843	961.94
424.066	985.94
424.288	985.94
424.511	944.94
424.733	937.94
424.956	909.94
425.178	923.94
425.401	926.94
425.623	895.94
425.846	845.94
426.068	859.94
426.291	838.94
426.513	844.94
426.735	823.94
426.958	844.94
427.18	805.94
427.402	802.94
427.625	806.94
427.847	807.94
428.069	808.94
428.292	809.94
428.514	769.94
428.736	792.94
428.958	781.94
429.181	792.94
429.403	782.94
429.625	748.94
429.847	773.94
430.069	770.94
430.292	766.94
430.514	774.94
430.736	790.94
430.958	782.94
431.18	771.94
431.402	789.94
431.624	782.94
431.846	810.94
432.068	826.94
432.29	830.94
432.512	781.94
432.734	792.94
432.956	780.94
433.178	775.94
433.4	825.94
433.622	841.94
433.844	829.94
434.066	798.94
434.287	832.94
434.509	851.94
434.731	887.94
434.953	900.94
435.175	922.94
435.397	888.94
435.618	843.94
435.84	833.94
436.062	792.94
436.284	813.94
436.505	790.94
436.727	807.94
436.949	808.94
437.17	782.94
437.392	819.94
437.614	817.94
437.835	774.94
438.057	782.94
438.278	773.94
438.5	778.94
438.721	766.94
438.943	774.94
439.165	765.94
439.386	791.94
439.608	782.94
439.829	777.94
440.05	811.94
440.272	795.94
440.493	804.94
440.715	825.94
440.936	836.94
441.158	849.94
441.379	856.94
441.6	924.94
441.822	944.94
442.043	924.94
442.264	891.94
442.486	866.94
442.707	892.94
442.928	872.94
443.149	877.94
443.371	915.94
443.592	933.94
443.813	924.94
444.034	938.94
444.255	942.94
444.476	993.94
444.698	1044.94
444.919	1108.94
445.14	1190.94
445.361	1038.94
445.582	951.94
445.803	885.94
446.024	848.94
446.245	850.94
446.466	856.94
446.687	814.94
446.908	805.94
447.129	801.94
447.35	796.94
447.571	796.94
447.792	783.94
448.013	799.94
448.234	776.94
448.455	732.94
448.675	758.94
448.896	771.94
449.117	714.94
449.338	714.94
449.559	762.94
449.779	756.94
450	752.94
450.221	743.94
450.442	756.94
450.662	772.94
450.883	749.94
451.104	765.94
451.324	798.94
451.545	779.94
451.766	786.94
451.986	745.94
452.207	745.94
452.428	752.94
452.648	744.94
452.869	724.94
453.089	744.94
453.31	733.94
453.53	738.94
453.751	704.94
453.971	717.94
454.192	722.94
454.412	698.94
454.633	699.94
454.853	699.94
455.073	692.94
455.294	700.94
455.514	698.94
455.734	715.94
455.955	704.94
456.175	683.94
456.395	702.94
456.616	674.94
456.836	702.94
457.056	696.94
457.276	657.94
457.497	674.94
457.717	699.94
457.937	697.94
458.157	714.94
458.377	721.94
458.598	732.94
458.818	730.94
459.038	743.94
459.258	793.94
459.478	829.94
459.698	820.94
459.918	844.94
460.138	884.94
460.358	944.94
460.578	936.94
460.798	961.94
461.018	963.94
461.238	933.94
461.458	954.94
461.678	921.94
461.898	933.94
462.118	932.94
462.338	1006.94
462.558	1035.94
462.777	1064.94
462.997	1177.94
463.217	1280.94
463.437	1320.94
463.657	1174.94
463.876	1117.94
464.096	1065.94
464.316	1119.94
464.536	1113.94
464.755	1066.94
464.975	1018.94
465.195	993.94
465.414	909.94
465.634	883.94
465.854	822.94
466.073	804.94
466.293	812.94
466.512	800.94
466.732	812.94
466.951	763.94
467.171	778.94
467.391	786.94
467.61	778.94
467.829	769.94
468.049	756.94
468.268	779.94
468.488	738.94
468.707	734.94
468.927	732.94
469.146	747.94
469.365	756.94
469.585	750.94
469.804	792.94
470.023	768.94
470.243	826.94
470.462	785.94
470.681	818.94
470.901	820.94
471.12	802.94
471.339	786.94
471.558	754.94
471.777	754.94
471.997	746.94
472.216	714.94
472.435	749.94
472.654	723.94
472.873	714.94
473.092	708.94
473.311	733.94
473.53	711.94
473.749	709.94
473.968	722.94
474.187	706.94
474.406	704.94
474.625	714.94
474.844	723.94
475.063	734.94
475.282	697.94
475.501	734.94
475.72	723.94
475.939	724.94
476.158	729.94
476.377	762.94
476.596	764.94
476.814	760.94
477.033	760.94
477.252	754.94
477.471	800.94
477.69	834.94
477.908	821.94
478.127	840.94
478.346	876.94
478.564	870.94
478.783	876.94
479.002	941.94
479.22	918.94
479.439	913.94
479.658	890.94
479.876	889.94
480.095	908.94
480.313	956.94
480.532	986.94
480.751	955.94
480.969	917.94
481.188	850.94
481.406	863.94
481.624	864.94
481.843	827.94
482.061	788.94
482.28	816.94
482.498	800.94
482.717	811.94
482.935	805.94
483.153	804.94
483.372	851.94
483.59	829.94
483.808	820.94
484.027	850.94
484.245	830.94
484.463	832.94
484.681	853.94
484.9	847.94
485.118	842.94
485.336	862.94
485.554	856.94
485.772	860.94
485.99	898.94
486.209	893.94
486.427	893.94
486.645	891.94
486.863	893.94
487.081	894.94
487.299	870.94
487.517	892.94
487.735	864.94
487.953	874.94
488.171	875.94
488.389	867.94
488.607	869.94
488.825	833.94
489.043	864.94
489.261	878.94
489.479	876.94
489.696	846.94
489.914	855.94
490.132	862.94
490.35	868.94
490.568	870.94
490.786	873.94
491.003	890.94
491.221	888.94
491.439	899.94
491.657	880.94
491.874	885.94
492.092	895.94
492.31	901.94
492.527	891.94
492.745	900.94
492.963	890.94
493.18	922.94
493.398	906.94
493.615	901.94
493.833	900.94
494.05	892.94
494.268	927.94
494.485	930.94
494.703	949.94
494.92	915.94
495.138	922.94
495.355	909.94
495.573	912.94
495.79	952.94
496.008	916.94
496.225	953.94
496.442	926.94
496.66	978.94
496.877	967.94
497.094	959.94
497.312	989.94
497.529	981.94
497.746	1037.94
497.963	1050.94
498.181	1092.94
498.398	1143.94
498.615	1184.94
498.832	1285.94
499.049	1408.94
499.267	1484.94
499.484	1654.94
499.701	1816.94
499.918	2037.94
500.135	2362.94
500.352	2724.94
500.569	2921.94
500.786	2869.94
