Data from Ni(NO3)2@0.5M.TitratingCurve.Agarose3%dH2O.NegLispCup.LampEnergy10.LIBS07252019_HRD10591_17-58-52-564.txt Node
Date: Thu Jul 25 17:58:52 EDT 2019
User: cochatt
Spectrometer: HR+D1059
Trigger mode: 1
Integration Time (sec): 1.000000E-1
Scans to average: 1
Electric dark correction enabled: true
Nonlinearity correction enabled: false
Boxcar width: 0
XAxis mode: Wavelengths
Number of Pixels in Spectrum: 2048
>>>>>Begin Spectral Data<<<<<
223.165	-14.62
223.4	-14.62
223.635	-14.62
223.869	-20.62
224.104	-11.62
224.338	-34.62
224.573	-18.62
224.808	-18.62
225.042	-10.62
225.277	11.38
225.511	4.38
225.746	6.38
225.98	9.38
226.215	8.38
226.449	19.38
226.683	18.38
226.918	28.38
227.152	23.38
227.387	31.38
227.621	41.38
227.856	54.38
228.09	47.38
228.324	47.38
228.559	49.38
228.793	60.38
229.027	114.38
229.262	125.38
229.496	122.38
229.73	133.38
229.964	155.38
230.199	174.38
230.433	195.38
230.667	171.38
230.901	167.38
231.136	137.38
231.37	143.38
231.604	161.38
231.838	174.38
232.072	174.38
232.306	181.38
232.541	172.38
232.775	152.38
233.009	133.38
233.243	147.38
233.477	158.38
233.711	152.38
233.945	142.38
234.179	158.38
234.413	157.38
234.647	157.38
234.881	163.38
235.115	159.38
235.349	137.38
235.583	130.38
235.817	136.38
236.051	138.38
236.285	140.38
236.519	146.38
236.753	141.38
236.987	130.38
237.221	145.38
237.455	160.38
237.689	165.38
237.922	171.38
238.156	158.38
238.39	149.38
238.624	149.38
238.858	148.38
239.091	152.38
239.325	153.38
239.559	175.38
239.793	190.38
240.027	184.38
240.26	180.38
240.494	163.38
240.728	160.38
240.961	162.38
241.195	163.38
241.429	165.38
241.662	186.38
241.896	202.38
242.13	203.38
242.363	196.38
242.597	186.38
242.83	178.38
243.064	169.38
243.298	185.38
243.531	163.38
243.765	193.38
243.998	195.38
244.232	213.38
244.465	202.38
244.699	176.38
244.932	177.38
245.166	179.38
245.399	189.38
245.633	179.38
245.866	182.38
246.099	187.38
246.333	188.38
246.566	179.38
246.8	186.38
247.033	181.38
247.266	190.38
247.5	193.38
247.733	212.38
247.966	196.38
248.2	203.38
248.433	200.38
248.666	203.38
248.899	216.38
249.133	200.38
249.366	206.38
249.599	211.38
249.832	198.38
250.066	215.38
250.299	212.38
250.532	199.38
250.765	245.38
250.998	235.38
251.231	235.38
251.465	255.38
251.698	247.38
251.931	221.38
252.164	235.38
252.397	241.38
252.63	219.38
252.863	229.38
253.096	234.38
253.329	234.38
253.562	246.38
253.795	244.38
254.028	224.38
254.261	244.38
254.494	233.38
254.727	248.38
254.96	251.38
255.193	243.38
255.426	230.38
255.659	249.38
255.892	262.38
256.124	267.38
256.357	278.38
256.59	247.38
256.823	257.38
257.056	261.38
257.289	259.38
257.521	252.38
257.754	254.38
257.987	257.38
258.22	268.38
258.452	284.38
258.685	263.38
258.918	293.38
259.151	278.38
259.383	275.38
259.616	278.38
259.849	283.38
260.081	285.38
260.314	288.38
260.547	282.38
260.779	292.38
261.012	302.38
261.244	284.38
261.477	299.38
261.71	293.38
261.942	282.38
262.175	295.38
262.407	288.38
262.64	289.38
262.872	296.38
263.105	301.38
263.337	312.38
263.57	290.38
263.802	298.38
264.035	308.38
264.267	306.38
264.499	291.38
264.732	314.38
264.964	318.38
265.197	311.38
265.429	318.38
265.661	290.38
265.894	311.38
266.126	320.38
266.358	317.38
266.591	321.38
266.823	319.38
267.055	326.38
267.287	309.38
267.52	303.38
267.752	312.38
267.984	331.38
268.216	325.38
268.448	344.38
268.681	329.38
268.913	330.38
269.145	343.38
269.377	330.38
269.609	331.38
269.841	337.38
270.073	341.38
270.306	339.38
270.538	337.38
270.77	337.38
271.002	325.38
271.234	337.38
271.466	350.38
271.698	345.38
271.93	362.38
272.162	331.38
272.394	363.38
272.626	345.38
272.858	341.38
273.09	336.38
273.322	347.38
273.553	338.38
273.785	356.38
274.017	368.38
274.249	363.38
274.481	352.38
274.713	365.38
274.945	347.38
275.176	357.38
275.408	374.38
275.64	354.38
275.872	371.38
276.104	384.38
276.335	357.38
276.567	381.38
276.799	382.38
277.031	378.38
277.262	358.38
277.494	393.38
277.726	382.38
277.957	394.38
278.189	377.38
278.421	380.38
278.652	362.38
278.884	386.38
279.115	382.38
279.347	410.38
279.579	395.38
279.81	396.38
280.042	404.38
280.273	404.38
280.505	405.38
280.736	392.38
280.968	386.38
281.199	413.38
281.431	404.38
281.662	415.38
281.894	406.38
282.125	401.38
282.356	422.38
282.588	411.38
282.819	414.38
283.051	424.38
283.282	405.38
283.513	417.38
283.745	410.38
283.976	416.38
284.207	413.38
284.439	424.38
284.67	432.38
284.901	422.38
285.132	423.38
285.364	426.38
285.595	441.38
285.826	412.38
286.057	426.38
286.288	433.38
286.52	432.38
286.751	445.38
286.982	449.38
287.213	440.38
287.444	439.38
287.675	448.38
287.906	438.38
288.138	448.38
288.369	425.38
288.6	427.38
288.831	432.38
289.062	443.38
289.293	442.38
289.524	428.38
289.755	454.38
289.986	452.38
290.217	453.38
290.448	446.38
290.679	453.38
290.91	447.38
291.141	445.38
291.371	449.38
291.602	464.38
291.833	439.38
292.064	431.38
292.295	441.38
292.526	445.38
292.757	454.38
292.987	455.38
293.218	446.38
293.449	469.38
293.68	445.38
293.91	458.38
294.141	454.38
294.372	450.38
294.603	444.38
294.833	454.38
295.064	443.38
295.295	466.38
295.525	468.38
295.756	461.38
295.987	462.38
296.217	448.38
296.448	480.38
296.679	468.38
296.909	478.38
297.14	471.38
297.37	487.38
297.601	484.38
297.831	479.38
298.062	480.38
298.292	488.38
298.523	509.38
298.753	476.38
298.984	483.38
299.214	487.38
299.445	487.38
299.675	519.38
299.905	488.38
300.136	508.38
300.366	546.38
300.597	539.38
300.827	520.38
301.057	502.38
301.288	546.38
301.518	518.38
301.748	510.38
301.979	526.38
302.209	507.38
302.439	509.38
302.669	488.38
302.9	491.38
303.13	487.38
303.36	516.38
303.59	505.38
303.82	528.38
304.051	525.38
304.281	557.38
304.511	524.38
304.741	524.38
304.971	519.38
305.201	537.38
305.431	545.38
305.661	535.38
305.891	536.38
306.121	554.38
306.352	544.38
306.582	533.38
306.812	518.38
307.042	502.38
307.272	520.38
307.502	504.38
307.731	494.38
307.961	512.38
308.191	516.38
308.421	520.38
308.651	520.38
308.881	510.38
309.111	532.38
309.341	531.38
309.571	543.38
309.8	542.38
310.03	539.38
310.26	570.38
310.49	574.38
310.72	543.38
310.949	545.38
311.179	534.38
311.409	515.38
311.639	530.38
311.868	534.38
312.098	547.38
312.328	544.38
312.557	538.38
312.787	558.38
313.017	573.38
313.246	581.38
313.476	570.38
313.706	582.38
313.935	586.38
314.165	570.38
314.394	577.38
314.624	561.38
314.853	589.38
315.083	588.38
315.312	599.38
315.542	554.38
315.771	570.38
316.001	582.38
316.23	572.38
316.46	589.38
316.689	591.38
316.919	574.38
317.148	555.38
317.377	564.38
317.607	577.38
317.836	602.38
318.065	585.38
318.295	580.38
318.524	584.38
318.753	587.38
318.983	617.38
319.212	579.38
319.441	579.38
319.67	588.38
319.9	596.38
320.129	593.38
320.358	619.38
320.587	596.38
320.816	588.38
321.046	587.38
321.275	637.38
321.504	596.38
321.733	608.38
321.962	597.38
322.191	632.38
322.42	632.38
322.649	617.38
322.878	624.38
323.108	606.38
323.337	632.38
323.566	600.38
323.795	633.38
324.024	639.38
324.253	617.38
324.482	627.38
324.71	627.38
324.939	626.38
325.168	622.38
325.397	636.38
325.626	610.38
325.855	627.38
326.084	664.38
326.313	640.38
326.542	616.38
326.77	630.38
326.999	650.38
327.228	649.38
327.457	625.38
327.686	648.38
327.914	664.38
328.143	646.38
328.372	627.38
328.6	662.38
328.829	637.38
329.058	666.38
329.287	654.38
329.515	668.38
329.744	678.38
329.972	682.38
330.201	664.38
330.43	636.38
330.658	683.38
330.887	668.38
331.115	685.38
331.344	682.38
331.572	683.38
331.801	700.38
332.03	697.38
332.258	684.38
332.486	710.38
332.715	716.38
332.943	730.38
333.172	738.38
333.4	720.38
333.629	715.38
333.857	754.38
334.085	737.38
334.314	737.38
334.542	729.38
334.771	749.38
334.999	754.38
335.227	762.38
335.455	778.38
335.684	779.38
335.912	778.38
336.14	753.38
336.369	745.38
336.597	790.38
336.825	774.38
337.053	757.38
337.281	758.38
337.51	748.38
337.738	762.38
337.966	761.38
338.194	755.38
338.422	752.38
338.65	698.38
338.878	737.38
339.106	724.38
339.334	765.38
339.562	756.38
339.79	722.38
340.018	722.38
340.246	718.38
340.474	708.38
340.702	742.38
340.93	740.38
341.158	715.38
341.386	759.38
341.614	792.38
341.842	795.38
342.07	695.38
342.298	708.38
342.526	738.38
342.754	717.38
342.981	715.38
343.209	730.38
343.437	741.38
343.665	762.38
343.893	783.38
344.12	772.38
344.348	766.38
344.576	785.38
344.804	770.38
345.031	755.38
345.259	732.38
345.487	746.38
345.714	738.38
345.942	765.38
346.17	747.38
346.397	768.38
346.625	729.38
346.853	696.38
347.08	698.38
347.308	695.38
347.535	705.38
347.763	692.38
347.99	694.38
348.218	708.38
348.445	722.38
348.673	678.38
348.9	698.38
349.128	709.38
349.355	726.38
349.583	745.38
349.81	710.38
350.037	701.38
350.265	678.38
350.492	682.38
350.72	689.38
350.947	713.38
351.174	708.38
351.402	709.38
351.629	729.38
351.856	727.38
352.083	702.38
352.311	724.38
352.538	744.38
352.765	768.38
352.992	681.38
353.22	673.38
353.447	661.38
353.674	648.38
353.901	667.38
354.128	663.38
354.355	674.38
354.583	681.38
354.81	669.38
355.037	691.38
355.264	680.38
355.491	654.38
355.718	678.38
355.945	675.38
356.172	692.38
356.399	668.38
356.626	689.38
356.853	729.38
357.08	694.38
357.307	686.38
357.534	683.38
357.761	662.38
357.988	678.38
358.215	675.38
358.441	675.38
358.668	674.38
358.895	682.38
359.122	679.38
359.349	665.38
359.576	672.38
359.802	689.38
360.029	671.38
360.256	679.38
360.483	669.38
360.709	675.38
360.936	680.38
361.163	697.38
361.39	708.38
361.616	712.38
361.843	714.38
362.07	743.38
362.296	710.38
362.523	692.38
362.749	680.38
362.976	689.38
363.203	690.38
363.429	681.38
363.656	668.38
363.882	669.38
364.109	683.38
364.335	692.38
364.562	692.38
364.788	676.38
365.015	683.38
365.241	681.38
365.468	682.38
365.694	697.38
365.92	665.38
366.147	683.38
366.373	666.38
366.599	678.38
366.826	704.38
367.052	681.38
367.278	712.38
367.505	684.38
367.731	678.38
367.957	684.38
368.184	687.38
368.41	691.38
368.636	689.38
368.862	730.38
369.089	708.38
369.315	704.38
369.541	729.38
369.767	728.38
369.993	717.38
370.219	702.38
370.445	684.38
370.672	717.38
370.898	708.38
371.124	738.38
371.35	729.38
371.576	727.38
371.802	734.38
372.028	722.38
372.254	730.38
372.48	722.38
372.706	733.38
372.932	736.38
373.158	745.38
373.384	727.38
373.61	726.38
373.835	742.38
374.061	728.38
374.287	748.38
374.513	737.38
374.739	741.38
374.965	742.38
375.191	758.38
375.416	730.38
375.642	748.38
375.868	720.38
376.094	738.38
376.319	726.38
376.545	735.38
376.771	710.38
376.997	742.38
377.222	714.38
377.448	718.38
377.674	702.38
377.899	738.38
378.125	709.38
378.35	705.38
378.576	725.38
378.802	730.38
379.027	709.38
379.253	726.38
379.478	734.38
379.704	719.38
379.929	713.38
380.155	717.38
380.38	712.38
380.606	704.38
380.831	726.38
381.057	749.38
381.282	717.38
381.507	737.38
381.733	721.38
381.958	749.38
382.184	755.38
382.409	744.38
382.634	744.38
382.86	772.38
383.085	741.38
383.31	757.38
383.535	750.38
383.761	731.38
383.986	744.38
384.211	748.38
384.436	773.38
384.662	772.38
384.887	758.38
385.112	775.38
385.337	795.38
385.562	784.38
385.787	805.38
386.013	835.38
386.238	821.38
386.463	798.38
386.688	806.38
386.913	810.38
387.138	829.38
387.363	834.38
387.588	820.38
387.813	813.38
388.038	798.38
388.263	834.38
388.488	816.38
388.713	830.38
388.938	816.38
389.163	819.38
389.387	817.38
389.612	806.38
389.837	813.38
390.062	811.38
390.287	821.38
390.512	793.38
390.736	834.38
390.961	850.38
391.186	839.38
391.411	832.38
391.636	797.38
391.86	843.38
392.085	840.38
392.31	856.38
392.534	836.38
392.759	865.38
392.984	837.38
393.208	856.38
393.433	834.38
393.658	862.38
393.882	856.38
394.107	883.38
394.331	857.38
394.556	828.38
394.78	847.38
395.005	836.38
395.229	850.38
395.454	859.38
395.678	872.38
395.903	882.38
396.127	873.38
396.352	877.38
396.576	887.38
396.801	867.38
397.025	886.38
397.249	876.38
397.474	894.38
397.698	845.38
397.922	919.38
398.147	896.38
398.371	921.38
398.595	938.38
398.82	973.38
399.044	965.38
399.268	1011.38
399.492	1061.38
399.717	1062.38
399.941	1078.38
400.165	1064.38
400.389	1038.38
400.613	1041.38
400.837	968.38
401.062	962.38
401.286	1005.38
401.51	945.38
401.734	954.38
401.958	994.38
402.182	949.38
402.406	969.38
402.63	973.38
402.854	951.38
403.078	946.38
403.302	936.38
403.526	960.38
403.75	964.38
403.974	984.38
404.198	953.38
404.422	960.38
404.645	941.38
404.869	995.38
405.093	1001.38
405.317	980.38
405.541	972.38
405.765	948.38
405.988	1008.38
406.212	993.38
406.436	989.38
406.66	1015.38
406.883	1013.38
407.107	1036.38
407.331	1064.38
407.555	1073.38
407.778	1054.38
408.002	1102.38
408.226	1093.38
408.449	1062.38
408.673	1058.38
408.896	1044.38
409.12	1046.38
409.344	1033.38
409.567	1028.38
409.791	1016.38
410.014	1028.38
410.238	1006.38
410.461	1003.38
410.685	982.38
410.908	1011.38
411.132	1003.38
411.355	1012.38
411.578	998.38
411.802	986.38
412.025	1003.38
412.249	989.38
412.472	977.38
412.695	966.38
412.919	966.38
413.142	972.38
413.365	969.38
413.589	968.38
413.812	941.38
414.035	963.38
414.258	956.38
414.482	969.38
414.705	948.38
414.928	932.38
415.151	937.38
415.374	971.38
415.597	948.38
415.821	940.38
416.044	962.38
416.267	931.38
416.49	928.38
416.713	946.38
416.936	934.38
417.159	913.38
417.382	907.38
417.605	907.38
417.828	915.38
418.051	942.38
418.274	907.38
418.497	908.38
418.72	929.38
418.943	910.38
419.166	960.38
419.389	1024.38
419.611	990.38
419.834	954.38
420.057	933.38
420.28	921.38
420.503	916.38
420.726	896.38
420.948	910.38
421.171	940.38
421.394	924.38
421.617	894.38
421.839	895.38
422.062	925.38
422.285	903.38
422.507	924.38
422.73	910.38
422.953	916.38
423.175	894.38
423.398	904.38
423.621	921.38
423.843	929.38
424.066	939.38
424.288	929.38
424.511	912.38
424.733	904.38
424.956	919.38
425.178	919.38
425.401	883.38
425.623	950.38
425.846	900.38
426.068	892.38
426.291	914.38
426.513	925.38
426.735	934.38
426.958	892.38
427.18	884.38
427.402	909.38
427.625	932.38
427.847	888.38
428.069	919.38
428.292	899.38
428.514	860.38
428.736	866.38
428.958	883.38
429.181	884.38
429.403	861.38
429.625	897.38
429.847	878.38
430.069	874.38
430.292	896.38
430.514	867.38
430.736	893.38
430.958	902.38
431.18	883.38
431.402	870.38
431.624	886.38
431.846	896.38
432.068	874.38
432.29	895.38
432.512	898.38
432.734	888.38
432.956	913.38
433.178	925.38
433.4	932.38
433.622	924.38
433.844	939.38
434.066	933.38
434.287	939.38
434.509	914.38
434.731	919.38
434.953	908.38
435.175	953.38
435.397	922.38
435.618	934.38
435.84	909.38
436.062	900.38
436.284	903.38
436.505	905.38
436.727	899.38
436.949	900.38
437.17	884.38
437.392	892.38
437.614	873.38
437.835	848.38
438.057	876.38
438.278	852.38
438.5	862.38
438.721	866.38
438.943	910.38
439.165	884.38
439.386	884.38
439.608	901.38
439.829	894.38
440.05	890.38
440.272	922.38
440.493	909.38
440.715	933.38
440.936	910.38
441.158	930.38
441.379	916.38
441.6	965.38
441.822	950.38
442.043	926.38
442.264	934.38
442.486	915.38
442.707	942.38
442.928	928.38
443.149	921.38
443.371	957.38
443.592	1020.38
443.813	976.38
444.034	972.38
444.255	958.38
444.476	985.38
444.698	1013.38
444.919	1015.38
445.14	1085.38
445.361	1041.38
445.582	996.38
445.803	964.38
446.024	947.38
446.245	899.38
446.466	938.38
446.687	898.38
446.908	881.38
447.129	890.38
447.35	869.38
447.571	884.38
447.792	848.38
448.013	846.38
448.234	838.38
448.455	852.38
448.675	834.38
448.896	850.38
449.117	828.38
449.338	822.38
449.559	833.38
449.779	821.38
450	775.38
450.221	818.38
450.442	823.38
450.662	850.38
450.883	816.38
451.104	873.38
451.324	834.38
451.545	822.38
451.766	821.38
451.986	810.38
452.207	801.38
452.428	789.38
452.648	787.38
452.869	777.38
453.089	811.38
453.31	816.38
453.53	818.38
453.751	810.38
453.971	813.38
454.192	795.38
454.412	828.38
454.633	797.38
454.853	809.38
455.073	788.38
455.294	812.38
455.514	807.38
455.734	837.38
455.955	852.38
456.175	857.38
456.395	772.38
456.616	782.38
456.836	807.38
457.056	786.38
457.276	796.38
457.497	812.38
457.717	814.38
457.937	821.38
458.157	826.38
458.377	835.38
458.598	832.38
458.818	837.38
459.038	853.38
459.258	860.38
459.478	924.38
459.698	995.38
459.918	1000.38
460.138	985.38
460.358	965.38
460.578	971.38
460.798	988.38
461.018	1021.38
461.238	956.38
461.458	959.38
461.678	955.38
461.898	989.38
462.118	963.38
462.338	1001.38
462.558	1032.38
462.777	1046.38
462.997	1078.38
463.217	1114.38
463.437	1160.38
463.657	1124.38
463.876	1067.38
464.096	1062.38
464.316	1021.38
464.536	1069.38
464.755	1025.38
464.975	966.38
465.195	946.38
465.414	935.38
465.634	924.38
465.854	924.38
466.073	891.38
466.293	907.38
466.512	889.38
466.732	873.38
466.951	868.38
467.171	903.38
467.391	896.38
467.61	869.38
467.829	870.38
468.049	886.38
468.268	844.38
468.488	844.38
468.707	843.38
468.927	845.38
469.146	871.38
469.365	914.38
469.585	912.38
469.804	851.38
470.023	848.38
470.243	852.38
470.462	872.38
470.681	877.38
470.901	871.38
471.12	846.38
471.339	868.38
471.558	865.38
471.777	890.38
471.997	850.38
472.216	869.38
472.435	832.38
472.654	822.38
472.873	856.38
473.092	843.38
473.311	888.38
473.53	892.38
473.749	865.38
473.968	857.38
474.187	853.38
474.406	854.38
474.625	870.38
474.844	884.38
475.063	883.38
475.282	874.38
475.501	886.38
475.72	892.38
475.939	892.38
476.158	870.38
476.377	908.38
476.596	904.38
476.814	914.38
477.033	912.38
477.252	926.38
477.471	936.38
477.69	948.38
477.908	963.38
478.127	971.38
478.346	965.38
478.564	998.38
478.783	1022.38
479.002	1032.38
479.22	1047.38
479.439	1062.38
479.658	1008.38
479.876	1016.38
480.095	1014.38
480.313	1022.38
480.532	1016.38
480.751	1026.38
480.969	1013.38
481.188	1009.38
481.406	1027.38
481.624	1017.38
481.843	986.38
482.061	990.38
482.28	1008.38
482.498	1010.38
482.717	1008.38
482.935	993.38
483.153	1030.38
483.372	1053.38
483.59	1086.38
483.808	1061.38
484.027	1047.38
484.245	1036.38
484.463	1044.38
484.681	1034.38
484.9	1043.38
485.118	1029.38
485.336	1056.38
485.554	1026.38
485.772	1037.38
485.99	1011.38
486.209	1047.38
486.427	998.38
486.645	1034.38
486.863	1045.38
487.081	1066.38
487.299	1041.38
487.517	1048.38
487.735	1066.38
487.953	1067.38
488.171	1063.38
488.389	1054.38
488.607	1020.38
488.825	1032.38
489.043	1057.38
489.261	1027.38
489.479	1080.38
489.696	1017.38
489.914	1042.38
490.132	1052.38
490.35	1048.38
490.568	1052.38
490.786	1089.38
491.003	1070.38
491.221	1061.38
491.439	1085.38
491.657	1082.38
491.874	1067.38
492.092	1074.38
492.31	1072.38
492.527	1100.38
492.745	1107.38
492.963	1078.38
493.18	1052.38
493.398	1082.38
493.615	1091.38
493.833	1091.38
494.05	1072.38
494.268	1096.38
494.485	1110.38
494.703	1139.38
494.92	1096.38
495.138	1125.38
495.355	1101.38
495.573	1094.38
495.79	1129.38
496.008	1152.38
496.225	1140.38
496.442	1125.38
496.66	1179.38
496.877	1180.38
497.094	1180.38
497.312	1206.38
497.529	1206.38
497.746	1206.38
497.963	1219.38
498.181	1249.38
498.398	1249.38
498.615	1319.38
498.832	1345.38
499.049	1370.38
499.267	1452.38
499.484	1483.38
499.701	1556.38
