Data from Ni(NO3)2@0.125M.TitratingCurve.Agarose3%dH2O.NegLispCup.LampEnergy10.LIBS07252019_HRD10591_18-09-04-567.txt Node
Date: Thu Jul 25 18:09:04 EDT 2019
User: cochatt
Spectrometer: HR+D1059
Trigger mode: 1
Integration Time (sec): 1.000000E-1
Scans to average: 1
Electric dark correction enabled: true
Nonlinearity correction enabled: false
Boxcar width: 0
XAxis mode: Wavelengths
Number of Pixels in Spectrum: 2048
>>>>>Begin Spectral Data<<<<<
223.165	-21.25
223.4	-21.25
223.635	-21.25
223.869	-26.25
224.104	-16.25
224.338	-19.25
224.573	-12.25
224.808	-2.25
225.042	-6.25
225.277	-2.25
225.511	2.75
225.746	3.75
225.98	13.75
226.215	20.75
226.449	9.75
226.683	11.75
226.918	21.75
227.152	21.75
227.387	20.75
227.621	32.75
227.856	43.75
228.09	48.75
228.324	41.75
228.559	70.75
228.793	64.75
229.027	103.75
229.262	131.75
229.496	121.75
229.73	137.75
229.964	115.75
230.199	138.75
230.433	143.75
230.667	147.75
230.901	134.75
231.136	146.75
231.37	146.75
231.604	144.75
231.838	152.75
232.072	153.75
232.306	146.75
232.541	157.75
232.775	141.75
233.009	151.75
233.243	161.75
233.477	170.75
233.711	154.75
233.945	161.75
234.179	155.75
234.413	141.75
234.647	168.75
234.881	168.75
235.115	172.75
235.349	159.75
235.583	167.75
235.817	173.75
236.051	164.75
236.285	177.75
236.519	172.75
236.753	153.75
236.987	177.75
237.221	171.75
237.455	175.75
237.689	179.75
237.922	182.75
238.156	179.75
238.39	181.75
238.624	176.75
238.858	172.75
239.091	170.75
239.325	186.75
239.559	183.75
239.793	171.75
240.027	177.75
240.26	175.75
240.494	198.75
240.728	199.75
240.961	193.75
241.195	195.75
241.429	189.75
241.662	198.75
241.896	201.75
242.13	221.75
242.363	203.75
242.597	203.75
242.83	198.75
243.064	203.75
243.298	206.75
243.531	221.75
243.765	216.75
243.998	215.75
244.232	231.75
244.465	225.75
244.699	220.75
244.932	220.75
245.166	231.75
245.399	218.75
245.633	236.75
245.866	233.75
246.099	244.75
246.333	227.75
246.566	248.75
246.8	241.75
247.033	243.75
247.266	259.75
247.5	257.75
247.733	248.75
247.966	253.75
248.2	261.75
248.433	254.75
248.666	260.75
248.899	248.75
249.133	263.75
249.366	262.75
249.599	259.75
249.832	264.75
250.066	270.75
250.299	281.75
250.532	273.75
250.765	279.75
250.998	260.75
251.231	287.75
251.465	268.75
251.698	287.75
251.931	292.75
252.164	294.75
252.397	309.75
252.63	303.75
252.863	323.75
253.096	297.75
253.329	297.75
253.562	304.75
253.795	310.75
254.028	310.75
254.261	309.75
254.494	315.75
254.727	327.75
254.96	328.75
255.193	324.75
255.426	330.75
255.659	318.75
255.892	313.75
256.124	331.75
256.357	325.75
256.59	323.75
256.823	341.75
257.056	324.75
257.289	327.75
257.521	329.75
257.754	340.75
257.987	351.75
258.22	318.75
258.452	345.75
258.685	348.75
258.918	332.75
259.151	344.75
259.383	339.75
259.616	368.75
259.849	356.75
260.081	354.75
260.314	356.75
260.547	343.75
260.779	347.75
261.012	362.75
261.244	353.75
261.477	376.75
261.71	356.75
261.942	362.75
262.175	375.75
262.407	367.75
262.64	351.75
262.872	381.75
263.105	371.75
263.337	373.75
263.57	368.75
263.802	389.75
264.035	366.75
264.267	385.75
264.499	379.75
264.732	387.75
264.964	377.75
265.197	388.75
265.429	380.75
265.661	392.75
265.894	397.75
266.126	395.75
266.358	392.75
266.591	403.75
266.823	405.75
267.055	393.75
267.287	410.75
267.52	421.75
267.752	406.75
267.984	391.75
268.216	404.75
268.448	411.75
268.681	411.75
268.913	425.75
269.145	423.75
269.377	385.75
269.609	432.75
269.841	413.75
270.073	433.75
270.306	416.75
270.538	426.75
270.77	419.75
271.002	423.75
271.234	399.75
271.466	416.75
271.698	424.75
271.93	417.75
272.162	419.75
272.394	458.75
272.626	457.75
272.858	437.75
273.09	439.75
273.322	461.75
273.553	454.75
273.785	457.75
274.017	465.75
274.249	453.75
274.481	455.75
274.713	462.75
274.945	457.75
275.176	452.75
275.408	471.75
275.64	474.75
275.872	453.75
276.104	468.75
276.335	474.75
276.567	484.75
276.799	467.75
277.031	497.75
277.262	480.75
277.494	476.75
277.726	465.75
277.957	497.75
278.189	482.75
278.421	497.75
278.652	492.75
278.884	486.75
279.115	503.75
279.347	495.75
279.579	501.75
279.81	491.75
280.042	509.75
280.273	503.75
280.505	521.75
280.736	504.75
280.968	525.75
281.199	509.75
281.431	545.75
281.662	521.75
281.894	519.75
282.125	498.75
282.356	517.75
282.588	525.75
282.819	520.75
283.051	521.75
283.282	525.75
283.513	541.75
283.745	556.75
283.976	551.75
284.207	534.75
284.439	544.75
284.67	527.75
284.901	543.75
285.132	545.75
285.364	539.75
285.595	571.75
285.826	539.75
286.057	559.75
286.288	531.75
286.52	565.75
286.751	582.75
286.982	578.75
287.213	550.75
287.444	589.75
287.675	572.75
287.906	558.75
288.138	564.75
288.369	572.75
288.6	583.75
288.831	587.75
289.062	550.75
289.293	555.75
289.524	581.75
289.755	578.75
289.986	576.75
290.217	580.75
290.448	560.75
290.679	589.75
290.91	603.75
291.141	587.75
291.371	576.75
291.602	586.75
291.833	572.75
292.064	599.75
292.295	584.75
292.526	583.75
292.757	603.75
292.987	596.75
293.218	581.75
293.449	615.75
293.68	604.75
293.91	593.75
294.141	619.75
294.372	595.75
294.603	603.75
294.833	611.75
295.064	595.75
295.295	620.75
295.525	612.75
295.756	593.75
295.987	612.75
296.217	601.75
296.448	631.75
296.679	603.75
296.909	607.75
297.14	618.75
297.37	620.75
297.601	616.75
297.831	617.75
298.062	647.75
298.292	637.75
298.523	650.75
298.753	629.75
298.984	634.75
299.214	627.75
299.445	619.75
299.675	633.75
299.905	650.75
300.136	643.75
300.366	629.75
300.597	650.75
300.827	673.75
301.057	672.75
301.288	686.75
301.518	663.75
301.748	682.75
301.979	684.75
302.209	685.75
302.439	680.75
302.669	679.75
302.9	655.75
303.13	666.75
303.36	649.75
303.59	660.75
303.82	657.75
304.051	676.75
304.281	659.75
304.511	642.75
304.741	666.75
304.971	645.75
305.201	654.75
305.431	667.75
305.661	659.75
305.891	629.75
306.121	648.75
306.352	677.75
306.582	661.75
306.812	658.75
307.042	664.75
307.272	653.75
307.502	631.75
307.731	657.75
307.961	649.75
308.191	639.75
308.421	659.75
308.651	659.75
308.881	632.75
309.111	619.75
309.341	649.75
309.571	660.75
309.8	673.75
310.03	656.75
310.26	641.75
310.49	667.75
310.72	678.75
310.949	653.75
311.179	679.75
311.409	669.75
311.639	691.75
311.868	678.75
312.098	680.75
312.328	677.75
312.557	682.75
312.787	699.75
313.017	673.75
313.246	693.75
313.476	694.75
313.706	697.75
313.935	721.75
314.165	706.75
314.394	713.75
314.624	691.75
314.853	705.75
315.083	723.75
315.312	707.75
315.542	673.75
315.771	708.75
316.001	714.75
316.23	703.75
316.46	684.75
316.689	673.75
316.919	674.75
317.148	714.75
317.377	689.75
317.607	685.75
317.836	673.75
318.065	684.75
318.295	700.75
318.524	666.75
318.753	712.75
318.983	687.75
319.212	678.75
319.441	675.75
319.67	706.75
319.9	683.75
320.129	731.75
320.358	697.75
320.587	657.75
320.816	681.75
321.046	696.75
321.275	715.75
321.504	688.75
321.733	731.75
321.962	705.75
322.191	706.75
322.42	683.75
322.649	744.75
322.878	725.75
323.108	696.75
323.337	724.75
323.566	741.75
323.795	730.75
324.024	724.75
324.253	723.75
324.482	705.75
324.71	714.75
324.939	710.75
325.168	732.75
325.397	738.75
325.626	758.75
325.855	746.75
326.084	746.75
326.313	799.75
326.542	770.75
326.77	797.75
326.999	773.75
327.228	756.75
327.457	754.75
327.686	771.75
327.914	771.75
328.143	792.75
328.372	787.75
328.6	777.75
328.829	784.75
329.058	776.75
329.287	785.75
329.515	793.75
329.744	800.75
329.972	789.75
330.201	794.75
330.43	824.75
330.658	810.75
330.887	820.75
331.115	828.75
331.344	848.75
331.572	797.75
331.801	875.75
332.03	859.75
332.258	874.75
332.486	913.75
332.715	953.75
332.943	982.75
333.172	1027.75
333.4	1046.75
333.629	1116.75
333.857	1091.75
334.085	1054.75
334.314	1057.75
334.542	1038.75
334.771	1008.75
334.999	997.75
335.227	980.75
335.455	996.75
335.684	964.75
335.912	965.75
336.14	943.75
336.369	931.75
336.597	931.75
336.825	966.75
337.053	953.75
337.281	928.75
337.51	919.75
337.738	877.75
337.966	901.75
338.194	876.75
338.422	859.75
338.65	880.75
338.878	846.75
339.106	868.75
339.334	869.75
339.562	834.75
339.79	827.75
340.018	820.75
340.246	828.75
340.474	827.75
340.702	809.75
340.93	851.75
341.158	839.75
341.386	847.75
341.614	803.75
341.842	825.75
342.07	821.75
342.298	817.75
342.526	815.75
342.754	824.75
342.981	809.75
343.209	853.75
343.437	875.75
343.665	951.75
343.893	1032.75
344.12	1050.75
344.348	991.75
344.576	925.75
344.804	928.75
345.031	864.75
345.259	886.75
345.487	859.75
345.714	805.75
345.942	807.75
346.17	823.75
346.397	806.75
346.625	816.75
346.853	788.75
347.08	799.75
347.308	771.75
347.535	801.75
347.763	819.75
347.99	790.75
348.218	793.75
348.445	765.75
348.673	781.75
348.9	803.75
349.128	792.75
349.355	767.75
349.583	776.75
349.81	793.75
350.037	786.75
350.265	764.75
350.492	781.75
350.72	737.75
350.947	762.75
351.174	791.75
351.402	758.75
351.629	759.75
351.856	793.75
352.083	759.75
352.311	744.75
352.538	786.75
352.765	751.75
352.992	761.75
353.22	746.75
353.447	773.75
353.674	775.75
353.901	748.75
354.128	763.75
354.355	771.75
354.583	787.75
354.81	748.75
355.037	757.75
355.264	769.75
355.491	776.75
355.718	791.75
355.945	767.75
356.172	779.75
356.399	774.75
356.626	775.75
356.853	782.75
357.08	763.75
357.307	753.75
357.534	767.75
357.761	779.75
357.988	754.75
358.215	764.75
358.441	751.75
358.668	752.75
358.895	770.75
359.122	775.75
359.349	766.75
359.576	759.75
359.802	767.75
360.029	748.75
360.256	769.75
360.483	788.75
360.709	773.75
360.936	760.75
361.163	771.75
361.39	744.75
361.616	759.75
361.843	755.75
362.07	775.75
362.296	767.75
362.523	756.75
362.749	766.75
362.976	764.75
363.203	761.75
363.429	746.75
363.656	752.75
363.882	755.75
364.109	756.75
364.335	753.75
364.562	735.75
364.788	756.75
365.015	755.75
365.241	774.75
365.468	751.75
365.694	748.75
365.92	744.75
366.147	742.75
366.373	745.75
366.599	759.75
366.826	777.75
367.052	764.75
367.278	754.75
367.505	752.75
367.731	745.75
367.957	736.75
368.184	794.75
368.41	785.75
368.636	763.75
368.862	763.75
369.089	791.75
369.315	769.75
369.541	799.75
369.767	767.75
369.993	811.75
370.219	839.75
370.445	808.75
370.672	815.75
370.898	805.75
371.124	814.75
371.35	832.75
371.576	842.75
371.802	809.75
372.028	838.75
372.254	817.75
372.48	830.75
372.706	862.75
372.932	869.75
373.158	888.75
373.384	869.75
373.61	833.75
373.835	836.75
374.061	825.75
374.287	850.75
374.513	838.75
374.739	871.75
374.965	891.75
375.191	908.75
375.416	913.75
375.642	885.75
375.868	880.75
376.094	825.75
376.319	855.75
376.545	836.75
376.771	849.75
376.997	854.75
377.222	829.75
377.448	842.75
377.674	819.75
377.899	818.75
378.125	831.75
378.35	819.75
378.576	819.75
378.802	826.75
379.027	821.75
379.253	807.75
379.478	821.75
379.704	826.75
379.929	808.75
380.155	831.75
380.38	835.75
380.606	820.75
380.831	835.75
381.057	833.75
381.282	832.75
381.507	807.75
381.733	834.75
381.958	831.75
382.184	848.75
382.409	844.75
382.634	880.75
382.86	869.75
383.085	868.75
383.31	893.75
383.535	895.75
383.761	900.75
383.986	945.75
384.211	966.75
384.436	959.75
384.662	995.75
384.887	1003.75
385.112	982.75
385.337	991.75
385.562	1011.75
385.787	998.75
386.013	1011.75
386.238	985.75
386.463	991.75
386.688	1017.75
386.913	947.75
387.138	973.75
387.363	1008.75
387.588	977.75
387.813	981.75
388.038	982.75
388.263	983.75
388.488	973.75
388.713	967.75
388.938	960.75
389.163	963.75
389.387	981.75
389.612	964.75
389.837	967.75
390.062	941.75
390.287	967.75
390.512	955.75
390.736	982.75
390.961	994.75
391.186	1009.75
391.411	1049.75
391.636	1079.75
391.86	1108.75
392.085	1143.75
392.31	1108.75
392.534	1056.75
392.759	1062.75
392.984	1052.75
393.208	1044.75
393.433	1079.75
393.658	1060.75
393.882	1044.75
394.107	1082.75
394.331	1082.75
394.556	1050.75
394.78	1071.75
395.005	1018.75
395.229	1052.75
395.454	1099.75
395.678	1132.75
395.903	1145.75
396.127	1071.75
396.352	1081.75
396.576	1026.75
396.801	1019.75
397.025	1052.75
397.249	1081.75
397.474	1093.75
397.698	1107.75
397.922	1114.75
398.147	1099.75
398.371	1127.75
398.595	1177.75
398.82	1216.75
399.044	1287.75
399.268	1443.75
399.492	1706.75
399.717	1986.75
399.941	1892.75
400.165	1711.75
400.389	1513.75
400.613	1320.75
400.837	1255.75
401.062	1291.75
401.286	1221.75
401.51	1244.75
401.734	1258.75
401.958	1258.75
402.182	1285.75
402.406	1293.75
402.63	1289.75
402.854	1382.75
403.078	1341.75
403.302	1378.75
403.526	1425.75
403.75	1491.75
403.974	1506.75
404.198	1463.75
404.422	1495.75
404.645	1445.75
404.869	1428.75
405.093	1417.75
405.317	1378.75
405.541	1405.75
405.765	1392.75
405.988	1357.75
406.212	1371.75
406.436	1354.75
406.66	1411.75
406.883	1410.75
407.107	1513.75
407.331	1598.75
407.555	1635.75
407.778	1634.75
408.002	1595.75
408.226	1507.75
408.449	1494.75
408.673	1428.75
408.896	1432.75
409.12	1435.75
409.344	1457.75
409.567	1459.75
409.791	1452.75
410.014	1445.75
410.238	1411.75
410.461	1420.75
410.685	1402.75
410.908	1382.75
411.132	1360.75
411.355	1277.75
411.578	1301.75
411.802	1330.75
412.025	1316.75
412.249	1344.75
412.472	1288.75
412.695	1259.75
412.919	1236.75
413.142	1268.75
413.365	1232.75
413.589	1258.75
413.812	1247.75
414.035	1270.75
414.258	1243.75
414.482	1284.75
414.705	1299.75
414.928	1283.75
415.151	1275.75
415.374	1259.75
415.597	1257.75
415.821	1229.75
416.044	1228.75
416.267	1233.75
416.49	1201.75
416.713	1218.75
416.936	1250.75
417.159	1227.75
417.382	1224.75
417.605	1226.75
417.828	1230.75
418.051	1267.75
418.274	1247.75
418.497	1273.75
418.72	1288.75
418.943	1294.75
419.166	1387.75
419.389	1467.75
419.611	1407.75
419.834	1354.75
420.057	1301.75
420.28	1255.75
420.503	1223.75
420.726	1251.75
420.948	1236.75
421.171	1217.75
421.394	1262.75
421.617	1231.75
421.839	1263.75
422.062	1251.75
422.285	1217.75
422.507	1295.75
422.73	1277.75
422.953	1291.75
423.175	1309.75
423.398	1308.75
423.621	1331.75
423.843	1354.75
424.066	1366.75
424.288	1340.75
424.511	1342.75
424.733	1313.75
424.956	1297.75
425.178	1238.75
425.401	1277.75
425.623	1271.75
425.846	1193.75
426.068	1201.75
426.291	1197.75
426.513	1215.75
426.735	1181.75
426.958	1159.75
427.18	1147.75
427.402	1142.75
427.625	1131.75
427.847	1110.75
428.069	1081.75
428.292	1117.75
428.514	1123.75
428.736	1107.75
428.958	1122.75
429.181	1079.75
429.403	1109.75
429.625	1066.75
429.847	1083.75
430.069	1087.75
430.292	1067.75
430.514	1098.75
430.736	1092.75
430.958	1100.75
431.18	1064.75
431.402	1081.75
431.624	1091.75
431.846	1113.75
432.068	1129.75
432.29	1114.75
432.512	1095.75
432.734	1078.75
432.956	1092.75
433.178	1086.75
433.4	1101.75
433.622	1106.75
433.844	1151.75
434.066	1093.75
434.287	1136.75
434.509	1191.75
434.731	1238.75
434.953	1245.75
435.175	1274.75
435.397	1225.75
435.618	1189.75
435.84	1150.75
436.062	1139.75
436.284	1136.75
436.505	1107.75
436.727	1121.75
436.949	1119.75
437.17	1101.75
437.392	1103.75
437.614	1096.75
437.835	1059.75
438.057	1067.75
438.278	1028.75
438.5	1059.75
438.721	1102.75
438.943	1082.75
439.165	1068.75
439.386	1096.75
439.608	1082.75
439.829	1096.75
440.05	1134.75
440.272	1130.75
440.493	1133.75
440.715	1137.75
440.936	1179.75
441.158	1163.75
441.379	1186.75
441.6	1237.75
441.822	1255.75
442.043	1279.75
442.264	1245.75
442.486	1241.75
442.707	1263.75
442.928	1247.75
443.149	1242.75
443.371	1219.75
443.592	1243.75
443.813	1286.75
444.034	1279.75
444.255	1323.75
444.476	1385.75
444.698	1490.75
444.919	1531.75
445.14	1635.75
445.361	1447.75
445.582	1323.75
445.803	1211.75
446.024	1201.75
446.245	1172.75
446.466	1149.75
446.687	1116.75
446.908	1137.75
447.129	1098.75
447.35	1081.75
447.571	1077.75
447.792	1054.75
448.013	1060.75
448.234	1050.75
448.455	1020.75
448.675	1022.75
448.896	1034.75
449.117	1040.75
449.338	1000.75
449.559	1024.75
449.779	982.75
450	992.75
450.221	1045.75
450.442	1027.75
450.662	1022.75
450.883	1056.75
451.104	1064.75
451.324	1046.75
451.545	1048.75
451.766	1062.75
451.986	1049.75
452.207	1032.75
452.428	1064.75
452.648	1023.75
452.869	989.75
453.089	1006.75
453.31	1017.75
453.53	998.75
453.751	997.75
453.971	985.75
454.192	992.75
454.412	988.75
454.633	962.75
454.853	970.75
455.073	978.75
455.294	953.75
455.514	951.75
455.734	964.75
455.955	941.75
456.175	957.75
456.395	931.75
456.616	947.75
456.836	919.75
457.056	938.75
457.276	951.75
457.497	971.75
457.717	962.75
457.937	970.75
458.157	950.75
458.377	959.75
458.598	970.75
458.818	1013.75
459.038	1068.75
459.258	1071.75
459.478	1137.75
459.698	1135.75
459.918	1162.75
460.138	1253.75
460.358	1319.75
460.578	1330.75
460.798	1352.75
461.018	1359.75
461.238	1317.75
461.458	1322.75
461.678	1267.75
461.898	1323.75
462.118	1349.75
462.338	1416.75
462.558	1419.75
462.777	1476.75
462.997	1623.75
463.217	1821.75
463.437	1811.75
463.657	1651.75
463.876	1555.75
464.096	1545.75
464.316	1564.75
464.536	1586.75
464.755	1506.75
464.975	1477.75
465.195	1372.75
465.414	1281.75
465.634	1179.75
465.854	1168.75
466.073	1136.75
466.293	1130.75
466.512	1073.75
466.732	1072.75
466.951	1046.75
467.171	1075.75
467.391	1075.75
467.61	1088.75
467.829	1064.75
468.049	1057.75
468.268	1019.75
468.488	1033.75
468.707	975.75
468.927	1017.75
469.146	1007.75
469.365	1015.75
469.585	1018.75
469.804	1075.75
470.023	1107.75
470.243	1116.75
470.462	1107.75
470.681	1124.75
470.901	1110.75
471.12	1063.75
471.339	1071.75
471.558	1039.75
471.777	1036.75
471.997	1011.75
472.216	1004.75
472.435	1007.75
472.654	981.75
472.873	971.75
473.092	979.75
473.311	993.75
473.53	994.75
473.749	980.75
473.968	982.75
474.187	979.75
474.406	965.75
474.625	997.75
474.844	978.75
475.063	994.75
475.282	1012.75
475.501	996.75
475.72	1019.75
475.939	992.75
476.158	1005.75
476.377	1054.75
476.596	1017.75
476.814	1048.75
477.033	1049.75
477.252	1064.75
477.471	1073.75
477.69	1107.75
477.908	1140.75
478.127	1157.75
478.346	1195.75
478.564	1220.75
478.783	1230.75
479.002	1244.75
479.22	1257.75
479.439	1245.75
479.658	1224.75
479.876	1239.75
480.095	1263.75
480.313	1336.75
480.532	1356.75
480.751	1339.75
480.969	1275.75
481.188	1226.75
481.406	1189.75
481.624	1179.75
481.843	1170.75
482.061	1141.75
482.28	1115.75
482.498	1115.75
482.717	1118.75
482.935	1123.75
483.153	1135.75
483.372	1124.75
483.59	1147.75
483.808	1109.75
484.027	1113.75
484.245	1136.75
484.463	1139.75
484.681	1166.75
484.9	1156.75
485.118	1173.75
485.336	1159.75
485.554	1165.75
485.772	1224.75
485.99	1219.75
486.209	1174.75
486.427	1231.75
486.645	1205.75
486.863	1222.75
487.081	1189.75
487.299	1192.75
487.517	1182.75
487.735	1200.75
487.953	1193.75
488.171	1199.75
488.389	1183.75
488.607	1149.75
488.825	1161.75
489.043	1157.75
489.261	1200.75
489.479	1183.75
489.696	1159.75
489.914	1221.75
490.132	1207.75
490.35	1199.75
490.568	1184.75
490.786	1192.75
491.003	1213.75
491.221	1212.75
491.439	1199.75
491.657	1234.75
491.874	1229.75
492.092	1226.75
492.31	1222.75
492.527	1232.75
492.745	1227.75
492.963	1255.75
493.18	1207.75
493.398	1244.75
493.615	1270.75
493.833	1266.75
494.05	1232.75
494.268	1270.75
494.485	1257.75
494.703	1232.75
494.92	1267.75
495.138	1255.75
495.355	1245.75
495.573	1233.75
