Data from Ni(NO3)2Standard.Agarose3%.GreenCap.LampEnergy5.5.E.O_HRD10591_14-41-01-187.txt Node
Date: Mon Jul 22 14:41:01 EDT 2019
User: cochatt
Spectrometer: HR+D1059
Trigger mode: 1
Integration Time (sec): 1.000000E-1
Scans to average: 1
Electric dark correction enabled: true
Nonlinearity correction enabled: false
Boxcar width: 0
XAxis mode: Wavelengths
Number of Pixels in Spectrum: 2048
>>>>>Begin Spectral Data<<<<<
223.165	-9.5
223.4	-9.5
223.635	-9.5
223.869	-19.5
224.104	-34.5
224.338	-23.5
224.573	-17.5
224.808	-15.5
225.042	-7.5
225.277	-1.5
225.511	-4.5
225.746	10.5
225.98	11.5
226.215	22.5
226.449	9.5
226.683	25.5
226.918	19.5
227.152	34.5
227.387	42.5
227.621	40.5
227.856	41.5
228.09	45.5
228.324	40.5
228.559	72.5
228.793	56.5
229.027	56.5
229.262	62.5
229.496	70.5
229.73	64.5
229.964	70.5
230.199	71.5
230.433	77.5
230.667	87.5
230.901	71.5
231.136	50.5
231.37	80.5
231.604	78.5
231.838	83.5
232.072	80.5
232.306	70.5
232.541	65.5
232.775	81.5
233.009	62.5
233.243	91.5
233.477	81.5
233.711	86.5
233.945	86.5
234.179	83.5
234.413	95.5
234.647	95.5
234.881	81.5
235.115	73.5
235.349	77.5
235.583	94.5
235.817	74.5
236.051	77.5
236.285	74.5
236.519	60.5
236.753	73.5
236.987	90.5
237.221	80.5
237.455	74.5
237.689	66.5
237.922	86.5
238.156	69.5
238.39	91.5
238.624	82.5
238.858	95.5
239.091	76.5
239.325	83.5
239.559	60.5
239.793	94.5
240.027	73.5
240.26	81.5
240.494	87.5
240.728	84.5
240.961	77.5
241.195	85.5
241.429	71.5
241.662	73.5
241.896	73.5
242.13	84.5
242.363	86.5
242.597	83.5
242.83	88.5
243.064	80.5
243.298	93.5
243.531	82.5
243.765	77.5
243.998	84.5
244.232	74.5
244.465	72.5
244.699	87.5
244.932	89.5
245.166	72.5
245.399	83.5
245.633	82.5
245.866	74.5
246.099	77.5
246.333	79.5
246.566	83.5
246.8	83.5
247.033	90.5
247.266	85.5
247.5	75.5
247.733	95.5
247.966	71.5
248.2	86.5
248.433	92.5
248.666	71.5
248.899	78.5
249.133	83.5
249.366	80.5
249.599	83.5
249.832	76.5
250.066	85.5
250.299	82.5
250.532	76.5
250.765	71.5
250.998	90.5
251.231	99.5
251.465	75.5
251.698	79.5
251.931	91.5
252.164	76.5
252.397	92.5
252.63	95.5
252.863	84.5
253.096	77.5
253.329	80.5
253.562	88.5
253.795	68.5
254.028	90.5
254.261	76.5
254.494	72.5
254.727	76.5
254.96	70.5
255.193	80.5
255.426	92.5
255.659	82.5
255.892	86.5
256.124	88.5
256.357	85.5
256.59	86.5
256.823	77.5
257.056	81.5
257.289	80.5
257.521	78.5
257.754	83.5
257.987	72.5
258.22	95.5
258.452	80.5
258.685	84.5
258.918	77.5
259.151	75.5
259.383	86.5
259.616	80.5
259.849	77.5
260.081	84.5
260.314	73.5
260.547	65.5
260.779	74.5
261.012	87.5
261.244	85.5
261.477	84.5
261.71	75.5
261.942	79.5
262.175	74.5
262.407	96.5
262.64	77.5
262.872	84.5
263.105	85.5
263.337	93.5
263.57	64.5
263.802	82.5
264.035	67.5
264.267	86.5
264.499	79.5
264.732	88.5
264.964	78.5
265.197	83.5
265.429	90.5
265.661	84.5
265.894	76.5
266.126	95.5
266.358	70.5
266.591	90.5
266.823	93.5
267.055	82.5
267.287	73.5
267.52	83.5
267.752	87.5
267.984	75.5
268.216	73.5
268.448	83.5
268.681	82.5
268.913	89.5
269.145	90.5
269.377	98.5
269.609	90.5
269.841	94.5
270.073	97.5
270.306	90.5
270.538	78.5
270.77	77.5
271.002	73.5
271.234	92.5
271.466	83.5
271.698	82.5
271.93	87.5
272.162	81.5
272.394	90.5
272.626	79.5
272.858	88.5
273.09	80.5
273.322	83.5
273.553	83.5
273.785	81.5
274.017	91.5
274.249	89.5
274.481	86.5
274.713	87.5
274.945	89.5
275.176	77.5
275.408	72.5
275.64	79.5
275.872	84.5
276.104	86.5
276.335	86.5
276.567	93.5
276.799	88.5
277.031	84.5
277.262	83.5
277.494	79.5
277.726	86.5
277.957	79.5
278.189	82.5
278.421	82.5
278.652	87.5
278.884	96.5
279.115	80.5
279.347	82.5
279.579	88.5
279.81	84.5
280.042	70.5
280.273	74.5
280.505	76.5
280.736	78.5
280.968	71.5
281.199	89.5
281.431	81.5
281.662	82.5
281.894	83.5
282.125	89.5
282.356	78.5
282.588	88.5
282.819	80.5
283.051	85.5
283.282	85.5
283.513	80.5
283.745	94.5
283.976	86.5
284.207	92.5
284.439	82.5
284.67	63.5
284.901	92.5
285.132	99.5
285.364	84.5
285.595	94.5
285.826	86.5
286.057	79.5
286.288	90.5
286.52	81.5
286.751	92.5
286.982	87.5
287.213	88.5
287.444	87.5
287.675	70.5
287.906	88.5
288.138	72.5
288.369	88.5
288.6	92.5
288.831	76.5
289.062	89.5
289.293	86.5
289.524	81.5
289.755	84.5
289.986	77.5
290.217	83.5
290.448	93.5
290.679	83.5
290.91	79.5
291.141	87.5
291.371	81.5
291.602	91.5
291.833	88.5
292.064	91.5
292.295	87.5
292.526	72.5
292.757	92.5
292.987	74.5
293.218	94.5
293.449	79.5
293.68	76.5
293.91	80.5
294.141	87.5
294.372	86.5
294.603	93.5
294.833	73.5
295.064	93.5
295.295	90.5
295.525	87.5
295.756	88.5
295.987	94.5
296.217	86.5
296.448	84.5
296.679	84.5
296.909	86.5
297.14	107.5
297.37	94.5
297.601	83.5
297.831	84.5
298.062	87.5
298.292	86.5
298.523	102.5
298.753	77.5
298.984	77.5
299.214	93.5
299.445	85.5
299.675	78.5
299.905	95.5
300.136	86.5
300.366	88.5
300.597	84.5
300.827	84.5
301.057	92.5
301.288	86.5
301.518	98.5
301.748	86.5
301.979	96.5
302.209	72.5
302.439	84.5
302.669	85.5
302.9	105.5
303.13	91.5
303.36	89.5
303.59	86.5
303.82	74.5
304.051	87.5
304.281	94.5
304.511	84.5
304.741	79.5
304.971	84.5
305.201	89.5
305.431	81.5
305.661	99.5
305.891	77.5
306.121	89.5
306.352	78.5
306.582	74.5
306.812	86.5
307.042	90.5
307.272	81.5
307.502	75.5
307.731	95.5
307.961	98.5
308.191	87.5
308.421	89.5
308.651	88.5
308.881	89.5
309.111	94.5
309.341	95.5
309.571	77.5
309.8	76.5
310.03	86.5
310.26	84.5
310.49	97.5
310.72	95.5
310.949	91.5
311.179	86.5
311.409	80.5
311.639	98.5
311.868	89.5
312.098	83.5
312.328	88.5
312.557	90.5
312.787	79.5
313.017	101.5
313.246	90.5
313.476	87.5
313.706	80.5
313.935	91.5
314.165	76.5
314.394	88.5
314.624	95.5
314.853	90.5
315.083	83.5
315.312	101.5
315.542	79.5
315.771	98.5
316.001	87.5
316.23	90.5
316.46	80.5
316.689	96.5
316.919	99.5
317.148	81.5
317.377	88.5
317.607	95.5
317.836	81.5
318.065	86.5
318.295	91.5
318.524	80.5
318.753	86.5
318.983	90.5
319.212	94.5
319.441	102.5
319.67	81.5
319.9	76.5
320.129	102.5
320.358	83.5
320.587	107.5
320.816	94.5
321.046	79.5
321.275	86.5
321.504	87.5
321.733	85.5
321.962	91.5
322.191	86.5
322.42	84.5
322.649	75.5
322.878	92.5
323.108	94.5
323.337	99.5
323.566	97.5
323.795	89.5
324.024	75.5
324.253	82.5
324.482	98.5
324.71	75.5
324.939	85.5
325.168	90.5
325.397	80.5
325.626	82.5
325.855	91.5
326.084	98.5
326.313	83.5
326.542	95.5
326.77	80.5
326.999	81.5
327.228	82.5
327.457	98.5
327.686	72.5
327.914	83.5
328.143	86.5
328.372	85.5
328.6	87.5
328.829	79.5
329.058	80.5
329.287	70.5
329.515	90.5
329.744	89.5
329.972	83.5
330.201	88.5
330.43	89.5
330.658	91.5
330.887	77.5
331.115	90.5
331.344	81.5
331.572	101.5
331.801	81.5
332.03	85.5
332.258	89.5
332.486	77.5
332.715	84.5
332.943	78.5
333.172	91.5
333.4	93.5
333.629	100.5
333.857	100.5
334.085	92.5
334.314	90.5
334.542	88.5
334.771	90.5
334.999	81.5
335.227	93.5
335.455	91.5
335.684	95.5
335.912	77.5
336.14	94.5
336.369	93.5
336.597	94.5
336.825	87.5
337.053	95.5
337.281	88.5
337.51	94.5
337.738	79.5
337.966	80.5
338.194	90.5
338.422	97.5
338.65	88.5
338.878	96.5
339.106	93.5
339.334	91.5
339.562	93.5
339.79	76.5
340.018	88.5
340.246	85.5
340.474	94.5
340.702	79.5
340.93	77.5
341.158	84.5
341.386	93.5
341.614	79.5
341.842	87.5
342.07	78.5
342.298	66.5
342.526	81.5
342.754	74.5
342.981	80.5
343.209	96.5
343.437	92.5
343.665	79.5
343.893	89.5
344.12	92.5
344.348	76.5
344.576	94.5
344.804	90.5
345.031	93.5
345.259	76.5
345.487	83.5
345.714	79.5
345.942	85.5
346.17	96.5
346.397	83.5
346.625	80.5
346.853	90.5
347.08	94.5
347.308	92.5
347.535	93.5
347.763	90.5
347.99	105.5
348.218	84.5
348.445	96.5
348.673	77.5
348.9	84.5
349.128	84.5
349.355	80.5
349.583	82.5
349.81	88.5
350.037	96.5
350.265	89.5
350.492	91.5
350.72	79.5
350.947	90.5
351.174	85.5
351.402	90.5
351.629	90.5
351.856	94.5
352.083	93.5
352.311	74.5
352.538	80.5
352.765	80.5
352.992	84.5
353.22	86.5
353.447	87.5
353.674	98.5
353.901	74.5
354.128	91.5
354.355	87.5
354.583	73.5
354.81	90.5
355.037	92.5
355.264	96.5
355.491	83.5
355.718	103.5
355.945	77.5
356.172	84.5
356.399	84.5
356.626	87.5
356.853	90.5
357.08	92.5
357.307	80.5
357.534	84.5
357.761	89.5
357.988	85.5
358.215	87.5
358.441	80.5
358.668	81.5
358.895	98.5
359.122	91.5
359.349	73.5
359.576	95.5
359.802	86.5
360.029	82.5
360.256	90.5
360.483	82.5
360.709	83.5
360.936	99.5
361.163	84.5
361.39	91.5
361.616	93.5
361.843	87.5
362.07	90.5
362.296	90.5
362.523	85.5
362.749	73.5
362.976	84.5
363.203	84.5
363.429	82.5
363.656	93.5
363.882	94.5
364.109	78.5
364.335	101.5
364.562	100.5
364.788	96.5
365.015	98.5
365.241	85.5
365.468	91.5
365.694	84.5
365.92	90.5
366.147	72.5
366.373	90.5
366.599	88.5
366.826	84.5
367.052	93.5
367.278	80.5
367.505	97.5
367.731	90.5
367.957	97.5
368.184	95.5
368.41	86.5
368.636	91.5
368.862	83.5
369.089	84.5
369.315	87.5
369.541	94.5
369.767	87.5
369.993	77.5
370.219	77.5
370.445	73.5
370.672	89.5
370.898	80.5
371.124	91.5
371.35	89.5
371.576	90.5
371.802	85.5
372.028	84.5
372.254	96.5
372.48	81.5
372.706	82.5
372.932	82.5
373.158	90.5
373.384	96.5
373.61	101.5
373.835	87.5
374.061	95.5
374.287	78.5
374.513	90.5
374.739	90.5
374.965	85.5
375.191	79.5
375.416	95.5
375.642	81.5
375.868	80.5
376.094	98.5
376.319	80.5
376.545	89.5
376.771	79.5
376.997	86.5
377.222	78.5
377.448	88.5
377.674	99.5
377.899	85.5
378.125	79.5
378.35	85.5
378.576	83.5
378.802	89.5
379.027	96.5
379.253	92.5
379.478	92.5
379.704	84.5
379.929	83.5
380.155	81.5
380.38	91.5
380.606	90.5
380.831	89.5
381.057	89.5
381.282	86.5
381.507	79.5
381.733	87.5
381.958	73.5
382.184	77.5
382.409	84.5
382.634	85.5
382.86	95.5
383.085	105.5
383.31	80.5
383.535	85.5
383.761	80.5
383.986	86.5
384.211	86.5
384.436	78.5
384.662	89.5
384.887	86.5
385.112	86.5
385.337	79.5
385.562	101.5
385.787	82.5
386.013	100.5
386.238	79.5
386.463	72.5
386.688	88.5
386.913	68.5
387.138	88.5
387.363	79.5
387.588	82.5
387.813	90.5
388.038	80.5
388.263	95.5
388.488	78.5
388.713	88.5
388.938	77.5
389.163	89.5
389.387	72.5
389.612	84.5
389.837	81.5
390.062	88.5
390.287	87.5
390.512	79.5
390.736	83.5
390.961	69.5
391.186	75.5
391.411	83.5
391.636	92.5
391.86	77.5
392.085	87.5
392.31	94.5
392.534	84.5
392.759	84.5
392.984	87.5
393.208	93.5
393.433	84.5
393.658	93.5
393.882	92.5
394.107	92.5
394.331	96.5
394.556	83.5
394.78	88.5
395.005	89.5
395.229	96.5
395.454	87.5
395.678	93.5
395.903	90.5
396.127	64.5
396.352	83.5
396.576	85.5
396.801	80.5
397.025	86.5
397.249	96.5
397.474	85.5
397.698	88.5
397.922	83.5
398.147	78.5
398.371	92.5
398.595	79.5
398.82	71.5
399.044	94.5
399.268	97.5
399.492	87.5
399.717	98.5
399.941	86.5
400.165	78.5
400.389	86.5
400.613	77.5
400.837	87.5
401.062	99.5
401.286	94.5
401.51	87.5
401.734	75.5
401.958	87.5
402.182	80.5
402.406	87.5
402.63	79.5
402.854	87.5
403.078	95.5
403.302	86.5
403.526	89.5
403.75	86.5
403.974	89.5
404.198	78.5
404.422	90.5
404.645	100.5
404.869	90.5
405.093	94.5
405.317	78.5
405.541	102.5
405.765	90.5
405.988	80.5
406.212	90.5
406.436	85.5
406.66	70.5
406.883	91.5
407.107	88.5
407.331	89.5
407.555	82.5
407.778	83.5
408.002	92.5
408.226	83.5
408.449	95.5
408.673	101.5
408.896	99.5
409.12	90.5
409.344	85.5
409.567	93.5
409.791	69.5
410.014	96.5
410.238	89.5
410.461	82.5
410.685	94.5
410.908	87.5
411.132	91.5
411.355	91.5
411.578	98.5
411.802	85.5
412.025	99.5
412.249	93.5
412.472	82.5
412.695	85.5
412.919	83.5
413.142	83.5
413.365	88.5
413.589	94.5
413.812	83.5
414.035	89.5
414.258	80.5
414.482	93.5
414.705	96.5
414.928	84.5
415.151	78.5
415.374	93.5
415.597	88.5
415.821	98.5
416.044	85.5
416.267	107.5
416.49	103.5
416.713	80.5
416.936	82.5
417.159	86.5
417.382	82.5
417.605	76.5
417.828	95.5
418.051	87.5
418.274	75.5
418.497	81.5
418.72	93.5
418.943	77.5
419.166	97.5
419.389	100.5
419.611	93.5
419.834	69.5
420.057	92.5
420.28	86.5
420.503	90.5
420.726	89.5
420.948	79.5
421.171	81.5
421.394	76.5
421.617	80.5
421.839	72.5
422.062	86.5
422.285	91.5
422.507	101.5
422.73	86.5
422.953	93.5
423.175	90.5
423.398	89.5
423.621	77.5
423.843	93.5
424.066	91.5
424.288	94.5
424.511	104.5
424.733	91.5
424.956	68.5
425.178	79.5
425.401	93.5
425.623	99.5
425.846	72.5
426.068	88.5
426.291	87.5
426.513	96.5
426.735	98.5
426.958	84.5
427.18	86.5
427.402	95.5
427.625	92.5
427.847	85.5
428.069	95.5
428.292	84.5
428.514	93.5
428.736	97.5
428.958	84.5
429.181	89.5
429.403	90.5
429.625	80.5
429.847	88.5
430.069	87.5
430.292	80.5
430.514	87.5
430.736	93.5
430.958	91.5
431.18	83.5
431.402	100.5
431.624	90.5
431.846	86.5
432.068	96.5
432.29	98.5
432.512	86.5
432.734	80.5
432.956	90.5
433.178	90.5
433.4	78.5
433.622	80.5
433.844	85.5
434.066	88.5
434.287	83.5
434.509	79.5
434.731	91.5
434.953	78.5
435.175	92.5
435.397	88.5
435.618	88.5
435.84	80.5
436.062	77.5
436.284	85.5
436.505	95.5
436.727	93.5
436.949	91.5
437.17	95.5
437.392	97.5
437.614	94.5
437.835	86.5
438.057	88.5
438.278	81.5
438.5	84.5
438.721	93.5
438.943	100.5
439.165	79.5
439.386	90.5
439.608	91.5
439.829	88.5
440.05	93.5
440.272	80.5
440.493	98.5
440.715	91.5
440.936	91.5
441.158	90.5
441.379	91.5
441.6	77.5
441.822	83.5
442.043	80.5
442.264	85.5
442.486	93.5
442.707	94.5
442.928	98.5
443.149	95.5
443.371	85.5
443.592	96.5
443.813	91.5
444.034	90.5
444.255	82.5
444.476	86.5
444.698	89.5
444.919	85.5
445.14	209.5
445.361	144.5
445.582	88.5
445.803	88.5
446.024	84.5
446.245	83.5
446.466	79.5
446.687	82.5
446.908	88.5
447.129	96.5
447.35	87.5
447.571	86.5
447.792	77.5
448.013	78.5
448.234	94.5
448.455	101.5
448.675	86.5
448.896	87.5
449.117	97.5
449.338	95.5
449.559	72.5
449.779	89.5
450	99.5
450.221	91.5
450.442	83.5
450.662	81.5
450.883	99.5
451.104	83.5
451.324	69.5
451.545	88.5
451.766	74.5
451.986	86.5
452.207	103.5
452.428	94.5
452.648	83.5
452.869	90.5
453.089	91.5
453.31	88.5
453.53	99.5
453.751	84.5
453.971	81.5
454.192	87.5
454.412	87.5
454.633	97.5
454.853	92.5
455.073	82.5
455.294	88.5
455.514	86.5
455.734	81.5
455.955	85.5
456.175	83.5
456.395	91.5
456.616	100.5
456.836	84.5
457.056	90.5
457.276	78.5
457.497	84.5
457.717	84.5
457.937	82.5
458.157	96.5
458.377	79.5
458.598	89.5
458.818	104.5
459.038	78.5
459.258	96.5
459.478	108.5
459.698	92.5
459.918	91.5
460.138	80.5
460.358	86.5
460.578	96.5
460.798	87.5
461.018	94.5
461.238	99.5
461.458	101.5
461.678	82.5
461.898	92.5
462.118	92.5
462.338	92.5
462.558	84.5
462.777	98.5
462.997	86.5
463.217	77.5
463.437	90.5
463.657	96.5
463.876	93.5
464.096	92.5
464.316	83.5
464.536	87.5
464.755	92.5
464.975	85.5
465.195	79.5
465.414	98.5
465.634	103.5
465.854	87.5
466.073	82.5
466.293	76.5
466.512	93.5
466.732	90.5
466.951	93.5
467.171	72.5
467.391	82.5
467.61	76.5
467.829	89.5
468.049	81.5
468.268	75.5
468.488	78.5
468.707	99.5
468.927	86.5
469.146	83.5
469.365	87.5
469.585	88.5
469.804	91.5
470.023	88.5
470.243	84.5
470.462	78.5
470.681	90.5
470.901	84.5
471.12	88.5
471.339	94.5
471.558	94.5
471.777	81.5
471.997	90.5
472.216	104.5
472.435	101.5
472.654	101.5
472.873	90.5
473.092	88.5
473.311	93.5
473.53	79.5
473.749	87.5
473.968	102.5
474.187	98.5
474.406	83.5
474.625	85.5
474.844	100.5
475.063	80.5
475.282	103.5
475.501	97.5
475.72	90.5
475.939	78.5
476.158	82.5
476.377	87.5
476.596	84.5
476.814	93.5
477.033	90.5
477.252	99.5
477.471	82.5
477.69	77.5
477.908	95.5
478.127	96.5
478.346	90.5
478.564	99.5
478.783	104.5
479.002	84.5
479.22	86.5
479.439	96.5
479.658	93.5
479.876	83.5
480.095	86.5
480.313	83.5
480.532	101.5
480.751	103.5
480.969	90.5
481.188	82.5
481.406	86.5
481.624	78.5
481.843	82.5
482.061	76.5
482.28	98.5
482.498	99.5
482.717	92.5
482.935	88.5
483.153	90.5
483.372	80.5
483.59	97.5
483.808	87.5
484.027	104.5
484.245	74.5
484.463	92.5
484.681	85.5
484.9	98.5
485.118	90.5
485.336	89.5
485.554	99.5
485.772	92.5
485.99	103.5
486.209	91.5
486.427	88.5
486.645	96.5
486.863	91.5
487.081	86.5
487.299	90.5
487.517	89.5
487.735	101.5
487.953	96.5
488.171	95.5
488.389	107.5
488.607	88.5
488.825	101.5
489.043	98.5
489.261	98.5
489.479	87.5
489.696	99.5
489.914	95.5
490.132	87.5
490.35	89.5
490.568	87.5
490.786	83.5
491.003	92.5
491.221	96.5
491.439	96.5
491.657	95.5
491.874	91.5
492.092	98.5
492.31	105.5
492.527	95.5
492.745	91.5
492.963	98.5
493.18	96.5
493.398	100.5
493.615	115.5
493.833	102.5
494.05	84.5
494.268	103.5
494.485	94.5
494.703	102.5
494.92	106.5
495.138	98.5
495.355	89.5
495.573	92.5
495.79	107.5
496.008	100.5
496.225	83.5
496.442	106.5
496.66	93.5
496.877	98.5
497.094	99.5
497.312	90.5
497.529	93.5
497.746	91.5
497.963	93.5
498.181	94.5
498.398	104.5
498.615	112.5
498.832	102.5
499.049	105.5
499.267	106.5
499.484	117.5
499.701	124.5
499.918	108.5
500.135	99.5
500.352	114.5
500.569	122.5
500.786	116.5
501.003	105.5
501.22	122.5
501.437	112.5
501.654	105.5
501.871	103.5
502.088	107.5
502.305	112.5
502.522	79.5
502.739	97.5
502.956	93.5
503.172	97.5
503.389	110.5
503.606	92.5
503.823	94.5
504.04	85.5
504.256	96.5
504.473	99.5
504.69	97.5
504.907	108.5
505.123	102.5
505.34	104.5
505.557	88.5
505.773	83.5
505.99	91.5
506.207	88.5
506.423	107.5
506.64	87.5
506.856	94.5
507.073	101.5
507.289	89.5
507.506	85.5
507.722	88.5
507.939	92.5
508.155	86.5
508.372	88.5
508.588	77.5
508.805	88.5
509.021	87.5
509.238	77.5
509.454	83.5
509.67	88.5
509.887	86.5
510.103	92.5
510.319	97.5
510.536	97.5
510.752	77.5
510.968	88.5
511.184	93.5
511.401	86.5
511.617	98.5
511.833	83.5
512.049	100.5
512.265	90.5
512.481	93.5
512.698	83.5
512.914	78.5
513.13	95.5
513.346	103.5
513.562	96.5
513.778	96.5
513.994	85.5
514.21	85.5
514.426	94.5
514.642	86.5
514.858	93.5
515.074	98.5
515.29	86.5
515.506	100.5
515.721	96.5
515.937	75.5
516.153	99.5
516.369	88.5
516.585	95.5
516.801	108.5
517.016	100.5
517.232	94.5
517.448	111.5
517.664	92.5
517.879	97.5
518.095	88.5
518.311	101.5
518.527	89.5
518.742	96.5
518.958	95.5
519.173	89.5
519.389	101.5
519.605	65.5
519.82	80.5
520.036	91.5
520.251	70.5
520.467	91.5
520.682	100.5
520.898	98.5
521.113	92.5
521.329	92.5
521.544	90.5
521.76	79.5
521.975	86.5
522.19	86.5
522.406	87.5
522.621	79.5
522.836	93.5
523.052	115.5
523.267	105.5
523.482	94.5
523.698	87.5
523.913	98.5
524.128	79.5
524.343	98.5
524.559	91.5
524.774	92.5
524.989	84.5
525.204	88.5
525.419	74.5
525.634	91.5
525.849	81.5
526.064	84.5
526.28	96.5
526.495	93.5
526.71	106.5
526.925	102.5
527.14	85.5
527.355	91.5
527.57	88.5
527.785	91.5
527.999	79.5
528.214	101.5
528.429	93.5
528.644	93.5
528.859	109.5
529.074	92.5
529.289	92.5
529.503	102.5
529.718	91.5
529.933	95.5
530.148	80.5
530.363	79.5
530.577	85.5
530.792	89.5
531.007	93.5
531.221	91.5
531.436	90.5
531.651	86.5
531.865	84.5
532.08	86.5
532.295	101.5
532.509	88.5
532.724	98.5
532.938	85.5
533.153	89.5
533.367	95.5
533.582	103.5
533.796	88.5
534.011	99.5
534.225	79.5
534.44	83.5
534.654	86.5
534.868	90.5
535.083	87.5
535.297	97.5
535.511	89.5
535.726	96.5
535.94	103.5
536.154	85.5
536.369	88.5
536.583	73.5
536.797	77.5
537.011	96.5
537.225	88.5
537.44	102.5
537.654	90.5
537.868	103.5
538.082	98.5
538.296	82.5
