Data from Ni(NO3)2@0.0625M.TitratingCurve.Agarose3%dH2O.NegLispCup.LampEnergy10.LIBS07252019_HRD10591_18-13-38-569.txt Node
Date: Thu Jul 25 18:13:38 EDT 2019
User: cochatt
Spectrometer: HR+D1059
Trigger mode: 1
Integration Time (sec): 1.000000E-1
Scans to average: 1
Electric dark correction enabled: true
Nonlinearity correction enabled: false
Boxcar width: 0
XAxis mode: Wavelengths
Number of Pixels in Spectrum: 2048
>>>>>Begin Spectral Data<<<<<
223.165	-7.81
223.4	-7.81
223.635	-7.81
223.869	-22.81
224.104	-14.81
224.338	-27.81
224.573	-5.81
224.808	-7.81
225.042	-3.81
225.277	-7.81
225.511	-3.81
225.746	8.19
225.98	8.19
226.215	15.19
226.449	8.19
226.683	24.19
226.918	16.19
227.152	22.19
227.387	29.19
227.621	43.19
227.856	36.19
228.09	60.19
228.324	45.19
228.559	58.19
228.793	59.19
229.027	76.19
229.262	98.19
229.496	102.19
229.73	96.19
229.964	100.19
230.199	110.19
230.433	116.19
230.667	116.19
230.901	113.19
231.136	123.19
231.37	113.19
231.604	120.19
231.838	115.19
232.072	118.19
232.306	121.19
232.541	113.19
232.775	108.19
233.009	117.19
233.243	112.19
233.477	119.19
233.711	140.19
233.945	129.19
234.179	123.19
234.413	128.19
234.647	125.19
234.881	135.19
235.115	112.19
235.349	111.19
235.583	96.19
235.817	128.19
236.051	130.19
236.285	120.19
236.519	125.19
236.753	127.19
236.987	108.19
237.221	124.19
237.455	126.19
237.689	123.19
237.922	122.19
238.156	128.19
238.39	133.19
238.624	126.19
238.858	128.19
239.091	134.19
239.325	117.19
239.559	132.19
239.793	135.19
240.027	153.19
240.26	143.19
240.494	130.19
240.728	150.19
240.961	146.19
241.195	166.19
241.429	144.19
241.662	131.19
241.896	133.19
242.13	156.19
242.363	143.19
242.597	141.19
242.83	168.19
243.064	145.19
243.298	160.19
243.531	159.19
243.765	158.19
243.998	159.19
244.232	163.19
244.465	165.19
244.699	159.19
244.932	151.19
245.166	162.19
245.399	170.19
245.633	168.19
245.866	165.19
246.099	162.19
246.333	162.19
246.566	173.19
246.8	167.19
247.033	165.19
247.266	166.19
247.5	162.19
247.733	177.19
247.966	172.19
248.2	169.19
248.433	184.19
248.666	182.19
248.899	196.19
249.133	193.19
249.366	184.19
249.599	181.19
249.832	178.19
250.066	189.19
250.299	191.19
250.532	182.19
250.765	187.19
250.998	180.19
251.231	194.19
251.465	190.19
251.698	170.19
251.931	178.19
252.164	167.19
252.397	182.19
252.63	194.19
252.863	213.19
253.096	214.19
253.329	197.19
253.562	192.19
253.795	212.19
254.028	187.19
254.261	195.19
254.494	210.19
254.727	221.19
254.96	204.19
255.193	204.19
255.426	191.19
255.659	207.19
255.892	196.19
256.124	216.19
256.357	196.19
256.59	213.19
256.823	204.19
257.056	211.19
257.289	207.19
257.521	210.19
257.754	195.19
257.987	210.19
258.22	209.19
258.452	224.19
258.685	221.19
258.918	204.19
259.151	226.19
259.383	224.19
259.616	219.19
259.849	216.19
260.081	227.19
260.314	210.19
260.547	226.19
260.779	226.19
261.012	233.19
261.244	231.19
261.477	244.19
261.71	242.19
261.942	223.19
262.175	232.19
262.407	230.19
262.64	223.19
262.872	221.19
263.105	233.19
263.337	230.19
263.57	232.19
263.802	242.19
264.035	244.19
264.267	234.19
264.499	265.19
264.732	228.19
264.964	249.19
265.197	242.19
265.429	253.19
265.661	275.19
265.894	254.19
266.126	246.19
266.358	262.19
266.591	267.19
266.823	239.19
267.055	275.19
267.287	247.19
267.52	247.19
267.752	247.19
267.984	268.19
268.216	243.19
268.448	269.19
268.681	258.19
268.913	264.19
269.145	265.19
269.377	261.19
269.609	247.19
269.841	252.19
270.073	256.19
270.306	256.19
270.538	255.19
270.77	248.19
271.002	268.19
271.234	269.19
271.466	257.19
271.698	240.19
271.93	266.19
272.162	265.19
272.394	268.19
272.626	274.19
272.858	262.19
273.09	255.19
273.322	285.19
273.553	274.19
273.785	287.19
274.017	273.19
274.249	285.19
274.481	299.19
274.713	277.19
274.945	279.19
275.176	292.19
275.408	297.19
275.64	275.19
275.872	269.19
276.104	276.19
276.335	294.19
276.567	290.19
276.799	307.19
277.031	288.19
277.262	300.19
277.494	285.19
277.726	294.19
277.957	294.19
278.189	292.19
278.421	305.19
278.652	293.19
278.884	307.19
279.115	308.19
279.347	318.19
279.579	314.19
279.81	297.19
280.042	308.19
280.273	318.19
280.505	317.19
280.736	324.19
280.968	310.19
281.199	315.19
281.431	309.19
281.662	317.19
281.894	316.19
282.125	320.19
282.356	323.19
282.588	326.19
282.819	316.19
283.051	318.19
283.282	321.19
283.513	314.19
283.745	326.19
283.976	320.19
284.207	335.19
284.439	318.19
284.67	330.19
284.901	319.19
285.132	346.19
285.364	326.19
285.595	341.19
285.826	340.19
286.057	342.19
286.288	339.19
286.52	330.19
286.751	348.19
286.982	347.19
287.213	346.19
287.444	341.19
287.675	349.19
287.906	354.19
288.138	334.19
288.369	341.19
288.6	340.19
288.831	340.19
289.062	349.19
289.293	344.19
289.524	351.19
289.755	360.19
289.986	358.19
290.217	341.19
290.448	344.19
290.679	343.19
290.91	349.19
291.141	345.19
291.371	366.19
291.602	372.19
291.833	378.19
292.064	361.19
292.295	361.19
292.526	378.19
292.757	352.19
292.987	372.19
293.218	376.19
293.449	368.19
293.68	361.19
293.91	356.19
294.141	349.19
294.372	365.19
294.603	357.19
294.833	361.19
295.064	369.19
295.295	347.19
295.525	373.19
295.756	373.19
295.987	353.19
296.217	377.19
296.448	376.19
296.679	382.19
296.909	359.19
297.14	375.19
297.37	370.19
297.601	376.19
297.831	405.19
298.062	389.19
298.292	376.19
298.523	425.19
298.753	398.19
298.984	383.19
299.214	392.19
299.445	400.19
299.675	361.19
299.905	390.19
300.136	394.19
300.366	377.19
300.597	400.19
300.827	396.19
301.057	408.19
301.288	416.19
301.518	408.19
301.748	414.19
301.979	410.19
302.209	402.19
302.439	412.19
302.669	401.19
302.9	397.19
303.13	396.19
303.36	401.19
303.59	416.19
303.82	396.19
304.051	404.19
304.281	382.19
304.511	395.19
304.741	400.19
304.971	402.19
305.201	395.19
305.431	392.19
305.661	384.19
305.891	398.19
306.121	375.19
306.352	379.19
306.582	393.19
306.812	378.19
307.042	397.19
307.272	375.19
307.502	402.19
307.731	375.19
307.961	384.19
308.191	390.19
308.421	399.19
308.651	388.19
308.881	394.19
309.111	412.19
309.341	374.19
309.571	397.19
309.8	378.19
310.03	392.19
310.26	411.19
310.49	389.19
310.72	366.19
310.949	400.19
311.179	410.19
311.409	410.19
311.639	394.19
311.868	412.19
312.098	413.19
312.328	389.19
312.557	416.19
312.787	420.19
313.017	419.19
313.246	417.19
313.476	401.19
313.706	408.19
313.935	419.19
314.165	425.19
314.394	441.19
314.624	426.19
314.853	416.19
315.083	432.19
315.312	424.19
315.542	401.19
315.771	407.19
316.001	426.19
316.23	417.19
316.46	408.19
316.689	412.19
316.919	417.19
317.148	397.19
317.377	399.19
317.607	412.19
317.836	398.19
318.065	416.19
318.295	421.19
318.524	401.19
318.753	402.19
318.983	436.19
319.212	394.19
319.441	396.19
319.67	416.19
319.9	424.19
320.129	413.19
320.358	391.19
320.587	405.19
320.816	428.19
321.046	406.19
321.275	410.19
321.504	404.19
321.733	418.19
321.962	425.19
322.191	424.19
322.42	421.19
322.649	417.19
322.878	409.19
323.108	419.19
323.337	427.19
323.566	416.19
323.795	433.19
324.024	402.19
324.253	409.19
324.482	421.19
324.71	431.19
324.939	442.19
325.168	426.19
325.397	426.19
325.626	443.19
325.855	441.19
326.084	453.19
326.313	463.19
326.542	456.19
326.77	462.19
326.999	450.19
327.228	449.19
327.457	445.19
327.686	460.19
327.914	459.19
328.143	446.19
328.372	449.19
328.6	450.19
328.829	451.19
329.058	466.19
329.287	476.19
329.515	464.19
329.744	451.19
329.972	445.19
330.201	465.19
330.43	445.19
330.658	468.19
330.887	454.19
331.115	450.19
331.344	477.19
331.572	499.19
331.801	491.19
332.03	505.19
332.258	500.19
332.486	535.19
332.715	570.19
332.943	546.19
333.172	589.19
333.4	617.19
333.629	619.19
333.857	637.19
334.085	606.19
334.314	584.19
334.542	589.19
334.771	579.19
334.999	586.19
335.227	551.19
335.455	576.19
335.684	564.19
335.912	560.19
336.14	545.19
336.369	548.19
336.597	543.19
336.825	544.19
337.053	527.19
337.281	546.19
337.51	549.19
337.738	510.19
337.966	532.19
338.194	514.19
338.422	496.19
338.65	497.19
338.878	506.19
339.106	498.19
339.334	495.19
339.562	502.19
339.79	488.19
340.018	471.19
340.246	475.19
340.474	462.19
340.702	467.19
340.93	511.19
341.158	482.19
341.386	491.19
341.614	480.19
341.842	475.19
342.07	475.19
342.298	470.19
342.526	464.19
342.754	469.19
342.981	464.19
343.209	482.19
343.437	514.19
343.665	544.19
343.893	583.19
344.12	585.19
344.348	574.19
344.576	549.19
344.804	534.19
345.031	518.19
345.259	482.19
345.487	468.19
345.714	472.19
345.942	483.19
346.17	485.19
346.397	465.19
346.625	463.19
346.853	462.19
347.08	473.19
347.308	478.19
347.535	476.19
347.763	508.19
347.99	495.19
348.218	493.19
348.445	477.19
348.673	483.19
348.9	463.19
349.128	461.19
349.355	451.19
349.583	458.19
349.81	451.19
350.037	451.19
350.265	461.19
350.492	441.19
350.72	451.19
350.947	448.19
351.174	452.19
351.402	458.19
351.629	448.19
351.856	483.19
352.083	443.19
352.311	432.19
352.538	440.19
352.765	447.19
352.992	440.19
353.22	440.19
353.447	454.19
353.674	454.19
353.901	458.19
354.128	462.19
354.355	436.19
354.583	457.19
354.81	460.19
355.037	460.19
355.264	471.19
355.491	434.19
355.718	461.19
355.945	443.19
356.172	459.19
356.399	449.19
356.626	462.19
356.853	470.19
357.08	451.19
357.307	454.19
357.534	447.19
357.761	442.19
357.988	455.19
358.215	436.19
358.441	448.19
358.668	459.19
358.895	441.19
359.122	455.19
359.349	453.19
359.576	453.19
359.802	462.19
360.029	470.19
360.256	440.19
360.483	465.19
360.709	457.19
360.936	466.19
361.163	457.19
361.39	443.19
361.616	445.19
361.843	469.19
362.07	460.19
362.296	457.19
362.523	449.19
362.749	449.19
362.976	454.19
363.203	435.19
363.429	432.19
363.656	453.19
363.882	448.19
364.109	462.19
364.335	455.19
364.562	462.19
364.788	444.19
365.015	440.19
365.241	448.19
365.468	452.19
365.694	449.19
365.92	445.19
366.147	460.19
366.373	448.19
366.599	444.19
366.826	442.19
367.052	448.19
367.278	447.19
367.505	438.19
367.731	452.19
367.957	433.19
368.184	460.19
368.41	454.19
368.636	472.19
368.862	456.19
369.089	460.19
369.315	457.19
369.541	463.19
369.767	450.19
369.993	472.19
370.219	466.19
370.445	457.19
370.672	473.19
370.898	483.19
371.124	465.19
371.35	487.19
371.576	489.19
371.802	484.19
372.028	473.19
372.254	489.19
372.48	504.19
372.706	518.19
372.932	508.19
373.158	501.19
373.384	505.19
373.61	502.19
373.835	490.19
374.061	516.19
374.287	474.19
374.513	496.19
374.739	520.19
374.965	537.19
375.191	534.19
375.416	529.19
375.642	516.19
375.868	523.19
376.094	503.19
376.319	478.19
376.545	490.19
376.771	503.19
376.997	484.19
377.222	483.19
377.448	476.19
377.674	473.19
377.899	490.19
378.125	480.19
378.35	493.19
378.576	478.19
378.802	492.19
379.027	469.19
379.253	466.19
379.478	512.19
379.704	490.19
379.929	485.19
380.155	490.19
380.38	473.19
380.606	474.19
380.831	492.19
381.057	481.19
381.282	466.19
381.507	492.19
381.733	504.19
381.958	492.19
382.184	510.19
382.409	498.19
382.634	510.19
382.86	500.19
383.085	521.19
383.31	510.19
383.535	560.19
383.761	527.19
383.986	548.19
384.211	563.19
384.436	583.19
384.662	575.19
384.887	585.19
385.112	569.19
385.337	571.19
385.562	583.19
385.787	562.19
386.013	609.19
386.238	584.19
386.463	586.19
386.688	561.19
386.913	604.19
387.138	587.19
387.363	569.19
387.588	570.19
387.813	581.19
388.038	550.19
388.263	569.19
388.488	593.19
388.713	601.19
388.938	587.19
389.163	579.19
389.387	564.19
389.612	550.19
389.837	558.19
390.062	555.19
390.287	555.19
390.512	547.19
390.736	584.19
390.961	580.19
391.186	590.19
391.411	613.19
391.636	650.19
391.86	628.19
392.085	670.19
392.31	644.19
392.534	636.19
392.759	641.19
392.984	627.19
393.208	609.19
393.433	614.19
393.658	613.19
393.882	618.19
394.107	612.19
394.331	627.19
394.556	629.19
394.78	633.19
395.005	622.19
395.229	599.19
395.454	654.19
395.678	660.19
395.903	676.19
396.127	615.19
396.352	616.19
396.576	625.19
396.801	586.19
397.025	626.19
397.249	632.19
397.474	641.19
397.698	633.19
397.922	645.19
398.147	643.19
398.371	683.19
398.595	673.19
398.82	713.19
399.044	741.19
399.268	847.19
399.492	975.19
399.717	1106.19
399.941	1096.19
400.165	954.19
400.389	857.19
400.613	781.19
400.837	747.19
401.062	731.19
401.286	732.19
401.51	716.19
401.734	688.19
401.958	698.19
402.182	709.19
402.406	724.19
402.63	756.19
402.854	780.19
403.078	786.19
403.302	793.19
403.526	810.19
403.75	838.19
403.974	841.19
404.198	870.19
404.422	858.19
404.645	842.19
404.869	842.19
405.093	833.19
405.317	792.19
405.541	786.19
405.765	792.19
405.988	793.19
406.212	759.19
406.436	779.19
406.66	764.19
406.883	814.19
407.107	857.19
407.331	881.19
407.555	930.19
407.778	925.19
408.002	894.19
408.226	853.19
408.449	866.19
408.673	828.19
408.896	813.19
409.12	789.19
409.344	822.19
409.567	816.19
409.791	855.19
410.014	885.19
410.238	848.19
410.461	820.19
410.685	798.19
410.908	784.19
411.132	776.19
411.355	743.19
411.578	742.19
411.802	743.19
412.025	754.19
412.249	744.19
412.472	733.19
412.695	714.19
412.919	696.19
413.142	679.19
413.365	692.19
413.589	711.19
413.812	713.19
414.035	704.19
414.258	731.19
414.482	736.19
414.705	746.19
414.928	748.19
415.151	731.19
415.374	708.19
415.597	731.19
415.821	717.19
416.044	717.19
416.267	709.19
416.49	709.19
416.713	690.19
416.936	692.19
417.159	731.19
417.382	716.19
417.605	715.19
417.828	725.19
418.051	730.19
418.274	736.19
418.497	698.19
418.72	738.19
418.943	732.19
419.166	786.19
419.389	827.19
419.611	812.19
419.834	803.19
420.057	779.19
420.28	716.19
420.503	717.19
420.726	728.19
420.948	698.19
421.171	713.19
421.394	706.19
421.617	712.19
421.839	740.19
422.062	715.19
422.285	701.19
422.507	718.19
422.73	742.19
422.953	757.19
423.175	776.19
423.398	768.19
423.621	758.19
423.843	778.19
424.066	793.19
424.288	748.19
424.511	747.19
424.733	767.19
424.956	739.19
425.178	737.19
425.401	738.19
425.623	722.19
425.846	711.19
426.068	700.19
426.291	678.19
426.513	686.19
426.735	657.19
426.958	656.19
427.18	642.19
427.402	646.19
427.625	626.19
427.847	657.19
428.069	654.19
428.292	658.19
428.514	650.19
428.736	638.19
428.958	620.19
429.181	636.19
429.403	642.19
429.625	614.19
429.847	632.19
430.069	630.19
430.292	622.19
430.514	618.19
430.736	625.19
430.958	659.19
431.18	625.19
431.402	642.19
431.624	645.19
431.846	637.19
432.068	635.19
432.29	637.19
432.512	634.19
432.734	619.19
432.956	632.19
433.178	636.19
433.4	635.19
433.622	661.19
433.844	664.19
434.066	658.19
434.287	679.19
434.509	698.19
434.731	730.19
434.953	728.19
435.175	742.19
435.397	739.19
435.618	702.19
435.84	674.19
436.062	675.19
436.284	640.19
436.505	643.19
436.727	641.19
436.949	643.19
437.17	655.19
437.392	642.19
437.614	606.19
437.835	594.19
438.057	615.19
438.278	605.19
438.5	619.19
438.721	632.19
438.943	618.19
439.165	625.19
439.386	632.19
439.608	642.19
439.829	649.19
440.05	686.19
440.272	652.19
440.493	648.19
440.715	654.19
440.936	663.19
441.158	679.19
441.379	709.19
441.6	743.19
441.822	738.19
442.043	752.19
442.264	722.19
442.486	713.19
442.707	718.19
442.928	722.19
443.149	744.19
443.371	735.19
443.592	747.19
443.813	758.19
444.034	739.19
444.255	786.19
444.476	816.19
444.698	852.19
444.919	876.19
445.14	955.19
445.361	802.19
445.582	753.19
445.803	697.19
446.024	702.19
446.245	664.19
446.466	692.19
446.687	665.19
446.908	678.19
447.129	640.19
447.35	650.19
447.571	625.19
447.792	606.19
448.013	634.19
448.234	615.19
448.455	611.19
448.675	620.19
448.896	596.19
449.117	588.19
449.338	619.19
449.559	621.19
449.779	605.19
450	607.19
450.221	600.19
450.442	599.19
450.662	633.19
450.883	602.19
451.104	637.19
451.324	658.19
451.545	629.19
451.766	607.19
451.986	614.19
452.207	600.19
452.428	612.19
452.648	641.19
452.869	604.19
453.089	604.19
453.31	616.19
453.53	601.19
453.751	606.19
453.971	589.19
454.192	573.19
454.412	583.19
454.633	585.19
454.853	596.19
455.073	570.19
455.294	567.19
455.514	586.19
455.734	564.19
455.955	563.19
456.175	565.19
456.395	577.19
456.616	568.19
456.836	571.19
457.056	561.19
457.276	566.19
457.497	550.19
457.717	557.19
457.937	565.19
458.157	547.19
458.377	594.19
458.598	608.19
458.818	599.19
459.038	624.19
459.258	653.19
459.478	671.19
459.698	702.19
459.918	682.19
460.138	738.19
460.358	754.19
460.578	778.19
460.798	793.19
461.018	803.19
461.238	777.19
461.458	752.19
461.678	752.19
461.898	775.19
462.118	772.19
462.338	847.19
462.558	843.19
462.777	867.19
462.997	941.19
463.217	1036.19
463.437	1065.19
463.657	966.19
463.876	910.19
464.096	935.19
464.316	904.19
464.536	924.19
464.755	889.19
464.975	830.19
465.195	797.19
465.414	785.19
465.634	727.19
465.854	672.19
466.073	664.19
466.293	668.19
466.512	664.19
466.732	636.19
466.951	644.19
467.171	655.19
467.391	652.19
467.61	682.19
467.829	640.19
468.049	622.19
468.268	610.19
468.488	613.19
468.707	608.19
468.927	617.19
469.146	602.19
469.365	612.19
469.585	614.19
469.804	642.19
470.023	644.19
470.243	619.19
470.462	665.19
470.681	640.19
470.901	642.19
471.12	651.19
471.339	616.19
471.558	605.19
471.777	616.19
471.997	618.19
472.216	597.19
472.435	610.19
472.654	599.19
472.873	604.19
473.092	584.19
473.311	617.19
473.53	555.19
473.749	608.19
473.968	614.19
474.187	609.19
474.406	595.19
474.625	584.19
474.844	609.19
475.063	581.19
475.282	571.19
475.501	587.19
475.72	591.19
475.939	604.19
476.158	601.19
476.377	637.19
476.596	608.19
476.814	609.19
477.033	645.19
477.252	616.19
477.471	686.19
477.69	654.19
477.908	689.19
478.127	708.19
478.346	719.19
478.564	690.19
478.783	713.19
479.002	755.19
479.22	719.19
479.439	704.19
479.658	721.19
479.876	713.19
480.095	738.19
480.313	784.19
480.532	798.19
480.751	775.19
480.969	758.19
481.188	725.19
481.406	718.19
481.624	690.19
481.843	661.19
482.061	689.19
482.28	666.19
482.498	683.19
482.717	658.19
482.935	642.19
483.153	665.19
483.372	639.19
483.59	660.19
483.808	682.19
484.027	670.19
484.245	652.19
484.463	689.19
484.681	692.19
484.9	700.19
485.118	689.19
485.336	685.19
485.554	692.19
485.772	704.19
485.99	706.19
486.209	710.19
486.427	726.19
486.645	710.19
486.863	702.19
487.081	734.19
487.299	725.19
487.517	690.19
487.735	710.19
487.953	696.19
488.171	688.19
488.389	704.19
488.607	706.19
488.825	693.19
489.043	692.19
489.261	681.19
489.479	692.19
489.696	691.19
489.914	693.19
490.132	697.19
490.35	710.19
490.568	702.19
490.786	708.19
491.003	704.19
491.221	714.19
491.439	703.19
491.657	710.19
491.874	699.19
492.092	718.19
492.31	712.19
492.527	719.19
492.745	701.19
492.963	716.19
493.18	710.19
493.398	756.19
493.615	741.19
493.833	738.19
494.05	726.19
494.268	731.19
494.485	736.19
494.703	748.19
494.92	755.19
495.138	736.19
495.355	733.19
495.573	754.19
495.79	772.19
496.008	752.19
496.225	750.19
496.442	794.19
496.66	773.19
496.877	804.19
497.094	776.19
497.312	778.19
497.529	806.19
497.746	800.19
497.963	829.19
498.181	883.19
498.398	910.19
498.615	994.19
498.832	1019.19
499.049	1117.19
499.267	1216.19
499.484	1319.19
499.701	1484.19
499.918	1660.19
500.135	1909.19
500.352	2241.19
500.569	2303.19
500.786	2326.19
501.003	2135.19
501.22	1834.19
501.437	1629.19
