Data from Ni(NO3)2@0.5M.TitratingCurve.Agarose3%dH2O.NegLispCup.LampEnergy10.LIBS07252019_HRD10591_18-01-31-566.txt Node
Date: Thu Jul 25 18:01:31 EDT 2019
User: cochatt
Spectrometer: HR+D1059
Trigger mode: 1
Integration Time (sec): 1.000000E-1
Scans to average: 1
Electric dark correction enabled: true
Nonlinearity correction enabled: false
Boxcar width: 0
XAxis mode: Wavelengths
Number of Pixels in Spectrum: 2048
>>>>>Begin Spectral Data<<<<<
223.165	-21.31
223.4	-21.31
223.635	-21.31
223.869	-37.31
224.104	-24.31
224.338	-14.31
224.573	-7.31
224.808	7.69
225.042	-10.31
225.277	1.69
225.511	-2.31
225.746	-4.31
225.98	-5.31
226.215	5.69
226.449	22.69
226.683	26.69
226.918	25.69
227.152	36.69
227.387	42.69
227.621	29.69
227.856	42.69
228.09	36.69
228.324	57.69
228.559	69.69
228.793	62.69
229.027	54.69
229.262	67.69
229.496	78.69
229.73	74.69
229.964	67.69
230.199	65.69
230.433	83.69
230.667	73.69
230.901	79.69
231.136	86.69
231.37	77.69
231.604	87.69
231.838	76.69
232.072	85.69
232.306	80.69
232.541	81.69
232.775	95.69
233.009	82.69
233.243	77.69
233.477	98.69
233.711	81.69
233.945	73.69
234.179	54.69
234.413	71.69
234.647	88.69
234.881	79.69
235.115	85.69
235.349	78.69
235.583	93.69
235.817	81.69
236.051	77.69
236.285	82.69
236.519	87.69
236.753	83.69
236.987	87.69
237.221	86.69
237.455	86.69
237.689	71.69
237.922	80.69
238.156	71.69
238.39	62.69
238.624	67.69
238.858	79.69
239.091	67.69
239.325	85.69
239.559	72.69
239.793	68.69
240.027	72.69
240.26	68.69
240.494	64.69
240.728	87.69
240.961	67.69
241.195	88.69
241.429	75.69
241.662	85.69
241.896	85.69
242.13	79.69
242.363	70.69
242.597	77.69
242.83	86.69
243.064	81.69
243.298	75.69
243.531	92.69
243.765	85.69
243.998	83.69
244.232	72.69
244.465	65.69
244.699	80.69
244.932	66.69
245.166	74.69
245.399	83.69
245.633	81.69
245.866	89.69
246.099	82.69
246.333	71.69
246.566	69.69
246.8	83.69
247.033	85.69
247.266	82.69
247.5	76.69
247.733	80.69
247.966	78.69
248.2	71.69
248.433	78.69
248.666	79.69
248.899	82.69
249.133	72.69
249.366	65.69
249.599	66.69
249.832	92.69
250.066	90.69
250.299	78.69
250.532	88.69
250.765	77.69
250.998	87.69
251.231	73.69
251.465	77.69
251.698	86.69
251.931	74.69
252.164	77.69
252.397	76.69
252.63	89.69
252.863	77.69
253.096	77.69
253.329	77.69
253.562	81.69
253.795	69.69
254.028	87.69
254.261	68.69
254.494	79.69
254.727	84.69
254.96	81.69
255.193	90.69
255.426	87.69
255.659	73.69
255.892	92.69
256.124	86.69
256.357	102.69
256.59	65.69
256.823	68.69
257.056	69.69
257.289	78.69
257.521	79.69
257.754	84.69
257.987	79.69
258.22	83.69
258.452	83.69
258.685	86.69
258.918	88.69
259.151	72.69
259.383	91.69
259.616	72.69
259.849	81.69
260.081	81.69
260.314	70.69
260.547	84.69
260.779	78.69
261.012	87.69
261.244	67.69
261.477	71.69
261.71	82.69
261.942	84.69
262.175	68.69
262.407	79.69
262.64	77.69
262.872	75.69
263.105	75.69
263.337	87.69
263.57	63.69
263.802	83.69
264.035	90.69
264.267	72.69
264.499	85.69
264.732	85.69
264.964	88.69
265.197	87.69
265.429	80.69
265.661	81.69
265.894	94.69
266.126	79.69
266.358	85.69
266.591	68.69
266.823	70.69
267.055	76.69
267.287	83.69
267.52	76.69
267.752	80.69
267.984	81.69
268.216	81.69
268.448	86.69
268.681	74.69
268.913	85.69
269.145	87.69
269.377	81.69
269.609	78.69
269.841	88.69
270.073	85.69
270.306	92.69
270.538	92.69
270.77	75.69
271.002	68.69
271.234	82.69
271.466	91.69
271.698	84.69
271.93	77.69
272.162	81.69
272.394	86.69
272.626	76.69
272.858	74.69
273.09	81.69
273.322	83.69
273.553	85.69
273.785	82.69
274.017	75.69
274.249	72.69
274.481	71.69
274.713	91.69
274.945	76.69
275.176	71.69
275.408	73.69
275.64	85.69
275.872	89.69
276.104	101.69
276.335	72.69
276.567	86.69
276.799	79.69
277.031	88.69
277.262	84.69
277.494	93.69
277.726	91.69
277.957	92.69
278.189	88.69
278.421	90.69
278.652	80.69
278.884	81.69
279.115	83.69
279.347	73.69
279.579	76.69
279.81	89.69
280.042	83.69
280.273	90.69
280.505	76.69
280.736	98.69
280.968	82.69
281.199	76.69
281.431	75.69
281.662	83.69
281.894	84.69
282.125	85.69
282.356	85.69
282.588	91.69
282.819	78.69
283.051	72.69
283.282	73.69
283.513	88.69
283.745	78.69
283.976	69.69
284.207	76.69
284.439	81.69
284.67	78.69
284.901	73.69
285.132	78.69
285.364	77.69
285.595	75.69
285.826	83.69
286.057	76.69
286.288	97.69
286.52	96.69
286.751	74.69
286.982	89.69
287.213	75.69
287.444	70.69
287.675	84.69
287.906	76.69
288.138	83.69
288.369	102.69
288.6	78.69
288.831	83.69
289.062	91.69
289.293	75.69
289.524	87.69
289.755	73.69
289.986	82.69
290.217	83.69
290.448	77.69
290.679	81.69
290.91	90.69
291.141	78.69
291.371	77.69
291.602	88.69
291.833	90.69
292.064	75.69
292.295	86.69
292.526	88.69
292.757	79.69
292.987	84.69
293.218	81.69
293.449	79.69
293.68	80.69
293.91	90.69
294.141	88.69
294.372	78.69
294.603	98.69
294.833	78.69
295.064	86.69
295.295	79.69
295.525	82.69
295.756	89.69
295.987	88.69
296.217	79.69
296.448	77.69
296.679	97.69
296.909	83.69
297.14	93.69
297.37	72.69
297.601	82.69
297.831	91.69
298.062	91.69
298.292	89.69
298.523	86.69
298.753	84.69
298.984	88.69
299.214	88.69
299.445	83.69
299.675	88.69
299.905	91.69
300.136	98.69
300.366	74.69
300.597	98.69
300.827	86.69
301.057	73.69
301.288	83.69
301.518	80.69
301.748	95.69
301.979	79.69
302.209	89.69
302.439	82.69
302.669	88.69
302.9	88.69
303.13	86.69
303.36	77.69
303.59	78.69
303.82	85.69
304.051	74.69
304.281	83.69
304.511	75.69
304.741	104.69
304.971	76.69
305.201	79.69
305.431	86.69
305.661	68.69
305.891	92.69
306.121	72.69
306.352	84.69
306.582	90.69
306.812	75.69
307.042	93.69
307.272	86.69
307.502	89.69
307.731	83.69
307.961	89.69
308.191	83.69
308.421	71.69
308.651	88.69
308.881	89.69
309.111	78.69
309.341	69.69
309.571	89.69
309.8	79.69
310.03	88.69
310.26	90.69
310.49	86.69
310.72	92.69
310.949	83.69
311.179	68.69
311.409	71.69
311.639	82.69
311.868	84.69
312.098	82.69
312.328	66.69
312.557	62.69
312.787	80.69
313.017	92.69
313.246	78.69
313.476	83.69
313.706	91.69
313.935	81.69
314.165	79.69
314.394	77.69
314.624	81.69
314.853	102.69
315.083	79.69
315.312	98.69
315.542	90.69
315.771	88.69
316.001	82.69
316.23	92.69
316.46	92.69
316.689	85.69
316.919	80.69
317.148	84.69
317.377	85.69
317.607	85.69
317.836	93.69
318.065	73.69
318.295	75.69
318.524	82.69
318.753	79.69
318.983	96.69
319.212	95.69
319.441	92.69
319.67	84.69
319.9	78.69
320.129	87.69
320.358	86.69
320.587	80.69
320.816	76.69
321.046	80.69
321.275	80.69
321.504	85.69
321.733	89.69
321.962	86.69
322.191	86.69
322.42	78.69
322.649	85.69
322.878	86.69
323.108	91.69
323.337	83.69
323.566	82.69
323.795	89.69
324.024	82.69
324.253	83.69
324.482	77.69
324.71	95.69
324.939	78.69
325.168	85.69
325.397	94.69
325.626	72.69
325.855	74.69
326.084	86.69
326.313	83.69
326.542	79.69
326.77	71.69
326.999	83.69
327.228	71.69
327.457	85.69
327.686	92.69
327.914	86.69
328.143	87.69
328.372	84.69
328.6	94.69
328.829	91.69
329.058	80.69
329.287	93.69
329.515	86.69
329.744	89.69
329.972	83.69
330.201	76.69
330.43	78.69
330.658	82.69
330.887	96.69
331.115	84.69
331.344	89.69
331.572	85.69
331.801	83.69
332.03	66.69
332.258	75.69
332.486	79.69
332.715	89.69
332.943	75.69
333.172	81.69
333.4	80.69
333.629	84.69
333.857	69.69
334.085	88.69
334.314	91.69
334.542	84.69
334.771	80.69
334.999	88.69
335.227	79.69
335.455	84.69
335.684	79.69
335.912	100.69
336.14	73.69
336.369	86.69
336.597	81.69
336.825	73.69
337.053	89.69
337.281	90.69
337.51	89.69
337.738	66.69
337.966	80.69
338.194	84.69
338.422	81.69
338.65	76.69
338.878	105.69
339.106	104.69
339.334	91.69
339.562	75.69
339.79	91.69
340.018	81.69
340.246	71.69
340.474	74.69
340.702	84.69
340.93	74.69
341.158	79.69
341.386	100.69
341.614	97.69
341.842	76.69
342.07	58.69
342.298	73.69
342.526	85.69
342.754	84.69
342.981	85.69
343.209	83.69
343.437	88.69
343.665	82.69
343.893	67.69
344.12	75.69
344.348	67.69
344.576	76.69
344.804	82.69
345.031	82.69
345.259	78.69
345.487	92.69
345.714	77.69
345.942	83.69
346.17	86.69
346.397	78.69
346.625	90.69
346.853	74.69
347.08	67.69
347.308	84.69
347.535	83.69
347.763	73.69
347.99	93.69
348.218	92.69
348.445	78.69
348.673	93.69
348.9	73.69
349.128	83.69
349.355	80.69
349.583	91.69
349.81	79.69
350.037	83.69
350.265	101.69
350.492	63.69
350.72	73.69
350.947	79.69
351.174	95.69
351.402	72.69
351.629	81.69
351.856	80.69
352.083	87.69
352.311	78.69
352.538	65.69
352.765	84.69
352.992	69.69
353.22	78.69
353.447	75.69
353.674	101.69
353.901	84.69
354.128	74.69
354.355	70.69
354.583	71.69
354.81	79.69
355.037	93.69
355.264	88.69
355.491	82.69
355.718	91.69
355.945	79.69
356.172	99.69
356.399	90.69
356.626	78.69
356.853	90.69
357.08	81.69
357.307	70.69
357.534	77.69
357.761	87.69
357.988	86.69
358.215	93.69
358.441	92.69
358.668	85.69
358.895	94.69
359.122	90.69
359.349	89.69
359.576	73.69
359.802	98.69
360.029	85.69
360.256	88.69
360.483	82.69
360.709	98.69
360.936	80.69
361.163	90.69
361.39	84.69
361.616	79.69
361.843	75.69
362.07	73.69
362.296	68.69
362.523	56.69
362.749	78.69
362.976	71.69
363.203	78.69
363.429	92.69
363.656	85.69
363.882	91.69
364.109	73.69
364.335	67.69
364.562	74.69
364.788	75.69
365.015	86.69
365.241	79.69
365.468	83.69
365.694	81.69
365.92	86.69
366.147	86.69
366.373	82.69
366.599	75.69
366.826	91.69
367.052	98.69
367.278	94.69
367.505	86.69
367.731	77.69
367.957	94.69
368.184	90.69
368.41	98.69
368.636	74.69
368.862	83.69
369.089	72.69
369.315	79.69
369.541	87.69
369.767	78.69
369.993	78.69
370.219	92.69
370.445	87.69
370.672	84.69
370.898	83.69
371.124	85.69
371.35	83.69
371.576	99.69
371.802	89.69
372.028	90.69
372.254	88.69
372.48	80.69
372.706	91.69
372.932	87.69
373.158	87.69
373.384	95.69
373.61	89.69
373.835	86.69
374.061	93.69
374.287	89.69
374.513	91.69
374.739	76.69
374.965	85.69
375.191	90.69
375.416	91.69
375.642	89.69
375.868	75.69
376.094	81.69
376.319	91.69
376.545	77.69
376.771	97.69
376.997	90.69
377.222	83.69
377.448	93.69
377.674	94.69
377.899	87.69
378.125	86.69
378.35	86.69
378.576	91.69
378.802	78.69
379.027	87.69
379.253	90.69
379.478	73.69
379.704	85.69
379.929	89.69
380.155	94.69
380.38	76.69
380.606	99.69
380.831	80.69
381.057	94.69
381.282	83.69
381.507	81.69
381.733	95.69
381.958	89.69
382.184	87.69
382.409	87.69
382.634	96.69
382.86	93.69
383.085	90.69
383.31	89.69
383.535	90.69
383.761	96.69
383.986	101.69
384.211	88.69
384.436	95.69
384.662	100.69
384.887	89.69
385.112	86.69
385.337	82.69
385.562	97.69
385.787	92.69
386.013	93.69
386.238	79.69
386.463	89.69
386.688	96.69
386.913	88.69
387.138	86.69
387.363	93.69
387.588	91.69
387.813	92.69
388.038	84.69
388.263	84.69
388.488	93.69
388.713	92.69
388.938	95.69
389.163	90.69
389.387	86.69
389.612	82.69
389.837	78.69
390.062	99.69
390.287	82.69
390.512	93.69
390.736	92.69
390.961	98.69
391.186	97.69
391.411	90.69
391.636	93.69
391.86	91.69
392.085	105.69
392.31	83.69
392.534	85.69
392.759	85.69
392.984	105.69
393.208	110.69
393.433	103.69
393.658	104.69
393.882	116.69
394.107	102.69
394.331	84.69
394.556	78.69
394.78	88.69
395.005	83.69
395.229	103.69
395.454	86.69
395.678	91.69
395.903	102.69
396.127	99.69
396.352	81.69
396.576	90.69
396.801	100.69
397.025	97.69
397.249	107.69
397.474	87.69
397.698	98.69
397.922	94.69
398.147	104.69
398.371	107.69
398.595	101.69
398.82	92.69
399.044	88.69
399.268	93.69
399.492	83.69
399.717	99.69
399.941	90.69
400.165	105.69
400.389	98.69
400.613	107.69
400.837	113.69
401.062	89.69
401.286	86.69
401.51	100.69
401.734	101.69
401.958	83.69
402.182	101.69
402.406	102.69
402.63	108.69
402.854	97.69
403.078	120.69
403.302	105.69
403.526	102.69
403.75	103.69
403.974	107.69
404.198	116.69
404.422	99.69
404.645	84.69
404.869	87.69
405.093	102.69
405.317	109.69
405.541	102.69
405.765	98.69
405.988	95.69
406.212	101.69
406.436	85.69
406.66	93.69
406.883	112.69
407.107	113.69
407.331	102.69
407.555	113.69
407.778	105.69
408.002	116.69
408.226	106.69
408.449	119.69
408.673	102.69
408.896	102.69
409.12	94.69
409.344	97.69
409.567	104.69
409.791	102.69
410.014	102.69
410.238	109.69
410.461	109.69
410.685	106.69
410.908	117.69
411.132	119.69
411.355	109.69
411.578	115.69
411.802	117.69
412.025	93.69
412.249	106.69
412.472	114.69
412.695	108.69
412.919	89.69
413.142	111.69
413.365	110.69
413.589	98.69
413.812	114.69
414.035	117.69
414.258	106.69
414.482	115.69
414.705	113.69
414.928	118.69
415.151	109.69
415.374	100.69
415.597	108.69
415.821	115.69
416.044	106.69
416.267	115.69
416.49	110.69
416.713	116.69
416.936	112.69
417.159	110.69
417.382	129.69
417.605	115.69
417.828	118.69
418.051	107.69
418.274	115.69
418.497	117.69
418.72	119.69
418.943	123.69
419.166	119.69
419.389	107.69
419.611	103.69
419.834	108.69
420.057	125.69
420.28	110.69
420.503	115.69
420.726	110.69
420.948	114.69
421.171	105.69
421.394	115.69
421.617	127.69
421.839	106.69
422.062	114.69
422.285	123.69
422.507	114.69
422.73	113.69
422.953	109.69
423.175	123.69
423.398	115.69
423.621	128.69
423.843	119.69
424.066	121.69
424.288	122.69
424.511	121.69
424.733	133.69
424.956	114.69
425.178	136.69
425.401	129.69
425.623	129.69
425.846	118.69
426.068	103.69
426.291	111.69
426.513	111.69
426.735	97.69
426.958	109.69
427.18	119.69
427.402	122.69
427.625	123.69
427.847	121.69
428.069	122.69
428.292	129.69
428.514	113.69
428.736	120.69
428.958	124.69
429.181	133.69
429.403	115.69
429.625	124.69
429.847	122.69
430.069	121.69
430.292	136.69
430.514	130.69
430.736	131.69
430.958	129.69
431.18	121.69
431.402	117.69
431.624	117.69
431.846	107.69
432.068	93.69
432.29	102.69
432.512	119.69
432.734	123.69
432.956	119.69
433.178	122.69
433.4	138.69
433.622	123.69
433.844	120.69
434.066	93.69
434.287	98.69
434.509	98.69
434.731	101.69
434.953	119.69
435.175	125.69
435.397	119.69
435.618	113.69
435.84	104.69
436.062	113.69
436.284	108.69
436.505	133.69
436.727	118.69
436.949	120.69
437.17	125.69
437.392	138.69
437.614	113.69
437.835	103.69
438.057	103.69
438.278	108.69
438.5	135.69
438.721	120.69
438.943	125.69
439.165	133.69
439.386	139.69
439.608	133.69
439.829	136.69
440.05	131.69
440.272	125.69
440.493	137.69
440.715	142.69
440.936	139.69
441.158	127.69
441.379	134.69
441.6	135.69
441.822	142.69
442.043	124.69
442.264	126.69
442.486	138.69
442.707	131.69
442.928	150.69
443.149	131.69
443.371	142.69
443.592	117.69
443.813	120.69
444.034	134.69
444.255	145.69
444.476	127.69
444.698	133.69
444.919	136.69
445.14	270.69
445.361	201.69
445.582	164.69
445.803	138.69
446.024	155.69
446.245	153.69
446.466	148.69
446.687	150.69
446.908	162.69
447.129	151.69
447.35	149.69
447.571	141.69
447.792	147.69
448.013	143.69
448.234	132.69
448.455	149.69
448.675	147.69
448.896	135.69
449.117	143.69
449.338	132.69
449.559	138.69
449.779	139.69
450	143.69
450.221	137.69
450.442	140.69
450.662	151.69
450.883	136.69
451.104	148.69
451.324	136.69
451.545	142.69
451.766	124.69
451.986	123.69
452.207	128.69
452.428	119.69
452.648	103.69
452.869	111.69
453.089	117.69
453.31	105.69
453.53	115.69
453.751	107.69
453.971	109.69
454.192	93.69
454.412	110.69
454.633	105.69
454.853	114.69
455.073	121.69
455.294	119.69
455.514	122.69
455.734	116.69
455.955	117.69
456.175	108.69
456.395	100.69
456.616	117.69
456.836	117.69
457.056	102.69
457.276	109.69
457.497	95.69
457.717	104.69
457.937	101.69
458.157	106.69
458.377	107.69
458.598	98.69
458.818	93.69
459.038	85.69
459.258	90.69
459.478	81.69
459.698	72.69
459.918	106.69
460.138	109.69
460.358	120.69
460.578	115.69
460.798	109.69
461.018	101.69
461.238	115.69
461.458	112.69
461.678	109.69
461.898	103.69
462.118	116.69
462.338	113.69
462.558	118.69
462.777	97.69
462.997	108.69
463.217	97.69
463.437	91.69
463.657	94.69
463.876	93.69
464.096	116.69
464.316	107.69
464.536	107.69
464.755	122.69
464.975	109.69
465.195	113.69
465.414	113.69
465.634	108.69
465.854	100.69
466.073	115.69
466.293	116.69
466.512	115.69
466.732	127.69
466.951	122.69
467.171	122.69
467.391	121.69
467.61	138.69
467.829	129.69
468.049	133.69
468.268	137.69
468.488	127.69
468.707	127.69
468.927	128.69
469.146	133.69
469.365	124.69
469.585	130.69
469.804	133.69
470.023	147.69
470.243	133.69
470.462	135.69
470.681	149.69
470.901	148.69
471.12	125.69
471.339	136.69
471.558	141.69
471.777	132.69
471.997	143.69
472.216	129.69
472.435	115.69
472.654	113.69
472.873	107.69
473.092	97.69
473.311	116.69
473.53	117.69
473.749	124.69
473.968	122.69
474.187	114.69
474.406	114.69
474.625	124.69
474.844	121.69
475.063	126.69
475.282	116.69
475.501	105.69
475.72	119.69
475.939	116.69
476.158	114.69
476.377	127.69
476.596	125.69
476.814	97.69
477.033	94.69
477.252	98.69
477.471	117.69
477.69	130.69
477.908	133.69
478.127	135.69
478.346	120.69
478.564	125.69
478.783	120.69
479.002	123.69
479.22	121.69
479.439	122.69
479.658	119.69
479.876	107.69
480.095	106.69
480.313	103.69
480.532	124.69
480.751	100.69
480.969	95.69
481.188	91.69
481.406	78.69
481.624	92.69
481.843	85.69
482.061	91.69
482.28	93.69
482.498	103.69
482.717	103.69
482.935	110.69
483.153	127.69
483.372	142.69
483.59	143.69
483.808	124.69
484.027	114.69
484.245	115.69
484.463	122.69
484.681	122.69
484.9	114.69
485.118	133.69
485.336	132.69
485.554	110.69
485.772	106.69
485.99	85.69
486.209	107.69
486.427	100.69
486.645	94.69
486.863	133.69
487.081	127.69
487.299	118.69
487.517	119.69
487.735	149.69
487.953	161.69
488.171	165.69
488.389	153.69
488.607	133.69
488.825	126.69
489.043	127.69
489.261	121.69
489.479	145.69
489.696	135.69
489.914	127.69
490.132	140.69
490.35	139.69
490.568	159.69
490.786	154.69
491.003	170.69
491.221	177.69
491.439	172.69
491.657	180.69
491.874	210.69
492.092	199.69
492.31	228.69
492.527	213.69
492.745	203.69
492.963	200.69
493.18	179.69
493.398	185.69
493.615	175.69
493.833	179.69
494.05	153.69
494.268	156.69
494.485	157.69
494.703	161.69
494.92	170.69
495.138	166.69
495.355	167.69
495.573	154.69
495.79	160.69
496.008	153.69
496.225	165.69
496.442	170.69
496.66	161.69
496.877	157.69
497.094	162.69
497.312	143.69
497.529	149.69
497.746	153.69
497.963	127.69
498.181	116.69
498.398	106.69
498.615	104.69
498.832	105.69
499.049	123.69
499.267	109.69
499.484	115.69
499.701	124.69
499.918	127.69
500.135	132.69
500.352	129.69
500.569	118.69
500.786	125.69
501.003	127.69
501.22	132.69
501.437	116.69
501.654	110.69
501.871	103.69
502.088	123.69
502.305	122.69
502.522	109.69
502.739	128.69
502.956	126.69
503.172	123.69
503.389	95.69
503.606	106.69
503.823	107.69
504.04	106.69
504.256	117.69
504.473	115.69
504.69	97.69
504.907	131.69
505.123	113.69
505.34	121.69
505.557	110.69
505.773	119.69
505.99	108.69
506.207	108.69
506.423	124.69
506.64	97.69
506.856	114.69
507.073	106.69
507.289	108.69
507.506	103.69
507.722	116.69
507.939	104.69
508.155	125.69
508.372	111.69
508.588	110.69
508.805	116.69
509.021	117.69
509.238	101.69
509.454	89.69
509.67	93.69
509.887	91.69
510.103	83.69
510.319	90.69
510.536	97.69
510.752	89.69
510.968	82.69
511.184	79.69
511.401	102.69
511.617	83.69
511.833	75.69
512.049	85.69
512.265	90.69
