Data from Ni(NO3)2@0.125M.TitratingCurve.Agarose3%dH2O.NegLispCup.LampEnergy10.LIBS07252019_HRD10591_18-10-27-567.txt Node
Date: Thu Jul 25 18:10:27 EDT 2019
User: cochatt
Spectrometer: HR+D1059
Trigger mode: 1
Integration Time (sec): 1.000000E-1
Scans to average: 1
Electric dark correction enabled: true
Nonlinearity correction enabled: false
Boxcar width: 0
XAxis mode: Wavelengths
Number of Pixels in Spectrum: 2048
>>>>>Begin Spectral Data<<<<<
223.165	-21.88
223.4	-21.88
223.635	-21.88
223.869	-8.88
224.104	-32.88
224.338	-10.88
224.573	-6.88
224.808	-0.88
225.042	-7.88
225.277	-2.88
225.511	-0.88
225.746	15.12
225.98	5.12
226.215	6.12
226.449	-0.88
226.683	25.12
226.918	22.12
227.152	21.12
227.387	29.12
227.621	48.12
227.856	46.12
228.09	38.12
228.324	55.12
228.559	62.12
228.793	66.12
229.027	72.12
229.262	97.12
229.496	80.12
229.73	90.12
229.964	94.12
230.199	89.12
230.433	99.12
230.667	96.12
230.901	101.12
231.136	108.12
231.37	115.12
231.604	119.12
231.838	117.12
232.072	99.12
232.306	99.12
232.541	118.12
232.775	113.12
233.009	119.12
233.243	110.12
233.477	121.12
233.711	117.12
233.945	116.12
234.179	102.12
234.413	105.12
234.647	119.12
234.881	110.12
235.115	121.12
235.349	110.12
235.583	99.12
235.817	109.12
236.051	134.12
236.285	121.12
236.519	114.12
236.753	126.12
236.987	122.12
237.221	119.12
237.455	110.12
237.689	124.12
237.922	122.12
238.156	115.12
238.39	117.12
238.624	121.12
238.858	129.12
239.091	135.12
239.325	114.12
239.559	123.12
239.793	111.12
240.027	138.12
240.26	121.12
240.494	125.12
240.728	123.12
240.961	128.12
241.195	125.12
241.429	133.12
241.662	137.12
241.896	126.12
242.13	129.12
242.363	134.12
242.597	151.12
242.83	141.12
243.064	136.12
243.298	134.12
243.531	143.12
243.765	144.12
243.998	127.12
244.232	144.12
244.465	149.12
244.699	141.12
244.932	155.12
245.166	161.12
245.399	138.12
245.633	131.12
245.866	155.12
246.099	148.12
246.333	148.12
246.566	159.12
246.8	157.12
247.033	150.12
247.266	141.12
247.5	157.12
247.733	147.12
247.966	160.12
248.2	155.12
248.433	177.12
248.666	153.12
248.899	164.12
249.133	168.12
249.366	160.12
249.599	173.12
249.832	174.12
250.066	148.12
250.299	149.12
250.532	175.12
250.765	165.12
250.998	166.12
251.231	170.12
251.465	181.12
251.698	177.12
251.931	165.12
252.164	196.12
252.397	163.12
252.63	157.12
252.863	197.12
253.096	180.12
253.329	190.12
253.562	156.12
253.795	169.12
254.028	180.12
254.261	190.12
254.494	158.12
254.727	194.12
254.96	187.12
255.193	188.12
255.426	206.12
255.659	188.12
255.892	191.12
256.124	197.12
256.357	193.12
256.59	197.12
256.823	190.12
257.056	194.12
257.289	183.12
257.521	183.12
257.754	189.12
257.987	202.12
258.22	195.12
258.452	188.12
258.685	192.12
258.918	189.12
259.151	194.12
259.383	207.12
259.616	214.12
259.849	197.12
260.081	197.12
260.314	205.12
260.547	209.12
260.779	213.12
261.012	193.12
261.244	216.12
261.477	214.12
261.71	195.12
261.942	202.12
262.175	217.12
262.407	204.12
262.64	213.12
262.872	226.12
263.105	190.12
263.337	213.12
263.57	207.12
263.802	207.12
264.035	217.12
264.267	216.12
264.499	221.12
264.732	218.12
264.964	222.12
265.197	199.12
265.429	229.12
265.661	232.12
265.894	236.12
266.126	226.12
266.358	243.12
266.591	220.12
266.823	240.12
267.055	234.12
267.287	220.12
267.52	226.12
267.752	226.12
267.984	231.12
268.216	226.12
268.448	246.12
268.681	217.12
268.913	241.12
269.145	221.12
269.377	236.12
269.609	236.12
269.841	231.12
270.073	233.12
270.306	243.12
270.538	248.12
270.77	220.12
271.002	251.12
271.234	245.12
271.466	258.12
271.698	238.12
271.93	225.12
272.162	227.12
272.394	259.12
272.626	261.12
272.858	250.12
273.09	244.12
273.322	242.12
273.553	268.12
273.785	247.12
274.017	235.12
274.249	253.12
274.481	242.12
274.713	257.12
274.945	244.12
275.176	261.12
275.408	258.12
275.64	242.12
275.872	270.12
276.104	261.12
276.335	262.12
276.567	249.12
276.799	273.12
277.031	253.12
277.262	261.12
277.494	263.12
277.726	270.12
277.957	270.12
278.189	244.12
278.421	261.12
278.652	266.12
278.884	274.12
279.115	269.12
279.347	277.12
279.579	260.12
279.81	303.12
280.042	260.12
280.273	288.12
280.505	265.12
280.736	265.12
280.968	283.12
281.199	272.12
281.431	295.12
281.662	280.12
281.894	290.12
282.125	280.12
282.356	302.12
282.588	284.12
282.819	296.12
283.051	288.12
283.282	295.12
283.513	307.12
283.745	301.12
283.976	288.12
284.207	294.12
284.439	306.12
284.67	298.12
284.901	293.12
285.132	290.12
285.364	286.12
285.595	294.12
285.826	281.12
286.057	301.12
286.288	305.12
286.52	315.12
286.751	298.12
286.982	307.12
287.213	298.12
287.444	309.12
287.675	299.12
287.906	309.12
288.138	313.12
288.369	297.12
288.6	323.12
288.831	293.12
289.062	311.12
289.293	317.12
289.524	301.12
289.755	338.12
289.986	308.12
290.217	323.12
290.448	328.12
290.679	317.12
290.91	320.12
291.141	308.12
291.371	303.12
291.602	325.12
291.833	335.12
292.064	319.12
292.295	315.12
292.526	309.12
292.757	331.12
292.987	305.12
293.218	312.12
293.449	344.12
293.68	327.12
293.91	317.12
294.141	314.12
294.372	329.12
294.603	325.12
294.833	337.12
295.064	317.12
295.295	317.12
295.525	322.12
295.756	327.12
295.987	331.12
296.217	336.12
296.448	332.12
296.679	328.12
296.909	332.12
297.14	335.12
297.37	356.12
297.601	339.12
297.831	343.12
298.062	351.12
298.292	333.12
298.523	367.12
298.753	345.12
298.984	347.12
299.214	345.12
299.445	341.12
299.675	342.12
299.905	347.12
300.136	340.12
300.366	343.12
300.597	358.12
300.827	347.12
301.057	355.12
301.288	363.12
301.518	361.12
301.748	359.12
301.979	370.12
302.209	376.12
302.439	365.12
302.669	367.12
302.9	363.12
303.13	377.12
303.36	348.12
303.59	347.12
303.82	350.12
304.051	362.12
304.281	358.12
304.511	348.12
304.741	351.12
304.971	365.12
305.201	371.12
305.431	341.12
305.661	348.12
305.891	329.12
306.121	362.12
306.352	353.12
306.582	374.12
306.812	351.12
307.042	348.12
307.272	352.12
307.502	330.12
307.731	338.12
307.961	339.12
308.191	340.12
308.421	357.12
308.651	339.12
308.881	343.12
309.111	348.12
309.341	356.12
309.571	350.12
309.8	351.12
310.03	365.12
310.26	346.12
310.49	364.12
310.72	355.12
310.949	333.12
311.179	366.12
311.409	357.12
311.639	348.12
311.868	359.12
312.098	367.12
312.328	370.12
312.557	377.12
312.787	376.12
313.017	385.12
313.246	359.12
313.476	365.12
313.706	357.12
313.935	376.12
314.165	363.12
314.394	373.12
314.624	379.12
314.853	381.12
315.083	380.12
315.312	361.12
315.542	366.12
315.771	370.12
316.001	358.12
316.23	367.12
316.46	349.12
316.689	346.12
316.919	366.12
317.148	370.12
317.377	375.12
317.607	378.12
317.836	347.12
318.065	366.12
318.295	375.12
318.524	375.12
318.753	384.12
318.983	377.12
319.212	370.12
319.441	358.12
319.67	369.12
319.9	364.12
320.129	358.12
320.358	381.12
320.587	360.12
320.816	369.12
321.046	370.12
321.275	380.12
321.504	385.12
321.733	366.12
321.962	369.12
322.191	362.12
322.42	374.12
322.649	383.12
322.878	367.12
323.108	391.12
323.337	382.12
323.566	387.12
323.795	406.12
324.024	379.12
324.253	366.12
324.482	389.12
324.71	373.12
324.939	386.12
325.168	385.12
325.397	399.12
325.626	374.12
325.855	392.12
326.084	394.12
326.313	393.12
326.542	418.12
326.77	397.12
326.999	391.12
327.228	420.12
327.457	403.12
327.686	383.12
327.914	403.12
328.143	391.12
328.372	400.12
328.6	417.12
328.829	412.12
329.058	420.12
329.287	385.12
329.515	383.12
329.744	413.12
329.972	414.12
330.201	416.12
330.43	418.12
330.658	447.12
330.887	416.12
331.115	451.12
331.344	449.12
331.572	418.12
331.801	428.12
332.03	469.12
332.258	456.12
332.486	482.12
332.715	509.12
332.943	523.12
333.172	541.12
333.4	571.12
333.629	573.12
333.857	571.12
334.085	531.12
334.314	540.12
334.542	523.12
334.771	503.12
334.999	521.12
335.227	493.12
335.455	512.12
335.684	501.12
335.912	480.12
336.14	485.12
336.369	498.12
336.597	473.12
336.825	476.12
337.053	480.12
337.281	509.12
337.51	465.12
337.738	466.12
337.966	443.12
338.194	470.12
338.422	463.12
338.65	441.12
338.878	430.12
339.106	437.12
339.334	439.12
339.562	459.12
339.79	433.12
340.018	424.12
340.246	422.12
340.474	422.12
340.702	429.12
340.93	431.12
341.158	444.12
341.386	444.12
341.614	431.12
341.842	421.12
342.07	433.12
342.298	420.12
342.526	425.12
342.754	431.12
342.981	442.12
343.209	440.12
343.437	472.12
343.665	483.12
343.893	521.12
344.12	536.12
344.348	516.12
344.576	469.12
344.804	469.12
345.031	476.12
345.259	463.12
345.487	441.12
345.714	448.12
345.942	455.12
346.17	444.12
346.397	425.12
346.625	431.12
346.853	417.12
347.08	407.12
347.308	446.12
347.535	440.12
347.763	430.12
347.99	446.12
348.218	426.12
348.445	444.12
348.673	442.12
348.9	444.12
349.128	430.12
349.355	426.12
349.583	414.12
349.81	413.12
350.037	417.12
350.265	411.12
350.492	403.12
350.72	404.12
350.947	427.12
351.174	407.12
351.402	417.12
351.629	402.12
351.856	389.12
352.083	411.12
352.311	421.12
352.538	425.12
352.765	430.12
352.992	402.12
353.22	408.12
353.447	414.12
353.674	417.12
353.901	413.12
354.128	417.12
354.355	409.12
354.583	415.12
354.81	406.12
355.037	394.12
355.264	413.12
355.491	425.12
355.718	412.12
355.945	405.12
356.172	423.12
356.399	413.12
356.626	414.12
356.853	423.12
357.08	433.12
357.307	409.12
357.534	407.12
357.761	418.12
357.988	417.12
358.215	428.12
358.441	411.12
358.668	395.12
358.895	408.12
359.122	407.12
359.349	418.12
359.576	408.12
359.802	415.12
360.029	414.12
360.256	411.12
360.483	409.12
360.709	415.12
360.936	409.12
361.163	400.12
361.39	405.12
361.616	398.12
361.843	418.12
362.07	408.12
362.296	397.12
362.523	391.12
362.749	391.12
362.976	400.12
363.203	421.12
363.429	385.12
363.656	403.12
363.882	397.12
364.109	402.12
364.335	396.12
364.562	405.12
364.788	406.12
365.015	410.12
365.241	424.12
365.468	391.12
365.694	394.12
365.92	412.12
366.147	393.12
366.373	399.12
366.599	420.12
366.826	399.12
367.052	409.12
367.278	417.12
367.505	410.12
367.731	419.12
367.957	389.12
368.184	412.12
368.41	408.12
368.636	439.12
368.862	419.12
369.089	421.12
369.315	427.12
369.541	422.12
369.767	431.12
369.993	408.12
370.219	431.12
370.445	434.12
370.672	414.12
370.898	443.12
371.124	432.12
371.35	457.12
371.576	429.12
371.802	426.12
372.028	431.12
372.254	435.12
372.48	434.12
372.706	471.12
372.932	450.12
373.158	464.12
373.384	443.12
373.61	435.12
373.835	431.12
374.061	445.12
374.287	452.12
374.513	453.12
374.739	451.12
374.965	462.12
375.191	484.12
375.416	486.12
375.642	482.12
375.868	459.12
376.094	456.12
376.319	456.12
376.545	434.12
376.771	449.12
376.997	448.12
377.222	458.12
377.448	454.12
377.674	417.12
377.899	434.12
378.125	431.12
378.35	431.12
378.576	429.12
378.802	434.12
379.027	443.12
379.253	469.12
379.478	420.12
379.704	443.12
379.929	457.12
380.155	429.12
380.38	432.12
380.606	426.12
380.831	422.12
381.057	430.12
381.282	438.12
381.507	443.12
381.733	446.12
381.958	444.12
382.184	435.12
382.409	458.12
382.634	473.12
382.86	460.12
383.085	499.12
383.31	473.12
383.535	470.12
383.761	488.12
383.986	483.12
384.211	503.12
384.436	516.12
384.662	519.12
384.887	542.12
385.112	527.12
385.337	531.12
385.562	518.12
385.787	519.12
386.013	554.12
386.238	527.12
386.463	517.12
386.688	520.12
386.913	517.12
387.138	497.12
387.363	499.12
387.588	535.12
387.813	517.12
388.038	515.12
388.263	522.12
388.488	529.12
388.713	500.12
388.938	502.12
389.163	507.12
389.387	509.12
389.612	494.12
389.837	513.12
390.062	507.12
390.287	514.12
390.512	490.12
390.736	493.12
390.961	525.12
391.186	531.12
391.411	537.12
391.636	544.12
391.86	567.12
392.085	584.12
392.31	593.12
392.534	562.12
392.759	569.12
392.984	547.12
393.208	546.12
393.433	513.12
393.658	527.12
393.882	557.12
394.107	533.12
394.331	566.12
394.556	560.12
394.78	568.12
395.005	575.12
395.229	575.12
395.454	564.12
395.678	595.12
395.903	584.12
396.127	560.12
396.352	556.12
396.576	531.12
396.801	528.12
397.025	550.12
397.249	557.12
397.474	561.12
397.698	584.12
397.922	571.12
398.147	577.12
398.371	571.12
398.595	602.12
398.82	631.12
399.044	673.12
399.268	727.12
399.492	865.12
399.717	985.12
399.941	981.12
400.165	852.12
400.389	719.12
400.613	697.12
400.837	667.12
401.062	649.12
401.286	653.12
401.51	639.12
401.734	647.12
401.958	647.12
402.182	646.12
402.406	666.12
402.63	655.12
402.854	686.12
403.078	697.12
403.302	711.12
403.526	712.12
403.75	767.12
403.974	785.12
404.198	782.12
404.422	743.12
404.645	758.12
404.869	716.12
405.093	735.12
405.317	709.12
405.541	723.12
405.765	695.12
405.988	702.12
406.212	695.12
406.436	687.12
406.66	730.12
406.883	713.12
407.107	762.12
407.331	802.12
407.555	835.12
407.778	847.12
408.002	823.12
408.226	782.12
408.449	774.12
408.673	716.12
408.896	746.12
409.12	726.12
409.344	734.12
409.567	734.12
409.791	791.12
410.014	741.12
410.238	769.12
410.461	738.12
410.685	714.12
410.908	717.12
411.132	697.12
411.355	701.12
411.578	664.12
411.802	666.12
412.025	699.12
412.249	675.12
412.472	692.12
412.695	662.12
412.919	634.12
413.142	646.12
413.365	667.12
413.589	619.12
413.812	631.12
414.035	643.12
414.258	632.12
414.482	659.12
414.705	685.12
414.928	661.12
415.151	655.12
415.374	651.12
415.597	645.12
415.821	641.12
416.044	652.12
416.267	647.12
416.49	630.12
416.713	631.12
416.936	666.12
417.159	634.12
417.382	647.12
417.605	637.12
417.828	646.12
418.051	684.12
418.274	660.12
418.497	668.12
418.72	686.12
418.943	679.12
419.166	694.12
419.389	729.12
419.611	739.12
419.834	705.12
420.057	671.12
420.28	669.12
420.503	633.12
420.726	643.12
420.948	642.12
421.171	642.12
421.394	668.12
421.617	642.12
421.839	645.12
422.062	674.12
422.285	647.12
422.507	677.12
422.73	670.12
422.953	675.12
423.175	698.12
423.398	691.12
423.621	694.12
423.843	739.12
424.066	691.12
424.288	703.12
424.511	711.12
424.733	667.12
424.956	675.12
425.178	665.12
425.401	690.12
425.623	675.12
425.846	646.12
426.068	656.12
426.291	635.12
426.513	621.12
426.735	614.12
426.958	613.12
427.18	591.12
427.402	595.12
427.625	595.12
427.847	579.12
428.069	599.12
428.292	589.12
428.514	557.12
428.736	577.12
428.958	571.12
429.181	576.12
429.403	555.12
429.625	575.12
429.847	584.12
430.069	568.12
430.292	571.12
430.514	560.12
430.736	564.12
430.958	565.12
431.18	567.12
431.402	584.12
431.624	588.12
431.846	591.12
432.068	611.12
432.29	601.12
432.512	579.12
432.734	597.12
432.956	563.12
433.178	596.12
433.4	607.12
433.622	599.12
433.844	598.12
434.066	590.12
434.287	613.12
434.509	633.12
434.731	655.12
434.953	652.12
435.175	678.12
435.397	661.12
435.618	639.12
435.84	606.12
436.062	601.12
436.284	590.12
436.505	595.12
436.727	611.12
436.949	602.12
437.17	614.12
437.392	590.12
437.614	580.12
437.835	563.12
438.057	586.12
438.278	563.12
438.5	572.12
438.721	574.12
438.943	572.12
439.165	572.12
439.386	596.12
439.608	573.12
439.829	616.12
440.05	609.12
440.272	607.12
440.493	631.12
440.715	601.12
440.936	618.12
441.158	632.12
441.379	649.12
441.6	690.12
441.822	693.12
442.043	685.12
442.264	659.12
442.486	656.12
442.707	635.12
442.928	663.12
443.149	680.12
443.371	661.12
443.592	663.12
443.813	669.12
444.034	681.12
444.255	715.12
444.476	739.12
444.698	789.12
444.919	823.12
445.14	887.12
445.361	783.12
445.582	697.12
445.803	666.12
446.024	628.12
446.245	633.12
446.466	616.12
446.687	605.12
446.908	618.12
447.129	597.12
447.35	574.12
447.571	583.12
447.792	594.12
448.013	561.12
448.234	547.12
448.455	549.12
448.675	563.12
448.896	568.12
449.117	566.12
449.338	554.12
449.559	559.12
449.779	554.12
450	545.12
450.221	566.12
450.442	549.12
450.662	574.12
450.883	583.12
451.104	574.12
451.324	590.12
451.545	578.12
451.766	571.12
451.986	573.12
452.207	567.12
452.428	569.12
452.648	551.12
452.869	566.12
453.089	547.12
453.31	548.12
453.53	559.12
453.751	559.12
453.971	530.12
454.192	533.12
454.412	534.12
454.633	515.12
454.853	535.12
455.073	518.12
455.294	540.12
455.514	501.12
455.734	491.12
455.955	537.12
456.175	517.12
456.395	525.12
456.616	507.12
456.836	533.12
457.056	499.12
457.276	504.12
457.497	513.12
457.717	519.12
457.937	521.12
458.157	513.12
458.377	536.12
458.598	548.12
458.818	547.12
459.038	546.12
459.258	592.12
459.478	601.12
459.698	619.12
459.918	620.12
460.138	635.12
460.358	693.12
460.578	708.12
460.798	683.12
461.018	717.12
461.238	689.12
461.458	705.12
461.678	695.12
461.898	709.12
462.118	719.12
462.338	739.12
462.558	781.12
462.777	785.12
462.997	894.12
463.217	958.12
463.437	958.12
463.657	887.12
463.876	817.12
464.096	821.12
464.316	809.12
464.536	846.12
464.755	789.12
464.975	773.12
465.195	700.12
465.414	673.12
465.634	651.12
465.854	634.12
466.073	627.12
466.293	598.12
466.512	581.12
466.732	582.12
466.951	577.12
467.171	587.12
467.391	601.12
467.61	585.12
467.829	567.12
468.049	585.12
468.268	519.12
468.488	540.12
468.707	571.12
468.927	561.12
469.146	546.12
469.365	563.12
469.585	571.12
469.804	572.12
470.023	587.12
470.243	620.12
470.462	590.12
470.681	596.12
470.901	591.12
471.12	601.12
471.339	586.12
471.558	573.12
471.777	562.12
471.997	568.12
472.216	575.12
472.435	557.12
472.654	527.12
472.873	534.12
473.092	555.12
473.311	541.12
473.53	531.12
473.749	518.12
473.968	537.12
474.187	545.12
474.406	554.12
474.625	533.12
474.844	536.12
475.063	533.12
475.282	548.12
475.501	542.12
475.72	537.12
475.939	545.12
476.158	553.12
476.377	551.12
476.596	568.12
476.814	543.12
477.033	561.12
477.252	574.12
477.471	594.12
477.69	615.12
477.908	615.12
478.127	638.12
478.346	641.12
478.564	666.12
478.783	663.12
479.002	672.12
479.22	668.12
479.439	662.12
479.658	639.12
479.876	659.12
480.095	664.12
480.313	713.12
480.532	744.12
480.751	710.12
480.969	677.12
481.188	676.12
481.406	630.12
481.624	636.12
481.843	611.12
482.061	604.12
482.28	596.12
482.498	586.12
482.717	602.12
482.935	613.12
483.153	589.12
483.372	633.12
483.59	637.12
483.808	627.12
484.027	626.12
484.245	622.12
484.463	611.12
484.681	638.12
484.9	659.12
485.118	640.12
485.336	629.12
485.554	652.12
485.772	671.12
485.99	669.12
486.209	670.12
486.427	660.12
486.645	656.12
486.863	667.12
487.081	655.12
487.299	651.12
487.517	638.12
487.735	641.12
487.953	640.12
488.171	638.12
488.389	639.12
488.607	648.12
488.825	630.12
489.043	626.12
489.261	633.12
489.479	641.12
489.696	658.12
489.914	639.12
490.132	647.12
490.35	662.12
490.568	643.12
490.786	655.12
491.003	651.12
491.221	660.12
491.439	653.12
491.657	667.12
491.874	678.12
492.092	672.12
492.31	683.12
492.527	698.12
492.745	682.12
492.963	661.12
493.18	665.12
493.398	671.12
493.615	674.12
493.833	688.12
494.05	667.12
494.268	661.12
494.485	659.12
494.703	655.12
494.92	705.12
495.138	703.12
495.355	687.12
495.573	682.12
495.79	678.12
496.008	689.12
496.225	683.12
496.442	697.12
496.66	693.12
496.877	685.12
497.094	727.12
497.312	730.12
497.529	730.12
497.746	749.12
497.963	763.12
498.181	803.12
498.398	829.12
498.615	875.12
498.832	941.12
499.049	1023.12
499.267	1082.12
499.484	1182.12
499.701	1309.12
499.918	1552.12
500.135	1673.12
500.352	2001.12
500.569	2145.12
500.786	2101.12
501.003	1953.12
501.22	1671.12
501.437	1459.12
501.654	1269.12
