Data from Ni(NO3)2@0.0625M.TitratingCurve.Agarose3%dH2O.NegLispCup.LampEnergy10.LIBS07252019_HRD10591_18-13-24-569.txt Node
Date: Thu Jul 25 18:13:24 EDT 2019
User: cochatt
Spectrometer: HR+D1059
Trigger mode: 1
Integration Time (sec): 1.000000E-1
Scans to average: 1
Electric dark correction enabled: true
Nonlinearity correction enabled: false
Boxcar width: 0
XAxis mode: Wavelengths
Number of Pixels in Spectrum: 2048
>>>>>Begin Spectral Data<<<<<
223.165	-21.69
223.4	-21.69
223.635	-21.69
223.869	-25.69
224.104	-25.69
224.338	-12.69
224.573	-1.69
224.808	-19.69
225.042	-12.69
225.277	-7.69
225.511	11.31
225.746	6.31
225.98	-8.69
226.215	12.31
226.449	22.31
226.683	25.31
226.918	19.31
227.152	39.31
227.387	23.31
227.621	39.31
227.856	35.31
228.09	36.31
228.324	51.31
228.559	62.31
228.793	75.31
229.027	105.31
229.262	113.31
229.496	117.31
229.73	115.31
229.964	110.31
230.199	130.31
230.433	124.31
230.667	122.31
230.901	122.31
231.136	131.31
231.37	143.31
231.604	140.31
231.838	122.31
232.072	141.31
232.306	140.31
232.541	152.31
232.775	144.31
233.009	148.31
233.243	147.31
233.477	143.31
233.711	141.31
233.945	127.31
234.179	147.31
234.413	155.31
234.647	142.31
234.881	146.31
235.115	147.31
235.349	145.31
235.583	155.31
235.817	159.31
236.051	134.31
236.285	154.31
236.519	170.31
236.753	147.31
236.987	147.31
237.221	159.31
237.455	152.31
237.689	168.31
237.922	158.31
238.156	159.31
238.39	170.31
238.624	163.31
238.858	156.31
239.091	160.31
239.325	159.31
239.559	150.31
239.793	169.31
240.027	170.31
240.26	164.31
240.494	191.31
240.728	180.31
240.961	175.31
241.195	185.31
241.429	181.31
241.662	186.31
241.896	197.31
242.13	184.31
242.363	189.31
242.597	186.31
242.83	196.31
243.064	201.31
243.298	193.31
243.531	190.31
243.765	187.31
243.998	211.31
244.232	205.31
244.465	204.31
244.699	204.31
244.932	203.31
245.166	205.31
245.399	210.31
245.633	225.31
245.866	208.31
246.099	190.31
246.333	215.31
246.566	200.31
246.8	214.31
247.033	221.31
247.266	231.31
247.5	226.31
247.733	227.31
247.966	222.31
248.2	222.31
248.433	245.31
248.666	219.31
248.899	228.31
249.133	244.31
249.366	241.31
249.599	241.31
249.832	226.31
250.066	225.31
250.299	233.31
250.532	252.31
250.765	234.31
250.998	254.31
251.231	232.31
251.465	253.31
251.698	242.31
251.931	254.31
252.164	265.31
252.397	282.31
252.63	272.31
252.863	261.31
253.096	269.31
253.329	264.31
253.562	261.31
253.795	262.31
254.028	281.31
254.261	270.31
254.494	267.31
254.727	266.31
254.96	274.31
255.193	266.31
255.426	288.31
255.659	282.31
255.892	284.31
256.124	284.31
256.357	272.31
256.59	263.31
256.823	279.31
257.056	276.31
257.289	297.31
257.521	283.31
257.754	285.31
257.987	276.31
258.22	297.31
258.452	296.31
258.685	300.31
258.918	306.31
259.151	286.31
259.383	302.31
259.616	320.31
259.849	312.31
260.081	305.31
260.314	312.31
260.547	295.31
260.779	303.31
261.012	294.31
261.244	283.31
261.477	323.31
261.71	325.31
261.942	316.31
262.175	288.31
262.407	326.31
262.64	308.31
262.872	312.31
263.105	342.31
263.337	313.31
263.57	311.31
263.802	321.31
264.035	330.31
264.267	322.31
264.499	327.31
264.732	338.31
264.964	324.31
265.197	347.31
265.429	342.31
265.661	345.31
265.894	345.31
266.126	350.31
266.358	340.31
266.591	343.31
266.823	361.31
267.055	339.31
267.287	348.31
267.52	343.31
267.752	347.31
267.984	355.31
268.216	358.31
268.448	367.31
268.681	375.31
268.913	365.31
269.145	368.31
269.377	362.31
269.609	356.31
269.841	360.31
270.073	358.31
270.306	350.31
270.538	363.31
270.77	358.31
271.002	342.31
271.234	368.31
271.466	379.31
271.698	354.31
271.93	375.31
272.162	382.31
272.394	366.31
272.626	394.31
272.858	379.31
273.09	396.31
273.322	373.31
273.553	371.31
273.785	367.31
274.017	378.31
274.249	387.31
274.481	406.31
274.713	390.31
274.945	390.31
275.176	398.31
275.408	397.31
275.64	405.31
275.872	418.31
276.104	404.31
276.335	400.31
276.567	404.31
276.799	402.31
277.031	417.31
277.262	394.31
277.494	402.31
277.726	414.31
277.957	409.31
278.189	436.31
278.421	426.31
278.652	423.31
278.884	414.31
279.115	420.31
279.347	430.31
279.579	408.31
279.81	417.31
280.042	424.31
280.273	433.31
280.505	427.31
280.736	446.31
280.968	440.31
281.199	416.31
281.431	434.31
281.662	449.31
281.894	443.31
282.125	438.31
282.356	444.31
282.588	440.31
282.819	440.31
283.051	452.31
283.282	455.31
283.513	446.31
283.745	453.31
283.976	449.31
284.207	459.31
284.439	463.31
284.67	464.31
284.901	456.31
285.132	490.31
285.364	480.31
285.595	459.31
285.826	465.31
286.057	460.31
286.288	482.31
286.52	468.31
286.751	478.31
286.982	492.31
287.213	473.31
287.444	457.31
287.675	481.31
287.906	495.31
288.138	498.31
288.369	504.31
288.6	488.31
288.831	492.31
289.062	509.31
289.293	481.31
289.524	488.31
289.755	493.31
289.986	504.31
290.217	529.31
290.448	494.31
290.679	516.31
290.91	522.31
291.141	507.31
291.371	488.31
291.602	511.31
291.833	523.31
292.064	504.31
292.295	511.31
292.526	517.31
292.757	496.31
292.987	499.31
293.218	512.31
293.449	519.31
293.68	517.31
293.91	503.31
294.141	507.31
294.372	490.31
294.603	519.31
294.833	500.31
295.064	521.31
295.295	519.31
295.525	519.31
295.756	520.31
295.987	532.31
296.217	513.31
296.448	537.31
296.679	534.31
296.909	508.31
297.14	548.31
297.37	559.31
297.601	536.31
297.831	528.31
298.062	527.31
298.292	562.31
298.523	578.31
298.753	566.31
298.984	562.31
299.214	570.31
299.445	562.31
299.675	540.31
299.905	566.31
300.136	567.31
300.366	578.31
300.597	575.31
300.827	571.31
301.057	571.31
301.288	597.31
301.518	589.31
301.748	581.31
301.979	591.31
302.209	595.31
302.439	572.31
302.669	578.31
302.9	570.31
303.13	572.31
303.36	567.31
303.59	567.31
303.82	580.31
304.051	576.31
304.281	566.31
304.511	573.31
304.741	595.31
304.971	564.31
305.201	566.31
305.431	571.31
305.661	580.31
305.891	554.31
306.121	558.31
306.352	549.31
306.582	548.31
306.812	543.31
307.042	566.31
307.272	552.31
307.502	563.31
307.731	546.31
307.961	581.31
308.191	554.31
308.421	551.31
308.651	544.31
308.881	567.31
309.111	551.31
309.341	559.31
309.571	564.31
309.8	564.31
310.03	574.31
310.26	556.31
310.49	562.31
310.72	565.31
310.949	559.31
311.179	544.31
311.409	574.31
311.639	566.31
311.868	563.31
312.098	569.31
312.328	578.31
312.557	601.31
312.787	593.31
313.017	598.31
313.246	599.31
313.476	589.31
313.706	610.31
313.935	598.31
314.165	592.31
314.394	586.31
314.624	605.31
314.853	587.31
315.083	588.31
315.312	590.31
315.542	601.31
315.771	629.31
316.001	594.31
316.23	584.31
316.46	566.31
316.689	565.31
316.919	593.31
317.148	601.31
317.377	580.31
317.607	568.31
317.836	593.31
318.065	574.31
318.295	579.31
318.524	595.31
318.753	595.31
318.983	567.31
319.212	594.31
319.441	580.31
319.67	560.31
319.9	591.31
320.129	598.31
320.358	604.31
320.587	572.31
320.816	581.31
321.046	585.31
321.275	556.31
321.504	597.31
321.733	569.31
321.962	571.31
322.191	596.31
322.42	605.31
322.649	590.31
322.878	601.31
323.108	604.31
323.337	600.31
323.566	607.31
323.795	617.31
324.024	597.31
324.253	604.31
324.482	615.31
324.71	601.31
324.939	630.31
325.168	624.31
325.397	613.31
325.626	656.31
325.855	619.31
326.084	620.31
326.313	646.31
326.542	653.31
326.77	656.31
326.999	665.31
327.228	627.31
327.457	625.31
327.686	637.31
327.914	655.31
328.143	622.31
328.372	640.31
328.6	646.31
328.829	640.31
329.058	642.31
329.287	637.31
329.515	647.31
329.744	652.31
329.972	658.31
330.201	664.31
330.43	645.31
330.658	676.31
330.887	643.31
331.115	658.31
331.344	698.31
331.572	663.31
331.801	688.31
332.03	716.31
332.258	742.31
332.486	768.31
332.715	782.31
332.943	798.31
333.172	841.31
333.4	848.31
333.629	898.31
333.857	913.31
334.085	851.31
334.314	866.31
334.542	839.31
334.771	863.31
334.999	859.31
335.227	825.31
335.455	786.31
335.684	787.31
335.912	817.31
336.14	795.31
336.369	754.31
336.597	783.31
336.825	801.31
337.053	767.31
337.281	778.31
337.51	745.31
337.738	743.31
337.966	739.31
338.194	726.31
338.422	701.31
338.65	698.31
338.878	692.31
339.106	704.31
339.334	708.31
339.562	705.31
339.79	675.31
340.018	708.31
340.246	688.31
340.474	651.31
340.702	665.31
340.93	712.31
341.158	704.31
341.386	688.31
341.614	699.31
341.842	692.31
342.07	678.31
342.298	676.31
342.526	666.31
342.754	669.31
342.981	661.31
343.209	674.31
343.437	720.31
343.665	771.31
343.893	823.31
344.12	831.31
344.348	840.31
344.576	764.31
344.804	735.31
345.031	688.31
345.259	684.31
345.487	677.31
345.714	672.31
345.942	680.31
346.17	691.31
346.397	652.31
346.625	667.31
346.853	662.31
347.08	669.31
347.308	643.31
347.535	677.31
347.763	679.31
347.99	673.31
348.218	669.31
348.445	687.31
348.673	678.31
348.9	636.31
349.128	646.31
349.355	634.31
349.583	642.31
349.81	644.31
350.037	655.31
350.265	635.31
350.492	625.31
350.72	628.31
350.947	624.31
351.174	631.31
351.402	642.31
351.629	636.31
351.856	626.31
352.083	636.31
352.311	631.31
352.538	613.31
352.765	632.31
352.992	630.31
353.22	631.31
353.447	629.31
353.674	640.31
353.901	631.31
354.128	618.31
354.355	634.31
354.583	631.31
354.81	629.31
355.037	650.31
355.264	651.31
355.491	614.31
355.718	626.31
355.945	644.31
356.172	634.31
356.399	648.31
356.626	642.31
356.853	617.31
357.08	632.31
357.307	652.31
357.534	656.31
357.761	614.31
357.988	626.31
358.215	625.31
358.441	634.31
358.668	625.31
358.895	629.31
359.122	652.31
359.349	651.31
359.576	633.31
359.802	645.31
360.029	637.31
360.256	637.31
360.483	634.31
360.709	619.31
360.936	599.31
361.163	638.31
361.39	618.31
361.616	631.31
361.843	647.31
362.07	631.31
362.296	650.31
362.523	640.31
362.749	615.31
362.976	597.31
363.203	639.31
363.429	636.31
363.656	627.31
363.882	618.31
364.109	642.31
364.335	648.31
364.562	630.31
364.788	610.31
365.015	656.31
365.241	623.31
365.468	620.31
365.694	625.31
365.92	622.31
366.147	619.31
366.373	619.31
366.599	627.31
366.826	616.31
367.052	640.31
367.278	634.31
367.505	634.31
367.731	638.31
367.957	632.31
368.184	641.31
368.41	643.31
368.636	660.31
368.862	632.31
369.089	625.31
369.315	633.31
369.541	663.31
369.767	663.31
369.993	648.31
370.219	654.31
370.445	663.31
370.672	661.31
370.898	704.31
371.124	677.31
371.35	699.31
371.576	681.31
371.802	688.31
372.028	688.31
372.254	711.31
372.48	705.31
372.706	722.31
372.932	714.31
373.158	694.31
373.384	702.31
373.61	703.31
373.835	701.31
374.061	683.31
374.287	672.31
374.513	706.31
374.739	731.31
374.965	745.31
375.191	772.31
375.416	768.31
375.642	739.31
375.868	750.31
376.094	726.31
376.319	714.31
376.545	706.31
376.771	700.31
376.997	681.31
377.222	705.31
377.448	696.31
377.674	695.31
377.899	683.31
378.125	712.31
378.35	662.31
378.576	679.31
378.802	682.31
379.027	678.31
379.253	671.31
379.478	679.31
379.704	668.31
379.929	698.31
380.155	688.31
380.38	681.31
380.606	695.31
380.831	662.31
381.057	694.31
381.282	672.31
381.507	677.31
381.733	716.31
381.958	686.31
382.184	712.31
382.409	732.31
382.634	714.31
382.86	708.31
383.085	735.31
383.31	755.31
383.535	768.31
383.761	742.31
383.986	762.31
384.211	803.31
384.436	798.31
384.662	822.31
384.887	827.31
385.112	808.31
385.337	858.31
385.562	830.31
385.787	843.31
386.013	856.31
386.238	855.31
386.463	865.31
386.688	850.31
386.913	818.31
387.138	807.31
387.363	780.31
387.588	777.31
387.813	820.31
388.038	766.31
388.263	822.31
388.488	810.31
388.713	816.31
388.938	804.31
389.163	787.31
389.387	803.31
389.612	800.31
389.837	805.31
390.062	782.31
390.287	796.31
390.512	828.31
390.736	826.31
390.961	854.31
391.186	836.31
391.411	882.31
391.636	899.31
391.86	893.31
392.085	960.31
392.31	914.31
392.534	916.31
392.759	907.31
392.984	872.31
393.208	833.31
393.433	890.31
393.658	864.31
393.882	886.31
394.107	905.31
394.331	932.31
394.556	891.31
394.78	874.31
395.005	904.31
395.229	872.31
395.454	924.31
395.678	942.31
395.903	920.31
396.127	919.31
396.352	895.31
396.576	855.31
396.801	840.31
397.025	889.31
397.249	866.31
397.474	916.31
397.698	933.31
397.922	930.31
398.147	916.31
398.371	932.31
398.595	975.31
398.82	982.31
399.044	1061.31
399.268	1191.31
399.492	1398.31
399.717	1611.31
399.941	1622.31
400.165	1395.31
400.389	1264.31
400.613	1158.31
400.837	1081.31
401.062	1054.31
401.286	1042.31
401.51	1025.31
401.734	1011.31
401.958	1055.31
402.182	1062.31
402.406	1048.31
402.63	1087.31
402.854	1093.31
403.078	1153.31
403.302	1160.31
403.526	1155.31
403.75	1200.31
403.974	1235.31
404.198	1251.31
404.422	1258.31
404.645	1218.31
404.869	1202.31
405.093	1203.31
405.317	1183.31
405.541	1176.31
405.765	1174.31
405.988	1154.31
406.212	1130.31
406.436	1121.31
406.66	1183.31
406.883	1170.31
407.107	1286.31
407.331	1323.31
407.555	1355.31
407.778	1370.31
408.002	1326.31
408.226	1298.31
408.449	1233.31
408.673	1185.31
408.896	1192.31
409.12	1171.31
409.344	1188.31
409.567	1192.31
409.791	1203.31
410.014	1194.31
410.238	1200.31
410.461	1158.31
410.685	1185.31
410.908	1146.31
411.132	1136.31
411.355	1095.31
411.578	1122.31
411.802	1083.31
412.025	1073.31
412.249	1098.31
412.472	1088.31
412.695	1034.31
412.919	1031.31
413.142	1039.31
413.365	1032.31
413.589	1033.31
413.812	1025.31
414.035	997.31
414.258	994.31
414.482	1046.31
414.705	1065.31
414.928	1061.31
415.151	1059.31
415.374	1035.31
415.597	1034.31
415.821	1040.31
416.044	1024.31
416.267	1016.31
416.49	980.31
416.713	1000.31
416.936	1010.31
417.159	986.31
417.382	1023.31
417.605	1009.31
417.828	1023.31
418.051	1026.31
418.274	1050.31
418.497	1021.31
418.72	1092.31
418.943	1068.31
419.166	1148.31
419.389	1198.31
419.611	1180.31
419.834	1126.31
420.057	1084.31
420.28	1055.31
420.503	1024.31
420.726	999.31
420.948	1031.31
421.171	1014.31
421.394	1031.31
421.617	1011.31
421.839	1049.31
422.062	1052.31
422.285	1023.31
422.507	1037.31
422.73	1074.31
422.953	1040.31
423.175	1068.31
423.398	1100.31
423.621	1107.31
423.843	1078.31
424.066	1100.31
424.288	1119.31
424.511	1080.31
424.733	1065.31
424.956	1064.31
425.178	1060.31
425.401	1029.31
425.623	1014.31
425.846	1022.31
426.068	960.31
426.291	937.31
426.513	943.31
426.735	936.31
426.958	996.31
427.18	934.31
427.402	918.31
427.625	920.31
427.847	958.31
428.069	918.31
428.292	934.31
428.514	925.31
428.736	908.31
428.958	930.31
429.181	890.31
429.403	878.31
429.625	897.31
429.847	901.31
430.069	885.31
430.292	905.31
430.514	892.31
430.736	901.31
430.958	886.31
431.18	898.31
431.402	912.31
431.624	900.31
431.846	929.31
432.068	937.31
432.29	938.31
432.512	900.31
432.734	906.31
432.956	918.31
433.178	885.31
433.4	915.31
433.622	924.31
433.844	952.31
434.066	932.31
434.287	942.31
434.509	964.31
434.731	1013.31
434.953	1048.31
435.175	1019.31
435.397	1006.31
435.618	980.31
435.84	944.31
436.062	924.31
436.284	918.31
436.505	912.31
436.727	934.31
436.949	918.31
437.17	926.31
437.392	901.31
437.614	879.31
437.835	861.31
438.057	880.31
438.278	867.31
438.5	849.31
438.721	875.31
438.943	900.31
439.165	886.31
439.386	913.31
439.608	922.31
439.829	903.31
440.05	926.31
440.272	898.31
440.493	916.31
440.715	940.31
440.936	962.31
441.158	968.31
441.379	996.31
441.6	1056.31
441.822	1073.31
442.043	1054.31
442.264	1031.31
442.486	998.31
442.707	1027.31
442.928	999.31
443.149	1014.31
443.371	1034.31
443.592	1027.31
443.813	1014.31
444.034	1024.31
444.255	1064.31
444.476	1101.31
444.698	1207.31
444.919	1262.31
445.14	1309.31
445.361	1192.31
445.582	1046.31
445.803	1010.31
446.024	937.31
446.245	965.31
446.466	907.31
446.687	947.31
446.908	939.31
447.129	917.31
447.35	878.31
447.571	892.31
447.792	887.31
448.013	848.31
448.234	851.31
448.455	852.31
448.675	857.31
448.896	865.31
449.117	825.31
449.338	835.31
449.559	862.31
449.779	823.31
450	803.31
450.221	834.31
450.442	850.31
450.662	843.31
450.883	866.31
451.104	912.31
451.324	894.31
451.545	882.31
451.766	892.31
451.986	843.31
452.207	854.31
452.428	849.31
452.648	830.31
452.869	828.31
453.089	832.31
453.31	827.31
453.53	803.31
453.751	818.31
453.971	819.31
454.192	837.31
454.412	799.31
454.633	798.31
454.853	804.31
455.073	792.31
455.294	809.31
455.514	809.31
455.734	781.31
455.955	752.31
456.175	777.31
456.395	772.31
456.616	800.31
456.836	808.31
457.056	786.31
457.276	773.31
457.497	799.31
457.717	801.31
457.937	790.31
458.157	790.31
458.377	803.31
458.598	814.31
458.818	873.31
459.038	855.31
459.258	897.31
459.478	931.31
459.698	947.31
459.918	979.31
460.138	1023.31
460.358	1082.31
460.578	1112.31
460.798	1111.31
461.018	1139.31
461.238	1063.31
461.458	1087.31
461.678	1081.31
461.898	1083.31
462.118	1094.31
462.338	1184.31
462.558	1209.31
462.777	1250.31
462.997	1348.31
463.217	1517.31
463.437	1506.31
463.657	1388.31
463.876	1292.31
464.096	1259.31
464.316	1287.31
464.536	1273.31
464.755	1267.31
464.975	1208.31
465.195	1147.31
465.414	1058.31
465.634	1006.31
465.854	964.31
466.073	945.31
466.293	926.31
466.512	918.31
466.732	907.31
466.951	905.31
467.171	878.31
467.391	887.31
467.61	868.31
467.829	886.31
468.049	855.31
468.268	839.31
468.488	848.31
468.707	857.31
468.927	840.31
469.146	816.31
469.365	889.31
469.585	879.31
469.804	865.31
470.023	880.31
470.243	898.31
470.462	947.31
470.681	886.31
470.901	887.31
471.12	892.31
471.339	903.31
471.558	882.31
471.777	872.31
471.997	859.31
472.216	846.31
472.435	847.31
472.654	850.31
472.873	856.31
473.092	820.31
473.311	824.31
473.53	844.31
473.749	841.31
473.968	810.31
474.187	800.31
474.406	818.31
474.625	854.31
474.844	810.31
475.063	834.31
475.282	825.31
475.501	849.31
475.72	857.31
475.939	828.31
476.158	900.31
476.377	846.31
476.596	826.31
476.814	876.31
477.033	881.31
477.252	896.31
477.471	930.31
477.69	921.31
477.908	934.31
478.127	979.31
478.346	970.31
478.564	972.31
478.783	1031.31
479.002	1055.31
479.22	1022.31
479.439	1012.31
479.658	1007.31
479.876	1044.31
480.095	1039.31
480.313	1070.31
480.532	1124.31
480.751	1124.31
480.969	1075.31
481.188	1050.31
481.406	966.31
481.624	985.31
481.843	969.31
482.061	952.31
482.28	940.31
482.498	938.31
482.717	923.31
482.935	916.31
483.153	944.31
483.372	943.31
483.59	910.31
483.808	911.31
484.027	935.31
484.245	931.31
484.463	952.31
484.681	973.31
484.9	948.31
485.118	965.31
485.336	972.31
485.554	976.31
485.772	1011.31
485.99	1022.31
486.209	1006.31
486.427	993.31
486.645	1011.31
486.863	1018.31
487.081	977.31
487.299	1002.31
487.517	971.31
487.735	950.31
487.953	967.31
488.171	966.31
488.389	968.31
488.607	960.31
488.825	962.31
489.043	961.31
489.261	978.31
489.479	979.31
489.696	994.31
489.914	971.31
490.132	970.31
490.35	968.31
490.568	963.31
490.786	980.31
491.003	997.31
491.221	979.31
491.439	1007.31
491.657	990.31
491.874	1002.31
492.092	993.31
492.31	992.31
492.527	1021.31
492.745	1010.31
492.963	1010.31
493.18	997.31
493.398	1016.31
493.615	1056.31
493.833	1037.31
494.05	1029.31
494.268	1042.31
494.485	1041.31
494.703	1048.31
494.92	1033.31
495.138	1047.31
495.355	1057.31
495.573	1022.31
495.79	1035.31
496.008	1052.31
496.225	1034.31
496.442	1034.31
496.66	1082.31
496.877	1095.31
497.094	1127.31
497.312	1120.31
497.529	1165.31
497.746	1166.31
497.963	1196.31
498.181	1240.31
498.398	1340.31
498.615	1384.31
