Data from Ni(NO3)2@0.25M.TitratingCurve.Agarose3%dH2O.NegLispCup.LampEnergy10.LIBS07252019_HRD10591_18-05-09-566.txt Node
Date: Thu Jul 25 18:05:09 EDT 2019
User: cochatt
Spectrometer: HR+D1059
Trigger mode: 1
Integration Time (sec): 1.000000E-1
Scans to average: 1
Electric dark correction enabled: true
Nonlinearity correction enabled: false
Boxcar width: 0
XAxis mode: Wavelengths
Number of Pixels in Spectrum: 2048
>>>>>Begin Spectral Data<<<<<
223.165	-24.5
223.4	-24.5
223.635	-24.5
223.869	-27.5
224.104	-21.5
224.338	-14.5
224.573	-10.5
224.808	-25.5
225.042	-4.5
225.277	0.5
225.511	-8.5
225.746	17.5
225.98	11.5
226.215	24.5
226.449	8.5
226.683	18.5
226.918	20.5
227.152	35.5
227.387	28.5
227.621	43.5
227.856	52.5
228.09	53.5
228.324	36.5
228.559	55.5
228.793	68.5
229.027	67.5
229.262	93.5
229.496	95.5
229.73	102.5
229.964	103.5
230.199	90.5
230.433	104.5
230.667	107.5
230.901	105.5
231.136	91.5
231.37	112.5
231.604	112.5
231.838	108.5
232.072	108.5
232.306	101.5
232.541	117.5
232.775	102.5
233.009	108.5
233.243	109.5
233.477	106.5
233.711	127.5
233.945	115.5
234.179	123.5
234.413	121.5
234.647	120.5
234.881	103.5
235.115	110.5
235.349	110.5
235.583	122.5
235.817	107.5
236.051	114.5
236.285	98.5
236.519	112.5
236.753	122.5
236.987	101.5
237.221	103.5
237.455	115.5
237.689	126.5
237.922	116.5
238.156	113.5
238.39	101.5
238.624	116.5
238.858	113.5
239.091	122.5
239.325	132.5
239.559	117.5
239.793	116.5
240.027	121.5
240.26	126.5
240.494	123.5
240.728	130.5
240.961	132.5
241.195	136.5
241.429	149.5
241.662	142.5
241.896	128.5
242.13	142.5
242.363	134.5
242.597	121.5
242.83	141.5
243.064	130.5
243.298	128.5
243.531	131.5
243.765	143.5
243.998	142.5
244.232	144.5
244.465	148.5
244.699	132.5
244.932	162.5
245.166	144.5
245.399	156.5
245.633	148.5
245.866	143.5
246.099	138.5
246.333	153.5
246.566	145.5
246.8	150.5
247.033	155.5
247.266	146.5
247.5	149.5
247.733	147.5
247.966	165.5
248.2	150.5
248.433	145.5
248.666	170.5
248.899	170.5
249.133	172.5
249.366	178.5
249.599	156.5
249.832	186.5
250.066	192.5
250.299	184.5
250.532	202.5
250.765	199.5
250.998	198.5
251.231	192.5
251.465	193.5
251.698	198.5
251.931	204.5
252.164	204.5
252.397	194.5
252.63	195.5
252.863	206.5
253.096	200.5
253.329	225.5
253.562	196.5
253.795	216.5
254.028	219.5
254.261	219.5
254.494	220.5
254.727	223.5
254.96	249.5
255.193	231.5
255.426	233.5
255.659	236.5
255.892	230.5
256.124	244.5
256.357	247.5
256.59	238.5
256.823	262.5
257.056	278.5
257.289	247.5
257.521	243.5
257.754	254.5
257.987	271.5
258.22	264.5
258.452	253.5
258.685	260.5
258.918	268.5
259.151	268.5
259.383	278.5
259.616	274.5
259.849	266.5
260.081	274.5
260.314	271.5
260.547	294.5
260.779	282.5
261.012	297.5
261.244	282.5
261.477	285.5
261.71	289.5
261.942	287.5
262.175	288.5
262.407	288.5
262.64	293.5
262.872	297.5
263.105	292.5
263.337	293.5
263.57	302.5
263.802	301.5
264.035	290.5
264.267	320.5
264.499	312.5
264.732	291.5
264.964	288.5
265.197	309.5
265.429	315.5
265.661	316.5
265.894	308.5
266.126	322.5
266.358	317.5
266.591	297.5
266.823	314.5
267.055	328.5
267.287	320.5
267.52	320.5
267.752	332.5
267.984	316.5
268.216	336.5
268.448	312.5
268.681	343.5
268.913	339.5
269.145	333.5
269.377	336.5
269.609	342.5
269.841	339.5
270.073	354.5
270.306	324.5
270.538	330.5
270.77	337.5
271.002	330.5
271.234	340.5
271.466	338.5
271.698	336.5
271.93	342.5
272.162	354.5
272.394	352.5
272.626	331.5
272.858	344.5
273.09	347.5
273.322	344.5
273.553	337.5
273.785	339.5
274.017	345.5
274.249	356.5
274.481	330.5
274.713	346.5
274.945	351.5
275.176	341.5
275.408	349.5
275.64	358.5
275.872	346.5
276.104	349.5
276.335	358.5
276.567	363.5
276.799	327.5
277.031	355.5
277.262	357.5
277.494	358.5
277.726	353.5
277.957	363.5
278.189	373.5
278.421	347.5
278.652	357.5
278.884	348.5
279.115	363.5
279.347	379.5
279.579	341.5
279.81	344.5
280.042	366.5
280.273	368.5
280.505	373.5
280.736	365.5
280.968	366.5
281.199	383.5
281.431	376.5
281.662	379.5
281.894	380.5
282.125	369.5
282.356	376.5
282.588	364.5
282.819	395.5
283.051	362.5
283.282	359.5
283.513	398.5
283.745	365.5
283.976	380.5
284.207	401.5
284.439	397.5
284.67	398.5
284.901	372.5
285.132	382.5
285.364	370.5
285.595	379.5
285.826	376.5
286.057	389.5
286.288	365.5
286.52	373.5
286.751	386.5
286.982	378.5
287.213	392.5
287.444	387.5
287.675	384.5
287.906	392.5
288.138	377.5
288.369	388.5
288.6	398.5
288.831	387.5
289.062	404.5
289.293	385.5
289.524	372.5
289.755	359.5
289.986	374.5
290.217	388.5
290.448	366.5
290.679	408.5
290.91	386.5
291.141	380.5
291.371	362.5
291.602	388.5
291.833	398.5
292.064	384.5
292.295	373.5
292.526	395.5
292.757	408.5
292.987	402.5
293.218	374.5
293.449	374.5
293.68	374.5
293.91	386.5
294.141	394.5
294.372	368.5
294.603	391.5
294.833	386.5
295.064	372.5
295.295	380.5
295.525	382.5
295.756	395.5
295.987	374.5
296.217	403.5
296.448	385.5
296.679	397.5
296.909	401.5
297.14	404.5
297.37	402.5
297.601	402.5
297.831	395.5
298.062	388.5
298.292	413.5
298.523	409.5
298.753	432.5
298.984	419.5
299.214	404.5
299.445	406.5
299.675	408.5
299.905	434.5
300.136	409.5
300.366	424.5
300.597	428.5
300.827	418.5
301.057	421.5
301.288	439.5
301.518	436.5
301.748	424.5
301.979	416.5
302.209	421.5
302.439	452.5
302.669	429.5
302.9	434.5
303.13	418.5
303.36	444.5
303.59	436.5
303.82	426.5
304.051	431.5
304.281	434.5
304.511	442.5
304.741	455.5
304.971	434.5
305.201	461.5
305.431	464.5
305.661	450.5
305.891	450.5
306.121	442.5
306.352	440.5
306.582	456.5
306.812	438.5
307.042	438.5
307.272	436.5
307.502	434.5
307.731	419.5
307.961	416.5
308.191	429.5
308.421	461.5
308.651	444.5
308.881	432.5
309.111	441.5
309.341	426.5
309.571	445.5
309.8	451.5
310.03	491.5
310.26	472.5
310.49	511.5
310.72	458.5
310.949	434.5
311.179	461.5
311.409	473.5
311.639	457.5
311.868	466.5
312.098	474.5
312.328	470.5
312.557	490.5
312.787	473.5
313.017	485.5
313.246	493.5
313.476	501.5
313.706	502.5
313.935	520.5
314.165	518.5
314.394	519.5
314.624	527.5
314.853	529.5
315.083	493.5
315.312	528.5
315.542	528.5
315.771	481.5
316.001	527.5
316.23	526.5
316.46	518.5
316.689	511.5
316.919	522.5
317.148	548.5
317.377	516.5
317.607	529.5
317.836	538.5
318.065	520.5
318.295	543.5
318.524	520.5
318.753	544.5
318.983	542.5
319.212	530.5
319.441	550.5
319.67	531.5
319.9	533.5
320.129	556.5
320.358	544.5
320.587	560.5
320.816	585.5
321.046	566.5
321.275	593.5
321.504	587.5
321.733	606.5
321.962	566.5
322.191	612.5
322.42	572.5
322.649	599.5
322.878	599.5
323.108	589.5
323.337	632.5
323.566	620.5
323.795	619.5
324.024	612.5
324.253	616.5
324.482	619.5
324.71	598.5
324.939	625.5
325.168	660.5
325.397	650.5
325.626	647.5
325.855	661.5
326.084	669.5
326.313	664.5
326.542	680.5
326.77	696.5
326.999	697.5
327.228	672.5
327.457	699.5
327.686	686.5
327.914	677.5
328.143	675.5
328.372	697.5
328.6	696.5
328.829	701.5
329.058	710.5
329.287	706.5
329.515	727.5
329.744	710.5
329.972	724.5
330.201	725.5
330.43	740.5
330.658	732.5
330.887	756.5
331.115	767.5
331.344	772.5
331.572	778.5
331.801	782.5
332.03	761.5
332.258	793.5
332.486	812.5
332.715	803.5
332.943	813.5
333.172	844.5
333.4	847.5
333.629	871.5
333.857	873.5
334.085	888.5
334.314	916.5
334.542	880.5
334.771	930.5
334.999	902.5
335.227	889.5
335.455	886.5
335.684	917.5
335.912	925.5
336.14	882.5
336.369	903.5
336.597	920.5
336.825	912.5
337.053	933.5
337.281	882.5
337.51	875.5
337.738	878.5
337.966	868.5
338.194	873.5
338.422	868.5
338.65	824.5
338.878	849.5
339.106	860.5
339.334	864.5
339.562	858.5
339.79	798.5
340.018	829.5
340.246	810.5
340.474	804.5
340.702	789.5
340.93	800.5
341.158	836.5
341.386	813.5
341.614	857.5
341.842	850.5
342.07	828.5
342.298	815.5
342.526	824.5
342.754	842.5
342.981	811.5
343.209	827.5
343.437	852.5
343.665	871.5
343.893	895.5
344.12	911.5
344.348	900.5
344.576	888.5
344.804	892.5
345.031	884.5
345.259	881.5
345.487	817.5
345.714	824.5
345.942	817.5
346.17	858.5
346.397	843.5
346.625	806.5
346.853	789.5
347.08	781.5
347.308	804.5
347.535	807.5
347.763	776.5
347.99	766.5
348.218	814.5
348.445	780.5
348.673	764.5
348.9	782.5
349.128	773.5
349.355	798.5
349.583	798.5
349.81	782.5
350.037	791.5
350.265	788.5
350.492	764.5
350.72	749.5
350.947	749.5
351.174	775.5
351.402	796.5
351.629	793.5
351.856	795.5
352.083	779.5
352.311	773.5
352.538	802.5
352.765	797.5
352.992	781.5
353.22	717.5
353.447	733.5
353.674	743.5
353.901	759.5
354.128	735.5
354.355	734.5
354.583	754.5
354.81	770.5
355.037	769.5
355.264	754.5
355.491	756.5
355.718	741.5
355.945	722.5
356.172	758.5
356.399	765.5
356.626	788.5
356.853	766.5
357.08	761.5
357.307	749.5
357.534	766.5
357.761	750.5
357.988	774.5
358.215	736.5
358.441	742.5
358.668	757.5
358.895	746.5
359.122	740.5
359.349	733.5
359.576	736.5
359.802	768.5
360.029	752.5
360.256	745.5
360.483	742.5
360.709	737.5
360.936	753.5
361.163	732.5
361.39	777.5
361.616	774.5
361.843	780.5
362.07	799.5
362.296	779.5
362.523	764.5
362.749	723.5
362.976	733.5
363.203	760.5
363.429	731.5
363.656	754.5
363.882	722.5
364.109	757.5
364.335	706.5
364.562	714.5
364.788	724.5
365.015	732.5
365.241	743.5
365.468	760.5
365.694	740.5
365.92	741.5
366.147	736.5
366.373	728.5
366.599	738.5
366.826	747.5
367.052	741.5
367.278	726.5
367.505	760.5
367.731	743.5
367.957	744.5
368.184	737.5
368.41	721.5
368.636	739.5
368.862	744.5
369.089	745.5
369.315	755.5
369.541	753.5
369.767	768.5
369.993	735.5
370.219	736.5
370.445	739.5
370.672	758.5
370.898	748.5
371.124	742.5
371.35	778.5
371.576	773.5
371.802	786.5
372.028	772.5
372.254	776.5
372.48	775.5
372.706	767.5
372.932	793.5
373.158	770.5
373.384	780.5
373.61	753.5
373.835	766.5
374.061	760.5
374.287	780.5
374.513	775.5
374.739	795.5
374.965	795.5
375.191	783.5
375.416	822.5
375.642	819.5
375.868	786.5
376.094	782.5
376.319	760.5
376.545	753.5
376.771	741.5
376.997	741.5
377.222	752.5
377.448	740.5
377.674	761.5
377.899	734.5
378.125	756.5
378.35	736.5
378.576	738.5
378.802	726.5
379.027	729.5
379.253	731.5
379.478	709.5
379.704	722.5
379.929	715.5
380.155	733.5
380.38	735.5
380.606	724.5
380.831	716.5
381.057	750.5
381.282	731.5
381.507	726.5
381.733	740.5
381.958	711.5
382.184	740.5
382.409	737.5
382.634	756.5
382.86	756.5
383.085	747.5
383.31	762.5
383.535	776.5
383.761	788.5
383.986	790.5
384.211	742.5
384.436	798.5
384.662	800.5
384.887	790.5
385.112	809.5
385.337	858.5
385.562	843.5
385.787	833.5
386.013	846.5
386.238	848.5
386.463	848.5
386.688	842.5
386.913	832.5
387.138	841.5
387.363	835.5
387.588	823.5
387.813	838.5
388.038	853.5
388.263	857.5
388.488	864.5
388.713	835.5
388.938	842.5
389.163	845.5
389.387	832.5
389.612	818.5
389.837	857.5
390.062	828.5
390.287	856.5
390.512	823.5
390.736	844.5
390.961	842.5
391.186	852.5
391.411	889.5
391.636	916.5
391.86	909.5
392.085	902.5
392.31	907.5
392.534	881.5
392.759	892.5
392.984	888.5
393.208	881.5
393.433	893.5
393.658	898.5
393.882	886.5
394.107	885.5
394.331	895.5
394.556	885.5
394.78	933.5
395.005	901.5
395.229	893.5
395.454	900.5
395.678	918.5
395.903	925.5
396.127	942.5
396.352	886.5
396.576	913.5
396.801	878.5
397.025	939.5
397.249	950.5
397.474	956.5
397.698	947.5
397.922	969.5
398.147	961.5
398.371	1005.5
398.595	997.5
398.82	1029.5
399.044	1095.5
399.268	1142.5
399.492	1216.5
399.717	1275.5
399.941	1322.5
400.165	1253.5
400.389	1184.5
400.613	1146.5
400.837	1115.5
401.062	1114.5
401.286	1101.5
401.51	1090.5
401.734	1073.5
401.958	1052.5
402.182	1092.5
402.406	1057.5
402.63	1057.5
402.854	1059.5
403.078	1075.5
403.302	1098.5
403.526	1113.5
403.75	1095.5
403.974	1119.5
404.198	1126.5
404.422	1096.5
404.645	1109.5
404.869	1115.5
405.093	1122.5
405.317	1106.5
405.541	1111.5
405.765	1106.5
405.988	1079.5
406.212	1114.5
406.436	1120.5
406.66	1174.5
406.883	1170.5
407.107	1212.5
407.331	1216.5
407.555	1255.5
407.778	1240.5
408.002	1239.5
408.226	1238.5
408.449	1241.5
408.673	1185.5
408.896	1167.5
409.12	1171.5
409.344	1178.5
409.567	1177.5
409.791	1150.5
410.014	1164.5
410.238	1144.5
410.461	1140.5
410.685	1140.5
410.908	1120.5
411.132	1114.5
411.355	1109.5
411.578	1102.5
411.802	1131.5
412.025	1112.5
412.249	1145.5
412.472	1112.5
412.695	1104.5
412.919	1092.5
413.142	1121.5
413.365	1127.5
413.589	1120.5
413.812	1098.5
414.035	1066.5
414.258	1085.5
414.482	1094.5
414.705	1120.5
414.928	1084.5
415.151	1084.5
415.374	1104.5
415.597	1101.5
415.821	1039.5
416.044	1060.5
416.267	1074.5
416.49	1072.5
416.713	1074.5
416.936	1081.5
417.159	1049.5
417.382	1057.5
417.605	1056.5
417.828	1050.5
418.051	1081.5
418.274	1089.5
418.497	1080.5
418.72	1095.5
418.943	1110.5
419.166	1180.5
419.389	1230.5
419.611	1189.5
419.834	1174.5
420.057	1152.5
420.28	1117.5
420.503	1069.5
420.726	1086.5
420.948	1115.5
421.171	1068.5
421.394	1098.5
421.617	1089.5
421.839	1110.5
422.062	1088.5
422.285	1075.5
422.507	1080.5
422.73	1064.5
422.953	1113.5
423.175	1127.5
423.398	1137.5
423.621	1104.5
423.843	1100.5
424.066	1123.5
424.288	1118.5
424.511	1119.5
424.733	1106.5
424.956	1097.5
425.178	1129.5
425.401	1105.5
425.623	1121.5
425.846	1099.5
426.068	1083.5
426.291	1090.5
426.513	1065.5
426.735	1083.5
426.958	1074.5
427.18	1052.5
427.402	1053.5
427.625	1084.5
427.847	1052.5
428.069	1037.5
428.292	1068.5
428.514	1043.5
428.736	1052.5
428.958	1065.5
429.181	1042.5
429.403	1041.5
429.625	1025.5
429.847	1037.5
430.069	1014.5
430.292	1027.5
430.514	1018.5
430.736	1079.5
430.958	1048.5
431.18	1039.5
431.402	1073.5
431.624	1068.5
431.846	1070.5
432.068	1055.5
432.29	1119.5
432.512	1069.5
432.734	1074.5
432.956	1059.5
433.178	1066.5
433.4	1065.5
433.622	1098.5
433.844	1127.5
434.066	1086.5
434.287	1099.5
434.509	1141.5
434.731	1108.5
434.953	1154.5
435.175	1128.5
435.397	1168.5
435.618	1129.5
435.84	1117.5
436.062	1081.5
436.284	1084.5
436.505	1056.5
436.727	1081.5
436.949	1072.5
437.17	1081.5
437.392	1045.5
437.614	1043.5
437.835	1034.5
438.057	1010.5
438.278	1029.5
438.5	1038.5
438.721	1016.5
438.943	1048.5
439.165	1030.5
439.386	1052.5
439.608	1086.5
439.829	1063.5
440.05	1075.5
440.272	1060.5
440.493	1046.5
440.715	1097.5
440.936	1103.5
441.158	1121.5
441.379	1114.5
441.6	1184.5
441.822	1134.5
442.043	1137.5
442.264	1145.5
442.486	1120.5
442.707	1128.5
442.928	1122.5
443.149	1141.5
443.371	1146.5
443.592	1160.5
443.813	1148.5
444.034	1158.5
444.255	1188.5
444.476	1221.5
444.698	1221.5
444.919	1252.5
445.14	1358.5
445.361	1242.5
445.582	1202.5
445.803	1171.5
446.024	1126.5
446.245	1101.5
446.466	1139.5
446.687	1107.5
446.908	1128.5
447.129	1090.5
447.35	1074.5
447.571	1074.5
447.792	1029.5
448.013	1030.5
448.234	1023.5
448.455	1010.5
448.675	1019.5
448.896	991.5
449.117	982.5
449.338	1000.5
449.559	995.5
449.779	999.5
450	979.5
450.221	1004.5
450.442	993.5
450.662	1000.5
450.883	984.5
451.104	992.5
451.324	998.5
451.545	1017.5
451.766	1016.5
451.986	971.5
452.207	963.5
452.428	985.5
452.648	990.5
452.869	937.5
453.089	944.5
453.31	995.5
453.53	960.5
453.751	918.5
453.971	950.5
454.192	946.5
454.412	917.5
454.633	951.5
454.853	955.5
455.073	938.5
455.294	939.5
455.514	960.5
455.734	967.5
455.955	940.5
456.175	938.5
456.395	952.5
456.616	936.5
456.836	953.5
457.056	950.5
457.276	913.5
457.497	937.5
457.717	948.5
457.937	966.5
458.157	966.5
458.377	968.5
458.598	1002.5
458.818	1028.5
459.038	1026.5
459.258	1061.5
459.478	1086.5
459.698	1086.5
459.918	1088.5
460.138	1145.5
460.358	1158.5
460.578	1170.5
460.798	1202.5
461.018	1206.5
461.238	1192.5
461.458	1204.5
461.678	1194.5
461.898	1229.5
462.118	1206.5
462.338	1282.5
462.558	1302.5
462.777	1338.5
462.997	1385.5
463.217	1436.5
463.437	1414.5
463.657	1380.5
463.876	1400.5
464.096	1374.5
464.316	1365.5
464.536	1356.5
464.755	1300.5
464.975	1286.5
465.195	1229.5
465.414	1168.5
465.634	1176.5
465.854	1150.5
466.073	1063.5
466.293	1060.5
466.512	1100.5
466.732	1084.5
466.951	1057.5
467.171	1038.5
467.391	1058.5
467.61	1056.5
467.829	1039.5
468.049	1031.5
468.268	1022.5
468.488	1003.5
468.707	1040.5
468.927	1026.5
469.146	997.5
469.365	1045.5
469.585	1067.5
469.804	1065.5
470.023	1081.5
470.243	1065.5
470.462	1043.5
470.681	1034.5
470.901	1074.5
471.12	1093.5
471.339	1065.5
471.558	1079.5
471.777	1048.5
471.997	1023.5
472.216	1042.5
472.435	1029.5
472.654	1016.5
472.873	1019.5
473.092	1030.5
473.311	977.5
473.53	1000.5
473.749	1012.5
473.968	1040.5
474.187	1016.5
474.406	1005.5
474.625	1013.5
474.844	1016.5
475.063	1034.5
475.282	1018.5
475.501	1025.5
475.72	1050.5
475.939	1038.5
476.158	1094.5
476.377	1079.5
476.596	1056.5
476.814	1095.5
477.033	1057.5
477.252	1108.5
477.471	1121.5
477.69	1102.5
477.908	1118.5
478.127	1152.5
478.346	1156.5
478.564	1201.5
478.783	1177.5
479.002	1204.5
479.22	1251.5
479.439	1211.5
479.658	1208.5
479.876	1204.5
480.095	1226.5
480.313	1290.5
480.532	1273.5
480.751	1236.5
480.969	1228.5
481.188	1218.5
481.406	1241.5
481.624	1197.5
481.843	1178.5
482.061	1170.5
482.28	1181.5
482.498	1173.5
482.717	1152.5
482.935	1172.5
483.153	1194.5
483.372	1174.5
483.59	1166.5
483.808	1155.5
484.027	1190.5
484.245	1195.5
484.463	1203.5
484.681	1225.5
484.9	1204.5
485.118	1211.5
485.336	1215.5
485.554	1206.5
485.772	1211.5
485.99	1189.5
486.209	1198.5
486.427	1213.5
486.645	1208.5
486.863	1186.5
487.081	1228.5
487.299	1195.5
487.517	1218.5
487.735	1241.5
487.953	1239.5
488.171	1238.5
488.389	1220.5
488.607	1213.5
488.825	1207.5
489.043	1189.5
489.261	1227.5
489.479	1224.5
489.696	1243.5
489.914	1217.5
490.132	1220.5
490.35	1267.5
490.568	1263.5
490.786	1251.5
491.003	1257.5
491.221	1251.5
491.439	1260.5
491.657	1285.5
491.874	1242.5
492.092	1296.5
492.31	1285.5
492.527	1284.5
492.745	1265.5
492.963	1298.5
493.18	1267.5
493.398	1310.5
493.615	1339.5
493.833	1304.5
494.05	1308.5
494.268	1308.5
494.485	1326.5
494.703	1336.5
494.92	1312.5
495.138	1370.5
495.355	1342.5
495.573	1356.5
495.79	1355.5
496.008	1377.5
496.225	1395.5
496.442	1369.5
496.66	1444.5
496.877	1401.5
497.094	1455.5
497.312	1510.5
497.529	1484.5
497.746	1533.5
497.963	1576.5
498.181	1597.5
498.398	1641.5
498.615	1727.5
498.832	1813.5
499.049	1932.5
499.267	2015.5
499.484	2122.5
499.701	2217.5
499.918	2340.5
500.135	2540.5
500.352	2638.5
500.569	2708.5
500.786	2694.5
501.003	2672.5
501.22	2521.5
501.437	2343.5
501.654	2219.5
501.871	2117.5
502.088	2025.5
502.305	1881.5
502.522	1859.5
502.739	1767.5
502.956	1673.5
503.172	1651.5
503.389	1640.5
503.606	1606.5
503.823	1525.5
504.04	1533.5
504.256	1479.5
504.473	1508.5
504.69	1464.5
504.907	1474.5
505.123	1441.5
505.34	1396.5
505.557	1348.5
505.773	1361.5
505.99	1334.5
506.207	1283.5
506.423	1289.5
506.64	1262.5
506.856	1240.5
507.073	1238.5
507.289	1204.5
507.506	1226.5
507.722	1204.5
507.939	1192.5
508.155	1165.5
508.372	1187.5
508.588	1170.5
508.805	1148.5
509.021	1151.5
509.238	1164.5
509.454	1136.5
509.67	1128.5
509.887	1109.5
510.103	1101.5
510.319	1093.5
510.536	1088.5
510.752	1088.5
510.968	1082.5
511.184	1080.5
511.401	1089.5
511.617	1088.5
511.833	1073.5
512.049	1056.5
512.265	1105.5
512.481	1101.5
512.698	1098.5
