Data from Ni(NO3)2Standard.Agarose3%.GreenCap.LampEnergy5.5.E.O_HRD10591_14-41-08-188.txt Node
Date: Mon Jul 22 14:41:08 EDT 2019
User: cochatt
Spectrometer: HR+D1059
Trigger mode: 1
Integration Time (sec): 1.000000E-1
Scans to average: 1
Electric dark correction enabled: true
Nonlinearity correction enabled: false
Boxcar width: 0
XAxis mode: Wavelengths
Number of Pixels in Spectrum: 2048
>>>>>Begin Spectral Data<<<<<
223.165	-24.38
223.4	-24.38
223.635	-24.38
223.869	-14.38
224.104	-10.38
224.338	-24.38
224.573	-22.38
224.808	-4.38
225.042	-1.38
225.277	1.62
225.511	5.62
225.746	6.62
225.98	2.62
226.215	17.62
226.449	20.62
226.683	16.62
226.918	4.62
227.152	25.62
227.387	33.62
227.621	38.62
227.856	47.62
228.09	37.62
228.324	43.62
228.559	48.62
228.793	53.62
229.027	66.62
229.262	53.62
229.496	64.62
229.73	80.62
229.964	68.62
230.199	61.62
230.433	83.62
230.667	77.62
230.901	71.62
231.136	63.62
231.37	69.62
231.604	59.62
231.838	72.62
232.072	78.62
232.306	80.62
232.541	80.62
232.775	72.62
233.009	79.62
233.243	73.62
233.477	76.62
233.711	71.62
233.945	79.62
234.179	72.62
234.413	78.62
234.647	76.62
234.881	65.62
235.115	72.62
235.349	83.62
235.583	84.62
235.817	77.62
236.051	75.62
236.285	79.62
236.519	82.62
236.753	68.62
236.987	82.62
237.221	63.62
237.455	70.62
237.689	72.62
237.922	66.62
238.156	74.62
238.39	79.62
238.624	83.62
238.858	81.62
239.091	62.62
239.325	61.62
239.559	79.62
239.793	70.62
240.027	77.62
240.26	80.62
240.494	76.62
240.728	77.62
240.961	71.62
241.195	80.62
241.429	92.62
241.662	70.62
241.896	58.62
242.13	79.62
242.363	79.62
242.597	72.62
242.83	68.62
243.064	65.62
243.298	79.62
243.531	82.62
243.765	86.62
243.998	66.62
244.232	79.62
244.465	79.62
244.699	81.62
244.932	79.62
245.166	70.62
245.399	73.62
245.633	87.62
245.866	64.62
246.099	71.62
246.333	77.62
246.566	82.62
246.8	81.62
247.033	85.62
247.266	72.62
247.5	68.62
247.733	66.62
247.966	89.62
248.2	83.62
248.433	65.62
248.666	65.62
248.899	85.62
249.133	77.62
249.366	78.62
249.599	79.62
249.832	79.62
250.066	79.62
250.299	74.62
250.532	89.62
250.765	80.62
250.998	61.62
251.231	73.62
251.465	93.62
251.698	70.62
251.931	82.62
252.164	84.62
252.397	83.62
252.63	80.62
252.863	82.62
253.096	87.62
253.329	67.62
253.562	69.62
253.795	86.62
254.028	84.62
254.261	73.62
254.494	69.62
254.727	64.62
254.96	84.62
255.193	71.62
255.426	84.62
255.659	96.62
255.892	81.62
256.124	74.62
256.357	79.62
256.59	71.62
256.823	57.62
257.056	83.62
257.289	89.62
257.521	72.62
257.754	80.62
257.987	63.62
258.22	79.62
258.452	77.62
258.685	70.62
258.918	86.62
259.151	74.62
259.383	83.62
259.616	76.62
259.849	92.62
260.081	80.62
260.314	62.62
260.547	77.62
260.779	78.62
261.012	64.62
261.244	76.62
261.477	84.62
261.71	85.62
261.942	89.62
262.175	82.62
262.407	74.62
262.64	78.62
262.872	79.62
263.105	64.62
263.337	64.62
263.57	70.62
263.802	75.62
264.035	68.62
264.267	69.62
264.499	83.62
264.732	74.62
264.964	95.62
265.197	83.62
265.429	76.62
265.661	81.62
265.894	62.62
266.126	91.62
266.358	84.62
266.591	81.62
266.823	71.62
267.055	82.62
267.287	77.62
267.52	79.62
267.752	73.62
267.984	80.62
268.216	74.62
268.448	87.62
268.681	67.62
268.913	77.62
269.145	73.62
269.377	82.62
269.609	74.62
269.841	91.62
270.073	72.62
270.306	81.62
270.538	70.62
270.77	88.62
271.002	89.62
271.234	93.62
271.466	87.62
271.698	82.62
271.93	77.62
272.162	79.62
272.394	93.62
272.626	80.62
272.858	65.62
273.09	93.62
273.322	79.62
273.553	86.62
273.785	76.62
274.017	80.62
274.249	81.62
274.481	80.62
274.713	83.62
274.945	82.62
275.176	86.62
275.408	79.62
275.64	64.62
275.872	74.62
276.104	83.62
276.335	77.62
276.567	81.62
276.799	74.62
277.031	77.62
277.262	92.62
277.494	92.62
277.726	92.62
277.957	89.62
278.189	74.62
278.421	81.62
278.652	74.62
278.884	85.62
279.115	94.62
279.347	91.62
279.579	70.62
279.81	78.62
280.042	80.62
280.273	68.62
280.505	70.62
280.736	82.62
280.968	85.62
281.199	83.62
281.431	84.62
281.662	71.62
281.894	72.62
282.125	86.62
282.356	89.62
282.588	84.62
282.819	82.62
283.051	74.62
283.282	80.62
283.513	67.62
283.745	87.62
283.976	81.62
284.207	81.62
284.439	82.62
284.67	93.62
284.901	80.62
285.132	80.62
285.364	80.62
285.595	88.62
285.826	88.62
286.057	79.62
286.288	87.62
286.52	83.62
286.751	84.62
286.982	91.62
287.213	86.62
287.444	69.62
287.675	80.62
287.906	82.62
288.138	89.62
288.369	87.62
288.6	78.62
288.831	79.62
289.062	90.62
289.293	89.62
289.524	77.62
289.755	78.62
289.986	95.62
290.217	93.62
290.448	89.62
290.679	89.62
290.91	86.62
291.141	96.62
291.371	82.62
291.602	89.62
291.833	82.62
292.064	75.62
292.295	86.62
292.526	80.62
292.757	86.62
292.987	85.62
293.218	74.62
293.449	82.62
293.68	68.62
293.91	84.62
294.141	90.62
294.372	80.62
294.603	89.62
294.833	81.62
295.064	77.62
295.295	80.62
295.525	79.62
295.756	71.62
295.987	72.62
296.217	72.62
296.448	77.62
296.679	79.62
296.909	73.62
297.14	87.62
297.37	92.62
297.601	82.62
297.831	66.62
298.062	81.62
298.292	70.62
298.523	79.62
298.753	96.62
298.984	88.62
299.214	72.62
299.445	92.62
299.675	72.62
299.905	67.62
300.136	72.62
300.366	78.62
300.597	85.62
300.827	82.62
301.057	88.62
301.288	70.62
301.518	88.62
301.748	77.62
301.979	94.62
302.209	91.62
302.439	91.62
302.669	82.62
302.9	83.62
303.13	87.62
303.36	89.62
303.59	82.62
303.82	82.62
304.051	81.62
304.281	81.62
304.511	85.62
304.741	87.62
304.971	86.62
305.201	96.62
305.431	69.62
305.661	89.62
305.891	73.62
306.121	86.62
306.352	95.62
306.582	78.62
306.812	87.62
307.042	73.62
307.272	86.62
307.502	89.62
307.731	89.62
307.961	103.62
308.191	81.62
308.421	84.62
308.651	94.62
308.881	92.62
309.111	89.62
309.341	86.62
309.571	76.62
309.8	87.62
310.03	87.62
310.26	80.62
310.49	77.62
310.72	97.62
310.949	80.62
311.179	83.62
311.409	79.62
311.639	95.62
311.868	71.62
312.098	75.62
312.328	85.62
312.557	80.62
312.787	85.62
313.017	85.62
313.246	66.62
313.476	86.62
313.706	84.62
313.935	70.62
314.165	76.62
314.394	79.62
314.624	84.62
314.853	81.62
315.083	84.62
315.312	92.62
315.542	84.62
315.771	94.62
316.001	82.62
316.23	83.62
316.46	88.62
316.689	88.62
316.919	81.62
317.148	82.62
317.377	83.62
317.607	91.62
317.836	91.62
318.065	82.62
318.295	86.62
318.524	78.62
318.753	80.62
318.983	87.62
319.212	84.62
319.441	74.62
319.67	82.62
319.9	93.62
320.129	93.62
320.358	70.62
320.587	86.62
320.816	79.62
321.046	93.62
321.275	88.62
321.504	76.62
321.733	91.62
321.962	83.62
322.191	82.62
322.42	80.62
322.649	88.62
322.878	82.62
323.108	88.62
323.337	82.62
323.566	74.62
323.795	78.62
324.024	70.62
324.253	95.62
324.482	92.62
324.71	85.62
324.939	74.62
325.168	93.62
325.397	80.62
325.626	82.62
325.855	84.62
326.084	85.62
326.313	80.62
326.542	86.62
326.77	81.62
326.999	80.62
327.228	79.62
327.457	85.62
327.686	85.62
327.914	79.62
328.143	80.62
328.372	80.62
328.6	85.62
328.829	89.62
329.058	77.62
329.287	71.62
329.515	80.62
329.744	72.62
329.972	92.62
330.201	80.62
330.43	97.62
330.658	82.62
330.887	84.62
331.115	70.62
331.344	82.62
331.572	99.62
331.801	72.62
332.03	77.62
332.258	82.62
332.486	77.62
332.715	87.62
332.943	74.62
333.172	84.62
333.4	84.62
333.629	87.62
333.857	84.62
334.085	78.62
334.314	92.62
334.542	86.62
334.771	74.62
334.999	76.62
335.227	78.62
335.455	96.62
335.684	85.62
335.912	78.62
336.14	95.62
336.369	80.62
336.597	79.62
336.825	75.62
337.053	81.62
337.281	91.62
337.51	86.62
337.738	83.62
337.966	79.62
338.194	94.62
338.422	82.62
338.65	81.62
338.878	80.62
339.106	82.62
339.334	74.62
339.562	78.62
339.79	87.62
340.018	83.62
340.246	68.62
340.474	83.62
340.702	86.62
340.93	90.62
341.158	73.62
341.386	72.62
341.614	96.62
341.842	89.62
342.07	84.62
342.298	79.62
342.526	77.62
342.754	84.62
342.981	92.62
343.209	78.62
343.437	77.62
343.665	77.62
343.893	91.62
344.12	70.62
344.348	89.62
344.576	74.62
344.804	80.62
345.031	77.62
345.259	78.62
345.487	84.62
345.714	95.62
345.942	97.62
346.17	90.62
346.397	88.62
346.625	89.62
346.853	89.62
347.08	86.62
347.308	95.62
347.535	80.62
347.763	78.62
347.99	84.62
348.218	77.62
348.445	78.62
348.673	83.62
348.9	84.62
349.128	92.62
349.355	91.62
349.583	73.62
349.81	80.62
350.037	64.62
350.265	80.62
350.492	75.62
350.72	81.62
350.947	80.62
351.174	72.62
351.402	88.62
351.629	73.62
351.856	75.62
352.083	85.62
352.311	84.62
352.538	80.62
352.765	88.62
352.992	83.62
353.22	63.62
353.447	83.62
353.674	73.62
353.901	98.62
354.128	92.62
354.355	96.62
354.583	87.62
354.81	92.62
355.037	83.62
355.264	88.62
355.491	91.62
355.718	69.62
355.945	75.62
356.172	78.62
356.399	77.62
356.626	70.62
356.853	80.62
357.08	79.62
357.307	87.62
357.534	81.62
357.761	80.62
357.988	85.62
358.215	88.62
358.441	72.62
358.668	82.62
358.895	77.62
359.122	87.62
359.349	89.62
359.576	84.62
359.802	76.62
360.029	72.62
360.256	69.62
360.483	78.62
360.709	83.62
360.936	92.62
361.163	77.62
361.39	81.62
361.616	85.62
361.843	73.62
362.07	92.62
362.296	69.62
362.523	72.62
362.749	75.62
362.976	83.62
363.203	78.62
363.429	78.62
363.656	81.62
363.882	78.62
364.109	92.62
364.335	106.62
364.562	89.62
364.788	87.62
365.015	92.62
365.241	90.62
365.468	95.62
365.694	82.62
365.92	75.62
366.147	84.62
366.373	82.62
366.599	83.62
366.826	75.62
367.052	92.62
367.278	80.62
367.505	88.62
367.731	89.62
367.957	83.62
368.184	91.62
368.41	78.62
368.636	72.62
368.862	79.62
369.089	80.62
369.315	78.62
369.541	80.62
369.767	79.62
369.993	81.62
370.219	88.62
370.445	82.62
370.672	82.62
370.898	90.62
371.124	89.62
371.35	66.62
371.576	75.62
371.802	79.62
372.028	77.62
372.254	76.62
372.48	86.62
372.706	69.62
372.932	77.62
373.158	88.62
373.384	99.62
373.61	87.62
373.835	85.62
374.061	81.62
374.287	78.62
374.513	78.62
374.739	71.62
374.965	72.62
375.191	79.62
375.416	76.62
375.642	80.62
375.868	81.62
376.094	72.62
376.319	70.62
376.545	74.62
376.771	85.62
376.997	85.62
377.222	83.62
377.448	82.62
377.674	81.62
377.899	95.62
378.125	83.62
378.35	89.62
378.576	77.62
378.802	101.62
379.027	84.62
379.253	88.62
379.478	85.62
379.704	82.62
379.929	81.62
380.155	89.62
380.38	83.62
380.606	74.62
380.831	80.62
381.057	84.62
381.282	78.62
381.507	93.62
381.733	81.62
381.958	70.62
382.184	82.62
382.409	78.62
382.634	81.62
382.86	79.62
383.085	71.62
383.31	73.62
383.535	88.62
383.761	73.62
383.986	69.62
384.211	74.62
384.436	66.62
384.662	73.62
384.887	92.62
385.112	88.62
385.337	78.62
385.562	79.62
385.787	79.62
386.013	88.62
386.238	90.62
386.463	74.62
386.688	88.62
386.913	84.62
387.138	78.62
387.363	74.62
387.588	88.62
387.813	76.62
388.038	89.62
388.263	80.62
388.488	74.62
388.713	74.62
388.938	85.62
389.163	74.62
389.387	80.62
389.612	63.62
389.837	82.62
390.062	78.62
390.287	78.62
390.512	81.62
390.736	79.62
390.961	71.62
391.186	78.62
391.411	90.62
391.636	90.62
391.86	79.62
392.085	75.62
392.31	86.62
392.534	73.62
392.759	87.62
392.984	81.62
393.208	88.62
393.433	57.62
393.658	77.62
393.882	82.62
394.107	78.62
394.331	74.62
394.556	80.62
394.78	82.62
395.005	81.62
395.229	82.62
395.454	88.62
395.678	67.62
395.903	94.62
396.127	102.62
396.352	89.62
396.576	82.62
396.801	91.62
397.025	78.62
397.249	89.62
397.474	83.62
397.698	77.62
397.922	86.62
398.147	71.62
398.371	84.62
398.595	89.62
398.82	82.62
399.044	89.62
399.268	93.62
399.492	71.62
399.717	86.62
399.941	92.62
400.165	86.62
400.389	70.62
400.613	73.62
400.837	76.62
401.062	75.62
401.286	95.62
401.51	79.62
401.734	86.62
401.958	91.62
402.182	68.62
402.406	77.62
402.63	90.62
402.854	81.62
403.078	77.62
403.302	89.62
403.526	84.62
403.75	84.62
403.974	87.62
404.198	86.62
404.422	105.62
404.645	82.62
404.869	77.62
405.093	79.62
405.317	87.62
405.541	86.62
405.765	89.62
405.988	80.62
406.212	72.62
406.436	82.62
406.66	84.62
406.883	76.62
407.107	81.62
407.331	98.62
407.555	85.62
407.778	97.62
408.002	73.62
408.226	92.62
408.449	69.62
408.673	79.62
408.896	85.62
409.12	90.62
409.344	93.62
409.567	69.62
409.791	69.62
410.014	81.62
410.238	67.62
410.461	92.62
410.685	82.62
410.908	74.62
411.132	88.62
411.355	81.62
411.578	84.62
411.802	85.62
412.025	81.62
412.249	72.62
412.472	75.62
412.695	80.62
412.919	85.62
413.142	82.62
413.365	88.62
413.589	72.62
413.812	81.62
414.035	90.62
414.258	83.62
414.482	85.62
414.705	97.62
414.928	79.62
415.151	89.62
415.374	78.62
415.597	84.62
415.821	70.62
416.044	86.62
416.267	87.62
416.49	81.62
416.713	84.62
416.936	88.62
417.159	84.62
417.382	89.62
417.605	77.62
417.828	74.62
418.051	92.62
418.274	89.62
418.497	83.62
418.72	82.62
418.943	83.62
419.166	79.62
419.389	100.62
419.611	79.62
419.834	76.62
420.057	82.62
420.28	74.62
420.503	81.62
420.726	98.62
420.948	92.62
421.171	88.62
421.394	73.62
421.617	74.62
421.839	80.62
422.062	80.62
422.285	78.62
422.507	82.62
422.73	68.62
422.953	93.62
423.175	89.62
423.398	77.62
423.621	87.62
423.843	86.62
424.066	77.62
424.288	91.62
424.511	81.62
424.733	86.62
424.956	71.62
425.178	83.62
425.401	84.62
425.623	54.62
425.846	83.62
426.068	74.62
426.291	68.62
426.513	84.62
426.735	71.62
426.958	82.62
427.18	80.62
427.402	74.62
427.625	74.62
427.847	90.62
428.069	70.62
428.292	72.62
428.514	81.62
428.736	82.62
428.958	80.62
429.181	77.62
429.403	92.62
429.625	79.62
429.847	100.62
430.069	72.62
430.292	77.62
430.514	83.62
430.736	78.62
430.958	80.62
431.18	70.62
431.402	82.62
431.624	79.62
431.846	82.62
432.068	80.62
432.29	68.62
432.512	81.62
432.734	68.62
432.956	72.62
433.178	79.62
433.4	80.62
433.622	80.62
433.844	101.62
434.066	96.62
434.287	76.62
434.509	84.62
434.731	65.62
434.953	80.62
435.175	74.62
435.397	91.62
435.618	90.62
435.84	89.62
436.062	83.62
436.284	73.62
436.505	62.62
436.727	87.62
436.949	74.62
437.17	88.62
437.392	97.62
437.614	83.62
437.835	76.62
438.057	81.62
438.278	80.62
438.5	87.62
438.721	75.62
438.943	84.62
439.165	83.62
439.386	92.62
439.608	89.62
439.829	86.62
440.05	91.62
440.272	84.62
440.493	70.62
440.715	94.62
440.936	91.62
441.158	98.62
441.379	82.62
441.6	80.62
441.822	80.62
442.043	89.62
442.264	79.62
442.486	83.62
442.707	81.62
442.928	82.62
443.149	79.62
443.371	89.62
443.592	80.62
443.813	84.62
444.034	90.62
444.255	91.62
444.476	87.62
444.698	81.62
444.919	90.62
445.14	224.62
445.361	138.62
445.582	80.62
445.803	86.62
446.024	72.62
446.245	89.62
446.466	85.62
446.687	87.62
446.908	92.62
447.129	82.62
447.35	84.62
447.571	86.62
447.792	79.62
448.013	73.62
448.234	78.62
448.455	68.62
448.675	84.62
448.896	91.62
449.117	78.62
449.338	82.62
449.559	75.62
449.779	73.62
450	85.62
450.221	83.62
450.442	87.62
450.662	91.62
450.883	79.62
451.104	81.62
451.324	70.62
451.545	80.62
451.766	78.62
451.986	89.62
452.207	89.62
452.428	67.62
452.648	74.62
452.869	93.62
453.089	81.62
453.31	88.62
453.53	67.62
453.751	67.62
453.971	80.62
454.192	86.62
454.412	83.62
454.633	72.62
454.853	85.62
455.073	71.62
455.294	76.62
455.514	86.62
455.734	86.62
455.955	82.62
456.175	80.62
456.395	90.62
456.616	77.62
456.836	78.62
457.056	72.62
457.276	72.62
457.497	77.62
457.717	73.62
457.937	80.62
458.157	103.62
458.377	76.62
458.598	80.62
458.818	81.62
459.038	88.62
459.258	86.62
459.478	82.62
459.698	89.62
459.918	65.62
460.138	91.62
460.358	90.62
460.578	81.62
460.798	86.62
461.018	72.62
461.238	76.62
461.458	79.62
461.678	84.62
461.898	73.62
462.118	80.62
462.338	95.62
462.558	85.62
462.777	79.62
462.997	94.62
463.217	87.62
463.437	84.62
463.657	95.62
463.876	92.62
464.096	84.62
464.316	84.62
464.536	76.62
464.755	86.62
464.975	97.62
465.195	82.62
465.414	86.62
465.634	81.62
465.854	80.62
466.073	89.62
466.293	95.62
466.512	85.62
466.732	83.62
466.951	87.62
467.171	75.62
467.391	74.62
467.61	91.62
467.829	82.62
468.049	76.62
468.268	95.62
468.488	90.62
468.707	78.62
468.927	96.62
469.146	78.62
469.365	75.62
469.585	85.62
469.804	84.62
470.023	86.62
470.243	89.62
470.462	76.62
470.681	92.62
470.901	93.62
471.12	84.62
471.339	92.62
471.558	94.62
471.777	84.62
471.997	81.62
472.216	78.62
472.435	80.62
472.654	86.62
472.873	86.62
473.092	88.62
473.311	74.62
473.53	89.62
473.749	84.62
473.968	82.62
474.187	96.62
474.406	76.62
474.625	96.62
474.844	85.62
475.063	82.62
475.282	71.62
475.501	88.62
475.72	106.62
475.939	83.62
476.158	74.62
476.377	78.62
476.596	74.62
476.814	88.62
477.033	86.62
477.252	79.62
477.471	81.62
477.69	77.62
477.908	72.62
478.127	92.62
478.346	85.62
478.564	86.62
478.783	94.62
479.002	82.62
479.22	90.62
479.439	77.62
479.658	87.62
479.876	100.62
480.095	81.62
480.313	84.62
480.532	78.62
480.751	98.62
480.969	89.62
481.188	100.62
481.406	96.62
481.624	86.62
481.843	97.62
482.061	88.62
482.28	93.62
482.498	73.62
482.717	78.62
482.935	81.62
483.153	87.62
483.372	78.62
483.59	97.62
483.808	97.62
484.027	90.62
484.245	80.62
484.463	93.62
484.681	85.62
484.9	88.62
485.118	92.62
485.336	80.62
485.554	88.62
485.772	75.62
485.99	76.62
486.209	81.62
486.427	96.62
486.645	66.62
486.863	71.62
487.081	87.62
487.299	91.62
487.517	90.62
487.735	100.62
487.953	99.62
488.171	91.62
488.389	97.62
488.607	97.62
488.825	97.62
489.043	93.62
489.261	107.62
489.479	94.62
489.696	88.62
489.914	92.62
490.132	99.62
490.35	75.62
490.568	94.62
490.786	96.62
491.003	80.62
491.221	93.62
491.439	81.62
491.657	99.62
491.874	92.62
492.092	87.62
492.31	87.62
492.527	90.62
492.745	98.62
492.963	91.62
493.18	95.62
493.398	78.62
493.615	85.62
493.833	95.62
494.05	113.62
494.268	102.62
494.485	86.62
494.703	98.62
494.92	109.62
495.138	94.62
495.355	87.62
495.573	92.62
495.79	81.62
496.008	97.62
496.225	96.62
496.442	98.62
496.66	98.62
496.877	105.62
497.094	91.62
497.312	84.62
497.529	87.62
497.746	86.62
497.963	92.62
498.181	98.62
498.398	100.62
498.615	99.62
498.832	98.62
499.049	87.62
499.267	93.62
499.484	110.62
499.701	101.62
499.918	109.62
500.135	118.62
500.352	111.62
500.569	105.62
500.786	103.62
501.003	109.62
501.22	103.62
501.437	104.62
501.654	115.62
501.871	85.62
502.088	91.62
502.305	113.62
502.522	102.62
502.739	98.62
502.956	81.62
503.172	94.62
503.389	92.62
503.606	101.62
503.823	103.62
504.04	100.62
504.256	97.62
504.473	99.62
504.69	98.62
504.907	99.62
505.123	97.62
505.34	85.62
505.557	95.62
505.773	99.62
505.99	104.62
506.207	95.62
506.423	82.62
506.64	87.62
506.856	104.62
507.073	83.62
507.289	91.62
507.506	96.62
507.722	116.62
507.939	78.62
508.155	104.62
508.372	91.62
508.588	81.62
508.805	92.62
509.021	80.62
509.238	86.62
509.454	82.62
509.67	90.62
509.887	77.62
510.103	85.62
510.319	72.62
510.536	95.62
510.752	81.62
510.968	93.62
511.184	89.62
511.401	97.62
511.617	86.62
511.833	82.62
512.049	95.62
512.265	92.62
512.481	80.62
512.698	87.62
512.914	77.62
513.13	92.62
513.346	94.62
513.562	92.62
513.778	87.62
513.994	100.62
514.21	97.62
514.426	86.62
514.642	99.62
514.858	106.62
515.074	95.62
515.29	98.62
515.506	87.62
515.721	94.62
515.937	79.62
516.153	95.62
516.369	83.62
516.585	83.62
516.801	87.62
517.016	97.62
517.232	99.62
517.448	85.62
517.664	85.62
517.879	96.62
518.095	97.62
518.311	104.62
518.527	95.62
518.742	93.62
518.958	89.62
