Data from Ni(NO3)2@0.125M.TitratingCurve.Agarose3%dH2O.NegLispCup.LampEnergy10.LIBS07252019_HRD10591_18-08-57-567.txt Node
Date: Thu Jul 25 18:08:57 EDT 2019
User: cochatt
Spectrometer: HR+D1059
Trigger mode: 1
Integration Time (sec): 1.000000E-1
Scans to average: 1
Electric dark correction enabled: true
Nonlinearity correction enabled: false
Boxcar width: 0
XAxis mode: Wavelengths
Number of Pixels in Spectrum: 2048
>>>>>Begin Spectral Data<<<<<
223.165	-10.31
223.4	-10.31
223.635	-10.31
223.869	-20.31
224.104	-26.31
224.338	-7.31
224.573	-7.31
224.808	-16.31
225.042	-0.31
225.277	-5.31
225.511	5.69
225.746	-9.31
225.98	7.69
226.215	5.69
226.449	20.69
226.683	6.69
226.918	21.69
227.152	34.69
227.387	25.69
227.621	37.69
227.856	42.69
228.09	38.69
228.324	52.69
228.559	60.69
228.793	63.69
229.027	98.69
229.262	105.69
229.496	106.69
229.73	110.69
229.964	123.69
230.199	128.69
230.433	124.69
230.667	129.69
230.901	118.69
231.136	117.69
231.37	129.69
231.604	139.69
231.838	138.69
232.072	142.69
232.306	151.69
232.541	127.69
232.775	128.69
233.009	135.69
233.243	146.69
233.477	134.69
233.711	121.69
233.945	145.69
234.179	143.69
234.413	155.69
234.647	139.69
234.881	147.69
235.115	142.69
235.349	123.69
235.583	156.69
235.817	141.69
236.051	130.69
236.285	134.69
236.519	142.69
236.753	135.69
236.987	120.69
237.221	122.69
237.455	136.69
237.689	140.69
237.922	138.69
238.156	154.69
238.39	125.69
238.624	138.69
238.858	145.69
239.091	148.69
239.325	145.69
239.559	152.69
239.793	161.69
240.027	153.69
240.26	154.69
240.494	156.69
240.728	155.69
240.961	168.69
241.195	157.69
241.429	144.69
241.662	180.69
241.896	170.69
242.13	172.69
242.363	157.69
242.597	177.69
242.83	182.69
243.064	166.69
243.298	157.69
243.531	168.69
243.765	169.69
243.998	175.69
244.232	188.69
244.465	182.69
244.699	182.69
244.932	179.69
245.166	195.69
245.399	190.69
245.633	196.69
245.866	188.69
246.099	186.69
246.333	192.69
246.566	174.69
246.8	195.69
247.033	185.69
247.266	197.69
247.5	203.69
247.733	199.69
247.966	185.69
248.2	200.69
248.433	191.69
248.666	205.69
248.899	194.69
249.133	201.69
249.366	190.69
249.599	199.69
249.832	200.69
250.066	222.69
250.299	208.69
250.532	213.69
250.765	203.69
250.998	194.69
251.231	223.69
251.465	239.69
251.698	237.69
251.931	212.69
252.164	232.69
252.397	238.69
252.63	236.69
252.863	236.69
253.096	240.69
253.329	228.69
253.562	240.69
253.795	243.69
254.028	242.69
254.261	235.69
254.494	226.69
254.727	233.69
254.96	228.69
255.193	232.69
255.426	232.69
255.659	230.69
255.892	261.69
256.124	264.69
256.357	242.69
256.59	259.69
256.823	248.69
257.056	252.69
257.289	243.69
257.521	258.69
257.754	264.69
257.987	260.69
258.22	260.69
258.452	246.69
258.685	261.69
258.918	265.69
259.151	259.69
259.383	278.69
259.616	253.69
259.849	267.69
260.081	277.69
260.314	272.69
260.547	273.69
260.779	272.69
261.012	263.69
261.244	263.69
261.477	281.69
261.71	275.69
261.942	284.69
262.175	288.69
262.407	278.69
262.64	278.69
262.872	271.69
263.105	297.69
263.337	294.69
263.57	286.69
263.802	283.69
264.035	294.69
264.267	296.69
264.499	296.69
264.732	287.69
264.964	294.69
265.197	295.69
265.429	306.69
265.661	304.69
265.894	292.69
266.126	310.69
266.358	289.69
266.591	309.69
266.823	313.69
267.055	296.69
267.287	300.69
267.52	317.69
267.752	319.69
267.984	310.69
268.216	318.69
268.448	320.69
268.681	322.69
268.913	311.69
269.145	346.69
269.377	316.69
269.609	334.69
269.841	324.69
270.073	313.69
270.306	322.69
270.538	316.69
270.77	340.69
271.002	317.69
271.234	328.69
271.466	322.69
271.698	332.69
271.93	314.69
272.162	339.69
272.394	345.69
272.626	325.69
272.858	331.69
273.09	333.69
273.322	328.69
273.553	336.69
273.785	322.69
274.017	327.69
274.249	346.69
274.481	354.69
274.713	355.69
274.945	341.69
275.176	339.69
275.408	352.69
275.64	364.69
275.872	350.69
276.104	359.69
276.335	336.69
276.567	365.69
276.799	357.69
277.031	364.69
277.262	356.69
277.494	347.69
277.726	343.69
277.957	350.69
278.189	359.69
278.421	363.69
278.652	375.69
278.884	366.69
279.115	370.69
279.347	363.69
279.579	363.69
279.81	368.69
280.042	361.69
280.273	384.69
280.505	356.69
280.736	378.69
280.968	361.69
281.199	391.69
281.431	377.69
281.662	387.69
281.894	367.69
282.125	376.69
282.356	378.69
282.588	377.69
282.819	389.69
283.051	378.69
283.282	388.69
283.513	414.69
283.745	372.69
283.976	416.69
284.207	390.69
284.439	394.69
284.67	407.69
284.901	392.69
285.132	385.69
285.364	402.69
285.595	390.69
285.826	391.69
286.057	402.69
286.288	394.69
286.52	413.69
286.751	391.69
286.982	395.69
287.213	436.69
287.444	420.69
287.675	409.69
287.906	416.69
288.138	412.69
288.369	414.69
288.6	409.69
288.831	410.69
289.062	418.69
289.293	428.69
289.524	411.69
289.755	430.69
289.986	428.69
290.217	431.69
290.448	420.69
290.679	419.69
290.91	402.69
291.141	405.69
291.371	430.69
291.602	433.69
291.833	436.69
292.064	422.69
292.295	416.69
292.526	435.69
292.757	421.69
292.987	431.69
293.218	419.69
293.449	427.69
293.68	430.69
293.91	419.69
294.141	423.69
294.372	419.69
294.603	432.69
294.833	439.69
295.064	456.69
295.295	430.69
295.525	432.69
295.756	449.69
295.987	440.69
296.217	438.69
296.448	442.69
296.679	430.69
296.909	459.69
297.14	451.69
297.37	462.69
297.601	484.69
297.831	472.69
298.062	472.69
298.292	476.69
298.523	489.69
298.753	478.69
298.984	461.69
299.214	470.69
299.445	468.69
299.675	479.69
299.905	483.69
300.136	459.69
300.366	479.69
300.597	482.69
300.827	475.69
301.057	479.69
301.288	501.69
301.518	492.69
301.748	500.69
301.979	492.69
302.209	485.69
302.439	472.69
302.669	467.69
302.9	484.69
303.13	485.69
303.36	461.69
303.59	486.69
303.82	474.69
304.051	468.69
304.281	472.69
304.511	451.69
304.741	477.69
304.971	499.69
305.201	479.69
305.431	475.69
305.661	486.69
305.891	494.69
306.121	460.69
306.352	467.69
306.582	466.69
306.812	453.69
307.042	474.69
307.272	465.69
307.502	458.69
307.731	472.69
307.961	473.69
308.191	490.69
308.421	467.69
308.651	463.69
308.881	467.69
309.111	475.69
309.341	473.69
309.571	462.69
309.8	484.69
310.03	483.69
310.26	468.69
310.49	483.69
310.72	474.69
310.949	478.69
311.179	490.69
311.409	469.69
311.639	490.69
311.868	478.69
312.098	496.69
312.328	493.69
312.557	502.69
312.787	506.69
313.017	518.69
313.246	501.69
313.476	513.69
313.706	519.69
313.935	515.69
314.165	519.69
314.394	505.69
314.624	498.69
314.853	502.69
315.083	508.69
315.312	492.69
315.542	538.69
315.771	513.69
316.001	510.69
316.23	515.69
316.46	497.69
316.689	500.69
316.919	478.69
317.148	493.69
317.377	503.69
317.607	500.69
317.836	494.69
318.065	509.69
318.295	500.69
318.524	484.69
318.753	488.69
318.983	490.69
319.212	483.69
319.441	491.69
319.67	499.69
319.9	518.69
320.129	500.69
320.358	509.69
320.587	503.69
320.816	496.69
321.046	499.69
321.275	506.69
321.504	518.69
321.733	493.69
321.962	501.69
322.191	520.69
322.42	506.69
322.649	502.69
322.878	524.69
323.108	514.69
323.337	534.69
323.566	521.69
323.795	516.69
324.024	536.69
324.253	519.69
324.482	510.69
324.71	534.69
324.939	531.69
325.168	541.69
325.397	534.69
325.626	541.69
325.855	562.69
326.084	568.69
326.313	576.69
326.542	557.69
326.77	570.69
326.999	558.69
327.228	548.69
327.457	549.69
327.686	552.69
327.914	579.69
328.143	567.69
328.372	561.69
328.6	571.69
328.829	557.69
329.058	585.69
329.287	582.69
329.515	580.69
329.744	581.69
329.972	589.69
330.201	592.69
330.43	579.69
330.658	584.69
330.887	587.69
331.115	583.69
331.344	622.69
331.572	594.69
331.801	603.69
332.03	617.69
332.258	653.69
332.486	664.69
332.715	687.69
332.943	717.69
333.172	718.69
333.4	734.69
333.629	787.69
333.857	783.69
334.085	764.69
334.314	741.69
334.542	721.69
334.771	730.69
334.999	714.69
335.227	691.69
335.455	712.69
335.684	711.69
335.912	707.69
336.14	685.69
336.369	696.69
336.597	708.69
336.825	674.69
337.053	708.69
337.281	697.69
337.51	692.69
337.738	661.69
337.966	640.69
338.194	648.69
338.422	649.69
338.65	641.69
338.878	627.69
339.106	642.69
339.334	640.69
339.562	646.69
339.79	618.69
340.018	613.69
340.246	598.69
340.474	598.69
340.702	596.69
340.93	586.69
341.158	627.69
341.386	592.69
341.614	636.69
341.842	613.69
342.07	596.69
342.298	584.69
342.526	583.69
342.754	603.69
342.981	615.69
343.209	610.69
343.437	640.69
343.665	690.69
343.893	760.69
344.12	745.69
344.348	726.69
344.576	692.69
344.804	666.69
345.031	630.69
345.259	612.69
345.487	602.69
345.714	614.69
345.942	632.69
346.17	609.69
346.397	607.69
346.625	600.69
346.853	591.69
347.08	603.69
347.308	610.69
347.535	603.69
347.763	603.69
347.99	613.69
348.218	626.69
348.445	598.69
348.673	606.69
348.9	578.69
349.128	603.69
349.355	583.69
349.583	593.69
349.81	571.69
350.037	566.69
350.265	544.69
350.492	558.69
350.72	585.69
350.947	570.69
351.174	565.69
351.402	566.69
351.629	582.69
351.856	577.69
352.083	565.69
352.311	551.69
352.538	553.69
352.765	588.69
352.992	558.69
353.22	570.69
353.447	547.69
353.674	556.69
353.901	552.69
354.128	565.69
354.355	558.69
354.583	561.69
354.81	571.69
355.037	604.69
355.264	570.69
355.491	558.69
355.718	537.69
355.945	576.69
356.172	557.69
356.399	574.69
356.626	565.69
356.853	577.69
357.08	559.69
357.307	566.69
357.534	581.69
357.761	551.69
357.988	551.69
358.215	554.69
358.441	562.69
358.668	568.69
358.895	587.69
359.122	550.69
359.349	580.69
359.576	582.69
359.802	563.69
360.029	575.69
360.256	584.69
360.483	564.69
360.709	558.69
360.936	570.69
361.163	544.69
361.39	559.69
361.616	552.69
361.843	563.69
362.07	560.69
362.296	582.69
362.523	557.69
362.749	578.69
362.976	573.69
363.203	558.69
363.429	544.69
363.656	542.69
363.882	569.69
364.109	568.69
364.335	554.69
364.562	548.69
364.788	555.69
365.015	582.69
365.241	546.69
365.468	566.69
365.694	552.69
365.92	552.69
366.147	554.69
366.373	558.69
366.599	549.69
366.826	567.69
367.052	534.69
367.278	559.69
367.505	554.69
367.731	558.69
367.957	556.69
368.184	565.69
368.41	548.69
368.636	566.69
368.862	593.69
369.089	579.69
369.315	575.69
369.541	569.69
369.767	570.69
369.993	579.69
370.219	566.69
370.445	572.69
370.672	581.69
370.898	584.69
371.124	587.69
371.35	621.69
371.576	609.69
371.802	623.69
372.028	586.69
372.254	596.69
372.48	619.69
372.706	614.69
372.932	620.69
373.158	617.69
373.384	619.69
373.61	629.69
373.835	607.69
374.061	595.69
374.287	608.69
374.513	624.69
374.739	624.69
374.965	637.69
375.191	688.69
375.416	685.69
375.642	654.69
375.868	653.69
376.094	627.69
376.319	618.69
376.545	626.69
376.771	595.69
376.997	618.69
377.222	610.69
377.448	598.69
377.674	615.69
377.899	605.69
378.125	579.69
378.35	594.69
378.576	606.69
378.802	587.69
379.027	587.69
379.253	591.69
379.478	614.69
379.704	608.69
379.929	594.69
380.155	580.69
380.38	589.69
380.606	596.69
380.831	591.69
381.057	604.69
381.282	601.69
381.507	568.69
381.733	628.69
381.958	616.69
382.184	621.69
382.409	637.69
382.634	635.69
382.86	603.69
383.085	628.69
383.31	652.69
383.535	642.69
383.761	655.69
383.986	663.69
384.211	684.69
384.436	690.69
384.662	694.69
384.887	697.69
385.112	704.69
385.337	717.69
385.562	716.69
385.787	717.69
386.013	712.69
386.238	724.69
386.463	706.69
386.688	724.69
386.913	682.69
387.138	714.69
387.363	683.69
387.588	710.69
387.813	714.69
388.038	675.69
388.263	692.69
388.488	710.69
388.713	706.69
388.938	716.69
389.163	670.69
389.387	695.69
389.612	692.69
389.837	677.69
390.062	699.69
390.287	669.69
390.512	714.69
390.736	714.69
390.961	716.69
391.186	738.69
391.411	740.69
391.636	764.69
391.86	780.69
392.085	801.69
392.31	831.69
392.534	788.69
392.759	776.69
392.984	757.69
393.208	772.69
393.433	735.69
393.658	755.69
393.882	797.69
394.107	766.69
394.331	782.69
394.556	748.69
394.78	752.69
395.005	749.69
395.229	743.69
395.454	793.69
395.678	783.69
395.903	809.69
396.127	774.69
396.352	760.69
396.576	746.69
396.801	732.69
397.025	748.69
397.249	782.69
397.474	778.69
397.698	783.69
397.922	784.69
398.147	802.69
398.371	792.69
398.595	835.69
398.82	890.69
399.044	914.69
399.268	1013.69
399.492	1176.69
399.717	1355.69
399.941	1376.69
400.165	1188.69
400.389	1065.69
400.613	934.69
400.837	950.69
401.062	898.69
401.286	870.69
401.51	879.69
401.734	914.69
401.958	862.69
402.182	904.69
402.406	946.69
402.63	943.69
402.854	955.69
403.078	985.69
403.302	1004.69
403.526	1022.69
403.75	1045.69
403.974	1072.69
404.198	1058.69
404.422	1083.69
404.645	1044.69
404.869	1043.69
405.093	1037.69
405.317	992.69
405.541	1000.69
405.765	973.69
405.988	971.69
406.212	955.69
406.436	967.69
406.66	1002.69
406.883	1018.69
407.107	1096.69
407.331	1116.69
407.555	1199.69
407.778	1195.69
408.002	1176.69
408.226	1103.69
408.449	1080.69
408.673	1062.69
408.896	1059.69
409.12	987.69
409.344	1030.69
409.567	1029.69
409.791	1044.69
410.014	1022.69
410.238	1030.69
410.461	1015.69
410.685	1015.69
410.908	1010.69
411.132	967.69
411.355	928.69
411.578	930.69
411.802	958.69
412.025	935.69
412.249	960.69
412.472	954.69
412.695	911.69
412.919	934.69
413.142	904.69
413.365	879.69
413.589	904.69
413.812	884.69
414.035	894.69
414.258	877.69
414.482	901.69
414.705	909.69
414.928	910.69
415.151	903.69
415.374	910.69
415.597	904.69
415.821	887.69
416.044	900.69
416.267	872.69
416.49	894.69
416.713	886.69
416.936	929.69
417.159	895.69
417.382	873.69
417.605	902.69
417.828	904.69
418.051	932.69
418.274	911.69
418.497	901.69
418.72	940.69
418.943	970.69
419.166	980.69
419.389	1044.69
419.611	1028.69
419.834	990.69
420.057	970.69
420.28	902.69
420.503	873.69
420.726	873.69
420.948	888.69
421.171	904.69
421.394	928.69
421.617	901.69
421.839	894.69
422.062	898.69
422.285	909.69
422.507	922.69
422.73	937.69
422.953	954.69
423.175	956.69
423.398	968.69
423.621	983.69
423.843	1014.69
424.066	952.69
424.288	980.69
424.511	979.69
424.733	982.69
424.956	960.69
425.178	942.69
425.401	931.69
425.623	910.69
425.846	886.69
426.068	890.69
426.291	868.69
426.513	870.69
426.735	866.69
426.958	845.69
427.18	836.69
427.402	832.69
427.625	811.69
427.847	835.69
428.069	785.69
428.292	812.69
428.514	821.69
428.736	808.69
428.958	855.69
429.181	777.69
429.403	804.69
429.625	795.69
429.847	794.69
430.069	799.69
430.292	794.69
430.514	791.69
430.736	797.69
430.958	790.69
431.18	793.69
431.402	809.69
431.624	801.69
431.846	820.69
432.068	819.69
432.29	822.69
432.512	812.69
432.734	827.69
432.956	839.69
433.178	825.69
433.4	829.69
433.622	827.69
433.844	835.69
434.066	826.69
434.287	839.69
434.509	844.69
434.731	877.69
434.953	936.69
435.175	950.69
435.397	904.69
435.618	882.69
435.84	856.69
436.062	843.69
436.284	815.69
436.505	827.69
436.727	853.69
436.949	822.69
437.17	823.69
437.392	811.69
437.614	808.69
437.835	778.69
438.057	798.69
438.278	778.69
438.5	812.69
438.721	779.69
438.943	791.69
439.165	803.69
439.386	802.69
439.608	835.69
439.829	831.69
440.05	859.69
440.272	839.69
440.493	847.69
440.715	856.69
440.936	855.69
441.158	882.69
441.379	910.69
441.6	938.69
441.822	958.69
442.043	973.69
442.264	932.69
442.486	920.69
442.707	934.69
442.928	902.69
443.149	921.69
443.371	927.69
443.592	939.69
443.813	946.69
444.034	938.69
444.255	980.69
444.476	1028.69
444.698	1082.69
444.919	1122.69
445.14	1269.69
445.361	1098.69
445.582	978.69
445.803	912.69
446.024	901.69
446.245	868.69
446.466	873.69
446.687	843.69
446.908	837.69
447.129	815.69
447.35	800.69
447.571	808.69
447.792	784.69
448.013	799.69
448.234	766.69
448.455	802.69
448.675	797.69
448.896	751.69
449.117	754.69
449.338	767.69
449.559	777.69
449.779	742.69
450	760.69
450.221	770.69
450.442	790.69
450.662	768.69
450.883	783.69
451.104	755.69
451.324	767.69
451.545	791.69
451.766	802.69
451.986	782.69
452.207	771.69
452.428	790.69
452.648	780.69
452.869	796.69
453.089	774.69
453.31	776.69
453.53	734.69
453.751	751.69
453.971	747.69
454.192	741.69
454.412	724.69
454.633	739.69
454.853	722.69
455.073	738.69
455.294	731.69
455.514	714.69
455.734	730.69
455.955	723.69
456.175	712.69
456.395	707.69
456.616	728.69
456.836	703.69
457.056	724.69
457.276	694.69
457.497	705.69
457.717	715.69
457.937	703.69
458.157	713.69
458.377	712.69
458.598	746.69
458.818	744.69
459.038	797.69
459.258	802.69
459.478	852.69
459.698	866.69
459.918	896.69
460.138	916.69
460.358	1026.69
460.578	982.69
460.798	975.69
461.018	980.69
461.238	995.69
461.458	962.69
461.678	971.69
461.898	990.69
462.118	1005.69
462.338	1055.69
462.558	1088.69
462.777	1134.69
462.997	1213.69
463.217	1308.69
463.437	1396.69
463.657	1245.69
463.876	1164.69
464.096	1142.69
464.316	1190.69
464.536	1173.69
464.755	1101.69
464.975	1081.69
465.195	1041.69
465.414	966.69
465.634	888.69
465.854	886.69
466.073	863.69
466.293	839.69
466.512	833.69
466.732	810.69
466.951	821.69
467.171	814.69
467.391	810.69
467.61	808.69
467.829	807.69
468.049	780.69
468.268	786.69
468.488	780.69
468.707	771.69
468.927	752.69
469.146	796.69
469.365	780.69
469.585	792.69
469.804	825.69
470.023	832.69
470.243	848.69
470.462	852.69
470.681	826.69
470.901	832.69
471.12	822.69
471.339	809.69
471.558	810.69
471.777	778.69
471.997	756.69
472.216	767.69
472.435	747.69
472.654	738.69
472.873	746.69
473.092	743.69
473.311	742.69
473.53	715.69
473.749	748.69
473.968	736.69
474.187	728.69
474.406	743.69
474.625	769.69
474.844	774.69
475.063	739.69
475.282	757.69
475.501	737.69
475.72	773.69
475.939	762.69
476.158	775.69
476.377	778.69
476.596	795.69
476.814	756.69
477.033	781.69
477.252	831.69
477.471	830.69
477.69	836.69
477.908	850.69
478.127	871.69
478.346	930.69
478.564	912.69
478.783	918.69
479.002	964.69
479.22	974.69
479.439	958.69
479.658	905.69
479.876	936.69
480.095	929.69
480.313	977.69
480.532	1040.69
480.751	1019.69
480.969	967.69
481.188	923.69
481.406	902.69
481.624	892.69
481.843	882.69
482.061	846.69
482.28	845.69
482.498	838.69
482.717	838.69
482.935	859.69
483.153	874.69
483.372	865.69
483.59	879.69
483.808	852.69
484.027	822.69
484.245	850.69
484.463	852.69
484.681	845.69
484.9	865.69
485.118	877.69
485.336	874.69
485.554	885.69
485.772	906.69
485.99	938.69
486.209	908.69
486.427	900.69
486.645	912.69
486.863	912.69
487.081	904.69
487.299	911.69
487.517	907.69
487.735	920.69
487.953	912.69
488.171	897.69
488.389	894.69
488.607	873.69
488.825	893.69
489.043	864.69
489.261	894.69
489.479	886.69
489.696	891.69
489.914	896.69
490.132	920.69
490.35	925.69
490.568	891.69
490.786	879.69
491.003	920.69
491.221	922.69
491.439	915.69
491.657	939.69
491.874	919.69
492.092	936.69
492.31	935.69
492.527	935.69
492.745	983.69
492.963	944.69
493.18	919.69
493.398	952.69
493.615	950.69
493.833	957.69
494.05	958.69
494.268	961.69
494.485	958.69
494.703	966.69
494.92	963.69
495.138	955.69
495.355	984.69
495.573	964.69
495.79	963.69
496.008	966.69
496.225	969.69
496.442	989.69
496.66	989.69
496.877	1004.69
497.094	1020.69
497.312	1037.69
497.529	1071.69
497.746	1090.69
497.963	1096.69
498.181	1156.69
498.398	1187.69
498.615	1264.69
498.832	1327.69
499.049	1417.69
499.267	1534.69
499.484	1760.69
499.701	1881.69
499.918	2070.69
500.135	2434.69
500.352	2801.69
500.569	2990.69
