Data from Ni(NO3)2@0.0625M.TitratingCurve.Agarose3%dH2O.NegLispCup.LampEnergy10.LIBS07252019_HRD10591_18-13-33-569.txt Node
Date: Thu Jul 25 18:13:33 EDT 2019
User: cochatt
Spectrometer: HR+D1059
Trigger mode: 1
Integration Time (sec): 1.000000E-1
Scans to average: 1
Electric dark correction enabled: true
Nonlinearity correction enabled: false
Boxcar width: 0
XAxis mode: Wavelengths
Number of Pixels in Spectrum: 2048
>>>>>Begin Spectral Data<<<<<
223.165	-21.25
223.4	-21.25
223.635	-21.25
223.869	-15.25
224.104	-6.25
224.338	-13.25
224.573	-17.25
224.808	-5.25
225.042	-9.25
225.277	-5.25
225.511	-8.25
225.746	8.75
225.98	8.75
226.215	1.75
226.449	10.75
226.683	21.75
226.918	28.75
227.152	20.75
227.387	20.75
227.621	39.75
227.856	35.75
228.09	40.75
228.324	57.75
228.559	52.75
228.793	57.75
229.027	82.75
229.262	97.75
229.496	104.75
229.73	101.75
229.964	97.75
230.199	112.75
230.433	103.75
230.667	106.75
230.901	122.75
231.136	117.75
231.37	140.75
231.604	108.75
231.838	130.75
232.072	124.75
232.306	123.75
232.541	122.75
232.775	129.75
233.009	132.75
233.243	133.75
233.477	130.75
233.711	141.75
233.945	137.75
234.179	152.75
234.413	130.75
234.647	128.75
234.881	143.75
235.115	123.75
235.349	149.75
235.583	144.75
235.817	147.75
236.051	132.75
236.285	143.75
236.519	135.75
236.753	143.75
236.987	147.75
237.221	145.75
237.455	146.75
237.689	160.75
237.922	146.75
238.156	149.75
238.39	142.75
238.624	137.75
238.858	136.75
239.091	158.75
239.325	160.75
239.559	151.75
239.793	147.75
240.027	167.75
240.26	164.75
240.494	181.75
240.728	162.75
240.961	160.75
241.195	160.75
241.429	166.75
241.662	181.75
241.896	160.75
242.13	170.75
242.363	161.75
242.597	177.75
242.83	181.75
243.064	174.75
243.298	183.75
243.531	189.75
243.765	170.75
243.998	189.75
244.232	182.75
244.465	203.75
244.699	169.75
244.932	183.75
245.166	192.75
245.399	196.75
245.633	207.75
245.866	178.75
246.099	210.75
246.333	184.75
246.566	209.75
246.8	208.75
247.033	201.75
247.266	199.75
247.5	215.75
247.733	215.75
247.966	200.75
248.2	209.75
248.433	211.75
248.666	207.75
248.899	214.75
249.133	202.75
249.366	210.75
249.599	217.75
249.832	208.75
250.066	208.75
250.299	224.75
250.532	223.75
250.765	232.75
250.998	210.75
251.231	222.75
251.465	212.75
251.698	226.75
251.931	252.75
252.164	223.75
252.397	244.75
252.63	244.75
252.863	224.75
253.096	229.75
253.329	245.75
253.562	242.75
253.795	239.75
254.028	256.75
254.261	241.75
254.494	241.75
254.727	251.75
254.96	251.75
255.193	242.75
255.426	235.75
255.659	232.75
255.892	257.75
256.124	252.75
256.357	252.75
256.59	267.75
256.823	264.75
257.056	246.75
257.289	262.75
257.521	273.75
257.754	260.75
257.987	248.75
258.22	266.75
258.452	250.75
258.685	272.75
258.918	263.75
259.151	274.75
259.383	256.75
259.616	268.75
259.849	267.75
260.081	259.75
260.314	252.75
260.547	276.75
260.779	273.75
261.012	283.75
261.244	277.75
261.477	287.75
261.71	297.75
261.942	287.75
262.175	284.75
262.407	297.75
262.64	273.75
262.872	278.75
263.105	288.75
263.337	281.75
263.57	279.75
263.802	308.75
264.035	280.75
264.267	290.75
264.499	296.75
264.732	314.75
264.964	304.75
265.197	316.75
265.429	311.75
265.661	315.75
265.894	299.75
266.126	312.75
266.358	326.75
266.591	310.75
266.823	297.75
267.055	309.75
267.287	318.75
267.52	314.75
267.752	329.75
267.984	336.75
268.216	309.75
268.448	355.75
268.681	328.75
268.913	317.75
269.145	313.75
269.377	331.75
269.609	322.75
269.841	325.75
270.073	306.75
270.306	324.75
270.538	329.75
270.77	338.75
271.002	329.75
271.234	318.75
271.466	338.75
271.698	330.75
271.93	312.75
272.162	320.75
272.394	347.75
272.626	348.75
272.858	346.75
273.09	346.75
273.322	352.75
273.553	329.75
273.785	351.75
274.017	337.75
274.249	346.75
274.481	369.75
274.713	339.75
274.945	352.75
275.176	354.75
275.408	364.75
275.64	339.75
275.872	403.75
276.104	360.75
276.335	374.75
276.567	357.75
276.799	363.75
277.031	357.75
277.262	361.75
277.494	370.75
277.726	361.75
277.957	390.75
278.189	367.75
278.421	359.75
278.652	373.75
278.884	373.75
279.115	382.75
279.347	400.75
279.579	369.75
279.81	386.75
280.042	361.75
280.273	382.75
280.505	366.75
280.736	384.75
280.968	385.75
281.199	424.75
281.431	402.75
281.662	385.75
281.894	397.75
282.125	406.75
282.356	409.75
282.588	416.75
282.819	404.75
283.051	401.75
283.282	410.75
283.513	402.75
283.745	412.75
283.976	410.75
284.207	412.75
284.439	415.75
284.67	402.75
284.901	410.75
285.132	420.75
285.364	449.75
285.595	433.75
285.826	414.75
286.057	438.75
286.288	412.75
286.52	416.75
286.751	421.75
286.982	423.75
287.213	446.75
287.444	434.75
287.675	438.75
287.906	446.75
288.138	444.75
288.369	444.75
288.6	442.75
288.831	439.75
289.062	442.75
289.293	427.75
289.524	425.75
289.755	452.75
289.986	432.75
290.217	445.75
290.448	444.75
290.679	444.75
290.91	450.75
291.141	444.75
291.371	435.75
291.602	460.75
291.833	457.75
292.064	435.75
292.295	450.75
292.526	448.75
292.757	448.75
292.987	448.75
293.218	442.75
293.449	466.75
293.68	459.75
293.91	452.75
294.141	458.75
294.372	448.75
294.603	454.75
294.833	459.75
295.064	466.75
295.295	463.75
295.525	439.75
295.756	466.75
295.987	450.75
296.217	474.75
296.448	457.75
296.679	466.75
296.909	454.75
297.14	478.75
297.37	487.75
297.601	469.75
297.831	483.75
298.062	483.75
298.292	486.75
298.523	500.75
298.753	494.75
298.984	492.75
299.214	477.75
299.445	501.75
299.675	484.75
299.905	501.75
300.136	488.75
300.366	484.75
300.597	495.75
300.827	503.75
301.057	522.75
301.288	528.75
301.518	502.75
301.748	510.75
301.979	518.75
302.209	503.75
302.439	533.75
302.669	516.75
302.9	534.75
303.13	488.75
303.36	508.75
303.59	509.75
303.82	492.75
304.051	515.75
304.281	498.75
304.511	490.75
304.741	492.75
304.971	471.75
305.201	494.75
305.431	496.75
305.661	479.75
305.891	504.75
306.121	494.75
306.352	495.75
306.582	499.75
306.812	473.75
307.042	489.75
307.272	486.75
307.502	479.75
307.731	512.75
307.961	491.75
308.191	496.75
308.421	499.75
308.651	479.75
308.881	476.75
309.111	485.75
309.341	502.75
309.571	496.75
309.8	472.75
310.03	487.75
310.26	491.75
310.49	491.75
310.72	502.75
310.949	479.75
311.179	493.75
311.409	504.75
311.639	499.75
311.868	505.75
312.098	510.75
312.328	509.75
312.557	500.75
312.787	515.75
313.017	507.75
313.246	511.75
313.476	515.75
313.706	549.75
313.935	519.75
314.165	547.75
314.394	540.75
314.624	538.75
314.853	529.75
315.083	517.75
315.312	536.75
315.542	501.75
315.771	543.75
316.001	530.75
316.23	514.75
316.46	528.75
316.689	534.75
316.919	528.75
317.148	521.75
317.377	533.75
317.607	518.75
317.836	505.75
318.065	525.75
318.295	507.75
318.524	516.75
318.753	528.75
318.983	505.75
319.212	522.75
319.441	520.75
319.67	517.75
319.9	526.75
320.129	518.75
320.358	550.75
320.587	528.75
320.816	515.75
321.046	510.75
321.275	526.75
321.504	515.75
321.733	531.75
321.962	527.75
322.191	536.75
322.42	507.75
322.649	532.75
322.878	540.75
323.108	523.75
323.337	539.75
323.566	537.75
323.795	543.75
324.024	547.75
324.253	527.75
324.482	533.75
324.71	531.75
324.939	542.75
325.168	549.75
325.397	519.75
325.626	550.75
325.855	552.75
326.084	574.75
326.313	594.75
326.542	593.75
326.77	587.75
326.999	558.75
327.228	540.75
327.457	555.75
327.686	578.75
327.914	574.75
328.143	574.75
328.372	573.75
328.6	586.75
328.829	572.75
329.058	569.75
329.287	603.75
329.515	560.75
329.744	562.75
329.972	586.75
330.201	592.75
330.43	569.75
330.658	576.75
330.887	582.75
331.115	592.75
331.344	587.75
331.572	602.75
331.801	619.75
332.03	637.75
332.258	649.75
332.486	666.75
332.715	697.75
332.943	727.75
333.172	748.75
333.4	776.75
333.629	779.75
333.857	787.75
334.085	767.75
334.314	789.75
334.542	741.75
334.771	750.75
334.999	729.75
335.227	703.75
335.455	709.75
335.684	715.75
335.912	709.75
336.14	716.75
336.369	681.75
336.597	672.75
336.825	670.75
337.053	691.75
337.281	680.75
337.51	675.75
337.738	654.75
337.966	646.75
338.194	640.75
338.422	630.75
338.65	604.75
338.878	613.75
339.106	626.75
339.334	636.75
339.562	602.75
339.79	594.75
340.018	600.75
340.246	592.75
340.474	587.75
340.702	607.75
340.93	601.75
341.158	578.75
341.386	583.75
341.614	615.75
341.842	587.75
342.07	586.75
342.298	603.75
342.526	584.75
342.754	587.75
342.981	586.75
343.209	595.75
343.437	632.75
343.665	670.75
343.893	716.75
344.12	748.75
344.348	713.75
344.576	664.75
344.804	624.75
345.031	644.75
345.259	619.75
345.487	610.75
345.714	613.75
345.942	609.75
346.17	571.75
346.397	570.75
346.625	578.75
346.853	595.75
347.08	563.75
347.308	597.75
347.535	560.75
347.763	587.75
347.99	585.75
348.218	603.75
348.445	575.75
348.673	601.75
348.9	592.75
349.128	580.75
349.355	597.75
349.583	571.75
349.81	564.75
350.037	574.75
350.265	549.75
350.492	566.75
350.72	562.75
350.947	529.75
351.174	546.75
351.402	571.75
351.629	560.75
351.856	579.75
352.083	567.75
352.311	551.75
352.538	547.75
352.765	564.75
352.992	552.75
353.22	543.75
353.447	574.75
353.674	553.75
353.901	538.75
354.128	562.75
354.355	546.75
354.583	551.75
354.81	580.75
355.037	567.75
355.264	568.75
355.491	562.75
355.718	567.75
355.945	575.75
356.172	586.75
356.399	576.75
356.626	574.75
356.853	566.75
357.08	555.75
357.307	562.75
357.534	550.75
357.761	568.75
357.988	574.75
358.215	540.75
358.441	574.75
358.668	560.75
358.895	571.75
359.122	569.75
359.349	534.75
359.576	563.75
359.802	555.75
360.029	558.75
360.256	571.75
360.483	558.75
360.709	547.75
360.936	562.75
361.163	579.75
361.39	568.75
361.616	551.75
361.843	554.75
362.07	555.75
362.296	547.75
362.523	537.75
362.749	550.75
362.976	568.75
363.203	555.75
363.429	549.75
363.656	579.75
363.882	566.75
364.109	566.75
364.335	553.75
364.562	564.75
364.788	540.75
365.015	549.75
365.241	556.75
365.468	548.75
365.694	552.75
365.92	564.75
366.147	560.75
366.373	572.75
366.599	576.75
366.826	554.75
367.052	546.75
367.278	552.75
367.505	551.75
367.731	574.75
367.957	580.75
368.184	573.75
368.41	568.75
368.636	559.75
368.862	561.75
369.089	582.75
369.315	569.75
369.541	575.75
369.767	570.75
369.993	598.75
370.219	582.75
370.445	593.75
370.672	588.75
370.898	611.75
371.124	588.75
371.35	618.75
371.576	625.75
371.802	603.75
372.028	590.75
372.254	613.75
372.48	622.75
372.706	622.75
372.932	624.75
373.158	623.75
373.384	603.75
373.61	606.75
373.835	606.75
374.061	603.75
374.287	624.75
374.513	613.75
374.739	638.75
374.965	673.75
375.191	680.75
375.416	683.75
375.642	662.75
375.868	636.75
376.094	635.75
376.319	647.75
376.545	633.75
376.771	628.75
376.997	596.75
377.222	590.75
377.448	608.75
377.674	585.75
377.899	592.75
378.125	598.75
378.35	601.75
378.576	584.75
378.802	608.75
379.027	606.75
379.253	601.75
379.478	590.75
379.704	581.75
379.929	618.75
380.155	610.75
380.38	595.75
380.606	617.75
380.831	588.75
381.057	603.75
381.282	584.75
381.507	610.75
381.733	594.75
381.958	636.75
382.184	614.75
382.409	655.75
382.634	636.75
382.86	634.75
383.085	649.75
383.31	646.75
383.535	669.75
383.761	662.75
383.986	692.75
384.211	695.75
384.436	712.75
384.662	703.75
384.887	745.75
385.112	732.75
385.337	740.75
385.562	733.75
385.787	716.75
386.013	752.75
386.238	738.75
386.463	762.75
386.688	712.75
386.913	725.75
387.138	734.75
387.363	731.75
387.588	705.75
387.813	729.75
388.038	723.75
388.263	726.75
388.488	728.75
388.713	700.75
388.938	713.75
389.163	694.75
389.387	706.75
389.612	696.75
389.837	691.75
390.062	699.75
390.287	711.75
390.512	704.75
390.736	722.75
390.961	731.75
391.186	723.75
391.411	756.75
391.636	782.75
391.86	791.75
392.085	820.75
392.31	848.75
392.534	804.75
392.759	795.75
392.984	800.75
393.208	763.75
393.433	805.75
393.658	792.75
393.882	778.75
394.107	781.75
394.331	777.75
394.556	779.75
394.78	821.75
395.005	784.75
395.229	786.75
395.454	824.75
395.678	814.75
395.903	817.75
396.127	811.75
396.352	809.75
396.576	740.75
396.801	752.75
397.025	751.75
397.249	783.75
397.474	802.75
397.698	797.75
397.922	812.75
398.147	807.75
398.371	830.75
398.595	840.75
398.82	855.75
399.044	935.75
399.268	1046.75
399.492	1254.75
399.717	1420.75
399.941	1420.75
400.165	1226.75
400.389	1075.75
400.613	1006.75
400.837	938.75
401.062	886.75
401.286	888.75
401.51	913.75
401.734	902.75
401.958	918.75
402.182	912.75
402.406	935.75
402.63	957.75
402.854	972.75
403.078	987.75
403.302	1032.75
403.526	1046.75
403.75	1068.75
403.974	1115.75
404.198	1099.75
404.422	1097.75
404.645	1079.75
404.869	1079.75
405.093	1060.75
405.317	1050.75
405.541	1024.75
405.765	988.75
405.988	993.75
406.212	983.75
406.436	990.75
406.66	999.75
406.883	1025.75
407.107	1115.75
407.331	1174.75
407.555	1164.75
407.778	1188.75
408.002	1172.75
408.226	1107.75
408.449	1120.75
408.673	1051.75
408.896	1063.75
409.12	1034.75
409.344	1091.75
409.567	1068.75
409.791	1066.75
410.014	1045.75
410.238	1048.75
410.461	1033.75
410.685	990.75
410.908	1011.75
411.132	950.75
411.355	955.75
411.578	950.75
411.802	917.75
412.025	937.75
412.249	971.75
412.472	980.75
412.695	933.75
412.919	940.75
413.142	911.75
413.365	894.75
413.589	907.75
413.812	923.75
414.035	872.75
414.258	902.75
414.482	922.75
414.705	936.75
414.928	923.75
415.151	917.75
415.374	915.75
415.597	926.75
415.821	900.75
416.044	879.75
416.267	890.75
416.49	888.75
416.713	877.75
416.936	929.75
417.159	906.75
417.382	898.75
417.605	919.75
417.828	904.75
418.051	907.75
418.274	885.75
418.497	876.75
418.72	920.75
418.943	948.75
419.166	1003.75
419.389	1060.75
419.611	1024.75
419.834	967.75
420.057	960.75
420.28	927.75
420.503	904.75
420.726	886.75
420.948	887.75
421.171	889.75
421.394	900.75
421.617	895.75
421.839	894.75
422.062	930.75
422.285	903.75
422.507	929.75
422.73	917.75
422.953	940.75
423.175	975.75
423.398	960.75
423.621	977.75
423.843	988.75
424.066	985.75
424.288	983.75
424.511	978.75
424.733	955.75
424.956	937.75
425.178	928.75
425.401	926.75
425.623	904.75
425.846	883.75
426.068	872.75
426.291	865.75
426.513	821.75
426.735	839.75
426.958	863.75
427.18	811.75
427.402	851.75
427.625	841.75
427.847	809.75
428.069	808.75
428.292	827.75
428.514	803.75
428.736	779.75
428.958	794.75
429.181	751.75
429.403	780.75
429.625	788.75
429.847	779.75
430.069	771.75
430.292	797.75
430.514	769.75
430.736	802.75
430.958	762.75
431.18	786.75
431.402	774.75
431.624	784.75
431.846	806.75
432.068	834.75
432.29	825.75
432.512	792.75
432.734	821.75
432.956	819.75
433.178	805.75
433.4	809.75
433.622	803.75
433.844	799.75
434.066	800.75
434.287	825.75
434.509	860.75
434.731	894.75
434.953	900.75
435.175	943.75
435.397	907.75
435.618	871.75
435.84	803.75
436.062	821.75
436.284	826.75
436.505	794.75
436.727	820.75
436.949	846.75
437.17	814.75
437.392	793.75
437.614	780.75
437.835	762.75
438.057	776.75
438.278	778.75
438.5	765.75
438.721	778.75
438.943	822.75
439.165	785.75
439.386	779.75
439.608	802.75
439.829	832.75
440.05	812.75
440.272	807.75
440.493	808.75
440.715	815.75
440.936	848.75
441.158	847.75
441.379	874.75
441.6	898.75
441.822	952.75
442.043	931.75
442.264	896.75
442.486	900.75
442.707	898.75
442.928	901.75
443.149	902.75
443.371	896.75
443.592	906.75
443.813	905.75
444.034	936.75
444.255	952.75
444.476	980.75
444.698	1056.75
444.919	1113.75
445.14	1214.75
445.361	1054.75
445.582	932.75
445.803	898.75
446.024	881.75
446.245	868.75
446.466	849.75
446.687	807.75
446.908	820.75
447.129	809.75
447.35	773.75
447.571	802.75
447.792	754.75
448.013	768.75
448.234	773.75
448.455	751.75
448.675	739.75
448.896	745.75
449.117	731.75
449.338	744.75
449.559	752.75
449.779	734.75
450	743.75
450.221	723.75
450.442	750.75
450.662	712.75
450.883	771.75
451.104	782.75
451.324	776.75
451.545	770.75
451.766	783.75
451.986	743.75
452.207	739.75
452.428	761.75
452.648	761.75
452.869	736.75
453.089	731.75
453.31	744.75
453.53	732.75
453.751	724.75
453.971	739.75
454.192	724.75
454.412	696.75
454.633	724.75
454.853	724.75
455.073	695.75
455.294	716.75
455.514	699.75
455.734	696.75
455.955	692.75
456.175	702.75
456.395	691.75
456.616	675.75
456.836	705.75
457.056	681.75
457.276	683.75
457.497	701.75
457.717	681.75
457.937	673.75
458.157	705.75
458.377	715.75
458.598	704.75
458.818	740.75
459.038	783.75
459.258	807.75
459.478	824.75
459.698	844.75
459.918	874.75
460.138	907.75
460.358	954.75
460.578	964.75
460.798	973.75
461.018	1009.75
461.238	969.75
461.458	933.75
461.678	932.75
461.898	971.75
462.118	963.75
462.338	1039.75
462.558	1037.75
462.777	1073.75
462.997	1189.75
463.217	1330.75
463.437	1319.75
463.657	1216.75
463.876	1119.75
464.096	1127.75
464.316	1157.75
464.536	1179.75
464.755	1108.75
464.975	1052.75
465.195	1033.75
465.414	953.75
465.634	876.75
465.854	842.75
466.073	816.75
466.293	832.75
466.512	807.75
466.732	785.75
466.951	784.75
467.171	780.75
467.391	775.75
467.61	776.75
467.829	803.75
468.049	757.75
468.268	750.75
468.488	743.75
468.707	736.75
468.927	740.75
469.146	737.75
469.365	771.75
469.585	772.75
469.804	772.75
470.023	792.75
470.243	790.75
470.462	820.75
470.681	801.75
470.901	829.75
471.12	805.75
471.339	790.75
471.558	769.75
471.777	773.75
471.997	740.75
472.216	745.75
472.435	744.75
472.654	698.75
472.873	691.75
473.092	725.75
473.311	709.75
473.53	740.75
473.749	708.75
473.968	718.75
474.187	704.75
474.406	715.75
474.625	721.75
474.844	740.75
475.063	719.75
475.282	731.75
475.501	738.75
475.72	746.75
475.939	715.75
476.158	747.75
476.377	777.75
476.596	746.75
476.814	746.75
477.033	764.75
477.252	756.75
477.471	792.75
477.69	793.75
477.908	857.75
478.127	887.75
478.346	863.75
478.564	825.75
478.783	905.75
479.002	909.75
479.22	918.75
479.439	914.75
479.658	911.75
479.876	883.75
480.095	890.75
480.313	962.75
480.532	988.75
480.751	990.75
480.969	958.75
481.188	902.75
481.406	856.75
481.624	857.75
481.843	814.75
482.061	824.75
482.28	817.75
482.498	798.75
482.717	809.75
482.935	824.75
483.153	834.75
483.372	816.75
483.59	800.75
483.808	818.75
484.027	814.75
484.245	846.75
484.463	818.75
484.681	865.75
484.9	853.75
485.118	846.75
485.336	850.75
485.554	866.75
485.772	858.75
485.99	880.75
486.209	886.75
486.427	851.75
486.645	878.75
486.863	889.75
487.081	870.75
487.299	856.75
487.517	873.75
487.735	883.75
487.953	874.75
488.171	866.75
488.389	888.75
488.607	868.75
488.825	832.75
489.043	875.75
489.261	868.75
489.479	856.75
489.696	855.75
489.914	840.75
490.132	867.75
490.35	842.75
490.568	848.75
490.786	864.75
491.003	876.75
491.221	857.75
491.439	880.75
491.657	840.75
491.874	873.75
492.092	894.75
492.31	886.75
492.527	894.75
492.745	887.75
492.963	894.75
493.18	880.75
493.398	901.75
493.615	911.75
493.833	891.75
494.05	919.75
494.268	909.75
494.485	916.75
494.703	914.75
494.92	906.75
495.138	917.75
495.355	882.75
495.573	923.75
495.79	923.75
496.008	907.75
496.225	913.75
496.442	911.75
496.66	964.75
496.877	944.75
497.094	1000.75
497.312	960.75
497.529	1036.75
497.746	1031.75
497.963	1055.75
498.181	1096.75
498.398	1166.75
498.615	1206.75
498.832	1314.75
499.049	1420.75
499.267	1483.75
499.484	1672.75
499.701	1820.75
499.918	2094.75
500.135	2401.75
500.352	2802.75
500.569	3032.75
