Data from Ni(NO3)2@0.5M.TitratingCurve.Agarose3%dH2O.NegLispCup.LampEnergy10.LIBS07252019_HRD10591_17-58-42-564.txt Node
Date: Thu Jul 25 17:58:42 EDT 2019
User: cochatt
Spectrometer: HR+D1059
Trigger mode: 1
Integration Time (sec): 1.000000E-1
Scans to average: 1
Electric dark correction enabled: true
Nonlinearity correction enabled: false
Boxcar width: 0
XAxis mode: Wavelengths
Number of Pixels in Spectrum: 2048
>>>>>Begin Spectral Data<<<<<
223.165	-10.44
223.4	-10.44
223.635	-10.44
223.869	-20.44
224.104	-19.44
224.338	-10.44
224.573	-23.44
224.808	-17.44
225.042	-8.44
225.277	-0.44
225.511	-0.44
225.746	8.56
225.98	-3.44
226.215	-4.44
226.449	26.56
226.683	26.56
226.918	17.56
227.152	39.56
227.387	22.56
227.621	40.56
227.856	38.56
228.09	46.56
228.324	51.56
228.559	63.56
228.793	72.56
229.027	124.56
229.262	148.56
229.496	133.56
229.73	142.56
229.964	167.56
230.199	199.56
230.433	200.56
230.667	164.56
230.901	176.56
231.136	144.56
231.37	154.56
231.604	171.56
231.838	192.56
232.072	191.56
232.306	195.56
232.541	182.56
232.775	170.56
233.009	157.56
233.243	158.56
233.477	153.56
233.711	165.56
233.945	178.56
234.179	173.56
234.413	154.56
234.647	167.56
234.881	161.56
235.115	181.56
235.349	166.56
235.583	162.56
235.817	146.56
236.051	176.56
236.285	171.56
236.519	159.56
236.753	158.56
236.987	185.56
237.221	150.56
237.455	156.56
237.689	168.56
237.922	173.56
238.156	173.56
238.39	164.56
238.624	168.56
238.858	165.56
239.091	181.56
239.325	200.56
239.559	212.56
239.793	217.56
240.027	215.56
240.26	180.56
240.494	169.56
240.728	164.56
240.961	170.56
241.195	189.56
241.429	172.56
241.662	208.56
241.896	221.56
242.13	244.56
242.363	199.56
242.597	217.56
242.83	179.56
243.064	191.56
243.298	198.56
243.531	208.56
243.765	215.56
243.998	213.56
244.232	223.56
244.465	218.56
244.699	213.56
244.932	202.56
245.166	219.56
245.399	212.56
245.633	214.56
245.866	234.56
246.099	216.56
246.333	206.56
246.566	224.56
246.8	220.56
247.033	219.56
247.266	235.56
247.5	244.56
247.733	236.56
247.966	238.56
248.2	250.56
248.433	246.56
248.666	244.56
248.899	231.56
249.133	245.56
249.366	253.56
249.599	262.56
249.832	262.56
250.066	257.56
250.299	257.56
250.532	252.56
250.765	280.56
250.998	295.56
251.231	275.56
251.465	290.56
251.698	294.56
251.931	281.56
252.164	285.56
252.397	279.56
252.63	289.56
252.863	278.56
253.096	306.56
253.329	286.56
253.562	282.56
253.795	288.56
254.028	296.56
254.261	294.56
254.494	290.56
254.727	323.56
254.96	306.56
255.193	298.56
255.426	293.56
255.659	308.56
255.892	311.56
256.124	317.56
256.357	331.56
256.59	317.56
256.823	323.56
257.056	335.56
257.289	301.56
257.521	321.56
257.754	324.56
257.987	341.56
258.22	336.56
258.452	329.56
258.685	351.56
258.918	349.56
259.151	348.56
259.383	325.56
259.616	326.56
259.849	322.56
260.081	330.56
260.314	334.56
260.547	341.56
260.779	354.56
261.012	353.56
261.244	359.56
261.477	348.56
261.71	366.56
261.942	370.56
262.175	359.56
262.407	367.56
262.64	362.56
262.872	374.56
263.105	364.56
263.337	365.56
263.57	378.56
263.802	382.56
264.035	388.56
264.267	382.56
264.499	386.56
264.732	386.56
264.964	399.56
265.197	392.56
265.429	380.56
265.661	391.56
265.894	374.56
266.126	392.56
266.358	391.56
266.591	410.56
266.823	406.56
267.055	379.56
267.287	389.56
267.52	394.56
267.752	390.56
267.984	377.56
268.216	414.56
268.448	384.56
268.681	394.56
268.913	411.56
269.145	430.56
269.377	424.56
269.609	400.56
269.841	426.56
270.073	422.56
270.306	411.56
270.538	404.56
270.77	406.56
271.002	402.56
271.234	426.56
271.466	430.56
271.698	423.56
271.93	436.56
272.162	434.56
272.394	446.56
272.626	423.56
272.858	426.56
273.09	437.56
273.322	459.56
273.553	464.56
273.785	424.56
274.017	447.56
274.249	431.56
274.481	434.56
274.713	440.56
274.945	462.56
275.176	459.56
275.408	456.56
275.64	461.56
275.872	458.56
276.104	460.56
276.335	469.56
276.567	462.56
276.799	490.56
277.031	490.56
277.262	449.56
277.494	469.56
277.726	463.56
277.957	466.56
278.189	479.56
278.421	472.56
278.652	486.56
278.884	493.56
279.115	477.56
279.347	501.56
279.579	485.56
279.81	484.56
280.042	487.56
280.273	504.56
280.505	485.56
280.736	495.56
280.968	504.56
281.199	494.56
281.431	505.56
281.662	479.56
281.894	489.56
282.125	484.56
282.356	484.56
282.588	499.56
282.819	500.56
283.051	521.56
283.282	520.56
283.513	522.56
283.745	529.56
283.976	527.56
284.207	528.56
284.439	509.56
284.67	510.56
284.901	506.56
285.132	533.56
285.364	504.56
285.595	512.56
285.826	532.56
286.057	545.56
286.288	549.56
286.52	543.56
286.751	551.56
286.982	539.56
287.213	516.56
287.444	538.56
287.675	556.56
287.906	527.56
288.138	533.56
288.369	549.56
288.6	543.56
288.831	542.56
289.062	523.56
289.293	542.56
289.524	540.56
289.755	552.56
289.986	553.56
290.217	569.56
290.448	543.56
290.679	519.56
290.91	563.56
291.141	578.56
291.371	570.56
291.602	553.56
291.833	542.56
292.064	546.56
292.295	543.56
292.526	537.56
292.757	548.56
292.987	564.56
293.218	577.56
293.449	573.56
293.68	566.56
293.91	537.56
294.141	546.56
294.372	564.56
294.603	580.56
294.833	567.56
295.064	578.56
295.295	577.56
295.525	572.56
295.756	574.56
295.987	589.56
296.217	582.56
296.448	587.56
296.679	580.56
296.909	602.56
297.14	595.56
297.37	593.56
297.601	599.56
297.831	604.56
298.062	579.56
298.292	595.56
298.523	600.56
298.753	604.56
298.984	601.56
299.214	607.56
299.445	619.56
299.675	622.56
299.905	619.56
300.136	636.56
300.366	639.56
300.597	676.56
300.827	632.56
301.057	638.56
301.288	667.56
301.518	644.56
301.748	650.56
301.979	652.56
302.209	657.56
302.439	630.56
302.669	621.56
302.9	610.56
303.13	635.56
303.36	623.56
303.59	650.56
303.82	645.56
304.051	649.56
304.281	654.56
304.511	653.56
304.741	647.56
304.971	650.56
305.201	683.56
305.431	675.56
305.661	676.56
305.891	680.56
306.121	656.56
306.352	646.56
306.582	646.56
306.812	653.56
307.042	656.56
307.272	674.56
307.502	654.56
307.731	646.56
307.961	656.56
308.191	656.56
308.421	660.56
308.651	644.56
308.881	654.56
309.111	650.56
309.341	662.56
309.571	665.56
309.8	668.56
310.03	690.56
310.26	701.56
310.49	717.56
310.72	687.56
310.949	690.56
311.179	687.56
311.409	680.56
311.639	686.56
311.868	681.56
312.098	677.56
312.328	688.56
312.557	695.56
312.787	687.56
313.017	727.56
313.246	716.56
313.476	727.56
313.706	741.56
313.935	693.56
314.165	692.56
314.394	706.56
314.624	704.56
314.853	684.56
315.083	702.56
315.312	719.56
315.542	726.56
315.771	720.56
316.001	719.56
316.23	720.56
316.46	739.56
316.689	727.56
316.919	707.56
317.148	740.56
317.377	733.56
317.607	738.56
317.836	733.56
318.065	739.56
318.295	733.56
318.524	757.56
318.753	733.56
318.983	739.56
319.212	713.56
319.441	757.56
319.67	770.56
319.9	741.56
320.129	743.56
320.358	752.56
320.587	768.56
320.816	764.56
321.046	759.56
321.275	762.56
321.504	768.56
321.733	758.56
321.962	783.56
322.191	772.56
322.42	796.56
322.649	772.56
322.878	798.56
323.108	780.56
323.337	801.56
323.566	820.56
323.795	810.56
324.024	752.56
324.253	815.56
324.482	799.56
324.71	821.56
324.939	807.56
325.168	809.56
325.397	802.56
325.626	840.56
325.855	794.56
326.084	831.56
326.313	847.56
326.542	823.56
326.77	844.56
326.999	821.56
327.228	842.56
327.457	850.56
327.686	840.56
327.914	853.56
328.143	839.56
328.372	831.56
328.6	838.56
328.829	837.56
329.058	852.56
329.287	853.56
329.515	855.56
329.744	858.56
329.972	869.56
330.201	848.56
330.43	892.56
330.658	872.56
330.887	861.56
331.115	871.56
331.344	868.56
331.572	878.56
331.801	898.56
332.03	912.56
332.258	895.56
332.486	879.56
332.715	892.56
332.943	934.56
333.172	915.56
333.4	921.56
333.629	916.56
333.857	966.56
334.085	943.56
334.314	942.56
334.542	956.56
334.771	967.56
334.999	932.56
335.227	943.56
335.455	975.56
335.684	951.56
335.912	1005.56
336.14	980.56
336.369	971.56
336.597	983.56
336.825	1002.56
337.053	1005.56
337.281	995.56
337.51	1010.56
337.738	976.56
337.966	974.56
338.194	998.56
338.422	989.56
338.65	957.56
338.878	929.56
339.106	966.56
339.334	974.56
339.562	979.56
339.79	918.56
340.018	925.56
340.246	928.56
340.474	916.56
340.702	927.56
340.93	938.56
341.158	951.56
341.386	949.56
341.614	990.56
341.842	946.56
342.07	926.56
342.298	935.56
342.526	936.56
342.754	932.56
342.981	941.56
343.209	945.56
343.437	968.56
343.665	978.56
343.893	969.56
344.12	956.56
344.348	971.56
344.576	985.56
344.804	986.56
345.031	942.56
345.259	942.56
345.487	939.56
345.714	950.56
345.942	994.56
346.17	1002.56
346.397	982.56
346.625	937.56
346.853	897.56
347.08	927.56
347.308	917.56
347.535	926.56
347.763	904.56
347.99	912.56
348.218	910.56
348.445	875.56
348.673	896.56
348.9	877.56
349.128	895.56
349.355	943.56
349.583	957.56
349.81	908.56
350.037	897.56
350.265	895.56
350.492	907.56
350.72	895.56
350.947	909.56
351.174	912.56
351.402	916.56
351.629	930.56
351.856	936.56
352.083	924.56
352.311	900.56
352.538	934.56
352.765	952.56
352.992	891.56
353.22	861.56
353.447	869.56
353.674	880.56
353.901	861.56
354.128	878.56
354.355	857.56
354.583	877.56
354.81	850.56
355.037	859.56
355.264	879.56
355.491	869.56
355.718	877.56
355.945	895.56
356.172	868.56
356.399	892.56
356.626	915.56
356.853	938.56
357.08	894.56
357.307	895.56
357.534	896.56
357.761	875.56
357.988	881.56
358.215	864.56
358.441	869.56
358.668	861.56
358.895	888.56
359.122	890.56
359.349	864.56
359.576	893.56
359.802	889.56
360.029	871.56
360.256	902.56
360.483	900.56
360.709	874.56
360.936	902.56
361.163	909.56
361.39	894.56
361.616	912.56
361.843	936.56
362.07	966.56
362.296	909.56
362.523	897.56
362.749	898.56
362.976	861.56
363.203	900.56
363.429	858.56
363.656	898.56
363.882	882.56
364.109	901.56
364.335	875.56
364.562	896.56
364.788	890.56
365.015	870.56
365.241	897.56
365.468	891.56
365.694	885.56
365.92	886.56
366.147	874.56
366.373	888.56
366.599	907.56
366.826	911.56
367.052	873.56
367.278	890.56
367.505	881.56
367.731	915.56
367.957	898.56
368.184	906.56
368.41	903.56
368.636	906.56
368.862	913.56
369.089	913.56
369.315	946.56
369.541	914.56
369.767	912.56
369.993	918.56
370.219	899.56
370.445	949.56
370.672	932.56
370.898	953.56
371.124	930.56
371.35	932.56
371.576	948.56
371.802	940.56
372.028	916.56
372.254	937.56
372.48	932.56
372.706	966.56
372.932	926.56
373.158	971.56
373.384	950.56
373.61	927.56
373.835	935.56
374.061	931.56
374.287	938.56
374.513	957.56
374.739	984.56
374.965	915.56
375.191	976.56
375.416	983.56
375.642	943.56
375.868	966.56
376.094	912.56
376.319	957.56
376.545	931.56
376.771	924.56
376.997	948.56
377.222	949.56
377.448	951.56
377.674	938.56
377.899	911.56
378.125	911.56
378.35	934.56
378.576	925.56
378.802	932.56
379.027	928.56
379.253	949.56
379.478	916.56
379.704	937.56
379.929	929.56
380.155	934.56
380.38	912.56
380.606	951.56
380.831	937.56
381.057	959.56
381.282	902.56
381.507	919.56
381.733	931.56
381.958	956.56
382.184	955.56
382.409	963.56
382.634	959.56
382.86	932.56
383.085	968.56
383.31	957.56
383.535	987.56
383.761	953.56
383.986	965.56
384.211	963.56
384.436	974.56
384.662	999.56
384.887	1015.56
385.112	1015.56
385.337	1020.56
385.562	969.56
385.787	1026.56
386.013	1032.56
386.238	1029.56
386.463	1011.56
386.688	1053.56
386.913	1011.56
387.138	1036.56
387.363	1031.56
387.588	1048.56
387.813	1039.56
388.038	1041.56
388.263	1034.56
388.488	1070.56
388.713	1016.56
388.938	1034.56
389.163	1057.56
389.387	1059.56
389.612	1025.56
389.837	1062.56
390.062	1054.56
390.287	1028.56
390.512	1037.56
390.736	1077.56
390.961	1080.56
391.186	1072.56
391.411	1067.56
391.636	1064.56
391.86	1101.56
392.085	1092.56
392.31	1089.56
392.534	1075.56
392.759	1095.56
392.984	1110.56
393.208	1086.56
393.433	1102.56
393.658	1087.56
393.882	1076.56
394.107	1101.56
394.331	1081.56
394.556	1074.56
394.78	1086.56
395.005	1083.56
395.229	1097.56
395.454	1095.56
395.678	1122.56
395.903	1133.56
396.127	1109.56
396.352	1104.56
396.576	1106.56
396.801	1111.56
397.025	1147.56
397.249	1129.56
397.474	1140.56
397.698	1150.56
397.922	1171.56
398.147	1176.56
398.371	1165.56
398.595	1175.56
398.82	1184.56
399.044	1244.56
399.268	1274.56
399.492	1300.56
399.717	1324.56
399.941	1340.56
400.165	1339.56
400.389	1320.56
400.613	1304.56
400.837	1267.56
401.062	1235.56
401.286	1235.56
401.51	1191.56
401.734	1200.56
401.958	1244.56
402.182	1189.56
402.406	1222.56
402.63	1208.56
402.854	1237.56
403.078	1229.56
403.302	1229.56
403.526	1205.56
403.75	1229.56
403.974	1227.56
404.198	1226.56
404.422	1248.56
404.645	1222.56
404.869	1232.56
405.093	1259.56
405.317	1226.56
405.541	1251.56
405.765	1239.56
405.988	1218.56
406.212	1298.56
406.436	1271.56
406.66	1349.56
406.883	1291.56
407.107	1344.56
407.331	1347.56
407.555	1396.56
407.778	1362.56
408.002	1340.56
408.226	1343.56
408.449	1332.56
408.673	1302.56
408.896	1299.56
409.12	1318.56
409.344	1351.56
409.567	1288.56
409.791	1305.56
410.014	1319.56
410.238	1330.56
410.461	1300.56
410.685	1261.56
410.908	1282.56
411.132	1277.56
411.355	1273.56
411.578	1295.56
411.802	1238.56
412.025	1254.56
412.249	1224.56
412.472	1241.56
412.695	1267.56
412.919	1280.56
413.142	1221.56
413.365	1205.56
413.589	1238.56
413.812	1223.56
414.035	1216.56
414.258	1230.56
414.482	1211.56
414.705	1235.56
414.928	1210.56
415.151	1203.56
415.374	1212.56
415.597	1216.56
415.821	1167.56
416.044	1165.56
416.267	1200.56
416.49	1190.56
416.713	1183.56
416.936	1204.56
417.159	1154.56
417.382	1142.56
417.605	1176.56
417.828	1173.56
418.051	1190.56
418.274	1192.56
418.497	1154.56
418.72	1174.56
418.943	1153.56
419.166	1225.56
419.389	1286.56
419.611	1259.56
419.834	1218.56
420.057	1195.56
420.28	1173.56
420.503	1141.56
420.726	1154.56
420.948	1147.56
421.171	1154.56
421.394	1172.56
421.617	1142.56
421.839	1155.56
422.062	1182.56
422.285	1154.56
422.507	1184.56
422.73	1163.56
422.953	1175.56
423.175	1164.56
423.398	1144.56
423.621	1155.56
423.843	1184.56
424.066	1160.56
424.288	1193.56
424.511	1161.56
424.733	1149.56
424.956	1175.56
425.178	1187.56
425.401	1165.56
425.623	1187.56
425.846	1150.56
426.068	1167.56
426.291	1149.56
426.513	1156.56
426.735	1152.56
426.958	1162.56
427.18	1169.56
427.402	1141.56
427.625	1173.56
427.847	1141.56
428.069	1122.56
428.292	1134.56
428.514	1139.56
428.736	1149.56
428.958	1152.56
429.181	1133.56
429.403	1143.56
429.625	1108.56
429.847	1121.56
430.069	1129.56
430.292	1118.56
430.514	1119.56
430.736	1135.56
430.958	1126.56
431.18	1119.56
431.402	1158.56
431.624	1151.56
431.846	1148.56
432.068	1144.56
432.29	1159.56
432.512	1122.56
432.734	1158.56
432.956	1143.56
433.178	1180.56
433.4	1204.56
433.622	1210.56
433.844	1188.56
434.066	1186.56
434.287	1142.56
434.509	1181.56
434.731	1192.56
434.953	1178.56
435.175	1229.56
435.397	1218.56
435.618	1171.56
435.84	1184.56
436.062	1169.56
436.284	1149.56
436.505	1176.56
436.727	1149.56
436.949	1151.56
437.17	1170.56
437.392	1135.56
437.614	1140.56
437.835	1080.56
438.057	1142.56
438.278	1111.56
438.5	1140.56
438.721	1148.56
438.943	1120.56
439.165	1121.56
439.386	1113.56
439.608	1174.56
439.829	1162.56
440.05	1108.56
440.272	1162.56
440.493	1157.56
440.715	1180.56
440.936	1172.56
441.158	1184.56
441.379	1183.56
441.6	1207.56
441.822	1182.56
442.043	1204.56
442.264	1204.56
442.486	1196.56
442.707	1205.56
442.928	1190.56
443.149	1196.56
443.371	1210.56
443.592	1257.56
443.813	1261.56
444.034	1215.56
444.255	1198.56
444.476	1250.56
444.698	1262.56
444.919	1239.56
445.14	1334.56
445.361	1277.56
445.582	1272.56
445.803	1198.56
446.024	1153.56
446.245	1200.56
446.466	1192.56
446.687	1147.56
446.908	1117.56
447.129	1145.56
447.35	1085.56
447.571	1111.56
447.792	1070.56
448.013	1071.56
448.234	1081.56
448.455	1075.56
448.675	1104.56
448.896	1045.56
449.117	1059.56
449.338	1071.56
449.559	1070.56
449.779	1060.56
450	1084.56
450.221	1048.56
450.442	1049.56
450.662	1081.56
450.883	1074.56
451.104	1095.56
451.324	1049.56
451.545	1039.56
451.766	1075.56
451.986	1065.56
452.207	1032.56
452.428	1050.56
452.648	1042.56
452.869	1013.56
453.089	1050.56
453.31	1103.56
453.53	1035.56
453.751	1057.56
453.971	1018.56
454.192	1053.56
454.412	1056.56
454.633	1038.56
454.853	1039.56
455.073	1035.56
455.294	1059.56
455.514	1051.56
455.734	1054.56
455.955	1058.56
456.175	1080.56
456.395	1040.56
456.616	999.56
456.836	1039.56
457.056	1026.56
457.276	970.56
457.497	1045.56
457.717	1070.56
457.937	1062.56
458.157	1063.56
458.377	1063.56
458.598	1093.56
458.818	1105.56
459.038	1090.56
459.258	1129.56
459.478	1163.56
459.698	1222.56
459.918	1274.56
460.138	1225.56
460.358	1230.56
460.578	1199.56
460.798	1282.56
461.018	1244.56
461.238	1219.56
461.458	1213.56
461.678	1227.56
461.898	1263.56
462.118	1210.56
462.338	1234.56
462.558	1292.56
462.777	1316.56
462.997	1333.56
463.217	1340.56
463.437	1412.56
463.657	1357.56
463.876	1298.56
464.096	1333.56
464.316	1290.56
464.536	1273.56
464.755	1285.56
464.975	1244.56
465.195	1238.56
465.414	1243.56
465.634	1188.56
465.854	1163.56
466.073	1132.56
466.293	1138.56
466.512	1134.56
466.732	1132.56
466.951	1152.56
467.171	1167.56
467.391	1104.56
467.61	1117.56
467.829	1124.56
468.049	1118.56
468.268	1097.56
468.488	1104.56
468.707	1079.56
468.927	1090.56
469.146	1124.56
469.365	1119.56
469.585	1092.56
469.804	1106.56
470.023	1118.56
470.243	1098.56
470.462	1095.56
470.681	1123.56
470.901	1110.56
471.12	1104.56
471.339	1108.56
471.558	1109.56
471.777	1128.56
471.997	1135.56
472.216	1074.56
472.435	1077.56
472.654	1107.56
472.873	1100.56
473.092	1104.56
473.311	1129.56
473.53	1120.56
473.749	1108.56
473.968	1098.56
474.187	1121.56
474.406	1102.56
474.625	1119.56
474.844	1112.56
475.063	1136.56
475.282	1152.56
475.501	1138.56
475.72	1151.56
475.939	1144.56
476.158	1169.56
476.377	1157.56
476.596	1172.56
476.814	1172.56
477.033	1172.56
477.252	1188.56
477.471	1221.56
477.69	1208.56
477.908	1242.56
478.127	1244.56
478.346	1244.56
478.564	1238.56
478.783	1277.56
479.002	1316.56
479.22	1359.56
479.439	1347.56
479.658	1304.56
479.876	1306.56
480.095	1259.56
480.313	1295.56
480.532	1309.56
480.751	1310.56
480.969	1299.56
481.188	1294.56
481.406	1314.56
481.624	1298.56
481.843	1238.56
482.061	1277.56
482.28	1302.56
482.498	1310.56
482.717	1290.56
482.935	1275.56
483.153	1275.56
483.372	1316.56
483.59	1357.56
483.808	1340.56
484.027	1303.56
484.245	1315.56
484.463	1320.56
484.681	1340.56
484.9	1361.56
485.118	1307.56
485.336	1325.56
485.554	1326.56
485.772	1338.56
485.99	1284.56
486.209	1336.56
486.427	1320.56
486.645	1327.56
486.863	1337.56
487.081	1350.56
487.299	1328.56
487.517	1337.56
487.735	1356.56
487.953	1368.56
488.171	1374.56
488.389	1367.56
488.607	1319.56
488.825	1328.56
489.043	1327.56
489.261	1298.56
489.479	1320.56
489.696	1313.56
489.914	1350.56
490.132	1350.56
490.35	1379.56
490.568	1343.56
490.786	1373.56
491.003	1406.56
491.221	1355.56
491.439	1379.56
491.657	1368.56
491.874	1359.56
492.092	1403.56
492.31	1399.56
492.527	1424.56
492.745	1388.56
492.963	1401.56
493.18	1403.56
493.398	1396.56
493.615	1426.56
493.833	1424.56
494.05	1418.56
494.268	1427.56
494.485	1398.56
494.703	1419.56
