Data from Ni(NO3)2@0.0625M.TitratingCurve.Agarose3%dH2O.NegLispCup.LampEnergy10.LIBS07252019_HRD10591_18-15-07-569.txt Node
Date: Thu Jul 25 18:15:07 EDT 2019
User: cochatt
Spectrometer: HR+D1059
Trigger mode: 1
Integration Time (sec): 1.000000E-1
Scans to average: 1
Electric dark correction enabled: true
Nonlinearity correction enabled: false
Boxcar width: 0
XAxis mode: Wavelengths
Number of Pixels in Spectrum: 2048
>>>>>Begin Spectral Data<<<<<
223.165	-31.5
223.4	-31.5
223.635	-31.5
223.869	-22.5
224.104	-31.5
224.338	-17.5
224.573	-18.5
224.808	-3.5
225.042	-6.5
225.277	-2.5
225.511	-2.5
225.746	2.5
225.98	15.5
226.215	19.5
226.449	27.5
226.683	15.5
226.918	32.5
227.152	23.5
227.387	31.5
227.621	42.5
227.856	43.5
228.09	44.5
228.324	31.5
228.559	59.5
228.793	58.5
229.027	81.5
229.262	102.5
229.496	92.5
229.73	103.5
229.964	87.5
230.199	115.5
230.433	118.5
230.667	119.5
230.901	112.5
231.136	108.5
231.37	110.5
231.604	130.5
231.838	117.5
232.072	134.5
232.306	136.5
232.541	127.5
232.775	131.5
233.009	133.5
233.243	125.5
233.477	113.5
233.711	132.5
233.945	121.5
234.179	126.5
234.413	106.5
234.647	123.5
234.881	129.5
235.115	131.5
235.349	127.5
235.583	111.5
235.817	125.5
236.051	125.5
236.285	118.5
236.519	121.5
236.753	132.5
236.987	134.5
237.221	112.5
237.455	131.5
237.689	118.5
237.922	146.5
238.156	135.5
238.39	133.5
238.624	146.5
238.858	136.5
239.091	130.5
239.325	143.5
239.559	129.5
239.793	138.5
240.027	129.5
240.26	142.5
240.494	134.5
240.728	147.5
240.961	151.5
241.195	147.5
241.429	143.5
241.662	149.5
241.896	155.5
242.13	159.5
242.363	152.5
242.597	145.5
242.83	154.5
243.064	159.5
243.298	165.5
243.531	154.5
243.765	168.5
243.998	154.5
244.232	154.5
244.465	160.5
244.699	153.5
244.932	168.5
245.166	174.5
245.399	175.5
245.633	163.5
245.866	171.5
246.099	171.5
246.333	179.5
246.566	170.5
246.8	175.5
247.033	170.5
247.266	160.5
247.5	175.5
247.733	167.5
247.966	178.5
248.2	175.5
248.433	181.5
248.666	191.5
248.899	193.5
249.133	176.5
249.366	185.5
249.599	187.5
249.832	202.5
250.066	194.5
250.299	194.5
250.532	186.5
250.765	202.5
250.998	193.5
251.231	200.5
251.465	193.5
251.698	198.5
251.931	202.5
252.164	207.5
252.397	229.5
252.63	212.5
252.863	201.5
253.096	208.5
253.329	200.5
253.562	215.5
253.795	214.5
254.028	192.5
254.261	203.5
254.494	212.5
254.727	206.5
254.96	205.5
255.193	216.5
255.426	209.5
255.659	214.5
255.892	230.5
256.124	206.5
256.357	228.5
256.59	219.5
256.823	225.5
257.056	237.5
257.289	215.5
257.521	232.5
257.754	213.5
257.987	209.5
258.22	213.5
258.452	234.5
258.685	237.5
258.918	230.5
259.151	215.5
259.383	255.5
259.616	239.5
259.849	234.5
260.081	234.5
260.314	234.5
260.547	261.5
260.779	246.5
261.012	249.5
261.244	235.5
261.477	255.5
261.71	227.5
261.942	255.5
262.175	253.5
262.407	242.5
262.64	255.5
262.872	268.5
263.105	269.5
263.337	249.5
263.57	230.5
263.802	259.5
264.035	265.5
264.267	258.5
264.499	249.5
264.732	265.5
264.964	282.5
265.197	243.5
265.429	262.5
265.661	273.5
265.894	253.5
266.126	281.5
266.358	273.5
266.591	270.5
266.823	279.5
267.055	250.5
267.287	281.5
267.52	267.5
267.752	266.5
267.984	265.5
268.216	280.5
268.448	289.5
268.681	272.5
268.913	274.5
269.145	268.5
269.377	268.5
269.609	266.5
269.841	300.5
270.073	253.5
270.306	277.5
270.538	283.5
270.77	274.5
271.002	280.5
271.234	289.5
271.466	287.5
271.698	286.5
271.93	282.5
272.162	298.5
272.394	280.5
272.626	293.5
272.858	295.5
273.09	292.5
273.322	291.5
273.553	283.5
273.785	299.5
274.017	293.5
274.249	308.5
274.481	310.5
274.713	302.5
274.945	309.5
275.176	311.5
275.408	305.5
275.64	301.5
275.872	305.5
276.104	289.5
276.335	293.5
276.567	305.5
276.799	310.5
277.031	327.5
277.262	329.5
277.494	309.5
277.726	315.5
277.957	320.5
278.189	315.5
278.421	304.5
278.652	326.5
278.884	327.5
279.115	331.5
279.347	327.5
279.579	330.5
279.81	337.5
280.042	333.5
280.273	328.5
280.505	323.5
280.736	347.5
280.968	338.5
281.199	345.5
281.431	350.5
281.662	335.5
281.894	354.5
282.125	350.5
282.356	336.5
282.588	352.5
282.819	357.5
283.051	356.5
283.282	331.5
283.513	349.5
283.745	349.5
283.976	357.5
284.207	349.5
284.439	356.5
284.67	377.5
284.901	365.5
285.132	332.5
285.364	350.5
285.595	374.5
285.826	339.5
286.057	371.5
286.288	375.5
286.52	382.5
286.751	376.5
286.982	366.5
287.213	382.5
287.444	375.5
287.675	376.5
287.906	359.5
288.138	371.5
288.369	369.5
288.6	385.5
288.831	383.5
289.062	390.5
289.293	368.5
289.524	388.5
289.755	367.5
289.986	372.5
290.217	375.5
290.448	373.5
290.679	380.5
290.91	389.5
291.141	401.5
291.371	397.5
291.602	383.5
291.833	387.5
292.064	386.5
292.295	386.5
292.526	403.5
292.757	390.5
292.987	393.5
293.218	395.5
293.449	380.5
293.68	399.5
293.91	404.5
294.141	384.5
294.372	373.5
294.603	403.5
294.833	403.5
295.064	396.5
295.295	407.5
295.525	416.5
295.756	402.5
295.987	410.5
296.217	405.5
296.448	395.5
296.679	403.5
296.909	405.5
297.14	393.5
297.37	429.5
297.601	429.5
297.831	418.5
298.062	431.5
298.292	448.5
298.523	450.5
298.753	443.5
298.984	462.5
299.214	449.5
299.445	439.5
299.675	448.5
299.905	416.5
300.136	417.5
300.366	454.5
300.597	462.5
300.827	461.5
301.057	442.5
301.288	482.5
301.518	456.5
301.748	447.5
301.979	457.5
302.209	459.5
302.439	446.5
302.669	443.5
302.9	441.5
303.13	432.5
303.36	441.5
303.59	425.5
303.82	432.5
304.051	454.5
304.281	421.5
304.511	442.5
304.741	445.5
304.971	435.5
305.201	471.5
305.431	447.5
305.661	452.5
305.891	447.5
306.121	451.5
306.352	424.5
306.582	431.5
306.812	429.5
307.042	434.5
307.272	437.5
307.502	424.5
307.731	433.5
307.961	440.5
308.191	430.5
308.421	443.5
308.651	426.5
308.881	432.5
309.111	435.5
309.341	439.5
309.571	464.5
309.8	436.5
310.03	434.5
310.26	449.5
310.49	441.5
310.72	465.5
310.949	442.5
311.179	443.5
311.409	426.5
311.639	442.5
311.868	445.5
312.098	439.5
312.328	456.5
312.557	453.5
312.787	431.5
313.017	471.5
313.246	456.5
313.476	449.5
313.706	457.5
313.935	477.5
314.165	472.5
314.394	459.5
314.624	469.5
314.853	465.5
315.083	457.5
315.312	449.5
315.542	473.5
315.771	447.5
316.001	442.5
316.23	449.5
316.46	450.5
316.689	439.5
316.919	451.5
317.148	456.5
317.377	463.5
317.607	419.5
317.836	458.5
318.065	474.5
318.295	437.5
318.524	481.5
318.753	465.5
318.983	454.5
319.212	448.5
319.441	457.5
319.67	464.5
319.9	448.5
320.129	474.5
320.358	459.5
320.587	472.5
320.816	435.5
321.046	452.5
321.275	451.5
321.504	476.5
321.733	440.5
321.962	449.5
322.191	444.5
322.42	455.5
322.649	461.5
322.878	459.5
323.108	459.5
323.337	467.5
323.566	473.5
323.795	464.5
324.024	478.5
324.253	464.5
324.482	478.5
324.71	482.5
324.939	499.5
325.168	490.5
325.397	487.5
325.626	471.5
325.855	484.5
326.084	497.5
326.313	519.5
326.542	509.5
326.77	528.5
326.999	496.5
327.228	479.5
327.457	478.5
327.686	482.5
327.914	488.5
328.143	494.5
328.372	491.5
328.6	489.5
328.829	511.5
329.058	503.5
329.287	513.5
329.515	511.5
329.744	477.5
329.972	525.5
330.201	528.5
330.43	513.5
330.658	493.5
330.887	514.5
331.115	534.5
331.344	539.5
331.572	536.5
331.801	551.5
332.03	547.5
332.258	593.5
332.486	580.5
332.715	627.5
332.943	617.5
333.172	648.5
333.4	662.5
333.629	657.5
333.857	685.5
334.085	658.5
334.314	647.5
334.542	639.5
334.771	660.5
334.999	633.5
335.227	618.5
335.455	639.5
335.684	639.5
335.912	629.5
336.14	606.5
336.369	604.5
336.597	615.5
336.825	616.5
337.053	617.5
337.281	605.5
337.51	600.5
337.738	607.5
337.966	587.5
338.194	561.5
338.422	567.5
338.65	548.5
338.878	554.5
339.106	570.5
339.334	587.5
339.562	549.5
339.79	521.5
340.018	546.5
340.246	525.5
340.474	529.5
340.702	546.5
340.93	513.5
341.158	535.5
341.386	540.5
341.614	593.5
341.842	548.5
342.07	542.5
342.298	543.5
342.526	514.5
342.754	538.5
342.981	538.5
343.209	529.5
343.437	559.5
343.665	623.5
343.893	635.5
344.12	654.5
344.348	639.5
344.576	577.5
344.804	604.5
345.031	581.5
345.259	546.5
345.487	567.5
345.714	537.5
345.942	557.5
346.17	586.5
346.397	551.5
346.625	542.5
346.853	543.5
347.08	525.5
347.308	534.5
347.535	537.5
347.763	526.5
347.99	537.5
348.218	536.5
348.445	535.5
348.673	529.5
348.9	538.5
349.128	511.5
349.355	540.5
349.583	527.5
349.81	523.5
350.037	486.5
350.265	517.5
350.492	503.5
350.72	499.5
350.947	500.5
351.174	536.5
351.402	521.5
351.629	510.5
351.856	517.5
352.083	505.5
352.311	504.5
352.538	530.5
352.765	546.5
352.992	514.5
353.22	503.5
353.447	501.5
353.674	509.5
353.901	485.5
354.128	474.5
354.355	481.5
354.583	475.5
354.81	486.5
355.037	501.5
355.264	511.5
355.491	506.5
355.718	512.5
355.945	489.5
356.172	500.5
356.399	509.5
356.626	496.5
356.853	536.5
357.08	499.5
357.307	498.5
357.534	521.5
357.761	493.5
357.988	508.5
358.215	483.5
358.441	501.5
358.668	478.5
358.895	493.5
359.122	488.5
359.349	496.5
359.576	506.5
359.802	517.5
360.029	511.5
360.256	510.5
360.483	519.5
360.709	498.5
360.936	511.5
361.163	518.5
361.39	519.5
361.616	512.5
361.843	522.5
362.07	549.5
362.296	521.5
362.523	489.5
362.749	494.5
362.976	500.5
363.203	493.5
363.429	500.5
363.656	510.5
363.882	518.5
364.109	480.5
364.335	503.5
364.562	491.5
364.788	482.5
365.015	473.5
365.241	505.5
365.468	485.5
365.694	488.5
365.92	496.5
366.147	507.5
366.373	512.5
366.599	497.5
366.826	482.5
367.052	482.5
367.278	500.5
367.505	497.5
367.731	481.5
367.957	519.5
368.184	498.5
368.41	512.5
368.636	511.5
368.862	505.5
369.089	520.5
369.315	531.5
369.541	539.5
369.767	533.5
369.993	519.5
370.219	516.5
370.445	519.5
370.672	543.5
370.898	542.5
371.124	539.5
371.35	517.5
371.576	559.5
371.802	534.5
372.028	545.5
372.254	544.5
372.48	549.5
372.706	549.5
372.932	580.5
373.158	559.5
373.384	543.5
373.61	517.5
373.835	537.5
374.061	532.5
374.287	557.5
374.513	575.5
374.739	594.5
374.965	575.5
375.191	605.5
375.416	605.5
375.642	595.5
375.868	567.5
376.094	554.5
376.319	560.5
376.545	545.5
376.771	537.5
376.997	548.5
377.222	538.5
377.448	557.5
377.674	537.5
377.899	531.5
378.125	546.5
378.35	535.5
378.576	553.5
378.802	527.5
379.027	535.5
379.253	535.5
379.478	547.5
379.704	543.5
379.929	541.5
380.155	527.5
380.38	533.5
380.606	523.5
380.831	527.5
381.057	530.5
381.282	552.5
381.507	560.5
381.733	543.5
381.958	555.5
382.184	542.5
382.409	565.5
382.634	582.5
382.86	598.5
383.085	580.5
383.31	600.5
383.535	606.5
383.761	601.5
383.986	599.5
384.211	616.5
384.436	634.5
384.662	646.5
384.887	655.5
385.112	641.5
385.337	612.5
385.562	632.5
385.787	676.5
386.013	671.5
386.238	668.5
386.463	687.5
386.688	648.5
386.913	673.5
387.138	644.5
387.363	637.5
387.588	632.5
387.813	652.5
388.038	656.5
388.263	637.5
388.488	658.5
388.713	653.5
388.938	630.5
389.163	610.5
389.387	629.5
389.612	637.5
389.837	634.5
390.062	642.5
390.287	610.5
390.512	619.5
390.736	641.5
390.961	662.5
391.186	664.5
391.411	677.5
391.636	688.5
391.86	717.5
392.085	735.5
392.31	733.5
392.534	729.5
392.759	695.5
392.984	692.5
393.208	698.5
393.433	710.5
393.658	670.5
393.882	685.5
394.107	708.5
394.331	699.5
394.556	689.5
394.78	693.5
395.005	678.5
395.229	698.5
395.454	722.5
395.678	747.5
395.903	734.5
396.127	756.5
396.352	689.5
396.576	673.5
396.801	675.5
397.025	680.5
397.249	701.5
397.474	715.5
397.698	707.5
397.922	722.5
398.147	731.5
398.371	751.5
398.595	747.5
398.82	779.5
399.044	842.5
399.268	936.5
399.492	1089.5
399.717	1212.5
399.941	1195.5
400.165	1108.5
400.389	968.5
400.613	878.5
400.837	816.5
401.062	805.5
401.286	784.5
401.51	794.5
401.734	807.5
401.958	801.5
402.182	813.5
402.406	843.5
402.63	858.5
402.854	865.5
403.078	857.5
403.302	903.5
403.526	939.5
403.75	927.5
403.974	957.5
404.198	927.5
404.422	927.5
404.645	925.5
404.869	925.5
405.093	919.5
405.317	877.5
405.541	890.5
405.765	872.5
405.988	871.5
406.212	878.5
406.436	863.5
406.66	879.5
406.883	908.5
407.107	965.5
407.331	1020.5
407.555	1048.5
407.778	1033.5
408.002	1043.5
408.226	971.5
408.449	979.5
408.673	949.5
408.896	929.5
409.12	909.5
409.344	934.5
409.567	911.5
409.791	926.5
410.014	922.5
410.238	917.5
410.461	915.5
410.685	904.5
410.908	886.5
411.132	857.5
411.355	832.5
411.578	830.5
411.802	842.5
412.025	851.5
412.249	859.5
412.472	846.5
412.695	815.5
412.919	822.5
413.142	813.5
413.365	824.5
413.589	802.5
413.812	821.5
414.035	797.5
414.258	825.5
414.482	820.5
414.705	821.5
414.928	854.5
415.151	802.5
415.374	798.5
415.597	816.5
415.821	805.5
416.044	785.5
416.267	789.5
416.49	798.5
416.713	791.5
416.936	785.5
417.159	791.5
417.382	780.5
417.605	790.5
417.828	794.5
418.051	788.5
418.274	784.5
418.497	782.5
418.72	835.5
418.943	810.5
419.166	864.5
419.389	918.5
419.611	932.5
419.834	877.5
420.057	855.5
420.28	818.5
420.503	785.5
420.726	800.5
420.948	773.5
421.171	775.5
421.394	803.5
421.617	797.5
421.839	780.5
422.062	804.5
422.285	787.5
422.507	822.5
422.73	792.5
422.953	814.5
423.175	819.5
423.398	846.5
423.621	853.5
423.843	864.5
424.066	851.5
424.288	867.5
424.511	849.5
424.733	823.5
424.956	833.5
425.178	830.5
425.401	814.5
425.623	809.5
425.846	767.5
426.068	789.5
426.291	757.5
426.513	788.5
426.735	731.5
426.958	750.5
427.18	708.5
427.402	730.5
427.625	719.5
427.847	721.5
428.069	715.5
428.292	733.5
428.514	727.5
428.736	703.5
428.958	703.5
429.181	702.5
429.403	708.5
429.625	702.5
429.847	696.5
430.069	712.5
430.292	707.5
430.514	708.5
430.736	715.5
430.958	702.5
431.18	711.5
431.402	706.5
431.624	699.5
431.846	714.5
432.068	729.5
432.29	740.5
432.512	710.5
432.734	734.5
432.956	739.5
433.178	725.5
433.4	735.5
433.622	743.5
433.844	726.5
434.066	728.5
434.287	744.5
434.509	797.5
434.731	808.5
434.953	810.5
435.175	843.5
435.397	815.5
435.618	798.5
435.84	771.5
436.062	770.5
436.284	738.5
436.505	703.5
436.727	732.5
436.949	723.5
437.17	712.5
437.392	719.5
437.614	733.5
437.835	696.5
438.057	690.5
438.278	680.5
438.5	707.5
438.721	703.5
438.943	703.5
439.165	701.5
439.386	716.5
439.608	722.5
439.829	761.5
440.05	715.5
440.272	715.5
440.493	752.5
440.715	740.5
440.936	763.5
441.158	751.5
441.379	783.5
441.6	819.5
441.822	853.5
442.043	824.5
442.264	786.5
442.486	798.5
442.707	817.5
442.928	797.5
443.149	839.5
443.371	797.5
443.592	806.5
443.813	826.5
444.034	818.5
444.255	838.5
444.476	887.5
444.698	931.5
444.919	980.5
445.14	1040.5
445.361	937.5
445.582	870.5
445.803	805.5
446.024	765.5
446.245	751.5
446.466	744.5
446.687	718.5
446.908	710.5
447.129	714.5
447.35	723.5
447.571	714.5
447.792	671.5
448.013	683.5
448.234	676.5
448.455	687.5
448.675	653.5
448.896	659.5
449.117	647.5
449.338	649.5
449.559	663.5
449.779	660.5
450	660.5
450.221	678.5
450.442	687.5
450.662	671.5
450.883	694.5
451.104	719.5
451.324	709.5
451.545	682.5
451.766	691.5
451.986	671.5
452.207	677.5
452.428	677.5
452.648	669.5
452.869	662.5
453.089	665.5
453.31	685.5
453.53	671.5
453.751	658.5
453.971	657.5
454.192	657.5
454.412	650.5
454.633	667.5
454.853	674.5
455.073	641.5
455.294	647.5
455.514	602.5
455.734	638.5
455.955	614.5
456.175	623.5
456.395	625.5
456.616	626.5
456.836	621.5
457.056	627.5
457.276	620.5
457.497	625.5
457.717	620.5
457.937	630.5
458.157	617.5
458.377	655.5
458.598	639.5
458.818	669.5
459.038	706.5
459.258	745.5
459.478	748.5
459.698	757.5
459.918	782.5
460.138	801.5
460.358	869.5
460.578	846.5
460.798	872.5
461.018	868.5
461.238	848.5
461.458	833.5
461.678	851.5
461.898	862.5
462.118	879.5
462.338	906.5
462.558	921.5
462.777	984.5
462.997	1055.5
463.217	1180.5
463.437	1155.5
463.657	1099.5
463.876	1032.5
464.096	1015.5
464.316	992.5
464.536	992.5
464.755	986.5
464.975	948.5
465.195	887.5
465.414	839.5
465.634	790.5
465.854	768.5
466.073	779.5
466.293	716.5
466.512	735.5
466.732	702.5
466.951	721.5
467.171	723.5
467.391	726.5
467.61	708.5
467.829	733.5
468.049	687.5
468.268	661.5
468.488	671.5
468.707	689.5
468.927	688.5
469.146	709.5
469.365	693.5
469.585	681.5
469.804	699.5
470.023	703.5
470.243	725.5
470.462	711.5
470.681	745.5
470.901	717.5
471.12	705.5
471.339	701.5
471.558	709.5
471.777	697.5
471.997	680.5
472.216	685.5
472.435	679.5
472.654	675.5
472.873	667.5
473.092	664.5
473.311	668.5
473.53	653.5
473.749	658.5
473.968	654.5
474.187	649.5
474.406	670.5
474.625	679.5
474.844	669.5
475.063	683.5
475.282	646.5
475.501	670.5
475.72	691.5
475.939	663.5
476.158	695.5
476.377	715.5
476.596	698.5
476.814	697.5
477.033	725.5
477.252	715.5
477.471	745.5
477.69	744.5
477.908	759.5
478.127	782.5
478.346	789.5
478.564	819.5
478.783	798.5
479.002	831.5
479.22	853.5
479.439	833.5
479.658	811.5
479.876	842.5
480.095	817.5
480.313	870.5
480.532	921.5
480.751	897.5
480.969	860.5
481.188	818.5
481.406	791.5
481.624	794.5
481.843	777.5
482.061	755.5
482.28	749.5
482.498	775.5
482.717	752.5
482.935	779.5
483.153	771.5
483.372	755.5
483.59	788.5
483.808	807.5
484.027	810.5
484.245	785.5
484.463	792.5
484.681	820.5
484.9	790.5
485.118	796.5
485.336	810.5
485.554	838.5
485.772	825.5
485.99	822.5
486.209	847.5
486.427	823.5
486.645	830.5
486.863	843.5
487.081	850.5
487.299	850.5
487.517	818.5
487.735	814.5
487.953	821.5
488.171	816.5
488.389	809.5
488.607	814.5
488.825	802.5
489.043	798.5
489.261	801.5
489.479	784.5
489.696	807.5
489.914	834.5
490.132	797.5
490.35	824.5
490.568	804.5
490.786	797.5
491.003	774.5
491.221	777.5
491.439	798.5
491.657	821.5
491.874	802.5
492.092	806.5
492.31	808.5
492.527	803.5
492.745	825.5
492.963	824.5
493.18	816.5
493.398	855.5
493.615	818.5
493.833	840.5
494.05	863.5
494.268	847.5
494.485	871.5
494.703	850.5
494.92	845.5
495.138	835.5
495.355	844.5
495.573	812.5
495.79	811.5
496.008	856.5
496.225	873.5
496.442	841.5
496.66	848.5
496.877	859.5
497.094	877.5
497.312	879.5
497.529	928.5
497.746	935.5
497.963	964.5
498.181	1002.5
498.398	1038.5
498.615	1094.5
498.832	1160.5
499.049	1257.5
499.267	1345.5
499.484	1476.5
499.701	1639.5
499.918	1819.5
500.135	2104.5
500.352	2418.5
500.569	2524.5
500.786	2548.5
501.003	2329.5
501.22	2039.5
501.437	1821.5
501.654	1577.5
501.871	1461.5
502.088	1340.5
502.305	1237.5
502.522	1177.5
502.739	1173.5
502.956	1045.5
503.172	1002.5
503.389	959.5
503.606	954.5
503.823	955.5
504.04	943.5
504.256	951.5
504.473	950.5
504.69	1016.5
504.907	983.5
505.123	879.5
505.34	831.5
505.557	834.5
505.773	821.5
505.99	789.5
506.207	800.5
506.423	784.5
506.64	758.5
506.856	753.5
507.073	733.5
507.289	735.5
507.506	731.5
507.722	733.5
507.939	753.5
508.155	716.5
508.372	686.5
508.588	696.5
508.805	698.5
509.021	709.5
509.238	698.5
509.454	696.5
509.67	681.5
509.887	689.5
510.103	686.5
510.319	689.5
510.536	696.5
510.752	678.5
510.968	661.5
511.184	668.5
511.401	682.5
511.617	668.5
511.833	701.5
512.049	669.5
512.265	693.5
512.481	709.5
512.698	694.5
512.914	677.5
513.13	685.5
513.346	667.5
513.562	682.5
513.778	679.5
513.994	677.5
514.21	680.5
514.426	680.5
514.642	692.5
514.858	695.5
515.074	699.5
515.29	709.5
515.506	691.5
515.721	693.5
515.937	721.5
516.153	715.5
516.369	763.5
516.585	765.5
516.801	767.5
517.016	806.5
517.232	853.5
517.448	920.5
517.664	933.5
517.879	942.5
518.095	934.5
518.311	935.5
518.527	864.5
518.742	840.5
518.958	799.5
