Data from Ni(NO3)2Standard.Agarose3%.GreenCap.LampEnergy5.5.E.O_HRD10591_14-42-06-187.txt Node
Date: Mon Jul 22 14:42:06 EDT 2019
User: cochatt
Spectrometer: HR+D1059
Trigger mode: 1
Integration Time (sec): 1.000000E-1
Scans to average: 1
Electric dark correction enabled: true
Nonlinearity correction enabled: false
Boxcar width: 0
XAxis mode: Wavelengths
Number of Pixels in Spectrum: 2048
>>>>>Begin Spectral Data<<<<<
223.165	-15.44
223.4	-15.44
223.635	-15.44
223.869	-29.44
224.104	-9.44
224.338	2.56
224.573	-8.44
224.808	-22.44
225.042	-4.44
225.277	9.56
225.511	-20.44
225.746	3.56
225.98	12.56
226.215	14.56
226.449	-0.44
226.683	16.56
226.918	22.56
227.152	28.56
227.387	18.56
227.621	33.56
227.856	49.56
228.09	50.56
228.324	38.56
228.559	61.56
228.793	56.56
229.027	52.56
229.262	62.56
229.496	56.56
229.73	62.56
229.964	83.56
230.199	82.56
230.433	76.56
230.667	83.56
230.901	71.56
231.136	87.56
231.37	95.56
231.604	83.56
231.838	75.56
232.072	90.56
232.306	76.56
232.541	75.56
232.775	76.56
233.009	90.56
233.243	80.56
233.477	70.56
233.711	72.56
233.945	75.56
234.179	79.56
234.413	81.56
234.647	81.56
234.881	84.56
235.115	88.56
235.349	68.56
235.583	84.56
235.817	76.56
236.051	72.56
236.285	78.56
236.519	71.56
236.753	83.56
236.987	71.56
237.221	86.56
237.455	74.56
237.689	66.56
237.922	82.56
238.156	73.56
238.39	83.56
238.624	75.56
238.858	66.56
239.091	74.56
239.325	68.56
239.559	87.56
239.793	64.56
240.027	73.56
240.26	71.56
240.494	79.56
240.728	85.56
240.961	73.56
241.195	90.56
241.429	71.56
241.662	85.56
241.896	84.56
242.13	82.56
242.363	70.56
242.597	67.56
242.83	79.56
243.064	74.56
243.298	76.56
243.531	67.56
243.765	72.56
243.998	84.56
244.232	64.56
244.465	92.56
244.699	73.56
244.932	84.56
245.166	69.56
245.399	84.56
245.633	88.56
245.866	80.56
246.099	78.56
246.333	80.56
246.566	60.56
246.8	71.56
247.033	76.56
247.266	74.56
247.5	81.56
247.733	76.56
247.966	73.56
248.2	73.56
248.433	87.56
248.666	67.56
248.899	95.56
249.133	69.56
249.366	73.56
249.599	87.56
249.832	79.56
250.066	88.56
250.299	66.56
250.532	93.56
250.765	68.56
250.998	78.56
251.231	81.56
251.465	67.56
251.698	81.56
251.931	73.56
252.164	91.56
252.397	65.56
252.63	89.56
252.863	88.56
253.096	70.56
253.329	69.56
253.562	62.56
253.795	82.56
254.028	81.56
254.261	82.56
254.494	74.56
254.727	93.56
254.96	66.56
255.193	82.56
255.426	85.56
255.659	81.56
255.892	85.56
256.124	89.56
256.357	88.56
256.59	85.56
256.823	78.56
257.056	82.56
257.289	71.56
257.521	76.56
257.754	79.56
257.987	87.56
258.22	85.56
258.452	94.56
258.685	71.56
258.918	79.56
259.151	90.56
259.383	81.56
259.616	78.56
259.849	83.56
260.081	66.56
260.314	89.56
260.547	71.56
260.779	80.56
261.012	69.56
261.244	70.56
261.477	76.56
261.71	76.56
261.942	80.56
262.175	83.56
262.407	87.56
262.64	81.56
262.872	86.56
263.105	89.56
263.337	75.56
263.57	88.56
263.802	98.56
264.035	86.56
264.267	58.56
264.499	77.56
264.732	88.56
264.964	78.56
265.197	86.56
265.429	72.56
265.661	91.56
265.894	87.56
266.126	74.56
266.358	79.56
266.591	90.56
266.823	76.56
267.055	76.56
267.287	78.56
267.52	75.56
267.752	97.56
267.984	91.56
268.216	89.56
268.448	80.56
268.681	84.56
268.913	86.56
269.145	71.56
269.377	85.56
269.609	91.56
269.841	74.56
270.073	92.56
270.306	81.56
270.538	83.56
270.77	93.56
271.002	88.56
271.234	66.56
271.466	88.56
271.698	84.56
271.93	79.56
272.162	90.56
272.394	82.56
272.626	76.56
272.858	85.56
273.09	83.56
273.322	75.56
273.553	73.56
273.785	90.56
274.017	90.56
274.249	81.56
274.481	95.56
274.713	68.56
274.945	70.56
275.176	70.56
275.408	75.56
275.64	90.56
275.872	59.56
276.104	87.56
276.335	93.56
276.567	93.56
276.799	92.56
277.031	76.56
277.262	78.56
277.494	79.56
277.726	84.56
277.957	77.56
278.189	90.56
278.421	87.56
278.652	89.56
278.884	83.56
279.115	83.56
279.347	85.56
279.579	71.56
279.81	91.56
280.042	79.56
280.273	99.56
280.505	94.56
280.736	88.56
280.968	88.56
281.199	64.56
281.431	78.56
281.662	80.56
281.894	82.56
282.125	76.56
282.356	82.56
282.588	76.56
282.819	85.56
283.051	88.56
283.282	88.56
283.513	82.56
283.745	89.56
283.976	74.56
284.207	92.56
284.439	79.56
284.67	84.56
284.901	95.56
285.132	86.56
285.364	76.56
285.595	85.56
285.826	89.56
286.057	76.56
286.288	95.56
286.52	85.56
286.751	84.56
286.982	91.56
287.213	91.56
287.444	89.56
287.675	76.56
287.906	86.56
288.138	86.56
288.369	89.56
288.6	84.56
288.831	83.56
289.062	77.56
289.293	94.56
289.524	68.56
289.755	82.56
289.986	83.56
290.217	90.56
290.448	84.56
290.679	71.56
290.91	79.56
291.141	76.56
291.371	85.56
291.602	76.56
291.833	93.56
292.064	92.56
292.295	104.56
292.526	89.56
292.757	87.56
292.987	96.56
293.218	79.56
293.449	92.56
293.68	81.56
293.91	64.56
294.141	85.56
294.372	85.56
294.603	78.56
294.833	66.56
295.064	73.56
295.295	97.56
295.525	106.56
295.756	75.56
295.987	87.56
296.217	90.56
296.448	84.56
296.679	81.56
296.909	96.56
297.14	84.56
297.37	85.56
297.601	77.56
297.831	81.56
298.062	85.56
298.292	79.56
298.523	90.56
298.753	86.56
298.984	81.56
299.214	84.56
299.445	81.56
299.675	86.56
299.905	88.56
300.136	75.56
300.366	81.56
300.597	92.56
300.827	85.56
301.057	77.56
301.288	80.56
301.518	77.56
301.748	83.56
301.979	71.56
302.209	80.56
302.439	72.56
302.669	97.56
302.9	103.56
303.13	78.56
303.36	81.56
303.59	88.56
303.82	92.56
304.051	84.56
304.281	89.56
304.511	94.56
304.741	75.56
304.971	66.56
305.201	89.56
305.431	96.56
305.661	91.56
305.891	84.56
306.121	80.56
306.352	97.56
306.582	79.56
306.812	94.56
307.042	87.56
307.272	82.56
307.502	82.56
307.731	72.56
307.961	77.56
308.191	73.56
308.421	83.56
308.651	92.56
308.881	87.56
309.111	88.56
309.341	86.56
309.571	75.56
309.8	82.56
310.03	80.56
310.26	82.56
310.49	90.56
310.72	94.56
310.949	84.56
311.179	87.56
311.409	98.56
311.639	86.56
311.868	72.56
312.098	94.56
312.328	98.56
312.557	90.56
312.787	95.56
313.017	88.56
313.246	88.56
313.476	90.56
313.706	97.56
313.935	90.56
314.165	68.56
314.394	80.56
314.624	70.56
314.853	80.56
315.083	97.56
315.312	84.56
315.542	81.56
315.771	85.56
316.001	89.56
316.23	87.56
316.46	94.56
316.689	89.56
316.919	87.56
317.148	82.56
317.377	104.56
317.607	97.56
317.836	85.56
318.065	74.56
318.295	94.56
318.524	86.56
318.753	91.56
318.983	72.56
319.212	89.56
319.441	97.56
319.67	86.56
319.9	84.56
320.129	84.56
320.358	88.56
320.587	75.56
320.816	98.56
321.046	89.56
321.275	79.56
321.504	82.56
321.733	94.56
321.962	86.56
322.191	83.56
322.42	83.56
322.649	84.56
322.878	69.56
323.108	77.56
323.337	77.56
323.566	82.56
323.795	83.56
324.024	82.56
324.253	78.56
324.482	76.56
324.71	84.56
324.939	88.56
325.168	90.56
325.397	95.56
325.626	82.56
325.855	86.56
326.084	82.56
326.313	74.56
326.542	87.56
326.77	88.56
326.999	83.56
327.228	87.56
327.457	82.56
327.686	86.56
327.914	92.56
328.143	89.56
328.372	82.56
328.6	90.56
328.829	81.56
329.058	93.56
329.287	80.56
329.515	86.56
329.744	78.56
329.972	88.56
330.201	79.56
330.43	90.56
330.658	92.56
330.887	85.56
331.115	87.56
331.344	87.56
331.572	78.56
331.801	85.56
332.03	95.56
332.258	96.56
332.486	87.56
332.715	89.56
332.943	81.56
333.172	79.56
333.4	95.56
333.629	91.56
333.857	80.56
334.085	86.56
334.314	91.56
334.542	64.56
334.771	82.56
334.999	88.56
335.227	88.56
335.455	90.56
335.684	87.56
335.912	86.56
336.14	89.56
336.369	93.56
336.597	91.56
336.825	74.56
337.053	64.56
337.281	80.56
337.51	91.56
337.738	88.56
337.966	87.56
338.194	88.56
338.422	85.56
338.65	85.56
338.878	80.56
339.106	97.56
339.334	88.56
339.562	84.56
339.79	93.56
340.018	84.56
340.246	86.56
340.474	84.56
340.702	84.56
340.93	70.56
341.158	68.56
341.386	74.56
341.614	97.56
341.842	85.56
342.07	80.56
342.298	77.56
342.526	93.56
342.754	92.56
342.981	86.56
343.209	88.56
343.437	82.56
343.665	98.56
343.893	87.56
344.12	80.56
344.348	98.56
344.576	87.56
344.804	74.56
345.031	80.56
345.259	80.56
345.487	95.56
345.714	82.56
345.942	87.56
346.17	88.56
346.397	88.56
346.625	80.56
346.853	78.56
347.08	74.56
347.308	92.56
347.535	74.56
347.763	84.56
347.99	96.56
348.218	83.56
348.445	82.56
348.673	76.56
348.9	72.56
349.128	93.56
349.355	68.56
349.583	82.56
349.81	80.56
350.037	99.56
350.265	81.56
350.492	84.56
350.72	80.56
350.947	87.56
351.174	83.56
351.402	90.56
351.629	85.56
351.856	67.56
352.083	77.56
352.311	83.56
352.538	88.56
352.765	69.56
352.992	76.56
353.22	80.56
353.447	91.56
353.674	95.56
353.901	86.56
354.128	85.56
354.355	84.56
354.583	86.56
354.81	85.56
355.037	82.56
355.264	87.56
355.491	91.56
355.718	87.56
355.945	80.56
356.172	81.56
356.399	84.56
356.626	76.56
356.853	81.56
357.08	84.56
357.307	87.56
357.534	84.56
357.761	97.56
357.988	85.56
358.215	84.56
358.441	66.56
358.668	85.56
358.895	76.56
359.122	87.56
359.349	89.56
359.576	87.56
359.802	81.56
360.029	80.56
360.256	90.56
360.483	84.56
360.709	78.56
360.936	95.56
361.163	81.56
361.39	74.56
361.616	71.56
361.843	88.56
362.07	78.56
362.296	90.56
362.523	81.56
362.749	70.56
362.976	82.56
363.203	89.56
363.429	86.56
363.656	74.56
363.882	78.56
364.109	74.56
364.335	86.56
364.562	88.56
364.788	94.56
365.015	87.56
365.241	88.56
365.468	87.56
365.694	79.56
365.92	80.56
366.147	97.56
366.373	76.56
366.599	106.56
366.826	79.56
367.052	78.56
367.278	72.56
367.505	94.56
367.731	93.56
367.957	74.56
368.184	82.56
368.41	88.56
368.636	72.56
368.862	91.56
369.089	80.56
369.315	86.56
369.541	87.56
369.767	90.56
369.993	97.56
370.219	86.56
370.445	90.56
370.672	75.56
370.898	87.56
371.124	91.56
371.35	99.56
371.576	87.56
371.802	95.56
372.028	94.56
372.254	74.56
372.48	88.56
372.706	75.56
372.932	76.56
373.158	93.56
373.384	96.56
373.61	79.56
373.835	93.56
374.061	90.56
374.287	84.56
374.513	86.56
374.739	86.56
374.965	95.56
375.191	85.56
375.416	73.56
375.642	79.56
375.868	90.56
376.094	93.56
376.319	72.56
376.545	101.56
376.771	76.56
376.997	88.56
377.222	90.56
377.448	67.56
377.674	86.56
377.899	84.56
378.125	92.56
378.35	92.56
378.576	83.56
378.802	86.56
379.027	80.56
379.253	75.56
379.478	79.56
379.704	82.56
379.929	81.56
380.155	92.56
380.38	82.56
380.606	85.56
380.831	96.56
381.057	73.56
381.282	94.56
381.507	95.56
381.733	81.56
381.958	80.56
382.184	91.56
382.409	98.56
382.634	86.56
382.86	88.56
383.085	72.56
383.31	88.56
383.535	95.56
383.761	86.56
383.986	83.56
384.211	85.56
384.436	73.56
384.662	78.56
384.887	78.56
385.112	85.56
385.337	80.56
385.562	95.56
385.787	91.56
386.013	82.56
386.238	91.56
386.463	83.56
386.688	86.56
386.913	77.56
387.138	88.56
387.363	77.56
387.588	87.56
387.813	85.56
388.038	73.56
388.263	85.56
388.488	76.56
388.713	82.56
388.938	67.56
389.163	75.56
389.387	75.56
389.612	87.56
389.837	86.56
390.062	79.56
390.287	89.56
390.512	89.56
390.736	71.56
390.961	82.56
391.186	88.56
391.411	83.56
391.636	86.56
391.86	99.56
392.085	86.56
392.31	95.56
392.534	88.56
392.759	96.56
392.984	82.56
393.208	74.56
393.433	81.56
393.658	80.56
393.882	83.56
394.107	83.56
394.331	76.56
394.556	60.56
394.78	81.56
395.005	82.56
395.229	83.56
395.454	73.56
395.678	72.56
395.903	89.56
396.127	99.56
396.352	87.56
396.576	92.56
396.801	75.56
397.025	88.56
397.249	95.56
397.474	100.56
397.698	91.56
397.922	90.56
398.147	85.56
398.371	83.56
398.595	79.56
398.82	79.56
399.044	87.56
399.268	87.56
399.492	105.56
399.717	90.56
399.941	59.56
400.165	92.56
400.389	95.56
400.613	103.56
400.837	88.56
401.062	86.56
401.286	82.56
401.51	89.56
401.734	107.56
401.958	80.56
402.182	78.56
402.406	88.56
402.63	65.56
402.854	87.56
403.078	92.56
403.302	83.56
403.526	82.56
403.75	81.56
403.974	87.56
404.198	73.56
404.422	76.56
404.645	83.56
404.869	80.56
405.093	88.56
405.317	83.56
405.541	74.56
405.765	82.56
405.988	75.56
406.212	88.56
406.436	88.56
406.66	92.56
406.883	81.56
407.107	86.56
407.331	77.56
407.555	79.56
407.778	90.56
408.002	94.56
408.226	82.56
408.449	88.56
408.673	73.56
408.896	110.56
409.12	77.56
409.344	77.56
409.567	80.56
409.791	81.56
410.014	86.56
410.238	74.56
410.461	88.56
410.685	82.56
410.908	83.56
411.132	82.56
411.355	86.56
411.578	76.56
411.802	89.56
412.025	79.56
412.249	91.56
412.472	72.56
412.695	85.56
412.919	85.56
413.142	86.56
413.365	79.56
413.589	87.56
413.812	92.56
414.035	84.56
414.258	70.56
414.482	93.56
414.705	90.56
414.928	88.56
415.151	90.56
415.374	79.56
415.597	80.56
415.821	92.56
416.044	75.56
416.267	84.56
416.49	88.56
416.713	80.56
416.936	81.56
417.159	80.56
417.382	83.56
417.605	94.56
417.828	89.56
418.051	97.56
418.274	81.56
418.497	83.56
418.72	78.56
418.943	84.56
419.166	76.56
419.389	91.56
419.611	75.56
419.834	76.56
420.057	92.56
420.28	80.56
420.503	76.56
420.726	87.56
420.948	72.56
421.171	89.56
421.394	90.56
421.617	83.56
421.839	84.56
422.062	68.56
422.285	95.56
422.507	87.56
422.73	96.56
422.953	82.56
423.175	81.56
423.398	87.56
423.621	77.56
423.843	73.56
424.066	79.56
424.288	88.56
424.511	91.56
424.733	85.56
424.956	85.56
425.178	84.56
425.401	75.56
425.623	81.56
425.846	74.56
426.068	81.56
426.291	79.56
426.513	88.56
426.735	91.56
426.958	73.56
427.18	86.56
427.402	69.56
427.625	103.56
427.847	73.56
428.069	74.56
428.292	71.56
428.514	88.56
428.736	87.56
428.958	100.56
429.181	82.56
429.403	90.56
429.625	84.56
429.847	98.56
430.069	66.56
430.292	81.56
430.514	92.56
430.736	87.56
430.958	93.56
431.18	84.56
431.402	85.56
431.624	81.56
431.846	72.56
432.068	93.56
432.29	89.56
432.512	90.56
432.734	96.56
432.956	103.56
433.178	96.56
433.4	87.56
433.622	92.56
433.844	80.56
434.066	76.56
434.287	88.56
434.509	97.56
434.731	82.56
434.953	88.56
435.175	96.56
435.397	80.56
435.618	93.56
435.84	86.56
436.062	84.56
436.284	85.56
436.505	91.56
436.727	111.56
436.949	94.56
437.17	70.56
437.392	84.56
437.614	88.56
437.835	87.56
438.057	90.56
438.278	84.56
438.5	72.56
438.721	97.56
438.943	95.56
439.165	75.56
439.386	99.56
439.608	91.56
439.829	67.56
440.05	98.56
440.272	87.56
440.493	83.56
440.715	92.56
440.936	85.56
441.158	94.56
441.379	90.56
441.6	89.56
441.822	87.56
442.043	89.56
442.264	93.56
442.486	74.56
442.707	95.56
442.928	86.56
443.149	82.56
443.371	82.56
443.592	83.56
443.813	80.56
444.034	92.56
444.255	86.56
444.476	87.56
444.698	84.56
444.919	90.56
445.14	224.56
445.361	149.56
445.582	72.56
445.803	82.56
446.024	88.56
446.245	84.56
446.466	82.56
446.687	87.56
446.908	88.56
447.129	83.56
447.35	83.56
447.571	87.56
447.792	90.56
448.013	77.56
448.234	81.56
448.455	88.56
448.675	94.56
448.896	88.56
449.117	69.56
449.338	94.56
449.559	99.56
449.779	95.56
450	80.56
450.221	73.56
450.442	88.56
450.662	86.56
450.883	87.56
451.104	84.56
451.324	79.56
451.545	94.56
451.766	78.56
451.986	83.56
452.207	98.56
452.428	92.56
452.648	80.56
452.869	74.56
453.089	88.56
453.31	87.56
453.53	92.56
453.751	91.56
453.971	77.56
454.192	81.56
454.412	92.56
454.633	79.56
454.853	83.56
455.073	68.56
455.294	87.56
455.514	90.56
455.734	90.56
455.955	94.56
456.175	86.56
456.395	80.56
456.616	79.56
456.836	84.56
457.056	88.56
457.276	82.56
457.497	83.56
457.717	81.56
457.937	84.56
458.157	89.56
458.377	85.56
458.598	93.56
458.818	74.56
459.038	95.56
459.258	89.56
459.478	86.56
459.698	90.56
459.918	87.56
460.138	83.56
460.358	83.56
460.578	102.56
460.798	91.56
461.018	94.56
461.238	90.56
461.458	86.56
461.678	97.56
461.898	89.56
462.118	89.56
462.338	81.56
462.558	82.56
462.777	80.56
462.997	85.56
463.217	97.56
463.437	92.56
463.657	100.56
463.876	92.56
464.096	90.56
464.316	84.56
464.536	88.56
464.755	108.56
464.975	88.56
465.195	78.56
465.414	74.56
465.634	90.56
465.854	98.56
466.073	91.56
466.293	79.56
466.512	83.56
466.732	67.56
466.951	86.56
467.171	89.56
467.391	76.56
467.61	75.56
467.829	58.56
468.049	80.56
468.268	86.56
468.488	82.56
468.707	95.56
468.927	72.56
469.146	85.56
469.365	90.56
469.585	88.56
469.804	89.56
470.023	90.56
470.243	83.56
470.462	81.56
470.681	95.56
470.901	93.56
471.12	107.56
471.339	82.56
471.558	93.56
471.777	91.56
471.997	88.56
472.216	90.56
472.435	88.56
472.654	85.56
472.873	86.56
473.092	75.56
473.311	86.56
473.53	95.56
473.749	87.56
473.968	82.56
474.187	90.56
474.406	83.56
474.625	89.56
474.844	98.56
475.063	81.56
475.282	94.56
475.501	96.56
475.72	71.56
475.939	78.56
476.158	83.56
476.377	78.56
476.596	76.56
476.814	96.56
477.033	95.56
477.252	87.56
477.471	79.56
477.69	83.56
477.908	87.56
478.127	83.56
478.346	93.56
478.564	90.56
478.783	87.56
479.002	89.56
479.22	91.56
479.439	93.56
479.658	87.56
479.876	88.56
480.095	110.56
480.313	84.56
480.532	87.56
480.751	84.56
480.969	84.56
481.188	82.56
481.406	92.56
481.624	87.56
481.843	73.56
482.061	91.56
482.28	89.56
482.498	83.56
482.717	81.56
482.935	85.56
483.153	90.56
483.372	88.56
483.59	80.56
483.808	80.56
484.027	95.56
484.245	87.56
484.463	89.56
484.681	99.56
484.9	96.56
485.118	100.56
485.336	94.56
485.554	81.56
485.772	88.56
485.99	88.56
486.209	94.56
486.427	83.56
486.645	94.56
486.863	89.56
487.081	76.56
487.299	89.56
487.517	81.56
487.735	80.56
487.953	86.56
488.171	90.56
488.389	91.56
488.607	83.56
488.825	79.56
489.043	79.56
489.261	79.56
489.479	98.56
489.696	106.56
489.914	92.56
490.132	82.56
490.35	101.56
490.568	90.56
490.786	89.56
491.003	85.56
491.221	94.56
491.439	85.56
491.657	96.56
491.874	105.56
492.092	107.56
492.31	88.56
492.527	91.56
492.745	83.56
492.963	87.56
493.18	102.56
493.398	106.56
493.615	96.56
493.833	100.56
494.05	79.56
494.268	84.56
494.485	99.56
494.703	99.56
494.92	98.56
495.138	99.56
495.355	86.56
495.573	90.56
495.79	89.56
496.008	89.56
496.225	91.56
496.442	99.56
496.66	89.56
496.877	90.56
497.094	82.56
497.312	90.56
497.529	91.56
497.746	103.56
497.963	97.56
498.181	105.56
498.398	80.56
498.615	87.56
498.832	96.56
499.049	101.56
499.267	86.56
499.484	103.56
499.701	110.56
499.918	113.56
500.135	113.56
500.352	122.56
500.569	109.56
500.786	88.56
501.003	120.56
501.22	111.56
501.437	103.56
501.654	110.56
501.871	90.56
502.088	102.56
502.305	102.56
502.522	89.56
502.739	91.56
502.956	94.56
503.172	94.56
503.389	94.56
503.606	106.56
503.823	99.56
504.04	90.56
504.256	103.56
504.473	86.56
504.69	91.56
504.907	89.56
505.123	96.56
505.34	80.56
505.557	95.56
505.773	90.56
505.99	79.56
506.207	95.56
506.423	74.56
506.64	85.56
506.856	98.56
507.073	94.56
507.289	86.56
507.506	106.56
507.722	84.56
507.939	95.56
508.155	97.56
508.372	88.56
508.588	98.56
508.805	97.56
509.021	100.56
509.238	83.56
509.454	92.56
509.67	86.56
509.887	85.56
510.103	96.56
510.319	96.56
510.536	102.56
510.752	77.56
510.968	100.56
511.184	89.56
511.401	100.56
511.617	100.56
511.833	89.56
512.049	99.56
512.265	75.56
512.481	74.56
512.698	82.56
512.914	90.56
513.13	108.56
513.346	85.56
513.562	105.56
513.778	90.56
513.994	83.56
514.21	86.56
514.426	87.56
514.642	95.56
514.858	100.56
515.074	86.56
515.29	95.56
515.506	106.56
515.721	83.56
515.937	91.56
516.153	97.56
516.369	94.56
516.585	89.56
516.801	82.56
517.016	83.56
517.232	99.56
517.448	100.56
517.664	88.56
517.879	75.56
518.095	86.56
518.311	98.56
518.527	92.56
518.742	90.56
