Data from Ni(NO3)2@0.125M.TitratingCurve.Agarose3%dH2O.NegLispCup.LampEnergy10.LIBS07252019_HRD10591_18-11-18-568.txt Node
Date: Thu Jul 25 18:11:18 EDT 2019
User: cochatt
Spectrometer: HR+D1059
Trigger mode: 1
Integration Time (sec): 1.000000E-1
Scans to average: 1
Electric dark correction enabled: true
Nonlinearity correction enabled: false
Boxcar width: 0
XAxis mode: Wavelengths
Number of Pixels in Spectrum: 2048
>>>>>Begin Spectral Data<<<<<
223.165	-11.94
223.4	-11.94
223.635	-11.94
223.869	-10.94
224.104	-27.94
224.338	-13.94
224.573	-1.94
224.808	-21.94
225.042	-4.94
225.277	13.06
225.511	-7.94
225.746	-2.94
225.98	10.06
226.215	-2.94
226.449	21.06
226.683	23.06
226.918	14.06
227.152	26.06
227.387	38.06
227.621	35.06
227.856	30.06
228.09	26.06
228.324	48.06
228.559	49.06
228.793	59.06
229.027	88.06
229.262	93.06
229.496	79.06
229.73	85.06
229.964	85.06
230.199	94.06
230.433	98.06
230.667	100.06
230.901	120.06
231.136	105.06
231.37	103.06
231.604	104.06
231.838	100.06
232.072	98.06
232.306	98.06
232.541	102.06
232.775	117.06
233.009	107.06
233.243	125.06
233.477	108.06
233.711	131.06
233.945	100.06
234.179	117.06
234.413	120.06
234.647	107.06
234.881	109.06
235.115	107.06
235.349	116.06
235.583	120.06
235.817	126.06
236.051	118.06
236.285	104.06
236.519	117.06
236.753	118.06
236.987	115.06
237.221	131.06
237.455	107.06
237.689	116.06
237.922	121.06
238.156	125.06
238.39	129.06
238.624	120.06
238.858	119.06
239.091	114.06
239.325	128.06
239.559	124.06
239.793	137.06
240.027	126.06
240.26	127.06
240.494	122.06
240.728	121.06
240.961	133.06
241.195	165.06
241.429	140.06
241.662	121.06
241.896	122.06
242.13	143.06
242.363	133.06
242.597	133.06
242.83	147.06
243.064	148.06
243.298	145.06
243.531	138.06
243.765	153.06
243.998	145.06
244.232	151.06
244.465	147.06
244.699	142.06
244.932	143.06
245.166	148.06
245.399	155.06
245.633	156.06
245.866	147.06
246.099	145.06
246.333	157.06
246.566	155.06
246.8	167.06
247.033	148.06
247.266	160.06
247.5	168.06
247.733	176.06
247.966	157.06
248.2	158.06
248.433	173.06
248.666	166.06
248.899	163.06
249.133	168.06
249.366	188.06
249.599	166.06
249.832	161.06
250.066	174.06
250.299	181.06
250.532	176.06
250.765	162.06
250.998	167.06
251.231	183.06
251.465	183.06
251.698	186.06
251.931	172.06
252.164	177.06
252.397	186.06
252.63	184.06
252.863	192.06
253.096	196.06
253.329	181.06
253.562	182.06
253.795	193.06
254.028	200.06
254.261	186.06
254.494	187.06
254.727	194.06
254.96	187.06
255.193	161.06
255.426	186.06
255.659	193.06
255.892	185.06
256.124	200.06
256.357	191.06
256.59	201.06
256.823	195.06
257.056	197.06
257.289	196.06
257.521	218.06
257.754	200.06
257.987	200.06
258.22	194.06
258.452	199.06
258.685	182.06
258.918	183.06
259.151	197.06
259.383	197.06
259.616	185.06
259.849	197.06
260.081	201.06
260.314	208.06
260.547	215.06
260.779	209.06
261.012	211.06
261.244	214.06
261.477	195.06
261.71	207.06
261.942	198.06
262.175	217.06
262.407	203.06
262.64	220.06
262.872	196.06
263.105	208.06
263.337	201.06
263.57	221.06
263.802	223.06
264.035	227.06
264.267	213.06
264.499	223.06
264.732	218.06
264.964	218.06
265.197	225.06
265.429	239.06
265.661	226.06
265.894	232.06
266.126	231.06
266.358	230.06
266.591	240.06
266.823	225.06
267.055	227.06
267.287	227.06
267.52	244.06
267.752	234.06
267.984	249.06
268.216	237.06
268.448	221.06
268.681	214.06
268.913	241.06
269.145	249.06
269.377	242.06
269.609	250.06
269.841	222.06
270.073	230.06
270.306	249.06
270.538	231.06
270.77	238.06
271.002	236.06
271.234	245.06
271.466	229.06
271.698	238.06
271.93	254.06
272.162	250.06
272.394	256.06
272.626	234.06
272.858	242.06
273.09	254.06
273.322	247.06
273.553	260.06
273.785	243.06
274.017	259.06
274.249	260.06
274.481	241.06
274.713	266.06
274.945	261.06
275.176	265.06
275.408	255.06
275.64	264.06
275.872	266.06
276.104	258.06
276.335	273.06
276.567	267.06
276.799	265.06
277.031	249.06
277.262	273.06
277.494	298.06
277.726	275.06
277.957	264.06
278.189	285.06
278.421	265.06
278.652	289.06
278.884	282.06
279.115	280.06
279.347	280.06
279.579	284.06
279.81	295.06
280.042	277.06
280.273	293.06
280.505	278.06
280.736	293.06
280.968	286.06
281.199	293.06
281.431	278.06
281.662	295.06
281.894	287.06
282.125	282.06
282.356	296.06
282.588	299.06
282.819	319.06
283.051	307.06
283.282	282.06
283.513	280.06
283.745	294.06
283.976	293.06
284.207	290.06
284.439	289.06
284.67	317.06
284.901	302.06
285.132	295.06
285.364	285.06
285.595	308.06
285.826	306.06
286.057	316.06
286.288	306.06
286.52	304.06
286.751	294.06
286.982	305.06
287.213	320.06
287.444	309.06
287.675	324.06
287.906	310.06
288.138	321.06
288.369	317.06
288.6	340.06
288.831	326.06
289.062	319.06
289.293	318.06
289.524	321.06
289.755	319.06
289.986	334.06
290.217	305.06
290.448	329.06
290.679	318.06
290.91	319.06
291.141	319.06
291.371	328.06
291.602	333.06
291.833	318.06
292.064	325.06
292.295	337.06
292.526	346.06
292.757	327.06
292.987	311.06
293.218	309.06
293.449	331.06
293.68	335.06
293.91	322.06
294.141	325.06
294.372	344.06
294.603	345.06
294.833	310.06
295.064	317.06
295.295	337.06
295.525	347.06
295.756	324.06
295.987	329.06
296.217	359.06
296.448	344.06
296.679	313.06
296.909	344.06
297.14	346.06
297.37	358.06
297.601	347.06
297.831	375.06
298.062	366.06
298.292	353.06
298.523	378.06
298.753	357.06
298.984	364.06
299.214	349.06
299.445	366.06
299.675	352.06
299.905	374.06
300.136	363.06
300.366	342.06
300.597	355.06
300.827	367.06
301.057	386.06
301.288	390.06
301.518	381.06
301.748	359.06
301.979	373.06
302.209	348.06
302.439	391.06
302.669	387.06
302.9	369.06
303.13	362.06
303.36	360.06
303.59	371.06
303.82	382.06
304.051	353.06
304.281	375.06
304.511	360.06
304.741	361.06
304.971	369.06
305.201	358.06
305.431	365.06
305.661	368.06
305.891	366.06
306.121	365.06
306.352	365.06
306.582	384.06
306.812	375.06
307.042	367.06
307.272	369.06
307.502	392.06
307.731	364.06
307.961	379.06
308.191	386.06
308.421	366.06
308.651	356.06
308.881	368.06
309.111	365.06
309.341	359.06
309.571	367.06
309.8	371.06
310.03	354.06
310.26	357.06
310.49	383.06
310.72	379.06
310.949	343.06
311.179	370.06
311.409	384.06
311.639	356.06
311.868	368.06
312.098	351.06
312.328	389.06
312.557	387.06
312.787	399.06
313.017	390.06
313.246	378.06
313.476	414.06
313.706	383.06
313.935	405.06
314.165	393.06
314.394	395.06
314.624	387.06
314.853	405.06
315.083	401.06
315.312	402.06
315.542	380.06
315.771	391.06
316.001	363.06
316.23	383.06
316.46	383.06
316.689	376.06
316.919	379.06
317.148	387.06
317.377	387.06
317.607	398.06
317.836	376.06
318.065	386.06
318.295	381.06
318.524	391.06
318.753	378.06
318.983	381.06
319.212	387.06
319.441	387.06
319.67	382.06
319.9	377.06
320.129	367.06
320.358	366.06
320.587	379.06
320.816	399.06
321.046	395.06
321.275	370.06
321.504	383.06
321.733	400.06
321.962	396.06
322.191	391.06
322.42	398.06
322.649	410.06
322.878	389.06
323.108	400.06
323.337	403.06
323.566	390.06
323.795	378.06
324.024	386.06
324.253	383.06
324.482	400.06
324.71	399.06
324.939	391.06
325.168	408.06
325.397	397.06
325.626	409.06
325.855	402.06
326.084	425.06
326.313	426.06
326.542	420.06
326.77	449.06
326.999	413.06
327.228	418.06
327.457	419.06
327.686	415.06
327.914	414.06
328.143	446.06
328.372	413.06
328.6	433.06
328.829	409.06
329.058	435.06
329.287	429.06
329.515	412.06
329.744	439.06
329.972	422.06
330.201	424.06
330.43	436.06
330.658	451.06
330.887	485.06
331.115	434.06
331.344	449.06
331.572	455.06
331.801	459.06
332.03	470.06
332.258	489.06
332.486	471.06
332.715	506.06
332.943	547.06
333.172	562.06
333.4	562.06
333.629	611.06
333.857	573.06
334.085	570.06
334.314	565.06
334.542	540.06
334.771	551.06
334.999	561.06
335.227	543.06
335.455	529.06
335.684	514.06
335.912	521.06
336.14	522.06
336.369	524.06
336.597	513.06
336.825	501.06
337.053	523.06
337.281	481.06
337.51	494.06
337.738	498.06
337.966	478.06
338.194	467.06
338.422	457.06
338.65	458.06
338.878	465.06
339.106	491.06
339.334	462.06
339.562	450.06
339.79	449.06
340.018	451.06
340.246	444.06
340.474	446.06
340.702	438.06
340.93	451.06
341.158	460.06
341.386	463.06
341.614	441.06
341.842	447.06
342.07	440.06
342.298	424.06
342.526	434.06
342.754	440.06
342.981	443.06
343.209	445.06
343.437	463.06
343.665	523.06
343.893	553.06
344.12	532.06
344.348	535.06
344.576	495.06
344.804	498.06
345.031	462.06
345.259	474.06
345.487	453.06
345.714	451.06
345.942	443.06
346.17	455.06
346.397	442.06
346.625	436.06
346.853	441.06
347.08	437.06
347.308	436.06
347.535	475.06
347.763	443.06
347.99	430.06
348.218	463.06
348.445	454.06
348.673	425.06
348.9	433.06
349.128	417.06
349.355	441.06
349.583	422.06
349.81	437.06
350.037	441.06
350.265	418.06
350.492	417.06
350.72	415.06
350.947	427.06
351.174	411.06
351.402	416.06
351.629	411.06
351.856	393.06
352.083	409.06
352.311	432.06
352.538	423.06
352.765	423.06
352.992	414.06
353.22	419.06
353.447	403.06
353.674	414.06
353.901	418.06
354.128	416.06
354.355	406.06
354.583	397.06
354.81	439.06
355.037	420.06
355.264	426.06
355.491	422.06
355.718	454.06
355.945	425.06
356.172	433.06
356.399	433.06
356.626	400.06
356.853	434.06
357.08	414.06
357.307	411.06
357.534	416.06
357.761	427.06
357.988	439.06
358.215	437.06
358.441	421.06
358.668	425.06
358.895	419.06
359.122	426.06
359.349	423.06
359.576	420.06
359.802	426.06
360.029	412.06
360.256	409.06
360.483	426.06
360.709	404.06
360.936	414.06
361.163	416.06
361.39	415.06
361.616	395.06
361.843	408.06
362.07	438.06
362.296	435.06
362.523	423.06
362.749	409.06
362.976	424.06
363.203	415.06
363.429	417.06
363.656	407.06
363.882	393.06
364.109	423.06
364.335	412.06
364.562	421.06
364.788	416.06
365.015	415.06
365.241	409.06
365.468	416.06
365.694	406.06
365.92	413.06
366.147	412.06
366.373	424.06
366.599	421.06
366.826	424.06
367.052	427.06
367.278	419.06
367.505	435.06
367.731	424.06
367.957	439.06
368.184	425.06
368.41	425.06
368.636	433.06
368.862	421.06
369.089	416.06
369.315	449.06
369.541	437.06
369.767	440.06
369.993	434.06
370.219	443.06
370.445	455.06
370.672	455.06
370.898	448.06
371.124	455.06
371.35	448.06
371.576	467.06
371.802	475.06
372.028	472.06
372.254	464.06
372.48	467.06
372.706	465.06
372.932	453.06
373.158	458.06
373.384	467.06
373.61	455.06
373.835	467.06
374.061	455.06
374.287	485.06
374.513	462.06
374.739	498.06
374.965	491.06
375.191	495.06
375.416	507.06
375.642	493.06
375.868	483.06
376.094	481.06
376.319	467.06
376.545	475.06
376.771	448.06
376.997	455.06
377.222	455.06
377.448	465.06
377.674	443.06
377.899	448.06
378.125	466.06
378.35	452.06
378.576	467.06
378.802	442.06
379.027	447.06
379.253	429.06
379.478	439.06
379.704	449.06
379.929	456.06
380.155	427.06
380.38	459.06
380.606	456.06
380.831	446.06
381.057	460.06
381.282	465.06
381.507	430.06
381.733	446.06
381.958	458.06
382.184	450.06
382.409	483.06
382.634	475.06
382.86	470.06
383.085	493.06
383.31	480.06
383.535	496.06
383.761	519.06
383.986	540.06
384.211	537.06
384.436	514.06
384.662	539.06
384.887	558.06
385.112	554.06
385.337	538.06
385.562	543.06
385.787	550.06
386.013	545.06
386.238	549.06
386.463	556.06
386.688	577.06
386.913	550.06
387.138	531.06
387.363	537.06
387.588	515.06
387.813	536.06
388.038	527.06
388.263	530.06
388.488	545.06
388.713	521.06
388.938	548.06
389.163	503.06
389.387	531.06
389.612	522.06
389.837	525.06
390.062	517.06
390.287	525.06
390.512	531.06
390.736	547.06
390.961	533.06
391.186	546.06
391.411	547.06
391.636	582.06
391.86	603.06
392.085	614.06
392.31	621.06
392.534	591.06
392.759	570.06
392.984	587.06
393.208	579.06
393.433	576.06
393.658	577.06
393.882	579.06
394.107	573.06
394.331	600.06
394.556	585.06
394.78	593.06
395.005	586.06
395.229	577.06
395.454	576.06
395.678	602.06
395.903	607.06
396.127	593.06
396.352	580.06
396.576	561.06
396.801	593.06
397.025	602.06
397.249	576.06
397.474	597.06
397.698	603.06
397.922	600.06
398.147	615.06
398.371	578.06
398.595	635.06
398.82	652.06
399.044	721.06
399.268	800.06
399.492	922.06
399.717	1049.06
399.941	1024.06
400.165	884.06
400.389	804.06
400.613	733.06
400.837	680.06
401.062	667.06
401.286	673.06
401.51	691.06
401.734	661.06
401.958	675.06
402.182	691.06
402.406	671.06
402.63	719.06
402.854	731.06
403.078	749.06
403.302	767.06
403.526	785.06
403.75	787.06
403.974	785.06
404.198	813.06
404.422	793.06
404.645	801.06
404.869	782.06
405.093	759.06
405.317	777.06
405.541	750.06
405.765	743.06
405.988	702.06
406.212	739.06
406.436	752.06
406.66	753.06
406.883	762.06
407.107	820.06
407.331	862.06
407.555	879.06
407.778	890.06
408.002	889.06
408.226	830.06
408.449	793.06
408.673	789.06
408.896	758.06
409.12	763.06
409.344	791.06
409.567	787.06
409.791	787.06
410.014	775.06
410.238	776.06
410.461	742.06
410.685	764.06
410.908	745.06
411.132	711.06
411.355	697.06
411.578	724.06
411.802	698.06
412.025	701.06
412.249	720.06
412.472	695.06
412.695	689.06
412.919	662.06
413.142	678.06
413.365	671.06
413.589	677.06
413.812	678.06
414.035	653.06
414.258	672.06
414.482	684.06
414.705	699.06
414.928	675.06
415.151	697.06
415.374	676.06
415.597	678.06
415.821	682.06
416.044	674.06
416.267	665.06
416.49	687.06
416.713	637.06
416.936	699.06
417.159	657.06
417.382	654.06
417.605	658.06
417.828	677.06
418.051	672.06
418.274	679.06
418.497	669.06
418.72	685.06
418.943	702.06
419.166	767.06
419.389	794.06
419.611	751.06
419.834	740.06
420.057	711.06
420.28	692.06
420.503	667.06
420.726	669.06
420.948	665.06
421.171	662.06
421.394	658.06
421.617	682.06
421.839	681.06
422.062	701.06
422.285	665.06
422.507	712.06
422.73	685.06
422.953	689.06
423.175	704.06
423.398	748.06
423.621	699.06
423.843	736.06
424.066	724.06
424.288	733.06
424.511	729.06
424.733	704.06
424.956	691.06
425.178	691.06
425.401	694.06
425.623	690.06
425.846	647.06
426.068	659.06
426.291	645.06
426.513	625.06
426.735	660.06
426.958	657.06
427.18	606.06
427.402	612.06
427.625	621.06
427.847	615.06
428.069	623.06
428.292	630.06
428.514	625.06
428.736	594.06
428.958	597.06
429.181	574.06
429.403	594.06
429.625	566.06
429.847	590.06
430.069	591.06
430.292	601.06
430.514	587.06
430.736	599.06
430.958	588.06
431.18	617.06
431.402	610.06
431.624	577.06
431.846	601.06
432.068	639.06
432.29	639.06
432.512	625.06
432.734	609.06
432.956	621.06
433.178	638.06
433.4	625.06
433.622	623.06
433.844	611.06
434.066	600.06
434.287	627.06
434.509	631.06
434.731	673.06
434.953	704.06
435.175	704.06
435.397	697.06
435.618	640.06
435.84	623.06
436.062	600.06
436.284	612.06
436.505	610.06
436.727	615.06
436.949	640.06
437.17	615.06
437.392	608.06
437.614	594.06
437.835	590.06
438.057	578.06
438.278	566.06
438.5	587.06
438.721	603.06
438.943	593.06
439.165	611.06
439.386	592.06
439.608	630.06
439.829	579.06
440.05	607.06
440.272	624.06
440.493	614.06
440.715	631.06
440.936	635.06
441.158	649.06
441.379	665.06
441.6	700.06
441.822	724.06
442.043	708.06
442.264	682.06
442.486	673.06
442.707	668.06
442.928	664.06
443.149	703.06
443.371	678.06
443.592	696.06
443.813	703.06
444.034	673.06
444.255	712.06
444.476	763.06
444.698	808.06
444.919	851.06
445.14	912.06
445.361	786.06
445.582	718.06
445.803	665.06
446.024	654.06
446.245	643.06
446.466	625.06
446.687	621.06
446.908	652.06
447.129	633.06
447.35	631.06
447.571	602.06
447.792	575.06
448.013	585.06
448.234	584.06
448.455	593.06
448.675	586.06
448.896	564.06
449.117	571.06
449.338	570.06
449.559	578.06
449.779	557.06
450	548.06
450.221	585.06
450.442	565.06
450.662	570.06
450.883	589.06
451.104	596.06
451.324	593.06
451.545	594.06
451.766	565.06
451.986	564.06
452.207	578.06
452.428	577.06
452.648	581.06
452.869	547.06
453.089	554.06
453.31	569.06
453.53	576.06
453.751	553.06
453.971	539.06
454.192	564.06
454.412	547.06
454.633	548.06
454.853	539.06
455.073	552.06
455.294	541.06
455.514	533.06
455.734	537.06
455.955	519.06
456.175	536.06
456.395	527.06
456.616	517.06
456.836	529.06
457.056	531.06
457.276	528.06
457.497	522.06
457.717	514.06
457.937	527.06
458.157	538.06
458.377	553.06
458.598	548.06
458.818	537.06
459.038	581.06
459.258	619.06
459.478	631.06
459.698	632.06
459.918	647.06
460.138	685.06
460.358	714.06
460.578	723.06
460.798	734.06
461.018	728.06
461.238	715.06
461.458	723.06
461.678	727.06
461.898	712.06
462.118	722.06
462.338	767.06
462.558	759.06
462.777	811.06
462.997	893.06
463.217	983.06
463.437	998.06
463.657	888.06
463.876	865.06
464.096	851.06
464.316	872.06
464.536	839.06
464.755	833.06
464.975	810.06
465.195	748.06
465.414	706.06
465.634	664.06
465.854	643.06
466.073	640.06
466.293	618.06
466.512	599.06
466.732	596.06
466.951	606.06
467.171	615.06
467.391	590.06
467.61	590.06
467.829	584.06
468.049	581.06
468.268	585.06
468.488	561.06
468.707	559.06
468.927	577.06
469.146	557.06
469.365	567.06
469.585	577.06
469.804	584.06
470.023	594.06
470.243	600.06
470.462	603.06
470.681	622.06
470.901	631.06
471.12	599.06
471.339	594.06
471.558	585.06
471.777	581.06
471.997	571.06
472.216	573.06
472.435	549.06
472.654	557.06
472.873	538.06
473.092	510.06
473.311	514.06
473.53	522.06
473.749	548.06
473.968	545.06
474.187	519.06
474.406	539.06
474.625	545.06
474.844	549.06
475.063	531.06
475.282	553.06
475.501	557.06
475.72	569.06
475.939	522.06
476.158	566.06
476.377	569.06
476.596	565.06
476.814	578.06
477.033	598.06
477.252	588.06
477.471	602.06
477.69	611.06
477.908	627.06
478.127	633.06
478.346	627.06
478.564	665.06
478.783	657.06
479.002	699.06
479.22	679.06
479.439	685.06
479.658	676.06
479.876	669.06
480.095	680.06
480.313	710.06
480.532	743.06
480.751	756.06
480.969	685.06
481.188	649.06
481.406	649.06
481.624	642.06
481.843	634.06
482.061	617.06
482.28	637.06
482.498	604.06
482.717	591.06
482.935	600.06
483.153	610.06
483.372	609.06
483.59	646.06
483.808	609.06
484.027	633.06
484.245	606.06
484.463	654.06
484.681	650.06
484.9	639.06
485.118	643.06
485.336	650.06
485.554	652.06
485.772	655.06
485.99	676.06
486.209	655.06
486.427	685.06
486.645	646.06
486.863	672.06
487.081	680.06
487.299	666.06
487.517	657.06
487.735	665.06
487.953	658.06
488.171	650.06
488.389	652.06
488.607	667.06
488.825	627.06
489.043	636.06
489.261	654.06
489.479	643.06
489.696	636.06
489.914	645.06
490.132	651.06
490.35	638.06
490.568	641.06
490.786	661.06
491.003	653.06
491.221	648.06
491.439	640.06
491.657	661.06
491.874	673.06
492.092	661.06
492.31	689.06
492.527	675.06
492.745	673.06
492.963	704.06
493.18	659.06
493.398	682.06
493.615	685.06
493.833	677.06
494.05	679.06
494.268	681.06
494.485	705.06
494.703	713.06
494.92	705.06
495.138	678.06
495.355	689.06
495.573	695.06
495.79	673.06
496.008	675.06
496.225	671.06
496.442	714.06
496.66	702.06
496.877	731.06
497.094	737.06
497.312	740.06
497.529	737.06
497.746	777.06
497.963	784.06
498.181	801.06
498.398	851.06
498.615	901.06
498.832	982.06
499.049	1032.06
499.267	1112.06
499.484	1239.06
499.701	1334.06
499.918	1503.06
500.135	1785.06
500.352	2078.06
500.569	2177.06
500.786	2182.06
501.003	1967.06
501.22	1762.06
501.437	1522.06
