Data from Ni(NO3)2Standard.Agarose3%.GreenCap.LampEnergy5.5.E.O_HRD10591_14-40-27-190.txt Node
Date: Mon Jul 22 14:40:27 EDT 2019
User: cochatt
Spectrometer: HR+D1059
Trigger mode: 1
Integration Time (sec): 1.000000E-1
Scans to average: 1
Electric dark correction enabled: true
Nonlinearity correction enabled: false
Boxcar width: 0
XAxis mode: Wavelengths
Number of Pixels in Spectrum: 2048
>>>>>Begin Spectral Data<<<<<
223.165	-0.06
223.4	-0.06
223.635	-0.06
223.869	-27.06
224.104	-19.06
224.338	-18.06
224.573	-18.06
224.808	-12.06
225.042	-4.06
225.277	-3.06
225.511	-8.06
225.746	1.94
225.98	8.94
226.215	8.94
226.449	20.94
226.683	20.94
226.918	28.94
227.152	18.94
227.387	32.94
227.621	30.94
227.856	30.94
228.09	57.94
228.324	50.94
228.559	58.94
228.793	61.94
229.027	54.94
229.262	65.94
229.496	66.94
229.73	73.94
229.964	77.94
230.199	64.94
230.433	80.94
230.667	77.94
230.901	97.94
231.136	78.94
231.37	88.94
231.604	85.94
231.838	94.94
232.072	82.94
232.306	87.94
232.541	83.94
232.775	79.94
233.009	75.94
233.243	78.94
233.477	81.94
233.711	81.94
233.945	81.94
234.179	82.94
234.413	75.94
234.647	84.94
234.881	78.94
235.115	74.94
235.349	82.94
235.583	69.94
235.817	78.94
236.051	85.94
236.285	84.94
236.519	79.94
236.753	73.94
236.987	82.94
237.221	86.94
237.455	62.94
237.689	69.94
237.922	68.94
238.156	60.94
238.39	74.94
238.624	81.94
238.858	77.94
239.091	87.94
239.325	80.94
239.559	72.94
239.793	73.94
240.027	72.94
240.26	76.94
240.494	92.94
240.728	82.94
240.961	86.94
241.195	61.94
241.429	78.94
241.662	78.94
241.896	80.94
242.13	80.94
242.363	86.94
242.597	78.94
242.83	93.94
243.064	79.94
243.298	83.94
243.531	64.94
243.765	75.94
243.998	76.94
244.232	71.94
244.465	70.94
244.699	81.94
244.932	82.94
245.166	78.94
245.399	85.94
245.633	74.94
245.866	74.94
246.099	71.94
246.333	82.94
246.566	76.94
246.8	68.94
247.033	88.94
247.266	96.94
247.5	83.94
247.733	82.94
247.966	69.94
248.2	82.94
248.433	75.94
248.666	83.94
248.899	86.94
249.133	79.94
249.366	80.94
249.599	81.94
249.832	73.94
250.066	77.94
250.299	65.94
250.532	75.94
250.765	89.94
250.998	87.94
251.231	89.94
251.465	87.94
251.698	82.94
251.931	85.94
252.164	78.94
252.397	81.94
252.63	87.94
252.863	100.94
253.096	90.94
253.329	72.94
253.562	82.94
253.795	78.94
254.028	76.94
254.261	92.94
254.494	81.94
254.727	96.94
254.96	66.94
255.193	89.94
255.426	68.94
255.659	73.94
255.892	92.94
256.124	82.94
256.357	82.94
256.59	88.94
256.823	85.94
257.056	81.94
257.289	81.94
257.521	75.94
257.754	78.94
257.987	75.94
258.22	71.94
258.452	87.94
258.685	85.94
258.918	97.94
259.151	92.94
259.383	92.94
259.616	84.94
259.849	78.94
260.081	78.94
260.314	85.94
260.547	87.94
260.779	101.94
261.012	95.94
261.244	73.94
261.477	84.94
261.71	84.94
261.942	84.94
262.175	77.94
262.407	87.94
262.64	81.94
262.872	75.94
263.105	80.94
263.337	76.94
263.57	84.94
263.802	85.94
264.035	86.94
264.267	87.94
264.499	89.94
264.732	85.94
264.964	93.94
265.197	101.94
265.429	79.94
265.661	90.94
265.894	92.94
266.126	88.94
266.358	77.94
266.591	86.94
266.823	89.94
267.055	85.94
267.287	91.94
267.52	88.94
267.752	83.94
267.984	87.94
268.216	78.94
268.448	92.94
268.681	84.94
268.913	86.94
269.145	81.94
269.377	90.94
269.609	91.94
269.841	78.94
270.073	72.94
270.306	79.94
270.538	73.94
270.77	80.94
271.002	90.94
271.234	89.94
271.466	96.94
271.698	75.94
271.93	81.94
272.162	81.94
272.394	87.94
272.626	97.94
272.858	95.94
273.09	81.94
273.322	89.94
273.553	96.94
273.785	89.94
274.017	100.94
274.249	73.94
274.481	79.94
274.713	85.94
274.945	86.94
275.176	94.94
275.408	77.94
275.64	90.94
275.872	84.94
276.104	90.94
276.335	84.94
276.567	78.94
276.799	104.94
277.031	69.94
277.262	76.94
277.494	76.94
277.726	75.94
277.957	90.94
278.189	82.94
278.421	81.94
278.652	84.94
278.884	87.94
279.115	95.94
279.347	85.94
279.579	76.94
279.81	103.94
280.042	77.94
280.273	89.94
280.505	79.94
280.736	85.94
280.968	96.94
281.199	84.94
281.431	83.94
281.662	84.94
281.894	76.94
282.125	70.94
282.356	76.94
282.588	96.94
282.819	68.94
283.051	76.94
283.282	78.94
283.513	97.94
283.745	91.94
283.976	84.94
284.207	85.94
284.439	87.94
284.67	81.94
284.901	76.94
285.132	97.94
285.364	86.94
285.595	87.94
285.826	84.94
286.057	73.94
286.288	94.94
286.52	90.94
286.751	79.94
286.982	85.94
287.213	79.94
287.444	92.94
287.675	87.94
287.906	78.94
288.138	87.94
288.369	77.94
288.6	70.94
288.831	83.94
289.062	95.94
289.293	84.94
289.524	84.94
289.755	72.94
289.986	68.94
290.217	86.94
290.448	94.94
290.679	89.94
290.91	82.94
291.141	94.94
291.371	86.94
291.602	82.94
291.833	83.94
292.064	86.94
292.295	102.94
292.526	75.94
292.757	90.94
292.987	92.94
293.218	92.94
293.449	82.94
293.68	87.94
293.91	105.94
294.141	84.94
294.372	87.94
294.603	87.94
294.833	73.94
295.064	92.94
295.295	81.94
295.525	77.94
295.756	86.94
295.987	83.94
296.217	77.94
296.448	72.94
296.679	86.94
296.909	88.94
297.14	70.94
297.37	87.94
297.601	78.94
297.831	92.94
298.062	72.94
298.292	82.94
298.523	77.94
298.753	83.94
298.984	79.94
299.214	85.94
299.445	98.94
299.675	93.94
299.905	95.94
300.136	86.94
300.366	85.94
300.597	94.94
300.827	100.94
301.057	84.94
301.288	95.94
301.518	108.94
301.748	95.94
301.979	91.94
302.209	69.94
302.439	80.94
302.669	95.94
302.9	86.94
303.13	89.94
303.36	66.94
303.59	83.94
303.82	91.94
304.051	80.94
304.281	94.94
304.511	91.94
304.741	76.94
304.971	86.94
305.201	92.94
305.431	73.94
305.661	95.94
305.891	101.94
306.121	89.94
306.352	81.94
306.582	83.94
306.812	81.94
307.042	88.94
307.272	80.94
307.502	94.94
307.731	77.94
307.961	88.94
308.191	80.94
308.421	86.94
308.651	69.94
308.881	85.94
309.111	89.94
309.341	83.94
309.571	89.94
309.8	96.94
310.03	91.94
310.26	93.94
310.49	84.94
310.72	82.94
310.949	80.94
311.179	73.94
311.409	72.94
311.639	84.94
311.868	94.94
312.098	87.94
312.328	84.94
312.557	83.94
312.787	82.94
313.017	85.94
313.246	89.94
313.476	77.94
313.706	94.94
313.935	78.94
314.165	88.94
314.394	82.94
314.624	87.94
314.853	91.94
315.083	79.94
315.312	85.94
315.542	72.94
315.771	85.94
316.001	80.94
316.23	96.94
316.46	90.94
316.689	72.94
316.919	85.94
317.148	99.94
317.377	115.94
317.607	89.94
317.836	72.94
318.065	91.94
318.295	88.94
318.524	94.94
318.753	85.94
318.983	98.94
319.212	97.94
319.441	87.94
319.67	83.94
319.9	82.94
320.129	87.94
320.358	76.94
320.587	87.94
320.816	90.94
321.046	83.94
321.275	90.94
321.504	91.94
321.733	80.94
321.962	79.94
322.191	83.94
322.42	90.94
322.649	76.94
322.878	95.94
323.108	92.94
323.337	74.94
323.566	89.94
323.795	94.94
324.024	83.94
324.253	89.94
324.482	85.94
324.71	77.94
324.939	76.94
325.168	85.94
325.397	89.94
325.626	81.94
325.855	93.94
326.084	89.94
326.313	95.94
326.542	93.94
326.77	80.94
326.999	86.94
327.228	89.94
327.457	66.94
327.686	104.94
327.914	95.94
328.143	86.94
328.372	84.94
328.6	91.94
328.829	81.94
329.058	76.94
329.287	84.94
329.515	93.94
329.744	100.94
329.972	91.94
330.201	91.94
330.43	79.94
330.658	85.94
330.887	83.94
331.115	80.94
331.344	87.94
331.572	87.94
331.801	93.94
332.03	82.94
332.258	88.94
332.486	93.94
332.715	81.94
332.943	82.94
333.172	68.94
333.4	91.94
333.629	82.94
333.857	92.94
334.085	93.94
334.314	102.94
334.542	106.94
334.771	79.94
334.999	84.94
335.227	94.94
335.455	91.94
335.684	105.94
335.912	80.94
336.14	81.94
336.369	74.94
336.597	79.94
336.825	76.94
337.053	93.94
337.281	100.94
337.51	96.94
337.738	82.94
337.966	87.94
338.194	98.94
338.422	92.94
338.65	87.94
338.878	90.94
339.106	98.94
339.334	92.94
339.562	76.94
339.79	100.94
340.018	89.94
340.246	89.94
340.474	96.94
340.702	90.94
340.93	93.94
341.158	101.94
341.386	90.94
341.614	73.94
341.842	86.94
342.07	76.94
342.298	92.94
342.526	81.94
342.754	84.94
342.981	100.94
343.209	85.94
343.437	89.94
343.665	93.94
343.893	84.94
344.12	96.94
344.348	89.94
344.576	98.94
344.804	78.94
345.031	78.94
345.259	94.94
345.487	95.94
345.714	75.94
345.942	86.94
346.17	85.94
346.397	91.94
346.625	98.94
346.853	91.94
347.08	89.94
347.308	89.94
347.535	92.94
347.763	92.94
347.99	75.94
348.218	88.94
348.445	93.94
348.673	86.94
348.9	88.94
349.128	98.94
349.355	99.94
349.583	79.94
349.81	97.94
350.037	82.94
350.265	83.94
350.492	87.94
350.72	94.94
350.947	86.94
351.174	84.94
351.402	78.94
351.629	81.94
351.856	93.94
352.083	71.94
352.311	88.94
352.538	92.94
352.765	98.94
352.992	83.94
353.22	100.94
353.447	82.94
353.674	84.94
353.901	93.94
354.128	86.94
354.355	89.94
354.583	80.94
354.81	97.94
355.037	97.94
355.264	86.94
355.491	85.94
355.718	88.94
355.945	87.94
356.172	91.94
356.399	93.94
356.626	93.94
356.853	85.94
357.08	104.94
357.307	92.94
357.534	82.94
357.761	68.94
357.988	85.94
358.215	86.94
358.441	78.94
358.668	81.94
358.895	96.94
359.122	91.94
359.349	86.94
359.576	84.94
359.802	74.94
360.029	70.94
360.256	69.94
360.483	90.94
360.709	86.94
360.936	85.94
361.163	80.94
361.39	96.94
361.616	88.94
361.843	93.94
362.07	83.94
362.296	80.94
362.523	99.94
362.749	85.94
362.976	96.94
363.203	74.94
363.429	91.94
363.656	91.94
363.882	87.94
364.109	90.94
364.335	77.94
364.562	72.94
364.788	87.94
365.015	92.94
365.241	109.94
365.468	97.94
365.694	88.94
365.92	80.94
366.147	103.94
366.373	99.94
366.599	81.94
366.826	82.94
367.052	82.94
367.278	90.94
367.505	96.94
367.731	94.94
367.957	95.94
368.184	92.94
368.41	79.94
368.636	88.94
368.862	91.94
369.089	88.94
369.315	97.94
369.541	86.94
369.767	85.94
369.993	87.94
370.219	85.94
370.445	82.94
370.672	88.94
370.898	83.94
371.124	95.94
371.35	89.94
371.576	87.94
371.802	88.94
372.028	78.94
372.254	90.94
372.48	86.94
372.706	69.94
372.932	71.94
373.158	74.94
373.384	77.94
373.61	80.94
373.835	69.94
374.061	69.94
374.287	94.94
374.513	89.94
374.739	93.94
374.965	84.94
375.191	90.94
375.416	77.94
375.642	72.94
375.868	72.94
376.094	86.94
376.319	89.94
376.545	81.94
376.771	84.94
376.997	84.94
377.222	92.94
377.448	94.94
377.674	83.94
377.899	81.94
378.125	98.94
378.35	91.94
378.576	88.94
378.802	97.94
379.027	74.94
379.253	84.94
379.478	86.94
379.704	88.94
379.929	78.94
380.155	85.94
380.38	97.94
380.606	80.94
380.831	72.94
381.057	84.94
381.282	87.94
381.507	81.94
381.733	90.94
381.958	87.94
382.184	75.94
382.409	80.94
382.634	85.94
382.86	83.94
383.085	85.94
383.31	84.94
383.535	78.94
383.761	72.94
383.986	86.94
384.211	85.94
384.436	76.94
384.662	91.94
384.887	82.94
385.112	97.94
385.337	88.94
385.562	91.94
385.787	78.94
386.013	88.94
386.238	82.94
386.463	72.94
386.688	80.94
386.913	79.94
387.138	94.94
387.363	98.94
387.588	76.94
387.813	77.94
388.038	81.94
388.263	70.94
388.488	90.94
388.713	86.94
388.938	96.94
389.163	87.94
389.387	74.94
389.612	83.94
389.837	84.94
390.062	68.94
390.287	74.94
390.512	76.94
390.736	90.94
390.961	86.94
391.186	94.94
391.411	74.94
391.636	89.94
391.86	68.94
392.085	88.94
392.31	74.94
392.534	85.94
392.759	84.94
392.984	90.94
393.208	97.94
393.433	84.94
393.658	92.94
393.882	78.94
394.107	81.94
394.331	79.94
394.556	87.94
394.78	85.94
395.005	73.94
395.229	86.94
395.454	84.94
395.678	92.94
395.903	108.94
396.127	91.94
396.352	88.94
396.576	80.94
396.801	92.94
397.025	78.94
397.249	81.94
397.474	79.94
397.698	89.94
397.922	84.94
398.147	74.94
398.371	81.94
398.595	93.94
398.82	85.94
399.044	90.94
399.268	88.94
399.492	78.94
399.717	98.94
399.941	84.94
400.165	96.94
400.389	79.94
400.613	85.94
400.837	86.94
401.062	83.94
401.286	86.94
401.51	107.94
401.734	91.94
401.958	91.94
402.182	77.94
402.406	90.94
402.63	86.94
402.854	90.94
403.078	82.94
403.302	100.94
403.526	92.94
403.75	90.94
403.974	79.94
404.198	88.94
404.422	85.94
404.645	84.94
404.869	99.94
405.093	86.94
405.317	71.94
405.541	60.94
405.765	83.94
405.988	83.94
406.212	91.94
406.436	74.94
406.66	96.94
406.883	85.94
407.107	88.94
407.331	90.94
407.555	86.94
407.778	93.94
408.002	96.94
408.226	93.94
408.449	68.94
408.673	86.94
408.896	92.94
409.12	85.94
409.344	93.94
409.567	81.94
409.791	83.94
410.014	87.94
410.238	88.94
410.461	84.94
410.685	96.94
410.908	82.94
411.132	89.94
411.355	92.94
411.578	84.94
411.802	84.94
412.025	85.94
412.249	77.94
412.472	91.94
412.695	71.94
412.919	83.94
413.142	91.94
413.365	83.94
413.589	76.94
413.812	86.94
414.035	86.94
414.258	81.94
414.482	88.94
414.705	84.94
414.928	73.94
415.151	78.94
415.374	76.94
415.597	86.94
415.821	76.94
416.044	84.94
416.267	84.94
416.49	99.94
416.713	96.94
416.936	74.94
417.159	94.94
417.382	79.94
417.605	76.94
417.828	93.94
418.051	81.94
418.274	88.94
418.497	79.94
418.72	98.94
418.943	84.94
419.166	83.94
419.389	96.94
419.611	84.94
419.834	78.94
420.057	84.94
420.28	81.94
420.503	84.94
420.726	86.94
420.948	86.94
421.171	79.94
421.394	91.94
421.617	76.94
421.839	77.94
422.062	69.94
422.285	84.94
422.507	81.94
422.73	90.94
422.953	89.94
423.175	89.94
423.398	67.94
423.621	83.94
423.843	78.94
424.066	89.94
424.288	84.94
424.511	81.94
424.733	83.94
424.956	90.94
425.178	97.94
425.401	82.94
425.623	84.94
425.846	87.94
426.068	94.94
426.291	93.94
426.513	86.94
426.735	93.94
426.958	77.94
427.18	75.94
427.402	83.94
427.625	91.94
427.847	88.94
428.069	90.94
428.292	97.94
428.514	85.94
428.736	93.94
428.958	98.94
429.181	92.94
429.403	86.94
429.625	86.94
429.847	92.94
430.069	88.94
430.292	94.94
430.514	87.94
430.736	88.94
430.958	78.94
431.18	68.94
431.402	78.94
431.624	90.94
431.846	89.94
432.068	88.94
432.29	83.94
432.512	93.94
432.734	93.94
432.956	78.94
433.178	92.94
433.4	100.94
433.622	84.94
433.844	76.94
434.066	84.94
434.287	82.94
434.509	78.94
434.731	90.94
434.953	78.94
435.175	84.94
435.397	83.94
435.618	71.94
435.84	103.94
436.062	84.94
436.284	78.94
436.505	92.94
436.727	95.94
436.949	93.94
437.17	86.94
437.392	84.94
437.614	89.94
437.835	79.94
438.057	90.94
438.278	79.94
438.5	81.94
438.721	81.94
438.943	78.94
439.165	76.94
439.386	78.94
439.608	80.94
439.829	74.94
440.05	92.94
440.272	98.94
440.493	96.94
440.715	95.94
440.936	82.94
441.158	93.94
441.379	82.94
441.6	83.94
441.822	91.94
442.043	100.94
442.264	97.94
442.486	91.94
442.707	89.94
442.928	76.94
443.149	86.94
443.371	91.94
443.592	84.94
443.813	84.94
444.034	88.94
444.255	101.94
444.476	85.94
444.698	100.94
444.919	96.94
445.14	211.94
445.361	158.94
445.582	89.94
445.803	77.94
446.024	84.94
446.245	86.94
446.466	78.94
446.687	79.94
446.908	93.94
447.129	85.94
447.35	85.94
447.571	85.94
447.792	74.94
448.013	70.94
448.234	82.94
448.455	85.94
448.675	79.94
448.896	84.94
449.117	81.94
449.338	93.94
449.559	99.94
449.779	82.94
450	84.94
450.221	90.94
450.442	91.94
450.662	85.94
450.883	102.94
451.104	79.94
451.324	96.94
451.545	85.94
451.766	85.94
451.986	77.94
452.207	83.94
452.428	77.94
452.648	81.94
452.869	84.94
453.089	80.94
453.31	87.94
453.53	75.94
453.751	76.94
453.971	75.94
454.192	93.94
454.412	90.94
454.633	72.94
454.853	102.94
455.073	88.94
455.294	87.94
455.514	75.94
455.734	85.94
455.955	86.94
456.175	86.94
456.395	83.94
456.616	88.94
456.836	82.94
457.056	75.94
457.276	62.94
457.497	83.94
457.717	98.94
457.937	91.94
458.157	88.94
458.377	82.94
458.598	88.94
458.818	96.94
459.038	75.94
459.258	80.94
459.478	82.94
459.698	76.94
459.918	85.94
460.138	92.94
460.358	86.94
460.578	89.94
460.798	85.94
461.018	93.94
461.238	88.94
461.458	93.94
461.678	91.94
461.898	80.94
462.118	96.94
462.338	87.94
462.558	98.94
462.777	93.94
462.997	94.94
463.217	74.94
463.437	96.94
463.657	86.94
463.876	82.94
464.096	83.94
464.316	83.94
464.536	88.94
464.755	84.94
464.975	84.94
465.195	81.94
465.414	87.94
465.634	77.94
465.854	83.94
466.073	88.94
466.293	97.94
466.512	84.94
466.732	70.94
466.951	86.94
467.171	83.94
467.391	97.94
467.61	93.94
467.829	86.94
468.049	87.94
468.268	93.94
468.488	85.94
468.707	99.94
468.927	85.94
469.146	89.94
469.365	102.94
469.585	77.94
469.804	86.94
470.023	105.94
470.243	79.94
470.462	76.94
470.681	77.94
470.901	82.94
471.12	91.94
471.339	98.94
471.558	93.94
471.777	96.94
471.997	84.94
472.216	84.94
472.435	86.94
472.654	91.94
472.873	92.94
473.092	68.94
473.311	102.94
473.53	83.94
473.749	89.94
473.968	91.94
474.187	78.94
474.406	73.94
474.625	102.94
474.844	87.94
475.063	96.94
475.282	91.94
475.501	87.94
475.72	101.94
475.939	103.94
476.158	86.94
476.377	98.94
476.596	91.94
476.814	96.94
477.033	82.94
477.252	88.94
477.471	93.94
477.69	96.94
477.908	106.94
478.127	88.94
478.346	82.94
478.564	92.94
478.783	93.94
479.002	80.94
479.22	101.94
479.439	99.94
479.658	99.94
479.876	86.94
480.095	81.94
480.313	77.94
480.532	93.94
480.751	90.94
480.969	98.94
481.188	98.94
481.406	95.94
481.624	88.94
481.843	83.94
482.061	77.94
482.28	81.94
482.498	96.94
482.717	89.94
482.935	90.94
483.153	94.94
483.372	98.94
483.59	97.94
483.808	98.94
484.027	93.94
484.245	89.94
484.463	89.94
484.681	83.94
484.9	95.94
485.118	95.94
485.336	89.94
485.554	75.94
485.772	76.94
485.99	92.94
486.209	85.94
486.427	79.94
486.645	92.94
486.863	87.94
487.081	91.94
487.299	89.94
487.517	96.94
487.735	78.94
487.953	88.94
488.171	88.94
488.389	84.94
488.607	85.94
488.825	92.94
489.043	73.94
489.261	92.94
489.479	86.94
489.696	101.94
489.914	90.94
490.132	92.94
490.35	84.94
490.568	93.94
490.786	81.94
491.003	94.94
491.221	79.94
491.439	97.94
491.657	92.94
491.874	99.94
492.092	95.94
492.31	108.94
492.527	91.94
492.745	105.94
492.963	113.94
493.18	108.94
493.398	89.94
493.615	85.94
493.833	89.94
494.05	87.94
494.268	100.94
494.485	100.94
494.703	93.94
494.92	97.94
495.138	107.94
495.355	100.94
495.573	88.94
495.79	85.94
496.008	93.94
496.225	73.94
496.442	97.94
496.66	113.94
496.877	88.94
497.094	91.94
497.312	99.94
497.529	90.94
497.746	96.94
497.963	85.94
498.181	95.94
498.398	98.94
498.615	96.94
498.832	93.94
499.049	105.94
499.267	94.94
499.484	83.94
499.701	115.94
499.918	105.94
500.135	114.94
500.352	105.94
500.569	116.94
500.786	106.94
501.003	116.94
501.22	102.94
501.437	97.94
501.654	100.94
501.871	90.94
502.088	103.94
502.305	105.94
502.522	106.94
502.739	92.94
502.956	89.94
503.172	97.94
503.389	83.94
503.606	89.94
503.823	97.94
504.04	102.94
504.256	103.94
504.473	104.94
504.69	97.94
504.907	104.94
505.123	83.94
505.34	86.94
505.557	96.94
505.773	102.94
505.99	93.94
506.207	100.94
506.423	88.94
506.64	115.94
506.856	90.94
507.073	98.94
507.289	99.94
507.506	101.94
507.722	89.94
507.939	97.94
508.155	100.94
508.372	97.94
508.588	90.94
508.805	90.94
509.021	89.94
509.238	77.94
509.454	89.94
509.67	86.94
509.887	103.94
510.103	98.94
510.319	94.94
510.536	95.94
510.752	81.94
510.968	87.94
511.184	92.94
511.401	94.94
511.617	81.94
511.833	102.94
512.049	80.94
512.265	79.94
512.481	101.94
512.698	86.94
512.914	81.94
513.13	85.94
513.346	83.94
513.562	90.94
513.778	88.94
513.994	86.94
514.21	111.94
514.426	87.94
514.642	91.94
514.858	87.94
515.074	77.94
515.29	95.94
515.506	105.94
515.721	93.94
515.937	72.94
516.153	93.94
516.369	93.94
516.585	93.94
516.801	92.94
517.016	89.94
517.232	93.94
517.448	97.94
517.664	101.94
517.879	91.94
518.095	91.94
518.311	103.94
