Data from Ni(NO3)2@0.125M.TitratingCurve.Agarose3%dH2O.NegLispCup.LampEnergy10.LIBS07252019_HRD10591_18-10-57-567.txt Node
Date: Thu Jul 25 18:10:57 EDT 2019
User: cochatt
Spectrometer: HR+D1059
Trigger mode: 1
Integration Time (sec): 1.000000E-1
Scans to average: 1
Electric dark correction enabled: true
Nonlinearity correction enabled: false
Boxcar width: 0
XAxis mode: Wavelengths
Number of Pixels in Spectrum: 2048
>>>>>Begin Spectral Data<<<<<
223.165	-8.69
223.4	-8.69
223.635	-8.69
223.869	-10.69
224.104	-18.69
224.338	-15.69
224.573	4.31
224.808	-25.69
225.042	-11.69
225.277	-15.69
225.511	-1.69
225.746	0.31
225.98	-3.69
226.215	12.31
226.449	15.31
226.683	21.31
226.918	28.31
227.152	30.31
227.387	28.31
227.621	39.31
227.856	34.31
228.09	50.31
228.324	41.31
228.559	56.31
228.793	63.31
229.027	103.31
229.262	115.31
229.496	107.31
229.73	117.31
229.964	125.31
230.199	126.31
230.433	123.31
230.667	123.31
230.901	124.31
231.136	134.31
231.37	124.31
231.604	144.31
231.838	143.31
232.072	144.31
232.306	134.31
232.541	137.31
232.775	133.31
233.009	147.31
233.243	142.31
233.477	136.31
233.711	146.31
233.945	143.31
234.179	137.31
234.413	139.31
234.647	151.31
234.881	146.31
235.115	145.31
235.349	129.31
235.583	143.31
235.817	154.31
236.051	140.31
236.285	139.31
236.519	133.31
236.753	146.31
236.987	144.31
237.221	151.31
237.455	148.31
237.689	149.31
237.922	152.31
238.156	165.31
238.39	162.31
238.624	153.31
238.858	160.31
239.091	173.31
239.325	158.31
239.559	164.31
239.793	152.31
240.027	161.31
240.26	178.31
240.494	174.31
240.728	161.31
240.961	167.31
241.195	172.31
241.429	178.31
241.662	188.31
241.896	169.31
242.13	188.31
242.363	179.31
242.597	176.31
242.83	195.31
243.064	189.31
243.298	182.31
243.531	181.31
243.765	188.31
243.998	194.31
244.232	197.31
244.465	185.31
244.699	201.31
244.932	187.31
245.166	224.31
245.399	193.31
245.633	208.31
245.866	205.31
246.099	203.31
246.333	195.31
246.566	205.31
246.8	220.31
247.033	218.31
247.266	194.31
247.5	209.31
247.733	224.31
247.966	218.31
248.2	238.31
248.433	226.31
248.666	224.31
248.899	225.31
249.133	217.31
249.366	223.31
249.599	230.31
249.832	236.31
250.066	244.31
250.299	231.31
250.532	232.31
250.765	226.31
250.998	237.31
251.231	252.31
251.465	243.31
251.698	254.31
251.931	227.31
252.164	243.31
252.397	264.31
252.63	266.31
252.863	259.31
253.096	254.31
253.329	260.31
253.562	285.31
253.795	271.31
254.028	270.31
254.261	243.31
254.494	254.31
254.727	263.31
254.96	253.31
255.193	249.31
255.426	285.31
255.659	281.31
255.892	275.31
256.124	264.31
256.357	281.31
256.59	280.31
256.823	289.31
257.056	278.31
257.289	282.31
257.521	299.31
257.754	274.31
257.987	292.31
258.22	284.31
258.452	293.31
258.685	292.31
258.918	288.31
259.151	300.31
259.383	289.31
259.616	318.31
259.849	300.31
260.081	279.31
260.314	286.31
260.547	288.31
260.779	299.31
261.012	320.31
261.244	313.31
261.477	322.31
261.71	285.31
261.942	301.31
262.175	308.31
262.407	300.31
262.64	324.31
262.872	316.31
263.105	309.31
263.337	318.31
263.57	335.31
263.802	329.31
264.035	325.31
264.267	321.31
264.499	327.31
264.732	323.31
264.964	337.31
265.197	332.31
265.429	358.31
265.661	338.31
265.894	348.31
266.126	341.31
266.358	345.31
266.591	330.31
266.823	342.31
267.055	366.31
267.287	340.31
267.52	341.31
267.752	335.31
267.984	343.31
268.216	357.31
268.448	361.31
268.681	360.31
268.913	343.31
269.145	374.31
269.377	343.31
269.609	344.31
269.841	365.31
270.073	368.31
270.306	366.31
270.538	356.31
270.77	361.31
271.002	364.31
271.234	361.31
271.466	370.31
271.698	366.31
271.93	376.31
272.162	362.31
272.394	378.31
272.626	366.31
272.858	388.31
273.09	379.31
273.322	374.31
273.553	373.31
273.785	401.31
274.017	390.31
274.249	367.31
274.481	358.31
274.713	396.31
274.945	391.31
275.176	392.31
275.408	393.31
275.64	408.31
275.872	387.31
276.104	420.31
276.335	399.31
276.567	397.31
276.799	386.31
277.031	388.31
277.262	387.31
277.494	413.31
277.726	406.31
277.957	418.31
278.189	396.31
278.421	409.31
278.652	412.31
278.884	408.31
279.115	416.31
279.347	419.31
279.579	431.31
279.81	422.31
280.042	415.31
280.273	419.31
280.505	414.31
280.736	458.31
280.968	416.31
281.199	432.31
281.431	429.31
281.662	440.31
281.894	436.31
282.125	446.31
282.356	470.31
282.588	429.31
282.819	464.31
283.051	467.31
283.282	437.31
283.513	455.31
283.745	452.31
283.976	467.31
284.207	460.31
284.439	456.31
284.67	462.31
284.901	469.31
285.132	466.31
285.364	462.31
285.595	464.31
285.826	467.31
286.057	467.31
286.288	480.31
286.52	446.31
286.751	470.31
286.982	481.31
287.213	468.31
287.444	459.31
287.675	485.31
287.906	494.31
288.138	508.31
288.369	477.31
288.6	474.31
288.831	496.31
289.062	494.31
289.293	504.31
289.524	465.31
289.755	497.31
289.986	491.31
290.217	494.31
290.448	470.31
290.679	493.31
290.91	505.31
291.141	497.31
291.371	509.31
291.602	496.31
291.833	496.31
292.064	509.31
292.295	513.31
292.526	498.31
292.757	492.31
292.987	489.31
293.218	489.31
293.449	506.31
293.68	496.31
293.91	505.31
294.141	493.31
294.372	509.31
294.603	516.31
294.833	521.31
295.064	510.31
295.295	531.31
295.525	494.31
295.756	512.31
295.987	519.31
296.217	515.31
296.448	537.31
296.679	550.31
296.909	540.31
297.14	521.31
297.37	533.31
297.601	530.31
297.831	569.31
298.062	558.31
298.292	556.31
298.523	588.31
298.753	560.31
298.984	549.31
299.214	525.31
299.445	533.31
299.675	542.31
299.905	552.31
300.136	537.31
300.366	540.31
300.597	560.31
300.827	576.31
301.057	563.31
301.288	585.31
301.518	586.31
301.748	581.31
301.979	553.31
302.209	585.31
302.439	584.31
302.669	582.31
302.9	588.31
303.13	552.31
303.36	553.31
303.59	577.31
303.82	564.31
304.051	580.31
304.281	589.31
304.511	557.31
304.741	578.31
304.971	572.31
305.201	550.31
305.431	541.31
305.661	545.31
305.891	554.31
306.121	564.31
306.352	572.31
306.582	546.31
306.812	570.31
307.042	550.31
307.272	530.31
307.502	561.31
307.731	579.31
307.961	560.31
308.191	549.31
308.421	572.31
308.651	565.31
308.881	548.31
309.111	558.31
309.341	539.31
309.571	552.31
309.8	562.31
310.03	566.31
310.26	582.31
310.49	545.31
310.72	560.31
310.949	546.31
311.179	553.31
311.409	558.31
311.639	576.31
311.868	568.31
312.098	556.31
312.328	587.31
312.557	585.31
312.787	595.31
313.017	583.31
313.246	599.31
313.476	586.31
313.706	580.31
313.935	590.31
314.165	624.31
314.394	603.31
314.624	605.31
314.853	612.31
315.083	590.31
315.312	590.31
315.542	583.31
315.771	574.31
316.001	579.31
316.23	584.31
316.46	575.31
316.689	576.31
316.919	576.31
317.148	566.31
317.377	604.31
317.607	584.31
317.836	586.31
318.065	583.31
318.295	592.31
318.524	592.31
318.753	585.31
318.983	568.31
319.212	580.31
319.441	574.31
319.67	566.31
319.9	598.31
320.129	591.31
320.358	609.31
320.587	602.31
320.816	592.31
321.046	591.31
321.275	609.31
321.504	599.31
321.733	592.31
321.962	581.31
322.191	598.31
322.42	577.31
322.649	603.31
322.878	612.31
323.108	613.31
323.337	601.31
323.566	596.31
323.795	598.31
324.024	607.31
324.253	585.31
324.482	590.31
324.71	605.31
324.939	606.31
325.168	616.31
325.397	620.31
325.626	629.31
325.855	624.31
326.084	646.31
326.313	636.31
326.542	651.31
326.77	681.31
326.999	654.31
327.228	620.31
327.457	637.31
327.686	631.31
327.914	656.31
328.143	640.31
328.372	644.31
328.6	654.31
328.829	649.31
329.058	660.31
329.287	647.31
329.515	630.31
329.744	636.31
329.972	652.31
330.201	649.31
330.43	636.31
330.658	658.31
330.887	671.31
331.115	672.31
331.344	686.31
331.572	691.31
331.801	693.31
332.03	722.31
332.258	705.31
332.486	757.31
332.715	790.31
332.943	789.31
333.172	838.31
333.4	899.31
333.629	891.31
333.857	884.31
334.085	901.31
334.314	879.31
334.542	853.31
334.771	852.31
334.999	833.31
335.227	825.31
335.455	804.31
335.684	831.31
335.912	793.31
336.14	791.31
336.369	783.31
336.597	790.31
336.825	812.31
337.053	797.31
337.281	792.31
337.51	762.31
337.738	765.31
337.966	745.31
338.194	720.31
338.422	698.31
338.65	713.31
338.878	684.31
339.106	711.31
339.334	726.31
339.562	700.31
339.79	689.31
340.018	660.31
340.246	688.31
340.474	718.31
340.702	697.31
340.93	664.31
341.158	689.31
341.386	674.31
341.614	689.31
341.842	698.31
342.07	668.31
342.298	672.31
342.526	671.31
342.754	664.31
342.981	689.31
343.209	688.31
343.437	743.31
343.665	762.31
343.893	812.31
344.12	868.31
344.348	818.31
344.576	769.31
344.804	727.31
345.031	700.31
345.259	712.31
345.487	688.31
345.714	698.31
345.942	661.31
346.17	669.31
346.397	679.31
346.625	684.31
346.853	672.31
347.08	688.31
347.308	652.31
347.535	646.31
347.763	676.31
347.99	674.31
348.218	665.31
348.445	676.31
348.673	672.31
348.9	692.31
349.128	675.31
349.355	650.31
349.583	633.31
349.81	650.31
350.037	645.31
350.265	626.31
350.492	644.31
350.72	634.31
350.947	626.31
351.174	664.31
351.402	636.31
351.629	642.31
351.856	637.31
352.083	628.31
352.311	624.31
352.538	642.31
352.765	626.31
352.992	635.31
353.22	638.31
353.447	627.31
353.674	623.31
353.901	616.31
354.128	611.31
354.355	611.31
354.583	616.31
354.81	629.31
355.037	622.31
355.264	621.31
355.491	647.31
355.718	638.31
355.945	644.31
356.172	653.31
356.399	645.31
356.626	650.31
356.853	639.31
357.08	660.31
357.307	627.31
357.534	636.31
357.761	649.31
357.988	635.31
358.215	632.31
358.441	648.31
358.668	641.31
358.895	651.31
359.122	650.31
359.349	626.31
359.576	620.31
359.802	650.31
360.029	644.31
360.256	620.31
360.483	623.31
360.709	630.31
360.936	648.31
361.163	661.31
361.39	649.31
361.616	634.31
361.843	631.31
362.07	642.31
362.296	650.31
362.523	649.31
362.749	646.31
362.976	649.31
363.203	632.31
363.429	637.31
363.656	646.31
363.882	631.31
364.109	634.31
364.335	613.31
364.562	634.31
364.788	611.31
365.015	636.31
365.241	624.31
365.468	621.31
365.694	640.31
365.92	608.31
366.147	636.31
366.373	622.31
366.599	625.31
366.826	622.31
367.052	643.31
367.278	650.31
367.505	634.31
367.731	646.31
367.957	634.31
368.184	616.31
368.41	632.31
368.636	647.31
368.862	657.31
369.089	650.31
369.315	645.31
369.541	656.31
369.767	665.31
369.993	651.31
370.219	649.31
370.445	664.31
370.672	661.31
370.898	685.31
371.124	693.31
371.35	685.31
371.576	703.31
371.802	662.31
372.028	686.31
372.254	688.31
372.48	680.31
372.706	717.31
372.932	741.31
373.158	736.31
373.384	710.31
373.61	682.31
373.835	687.31
374.061	676.31
374.287	668.31
374.513	695.31
374.739	740.31
374.965	789.31
375.191	760.31
375.416	766.31
375.642	738.31
375.868	741.31
376.094	724.31
376.319	714.31
376.545	696.31
376.771	673.31
376.997	697.31
377.222	682.31
377.448	688.31
377.674	690.31
377.899	700.31
378.125	673.31
378.35	663.31
378.576	705.31
378.802	707.31
379.027	682.31
379.253	716.31
379.478	675.31
379.704	688.31
379.929	677.31
380.155	685.31
380.38	691.31
380.606	685.31
380.831	683.31
381.057	699.31
381.282	698.31
381.507	686.31
381.733	708.31
381.958	695.31
382.184	685.31
382.409	712.31
382.634	723.31
382.86	721.31
383.085	743.31
383.31	740.31
383.535	773.31
383.761	780.31
383.986	776.31
384.211	800.31
384.436	835.31
384.662	833.31
384.887	821.31
385.112	832.31
385.337	819.31
385.562	829.31
385.787	838.31
386.013	853.31
386.238	841.31
386.463	867.31
386.688	868.31
386.913	822.31
387.138	841.31
387.363	825.31
387.588	823.31
387.813	812.31
388.038	822.31
388.263	809.31
388.488	834.31
388.713	846.31
388.938	822.31
389.163	793.31
389.387	816.31
389.612	816.31
389.837	799.31
390.062	806.31
390.287	836.31
390.512	801.31
390.736	824.31
390.961	816.31
391.186	868.31
391.411	876.31
391.636	876.31
391.86	925.31
392.085	941.31
392.31	922.31
392.534	898.31
392.759	920.31
392.984	872.31
393.208	869.31
393.433	855.31
393.658	890.31
393.882	880.31
394.107	896.31
394.331	892.31
394.556	888.31
394.78	891.31
395.005	876.31
395.229	897.31
395.454	910.31
395.678	973.31
395.903	918.31
396.127	900.31
396.352	901.31
396.576	883.31
396.801	876.31
397.025	889.31
397.249	904.31
397.474	906.31
397.698	929.31
397.922	926.31
398.147	924.31
398.371	919.31
398.595	956.31
398.82	990.31
399.044	1054.31
399.268	1197.31
399.492	1376.31
399.717	1619.31
399.941	1586.31
400.165	1411.31
400.389	1262.31
400.613	1168.31
400.837	1088.31
401.062	1046.31
401.286	1052.31
401.51	1034.31
401.734	1043.31
401.958	1026.31
402.182	1060.31
402.406	1077.31
402.63	1111.31
402.854	1112.31
403.078	1150.31
403.302	1156.31
403.526	1198.31
403.75	1201.31
403.974	1255.31
404.198	1256.31
404.422	1238.31
404.645	1230.31
404.869	1190.31
405.093	1197.31
405.317	1172.31
405.541	1133.31
405.765	1125.31
405.988	1152.31
406.212	1154.31
406.436	1141.31
406.66	1161.31
406.883	1211.31
407.107	1244.31
407.331	1340.31
407.555	1379.31
407.778	1347.31
408.002	1329.31
408.226	1280.31
408.449	1255.31
408.673	1200.31
408.896	1184.31
409.12	1159.31
409.344	1193.31
409.567	1187.31
409.791	1207.31
410.014	1186.31
410.238	1198.31
410.461	1177.31
410.685	1139.31
410.908	1168.31
411.132	1134.31
411.355	1114.31
411.578	1069.31
411.802	1080.31
412.025	1088.31
412.249	1118.31
412.472	1092.31
412.695	1057.31
412.919	1055.31
413.142	1071.31
413.365	1043.31
413.589	1083.31
413.812	1072.31
414.035	1000.31
414.258	1021.31
414.482	1102.31
414.705	1072.31
414.928	1075.31
415.151	1072.31
415.374	1039.31
415.597	1036.31
415.821	1015.31
416.044	989.31
416.267	1030.31
416.49	1016.31
416.713	1041.31
416.936	1049.31
417.159	1026.31
417.382	1040.31
417.605	1010.31
417.828	1012.31
418.051	1048.31
418.274	1065.31
418.497	1076.31
418.72	1050.31
418.943	1082.31
419.166	1142.31
419.389	1187.31
419.611	1155.31
419.834	1140.31
420.057	1082.31
420.28	1052.31
420.503	1014.31
420.726	1053.31
420.948	994.31
421.171	1025.31
421.394	1020.31
421.617	998.31
421.839	1043.31
422.062	1048.31
422.285	1030.31
422.507	1069.31
422.73	1090.31
422.953	1064.31
423.175	1102.31
423.398	1110.31
423.621	1111.31
423.843	1136.31
424.066	1120.31
424.288	1122.31
424.511	1108.31
424.733	1076.31
424.956	1077.31
425.178	1055.31
425.401	1046.31
425.623	1044.31
425.846	1023.31
426.068	999.31
426.291	1000.31
426.513	986.31
426.735	976.31
426.958	979.31
427.18	960.31
427.402	914.31
427.625	970.31
427.847	906.31
428.069	920.31
428.292	945.31
428.514	924.31
428.736	944.31
428.958	941.31
429.181	894.31
429.403	892.31
429.625	917.31
429.847	906.31
430.069	896.31
430.292	904.31
430.514	896.31
430.736	913.31
430.958	933.31
431.18	898.31
431.402	908.31
431.624	884.31
431.846	930.31
432.068	959.31
432.29	952.31
432.512	905.31
432.734	936.31
432.956	919.31
433.178	954.31
433.4	928.31
433.622	918.31
433.844	945.31
434.066	915.31
434.287	971.31
434.509	979.31
434.731	1004.31
434.953	1056.31
435.175	1050.31
435.397	1041.31
435.618	997.31
435.84	976.31
436.062	946.31
436.284	910.31
436.505	901.31
436.727	934.31
436.949	933.31
437.17	930.31
437.392	928.31
437.614	901.31
437.835	896.31
438.057	883.31
438.278	866.31
438.5	884.31
438.721	855.31
438.943	898.31
439.165	898.31
439.386	914.31
439.608	925.31
439.829	899.31
440.05	914.31
440.272	962.31
440.493	929.31
440.715	953.31
440.936	961.31
441.158	980.31
441.379	1010.31
441.6	1068.31
441.822	1064.31
442.043	1076.31
442.264	1022.31
442.486	1017.31
442.707	1006.31
442.928	1038.31
443.149	1062.31
443.371	1036.31
443.592	1048.31
443.813	1052.31
444.034	1059.31
444.255	1099.31
444.476	1166.31
444.698	1214.31
444.919	1281.31
445.14	1328.31
445.361	1204.31
445.582	1081.31
445.803	1020.31
446.024	1004.31
446.245	962.31
446.466	940.31
446.687	937.31
446.908	932.31
447.129	921.31
447.35	886.31
447.571	870.31
447.792	865.31
448.013	864.31
448.234	863.31
448.455	871.31
448.675	851.31
448.896	847.31
449.117	847.31
449.338	837.31
449.559	838.31
449.779	813.31
450	823.31
450.221	841.31
450.442	846.31
450.662	848.31
450.883	874.31
451.104	878.31
451.324	877.31
451.545	862.31
451.766	863.31
451.986	852.31
452.207	824.31
452.428	856.31
452.648	841.31
452.869	846.31
453.089	826.31
453.31	861.31
453.53	819.31
453.751	850.31
453.971	834.31
454.192	823.31
454.412	816.31
454.633	810.31
454.853	824.31
455.073	768.31
455.294	812.31
455.514	817.31
455.734	790.31
455.955	772.31
456.175	785.31
456.395	790.31
456.616	786.31
456.836	810.31
457.056	803.31
457.276	776.31
457.497	799.31
457.717	788.31
457.937	790.31
458.157	816.31
458.377	826.31
458.598	850.31
458.818	847.31
459.038	896.31
459.258	886.31
459.478	935.31
459.698	970.31
459.918	1017.31
460.138	1031.31
460.358	1100.31
460.578	1111.31
460.798	1104.31
461.018	1122.31
461.238	1084.31
461.458	1091.31
461.678	1094.31
461.898	1088.31
462.118	1093.31
462.338	1160.31
462.558	1207.31
462.777	1250.31
462.997	1364.31
463.217	1498.31
463.437	1538.31
463.657	1360.31
463.876	1316.31
464.096	1303.31
464.316	1277.31
464.536	1313.31
464.755	1231.31
464.975	1193.31
465.195	1164.31
465.414	1101.31
465.634	977.31
465.854	955.31
466.073	957.31
466.293	935.31
466.512	934.31
466.732	894.31
466.951	896.31
467.171	895.31
467.391	915.31
467.61	894.31
467.829	888.31
468.049	889.31
468.268	858.31
468.488	832.31
468.707	832.31
468.927	842.31
469.146	847.31
469.365	854.31
469.585	864.31
469.804	884.31
470.023	900.31
470.243	917.31
470.462	933.31
470.681	928.31
470.901	914.31
471.12	907.31
471.339	902.31
471.558	864.31
471.777	852.31
471.997	841.31
472.216	871.31
472.435	849.31
472.654	827.31
472.873	830.31
473.092	824.31
473.311	824.31
473.53	827.31
473.749	828.31
473.968	830.31
474.187	819.31
474.406	814.31
474.625	817.31
474.844	831.31
475.063	838.31
475.282	818.31
475.501	848.31
475.72	851.31
475.939	846.31
476.158	856.31
476.377	849.31
476.596	851.31
476.814	860.31
477.033	859.31
477.252	874.31
477.471	887.31
477.69	936.31
477.908	970.31
478.127	987.31
478.346	975.31
478.564	1013.31
478.783	1013.31
479.002	1042.31
479.22	1041.31
479.439	1034.31
479.658	1006.31
479.876	1044.31
480.095	1069.31
480.313	1123.31
480.532	1151.31
480.751	1134.31
480.969	1068.31
481.188	1005.31
481.406	996.31
481.624	970.31
481.843	973.31
482.061	950.31
482.28	943.31
482.498	940.31
482.717	954.31
482.935	932.31
483.153	910.31
483.372	924.31
483.59	937.31
483.808	932.31
484.027	934.31
484.245	961.31
484.463	961.31
484.681	968.31
484.9	990.31
485.118	986.31
485.336	1005.31
485.554	994.31
485.772	1005.31
485.99	1008.31
486.209	1024.31
486.427	1022.31
486.645	983.31
486.863	988.31
487.081	1000.31
487.299	1018.31
487.517	1008.31
487.735	1011.31
487.953	1030.31
488.171	975.31
488.389	999.31
488.607	974.31
488.825	1001.31
489.043	943.31
489.261	948.31
489.479	968.31
489.696	993.31
489.914	997.31
490.132	984.31
490.35	976.31
490.568	999.31
490.786	1008.31
491.003	1006.31
491.221	1030.31
491.439	997.31
491.657	1013.31
491.874	1002.31
492.092	996.31
492.31	1035.31
492.527	1034.31
492.745	1028.31
492.963	1001.31
493.18	1020.31
493.398	1016.31
493.615	1036.31
493.833	1051.31
494.05	1080.31
494.268	1063.31
494.485	1074.31
494.703	1062.31
494.92	1048.31
495.138	1029.31
495.355	1049.31
495.573	1020.31
495.79	1046.31
496.008	1064.31
496.225	1073.31
496.442	1040.31
496.66	1088.31
496.877	1089.31
497.094	1104.31
497.312	1146.31
497.529	1165.31
497.746	1184.31
497.963	1199.31
498.181	1299.31
498.398	1314.31
