Data from Ni(NO3)2@0.5M.TitratingCurve.Agarose3%dH2O.NegLispCup.LampEnergy10.LIBS07252019_HRD10591_17-58-47-564.txt Node
Date: Thu Jul 25 17:58:47 EDT 2019
User: cochatt
Spectrometer: HR+D1059
Trigger mode: 1
Integration Time (sec): 1.000000E-1
Scans to average: 1
Electric dark correction enabled: true
Nonlinearity correction enabled: false
Boxcar width: 0
XAxis mode: Wavelengths
Number of Pixels in Spectrum: 2048
>>>>>Begin Spectral Data<<<<<
223.165	-21.88
223.4	-21.88
223.635	-21.88
223.869	-20.88
224.104	-21.88
224.338	-12.88
224.573	-11.88
224.808	2.12
225.042	-13.88
225.277	-7.88
225.511	-15.88
225.746	1.12
225.98	10.12
226.215	11.12
226.449	22.12
226.683	12.12
226.918	26.12
227.152	42.12
227.387	20.12
227.621	34.12
227.856	41.12
228.09	41.12
228.324	48.12
228.559	52.12
228.793	93.12
229.027	117.12
229.262	140.12
229.496	134.12
229.73	150.12
229.964	170.12
230.199	196.12
230.433	191.12
230.667	178.12
230.901	178.12
231.136	160.12
231.37	154.12
231.604	164.12
231.838	186.12
232.072	194.12
232.306	185.12
232.541	165.12
232.775	155.12
233.009	152.12
233.243	149.12
233.477	165.12
233.711	164.12
233.945	151.12
234.179	170.12
234.413	147.12
234.647	159.12
234.881	168.12
235.115	169.12
235.349	151.12
235.583	152.12
235.817	145.12
236.051	136.12
236.285	156.12
236.519	159.12
236.753	164.12
236.987	151.12
237.221	143.12
237.455	151.12
237.689	166.12
237.922	158.12
238.156	156.12
238.39	168.12
238.624	158.12
238.858	157.12
239.091	166.12
239.325	183.12
239.559	189.12
239.793	205.12
240.027	193.12
240.26	166.12
240.494	162.12
240.728	178.12
240.961	197.12
241.195	173.12
241.429	167.12
241.662	186.12
241.896	206.12
242.13	212.12
242.363	198.12
242.597	176.12
242.83	179.12
243.064	179.12
243.298	189.12
243.531	185.12
243.765	200.12
243.998	199.12
244.232	216.12
244.465	193.12
244.699	193.12
244.932	196.12
245.166	206.12
245.399	195.12
245.633	196.12
245.866	206.12
246.099	194.12
246.333	211.12
246.566	194.12
246.8	198.12
247.033	214.12
247.266	195.12
247.5	212.12
247.733	205.12
247.966	209.12
248.2	209.12
248.433	234.12
248.666	209.12
248.899	218.12
249.133	230.12
249.366	229.12
249.599	237.12
249.832	222.12
250.066	223.12
250.299	239.12
250.532	221.12
250.765	247.12
250.998	246.12
251.231	244.12
251.465	274.12
251.698	268.12
251.931	272.12
252.164	240.12
252.397	255.12
252.63	258.12
252.863	260.12
253.096	249.12
253.329	249.12
253.562	262.12
253.795	258.12
254.028	271.12
254.261	257.12
254.494	267.12
254.727	264.12
254.96	265.12
255.193	276.12
255.426	282.12
255.659	260.12
255.892	285.12
256.124	300.12
256.357	278.12
256.59	279.12
256.823	287.12
257.056	269.12
257.289	286.12
257.521	287.12
257.754	280.12
257.987	302.12
258.22	301.12
258.452	301.12
258.685	294.12
258.918	291.12
259.151	280.12
259.383	298.12
259.616	273.12
259.849	290.12
260.081	315.12
260.314	293.12
260.547	288.12
260.779	309.12
261.012	298.12
261.244	302.12
261.477	322.12
261.71	324.12
261.942	314.12
262.175	316.12
262.407	330.12
262.64	294.12
262.872	290.12
263.105	310.12
263.337	316.12
263.57	324.12
263.802	342.12
264.035	325.12
264.267	334.12
264.499	322.12
264.732	319.12
264.964	331.12
265.197	346.12
265.429	321.12
265.661	340.12
265.894	332.12
266.126	336.12
266.358	364.12
266.591	333.12
266.823	330.12
267.055	330.12
267.287	352.12
267.52	344.12
267.752	350.12
267.984	336.12
268.216	366.12
268.448	361.12
268.681	350.12
268.913	363.12
269.145	376.12
269.377	356.12
269.609	357.12
269.841	353.12
270.073	371.12
270.306	337.12
270.538	358.12
270.77	374.12
271.002	367.12
271.234	372.12
271.466	379.12
271.698	380.12
271.93	384.12
272.162	366.12
272.394	366.12
272.626	376.12
272.858	388.12
273.09	379.12
273.322	404.12
273.553	395.12
273.785	378.12
274.017	368.12
274.249	382.12
274.481	390.12
274.713	383.12
274.945	380.12
275.176	389.12
275.408	379.12
275.64	401.12
275.872	397.12
276.104	402.12
276.335	404.12
276.567	406.12
276.799	413.12
277.031	406.12
277.262	403.12
277.494	410.12
277.726	412.12
277.957	395.12
278.189	418.12
278.421	419.12
278.652	424.12
278.884	410.12
279.115	440.12
279.347	427.12
279.579	436.12
279.81	408.12
280.042	426.12
280.273	419.12
280.505	434.12
280.736	439.12
280.968	434.12
281.199	422.12
281.431	436.12
281.662	438.12
281.894	464.12
282.125	441.12
282.356	454.12
282.588	426.12
282.819	436.12
283.051	431.12
283.282	427.12
283.513	443.12
283.745	444.12
283.976	454.12
284.207	448.12
284.439	440.12
284.67	455.12
284.901	464.12
285.132	457.12
285.364	463.12
285.595	467.12
285.826	454.12
286.057	467.12
286.288	447.12
286.52	469.12
286.751	474.12
286.982	480.12
287.213	476.12
287.444	475.12
287.675	452.12
287.906	482.12
288.138	476.12
288.369	476.12
288.6	454.12
288.831	479.12
289.062	468.12
289.293	472.12
289.524	491.12
289.755	487.12
289.986	461.12
290.217	464.12
290.448	472.12
290.679	463.12
290.91	492.12
291.141	476.12
291.371	486.12
291.602	497.12
291.833	454.12
292.064	481.12
292.295	472.12
292.526	478.12
292.757	482.12
292.987	457.12
293.218	474.12
293.449	482.12
293.68	491.12
293.91	512.12
294.141	491.12
294.372	504.12
294.603	492.12
294.833	486.12
295.064	507.12
295.295	481.12
295.525	475.12
295.756	487.12
295.987	476.12
296.217	502.12
296.448	493.12
296.679	464.12
296.909	492.12
297.14	502.12
297.37	518.12
297.601	514.12
297.831	508.12
298.062	500.12
298.292	518.12
298.523	509.12
298.753	525.12
298.984	526.12
299.214	515.12
299.445	543.12
299.675	532.12
299.905	518.12
300.136	526.12
300.366	564.12
300.597	570.12
300.827	554.12
301.057	544.12
301.288	546.12
301.518	559.12
301.748	521.12
301.979	554.12
302.209	536.12
302.439	564.12
302.669	535.12
302.9	542.12
303.13	552.12
303.36	572.12
303.59	571.12
303.82	563.12
304.051	610.12
304.281	570.12
304.511	575.12
304.741	584.12
304.971	606.12
305.201	602.12
305.431	609.12
305.661	590.12
305.891	605.12
306.121	574.12
306.352	563.12
306.582	547.12
306.812	574.12
307.042	562.12
307.272	576.12
307.502	565.12
307.731	544.12
307.961	550.12
308.191	566.12
308.421	568.12
308.651	550.12
308.881	562.12
309.111	574.12
309.341	554.12
309.571	555.12
309.8	590.12
310.03	596.12
310.26	621.12
310.49	622.12
310.72	606.12
310.949	587.12
311.179	590.12
311.409	574.12
311.639	600.12
311.868	618.12
312.098	611.12
312.328	607.12
312.557	580.12
312.787	590.12
313.017	596.12
313.246	615.12
313.476	629.12
313.706	636.12
313.935	607.12
314.165	614.12
314.394	603.12
314.624	590.12
314.853	602.12
315.083	614.12
315.312	629.12
315.542	626.12
315.771	633.12
316.001	612.12
316.23	611.12
316.46	627.12
316.689	620.12
316.919	615.12
317.148	606.12
317.377	619.12
317.607	637.12
317.836	623.12
318.065	627.12
318.295	644.12
318.524	653.12
318.753	644.12
318.983	628.12
319.212	656.12
319.441	642.12
319.67	630.12
319.9	623.12
320.129	628.12
320.358	654.12
320.587	644.12
320.816	640.12
321.046	640.12
321.275	653.12
321.504	669.12
321.733	642.12
321.962	662.12
322.191	657.12
322.42	656.12
322.649	640.12
322.878	669.12
323.108	646.12
323.337	664.12
323.566	685.12
323.795	674.12
324.024	658.12
324.253	668.12
324.482	654.12
324.71	675.12
324.939	687.12
325.168	699.12
325.397	674.12
325.626	679.12
325.855	679.12
326.084	669.12
326.313	709.12
326.542	707.12
326.77	695.12
326.999	637.12
327.228	701.12
327.457	707.12
327.686	714.12
327.914	700.12
328.143	678.12
328.372	698.12
328.6	719.12
328.829	703.12
329.058	699.12
329.287	701.12
329.515	693.12
329.744	710.12
329.972	715.12
330.201	716.12
330.43	743.12
330.658	719.12
330.887	723.12
331.115	726.12
331.344	736.12
331.572	723.12
331.801	734.12
332.03	756.12
332.258	744.12
332.486	741.12
332.715	746.12
332.943	760.12
333.172	802.12
333.4	818.12
333.629	786.12
333.857	788.12
334.085	809.12
334.314	792.12
334.542	799.12
334.771	809.12
334.999	801.12
335.227	830.12
335.455	813.12
335.684	805.12
335.912	823.12
336.14	820.12
336.369	829.12
336.597	825.12
336.825	825.12
337.053	836.12
337.281	836.12
337.51	810.12
337.738	795.12
337.966	820.12
338.194	830.12
338.422	842.12
338.65	804.12
338.878	780.12
339.106	813.12
339.334	823.12
339.562	790.12
339.79	782.12
340.018	783.12
340.246	761.12
340.474	783.12
340.702	783.12
340.93	772.12
341.158	802.12
341.386	817.12
341.614	863.12
341.842	825.12
342.07	797.12
342.298	792.12
342.526	770.12
342.754	754.12
342.981	767.12
343.209	796.12
343.437	811.12
343.665	835.12
343.893	829.12
344.12	823.12
344.348	827.12
344.576	862.12
344.804	848.12
345.031	810.12
345.259	781.12
345.487	801.12
345.714	794.12
345.942	810.12
346.17	840.12
346.397	805.12
346.625	757.12
346.853	777.12
347.08	745.12
347.308	744.12
347.535	754.12
347.763	751.12
347.99	757.12
348.218	731.12
348.445	743.12
348.673	748.12
348.9	754.12
349.128	758.12
349.355	783.12
349.583	791.12
349.81	746.12
350.037	746.12
350.265	744.12
350.492	734.12
350.72	726.12
350.947	745.12
351.174	766.12
351.402	783.12
351.629	817.12
351.856	784.12
352.083	756.12
352.311	776.12
352.538	823.12
352.765	782.12
352.992	717.12
353.22	728.12
353.447	731.12
353.674	714.12
353.901	699.12
354.128	720.12
354.355	719.12
354.583	708.12
354.81	726.12
355.037	730.12
355.264	725.12
355.491	724.12
355.718	714.12
355.945	723.12
356.172	742.12
356.399	725.12
356.626	742.12
356.853	771.12
357.08	739.12
357.307	754.12
357.534	748.12
357.761	714.12
357.988	720.12
358.215	729.12
358.441	702.12
358.668	726.12
358.895	733.12
359.122	719.12
359.349	739.12
359.576	727.12
359.802	742.12
360.029	720.12
360.256	727.12
360.483	719.12
360.709	739.12
360.936	767.12
361.163	749.12
361.39	735.12
361.616	765.12
361.843	777.12
362.07	827.12
362.296	795.12
362.523	743.12
362.749	736.12
362.976	712.12
363.203	711.12
363.429	732.12
363.656	728.12
363.882	724.12
364.109	730.12
364.335	722.12
364.562	744.12
364.788	738.12
365.015	715.12
365.241	736.12
365.468	732.12
365.694	740.12
365.92	736.12
366.147	757.12
366.373	719.12
366.599	746.12
366.826	723.12
367.052	752.12
367.278	734.12
367.505	757.12
367.731	753.12
367.957	745.12
368.184	758.12
368.41	751.12
368.636	728.12
368.862	764.12
369.089	756.12
369.315	761.12
369.541	746.12
369.767	785.12
369.993	762.12
370.219	790.12
370.445	740.12
370.672	759.12
370.898	785.12
371.124	762.12
371.35	804.12
371.576	774.12
371.802	807.12
372.028	804.12
372.254	797.12
372.48	777.12
372.706	804.12
372.932	788.12
373.158	805.12
373.384	814.12
373.61	785.12
373.835	802.12
374.061	814.12
374.287	777.12
374.513	810.12
374.739	785.12
374.965	819.12
375.191	814.12
375.416	782.12
375.642	792.12
375.868	807.12
376.094	796.12
376.319	803.12
376.545	792.12
376.771	761.12
376.997	776.12
377.222	742.12
377.448	770.12
377.674	789.12
377.899	774.12
378.125	773.12
378.35	759.12
378.576	776.12
378.802	754.12
379.027	795.12
379.253	787.12
379.478	782.12
379.704	753.12
379.929	770.12
380.155	751.12
380.38	755.12
380.606	788.12
380.831	780.12
381.057	807.12
381.282	790.12
381.507	796.12
381.733	780.12
381.958	781.12
382.184	797.12
382.409	805.12
382.634	798.12
382.86	792.12
383.085	808.12
383.31	804.12
383.535	804.12
383.761	825.12
383.986	816.12
384.211	817.12
384.436	844.12
384.662	828.12
384.887	853.12
385.112	822.12
385.337	856.12
385.562	856.12
385.787	870.12
386.013	849.12
386.238	858.12
386.463	861.12
386.688	848.12
386.913	876.12
387.138	870.12
387.363	846.12
387.588	854.12
387.813	860.12
388.038	905.12
388.263	896.12
388.488	882.12
388.713	876.12
388.938	860.12
389.163	882.12
389.387	903.12
389.612	851.12
389.837	871.12
390.062	890.12
390.287	873.12
390.512	880.12
390.736	880.12
390.961	880.12
391.186	882.12
391.411	912.12
391.636	941.12
391.86	928.12
392.085	903.12
392.31	922.12
392.534	904.12
392.759	925.12
392.984	930.12
393.208	894.12
393.433	919.12
393.658	922.12
393.882	911.12
394.107	911.12
394.331	919.12
394.556	906.12
394.78	920.12
395.005	923.12
395.229	950.12
395.454	929.12
395.678	943.12
395.903	950.12
396.127	934.12
396.352	927.12
396.576	911.12
396.801	924.12
397.025	951.12
397.249	946.12
397.474	971.12
397.698	968.12
397.922	974.12
398.147	950.12
398.371	997.12
398.595	980.12
398.82	1046.12
399.044	1060.12
399.268	1097.12
399.492	1126.12
399.717	1188.12
399.941	1200.12
400.165	1152.12
400.389	1133.12
400.613	1079.12
400.837	1065.12
401.062	1062.12
401.286	1049.12
401.51	1036.12
401.734	1036.12
401.958	1030.12
402.182	1020.12
402.406	1039.12
402.63	1034.12
402.854	1065.12
403.078	1038.12
403.302	1021.12
403.526	1048.12
403.75	1048.12
403.974	1050.12
404.198	1055.12
404.422	1079.12
404.645	1040.12
404.869	1067.12
405.093	1070.12
405.317	1066.12
405.541	1050.12
405.765	1085.12
405.988	1062.12
406.212	1071.12
406.436	1082.12
406.66	1110.12
406.883	1113.12
407.107	1141.12
407.331	1133.12
407.555	1179.12
407.778	1196.12
408.002	1177.12
408.226	1142.12
408.449	1164.12
408.673	1159.12
408.896	1121.12
409.12	1116.12
409.344	1147.12
409.567	1064.12
409.791	1111.12
410.014	1062.12
410.238	1101.12
410.461	1086.12
410.685	1114.12
410.908	1077.12
411.132	1076.12
411.355	1071.12
411.578	1091.12
411.802	1085.12
412.025	1040.12
412.249	1050.12
412.472	1085.12
412.695	1016.12
412.919	1083.12
413.142	1026.12
413.365	1038.12
413.589	1048.12
413.812	1065.12
414.035	1051.12
414.258	1097.12
414.482	1040.12
414.705	1046.12
414.928	1039.12
415.151	1041.12
415.374	1033.12
415.597	999.12
415.821	1004.12
416.044	1027.12
416.267	1004.12
416.49	1000.12
416.713	1022.12
416.936	1025.12
417.159	1013.12
417.382	1029.12
417.605	1001.12
417.828	1024.12
418.051	979.12
418.274	996.12
418.497	978.12
418.72	1000.12
418.943	1007.12
419.166	1035.12
419.389	1087.12
419.611	1078.12
419.834	1068.12
420.057	1063.12
420.28	1027.12
420.503	996.12
420.726	970.12
420.948	982.12
421.171	1008.12
421.394	973.12
421.617	997.12
421.839	990.12
422.062	1015.12
422.285	959.12
422.507	990.12
422.73	1001.12
422.953	982.12
423.175	990.12
423.398	1007.12
423.621	992.12
423.843	1007.12
424.066	1022.12
424.288	992.12
424.511	977.12
424.733	976.12
424.956	977.12
425.178	991.12
425.401	975.12
425.623	995.12
425.846	973.12
426.068	959.12
426.291	974.12
426.513	961.12
426.735	975.12
426.958	964.12
427.18	960.12
427.402	959.12
427.625	975.12
427.847	964.12
428.069	972.12
428.292	941.12
428.514	967.12
428.736	928.12
428.958	956.12
429.181	942.12
429.403	926.12
429.625	968.12
429.847	951.12
430.069	942.12
430.292	973.12
430.514	940.12
430.736	950.12
430.958	985.12
431.18	957.12
431.402	973.12
431.624	969.12
431.846	968.12
432.068	954.12
432.29	967.12
432.512	946.12
432.734	985.12
432.956	969.12
433.178	998.12
433.4	1007.12
433.622	1046.12
433.844	995.12
434.066	1026.12
434.287	976.12
434.509	982.12
434.731	1006.12
434.953	1023.12
435.175	1033.12
435.397	1050.12
435.618	983.12
435.84	976.12
436.062	956.12
436.284	964.12
436.505	976.12
436.727	981.12
436.949	999.12
437.17	983.12
437.392	986.12
437.614	971.12
437.835	933.12
438.057	928.12
438.278	902.12
438.5	941.12
438.721	915.12
438.943	963.12
439.165	956.12
439.386	952.12
439.608	948.12
439.829	943.12
440.05	955.12
440.272	971.12
440.493	987.12
440.715	983.12
440.936	996.12
441.158	1015.12
441.379	997.12
441.6	1030.12
441.822	1040.12
442.043	1011.12
442.264	1027.12
442.486	986.12
442.707	995.12
442.928	998.12
443.149	1043.12
443.371	1048.12
443.592	1081.12
443.813	1060.12
444.034	1048.12
444.255	1012.12
444.476	1052.12
444.698	1065.12
444.919	1084.12
445.14	1185.12
445.361	1095.12
445.582	1084.12
445.803	1007.12
446.024	971.12
446.245	963.12
446.466	973.12
446.687	959.12
446.908	963.12
447.129	942.12
447.35	960.12
447.571	931.12
447.792	899.12
448.013	900.12
448.234	892.12
448.455	905.12
448.675	895.12
448.896	911.12
449.117	893.12
449.338	902.12
449.559	887.12
449.779	897.12
450	882.12
450.221	868.12
450.442	887.12
450.662	898.12
450.883	897.12
451.104	939.12
451.324	912.12
451.545	884.12
451.766	873.12
451.986	862.12
452.207	863.12
452.428	875.12
452.648	856.12
452.869	865.12
453.089	864.12
453.31	859.12
453.53	879.12
453.751	869.12
453.971	882.12
454.192	883.12
454.412	900.12
454.633	849.12
454.853	843.12
455.073	849.12
455.294	868.12
455.514	849.12
455.734	911.12
455.955	914.12
456.175	883.12
456.395	870.12
456.616	857.12
456.836	831.12
457.056	822.12
457.276	815.12
457.497	889.12
457.717	878.12
457.937	892.12
458.157	861.12
458.377	869.12
458.598	877.12
458.818	916.12
459.038	928.12
459.258	917.12
459.478	1028.12
459.698	1078.12
459.918	1053.12
460.138	1058.12
460.358	1035.12
460.578	1054.12
460.798	1108.12
461.018	1110.12
461.238	1044.12
461.458	1026.12
461.678	1017.12
461.898	1032.12
462.118	1054.12
462.338	1097.12
462.558	1112.12
462.777	1142.12
462.997	1186.12
463.217	1208.12
463.437	1226.12
463.657	1187.12
463.876	1135.12
464.096	1138.12
464.316	1120.12
464.536	1138.12
464.755	1095.12
464.975	1040.12
465.195	1019.12
465.414	1053.12
465.634	1005.12
465.854	982.12
466.073	984.12
466.293	977.12
466.512	935.12
466.732	942.12
466.951	923.12
467.171	945.12
467.391	967.12
467.61	955.12
467.829	915.12
468.049	938.12
468.268	933.12
468.488	927.12
468.707	912.12
468.927	926.12
469.146	940.12
469.365	964.12
469.585	946.12
469.804	950.12
470.023	934.12
470.243	952.12
470.462	924.12
470.681	933.12
470.901	911.12
471.12	942.12
471.339	923.12
471.558	942.12
471.777	939.12
471.997	931.12
472.216	904.12
472.435	911.12
472.654	933.12
472.873	926.12
473.092	895.12
473.311	905.12
473.53	919.12
473.749	937.12
473.968	903.12
474.187	893.12
474.406	900.12
474.625	911.12
474.844	910.12
475.063	956.12
475.282	929.12
475.501	928.12
475.72	940.12
475.939	951.12
476.158	946.12
476.377	974.12
476.596	940.12
476.814	961.12
477.033	970.12
477.252	973.12
477.471	1006.12
477.69	1034.12
477.908	1037.12
478.127	1071.12
478.346	1044.12
478.564	1045.12
478.783	1086.12
479.002	1113.12
479.22	1146.12
479.439	1108.12
479.658	1079.12
479.876	1091.12
480.095	1085.12
480.313	1107.12
480.532	1098.12
480.751	1112.12
480.969	1094.12
481.188	1100.12
481.406	1061.12
481.624	1065.12
481.843	1055.12
482.061	1055.12
482.28	1070.12
482.498	1060.12
482.717	1072.12
482.935	1091.12
483.153	1079.12
483.372	1102.12
483.59	1180.12
483.808	1119.12
484.027	1095.12
484.245	1086.12
484.463	1083.12
484.681	1077.12
484.9	1069.12
485.118	1128.12
485.336	1108.12
485.554	1119.12
485.772	1096.12
485.99	1123.12
486.209	1106.12
486.427	1103.12
486.645	1100.12
486.863	1109.12
487.081	1094.12
487.299	1125.12
487.517	1137.12
487.735	1149.12
487.953	1158.12
488.171	1148.12
488.389	1131.12
488.607	1115.12
488.825	1134.12
489.043	1084.12
489.261	1095.12
489.479	1104.12
489.696	1142.12
489.914	1080.12
490.132	1111.12
490.35	1114.12
490.568	1091.12
490.786	1163.12
491.003	1146.12
491.221	1110.12
491.439	1114.12
491.657	1115.12
491.874	1173.12
492.092	1142.12
492.31	1178.12
492.527	1154.12
492.745	1174.12
492.963	1154.12
493.18	1144.12
493.398	1139.12
493.615	1161.12
493.833	1154.12
494.05	1167.12
494.268	1180.12
494.485	1157.12
494.703	1175.12
494.92	1193.12
495.138	1176.12
495.355	1162.12
495.573	1202.12
495.79	1164.12
496.008	1190.12
496.225	1202.12
496.442	1226.12
496.66	1240.12
496.877	1228.12
497.094	1251.12
497.312	1250.12
497.529	1269.12
497.746	1303.12
497.963	1312.12
498.181	1337.12
