Data from Ni(NO3)2Standard.Agarose3%.GreenCap.LampEnergy5.5.E.O_HRD10591_14-42-43-188.txt Node
Date: Mon Jul 22 14:42:43 EDT 2019
User: cochatt
Spectrometer: HR+D1059
Trigger mode: 1
Integration Time (sec): 1.000000E-1
Scans to average: 1
Electric dark correction enabled: true
Nonlinearity correction enabled: false
Boxcar width: 0
XAxis mode: Wavelengths
Number of Pixels in Spectrum: 2048
>>>>>Begin Spectral Data<<<<<
223.165	-11.06
223.4	-11.06
223.635	-11.06
223.869	-13.06
224.104	-15.06
224.338	-13.06
224.573	-19.06
224.808	-8.06
225.042	-19.06
225.277	-4.06
225.511	7.94
225.746	9.94
225.98	11.94
226.215	-6.06
226.449	23.94
226.683	14.94
226.918	8.94
227.152	30.94
227.387	37.94
227.621	28.94
227.856	57.94
228.09	44.94
228.324	34.94
228.559	49.94
228.793	54.94
229.027	55.94
229.262	54.94
229.496	67.94
229.73	70.94
229.964	76.94
230.199	65.94
230.433	70.94
230.667	76.94
230.901	67.94
231.136	82.94
231.37	79.94
231.604	79.94
231.838	69.94
232.072	86.94
232.306	69.94
232.541	81.94
232.775	86.94
233.009	76.94
233.243	86.94
233.477	96.94
233.711	73.94
233.945	76.94
234.179	90.94
234.413	96.94
234.647	89.94
234.881	76.94
235.115	75.94
235.349	73.94
235.583	89.94
235.817	84.94
236.051	81.94
236.285	87.94
236.519	70.94
236.753	63.94
236.987	74.94
237.221	72.94
237.455	67.94
237.689	75.94
237.922	76.94
238.156	69.94
238.39	83.94
238.624	76.94
238.858	76.94
239.091	75.94
239.325	64.94
239.559	75.94
239.793	67.94
240.027	69.94
240.26	75.94
240.494	88.94
240.728	77.94
240.961	86.94
241.195	90.94
241.429	88.94
241.662	65.94
241.896	80.94
242.13	76.94
242.363	77.94
242.597	80.94
242.83	75.94
243.064	75.94
243.298	74.94
243.531	74.94
243.765	85.94
243.998	79.94
244.232	76.94
244.465	78.94
244.699	77.94
244.932	75.94
245.166	68.94
245.399	82.94
245.633	82.94
245.866	80.94
246.099	93.94
246.333	82.94
246.566	84.94
246.8	71.94
247.033	97.94
247.266	91.94
247.5	97.94
247.733	75.94
247.966	73.94
248.2	78.94
248.433	78.94
248.666	77.94
248.899	68.94
249.133	85.94
249.366	77.94
249.599	76.94
249.832	64.94
250.066	80.94
250.299	85.94
250.532	75.94
250.765	68.94
250.998	67.94
251.231	72.94
251.465	73.94
251.698	85.94
251.931	70.94
252.164	73.94
252.397	83.94
252.63	95.94
252.863	82.94
253.096	85.94
253.329	72.94
253.562	73.94
253.795	75.94
254.028	74.94
254.261	76.94
254.494	60.94
254.727	87.94
254.96	76.94
255.193	84.94
255.426	74.94
255.659	64.94
255.892	76.94
256.124	67.94
256.357	70.94
256.59	77.94
256.823	81.94
257.056	83.94
257.289	85.94
257.521	81.94
257.754	85.94
257.987	75.94
258.22	74.94
258.452	79.94
258.685	80.94
258.918	78.94
259.151	73.94
259.383	86.94
259.616	88.94
259.849	81.94
260.081	82.94
260.314	77.94
260.547	68.94
260.779	79.94
261.012	69.94
261.244	81.94
261.477	105.94
261.71	96.94
261.942	87.94
262.175	94.94
262.407	89.94
262.64	58.94
262.872	69.94
263.105	101.94
263.337	72.94
263.57	82.94
263.802	82.94
264.035	75.94
264.267	75.94
264.499	73.94
264.732	103.94
264.964	77.94
265.197	88.94
265.429	93.94
265.661	70.94
265.894	71.94
266.126	75.94
266.358	76.94
266.591	76.94
266.823	77.94
267.055	78.94
267.287	94.94
267.52	83.94
267.752	83.94
267.984	92.94
268.216	69.94
268.448	105.94
268.681	85.94
268.913	84.94
269.145	85.94
269.377	77.94
269.609	87.94
269.841	88.94
270.073	75.94
270.306	63.94
270.538	80.94
270.77	77.94
271.002	87.94
271.234	93.94
271.466	91.94
271.698	91.94
271.93	85.94
272.162	76.94
272.394	72.94
272.626	75.94
272.858	67.94
273.09	84.94
273.322	87.94
273.553	77.94
273.785	90.94
274.017	74.94
274.249	87.94
274.481	84.94
274.713	78.94
274.945	90.94
275.176	83.94
275.408	82.94
275.64	82.94
275.872	92.94
276.104	90.94
276.335	91.94
276.567	80.94
276.799	77.94
277.031	70.94
277.262	80.94
277.494	83.94
277.726	81.94
277.957	63.94
278.189	70.94
278.421	93.94
278.652	75.94
278.884	81.94
279.115	83.94
279.347	87.94
279.579	75.94
279.81	84.94
280.042	88.94
280.273	80.94
280.505	73.94
280.736	74.94
280.968	86.94
281.199	88.94
281.431	81.94
281.662	80.94
281.894	81.94
282.125	77.94
282.356	93.94
282.588	77.94
282.819	84.94
283.051	90.94
283.282	87.94
283.513	86.94
283.745	92.94
283.976	88.94
284.207	84.94
284.439	91.94
284.67	94.94
284.901	71.94
285.132	82.94
285.364	86.94
285.595	84.94
285.826	89.94
286.057	97.94
286.288	95.94
286.52	84.94
286.751	68.94
286.982	74.94
287.213	84.94
287.444	85.94
287.675	75.94
287.906	88.94
288.138	81.94
288.369	83.94
288.6	68.94
288.831	81.94
289.062	93.94
289.293	87.94
289.524	88.94
289.755	80.94
289.986	85.94
290.217	81.94
290.448	90.94
290.679	77.94
290.91	97.94
291.141	88.94
291.371	96.94
291.602	81.94
291.833	82.94
292.064	86.94
292.295	84.94
292.526	74.94
292.757	84.94
292.987	81.94
293.218	82.94
293.449	91.94
293.68	81.94
293.91	87.94
294.141	79.94
294.372	90.94
294.603	99.94
294.833	80.94
295.064	97.94
295.295	85.94
295.525	87.94
295.756	81.94
295.987	84.94
296.217	76.94
296.448	80.94
296.679	86.94
296.909	91.94
297.14	85.94
297.37	83.94
297.601	81.94
297.831	85.94
298.062	74.94
298.292	83.94
298.523	89.94
298.753	97.94
298.984	80.94
299.214	76.94
299.445	91.94
299.675	81.94
299.905	91.94
300.136	88.94
300.366	77.94
300.597	79.94
300.827	77.94
301.057	75.94
301.288	72.94
301.518	86.94
301.748	82.94
301.979	90.94
302.209	81.94
302.439	71.94
302.669	74.94
302.9	84.94
303.13	103.94
303.36	100.94
303.59	91.94
303.82	85.94
304.051	91.94
304.281	88.94
304.511	95.94
304.741	78.94
304.971	87.94
305.201	94.94
305.431	78.94
305.661	75.94
305.891	80.94
306.121	81.94
306.352	86.94
306.582	86.94
306.812	84.94
307.042	76.94
307.272	92.94
307.502	82.94
307.731	77.94
307.961	91.94
308.191	83.94
308.421	79.94
308.651	76.94
308.881	91.94
309.111	82.94
309.341	69.94
309.571	83.94
309.8	80.94
310.03	85.94
310.26	88.94
310.49	77.94
310.72	87.94
310.949	86.94
311.179	58.94
311.409	80.94
311.639	74.94
311.868	84.94
312.098	75.94
312.328	86.94
312.557	78.94
312.787	77.94
313.017	105.94
313.246	84.94
313.476	91.94
313.706	76.94
313.935	87.94
314.165	75.94
314.394	88.94
314.624	75.94
314.853	92.94
315.083	77.94
315.312	94.94
315.542	85.94
315.771	77.94
316.001	84.94
316.23	88.94
316.46	86.94
316.689	76.94
316.919	83.94
317.148	77.94
317.377	96.94
317.607	93.94
317.836	89.94
318.065	99.94
318.295	88.94
318.524	90.94
318.753	89.94
318.983	80.94
319.212	88.94
319.441	92.94
319.67	89.94
319.9	80.94
320.129	100.94
320.358	92.94
320.587	83.94
320.816	67.94
321.046	83.94
321.275	96.94
321.504	87.94
321.733	83.94
321.962	77.94
322.191	99.94
322.42	88.94
322.649	87.94
322.878	89.94
323.108	83.94
323.337	81.94
323.566	99.94
323.795	81.94
324.024	95.94
324.253	89.94
324.482	88.94
324.71	85.94
324.939	88.94
325.168	91.94
325.397	81.94
325.626	77.94
325.855	75.94
326.084	82.94
326.313	91.94
326.542	85.94
326.77	88.94
326.999	91.94
327.228	86.94
327.457	87.94
327.686	79.94
327.914	83.94
328.143	81.94
328.372	85.94
328.6	94.94
328.829	108.94
329.058	86.94
329.287	84.94
329.515	89.94
329.744	93.94
329.972	76.94
330.201	85.94
330.43	79.94
330.658	91.94
330.887	85.94
331.115	92.94
331.344	75.94
331.572	71.94
331.801	82.94
332.03	82.94
332.258	79.94
332.486	88.94
332.715	75.94
332.943	85.94
333.172	88.94
333.4	83.94
333.629	85.94
333.857	96.94
334.085	86.94
334.314	75.94
334.542	84.94
334.771	89.94
334.999	99.94
335.227	84.94
335.455	105.94
335.684	71.94
335.912	94.94
336.14	91.94
336.369	74.94
336.597	87.94
336.825	98.94
337.053	77.94
337.281	81.94
337.51	80.94
337.738	96.94
337.966	90.94
338.194	80.94
338.422	97.94
338.65	94.94
338.878	85.94
339.106	85.94
339.334	106.94
339.562	89.94
339.79	86.94
340.018	92.94
340.246	89.94
340.474	91.94
340.702	85.94
340.93	82.94
341.158	77.94
341.386	81.94
341.614	81.94
341.842	89.94
342.07	93.94
342.298	84.94
342.526	81.94
342.754	96.94
342.981	89.94
343.209	90.94
343.437	106.94
343.665	81.94
343.893	76.94
344.12	99.94
344.348	85.94
344.576	80.94
344.804	80.94
345.031	78.94
345.259	70.94
345.487	83.94
345.714	85.94
345.942	75.94
346.17	80.94
346.397	76.94
346.625	84.94
346.853	81.94
347.08	93.94
347.308	76.94
347.535	85.94
347.763	96.94
347.99	72.94
348.218	74.94
348.445	89.94
348.673	73.94
348.9	104.94
349.128	83.94
349.355	85.94
349.583	98.94
349.81	85.94
350.037	96.94
350.265	81.94
350.492	85.94
350.72	78.94
350.947	81.94
351.174	88.94
351.402	84.94
351.629	71.94
351.856	81.94
352.083	93.94
352.311	96.94
352.538	84.94
352.765	85.94
352.992	82.94
353.22	78.94
353.447	73.94
353.674	78.94
353.901	102.94
354.128	93.94
354.355	85.94
354.583	70.94
354.81	87.94
355.037	80.94
355.264	85.94
355.491	96.94
355.718	84.94
355.945	75.94
356.172	89.94
356.399	91.94
356.626	83.94
356.853	93.94
357.08	93.94
357.307	92.94
357.534	90.94
357.761	97.94
357.988	91.94
358.215	109.94
358.441	89.94
358.668	82.94
358.895	98.94
359.122	72.94
359.349	76.94
359.576	89.94
359.802	91.94
360.029	92.94
360.256	89.94
360.483	87.94
360.709	95.94
360.936	101.94
361.163	69.94
361.39	87.94
361.616	90.94
361.843	72.94
362.07	79.94
362.296	75.94
362.523	96.94
362.749	90.94
362.976	78.94
363.203	82.94
363.429	88.94
363.656	83.94
363.882	73.94
364.109	82.94
364.335	92.94
364.562	96.94
364.788	86.94
365.015	82.94
365.241	85.94
365.468	94.94
365.694	87.94
365.92	75.94
366.147	90.94
366.373	86.94
366.599	83.94
366.826	82.94
367.052	89.94
367.278	82.94
367.505	89.94
367.731	89.94
367.957	95.94
368.184	81.94
368.41	90.94
368.636	93.94
368.862	83.94
369.089	72.94
369.315	100.94
369.541	89.94
369.767	81.94
369.993	67.94
370.219	76.94
370.445	78.94
370.672	81.94
370.898	83.94
371.124	86.94
371.35	80.94
371.576	85.94
371.802	86.94
372.028	82.94
372.254	97.94
372.48	100.94
372.706	79.94
372.932	86.94
373.158	84.94
373.384	93.94
373.61	82.94
373.835	88.94
374.061	83.94
374.287	70.94
374.513	81.94
374.739	89.94
374.965	87.94
375.191	85.94
375.416	88.94
375.642	88.94
375.868	94.94
376.094	67.94
376.319	84.94
376.545	89.94
376.771	88.94
376.997	80.94
377.222	80.94
377.448	77.94
377.674	95.94
377.899	86.94
378.125	84.94
378.35	80.94
378.576	87.94
378.802	90.94
379.027	93.94
379.253	105.94
379.478	93.94
379.704	73.94
379.929	90.94
380.155	79.94
380.38	86.94
380.606	80.94
380.831	84.94
381.057	71.94
381.282	95.94
381.507	95.94
381.733	90.94
381.958	89.94
382.184	85.94
382.409	73.94
382.634	83.94
382.86	93.94
383.085	82.94
383.31	80.94
383.535	76.94
383.761	78.94
383.986	86.94
384.211	75.94
384.436	92.94
384.662	85.94
384.887	87.94
385.112	87.94
385.337	84.94
385.562	82.94
385.787	78.94
386.013	90.94
386.238	78.94
386.463	85.94
386.688	79.94
386.913	99.94
387.138	77.94
387.363	92.94
387.588	91.94
387.813	78.94
388.038	91.94
388.263	95.94
388.488	76.94
388.713	85.94
388.938	85.94
389.163	75.94
389.387	83.94
389.612	79.94
389.837	75.94
390.062	94.94
390.287	88.94
390.512	83.94
390.736	86.94
390.961	92.94
391.186	85.94
391.411	86.94
391.636	93.94
391.86	77.94
392.085	79.94
392.31	80.94
392.534	72.94
392.759	91.94
392.984	80.94
393.208	84.94
393.433	92.94
393.658	81.94
393.882	79.94
394.107	73.94
394.331	80.94
394.556	84.94
394.78	83.94
395.005	85.94
395.229	73.94
395.454	86.94
395.678	89.94
395.903	83.94
396.127	76.94
396.352	91.94
396.576	87.94
396.801	73.94
397.025	84.94
397.249	90.94
397.474	81.94
397.698	73.94
397.922	99.94
398.147	73.94
398.371	75.94
398.595	91.94
398.82	83.94
399.044	84.94
399.268	80.94
399.492	93.94
399.717	80.94
399.941	75.94
400.165	87.94
400.389	87.94
400.613	92.94
400.837	93.94
401.062	84.94
401.286	82.94
401.51	83.94
401.734	78.94
401.958	91.94
402.182	85.94
402.406	91.94
402.63	96.94
402.854	80.94
403.078	76.94
403.302	83.94
403.526	87.94
403.75	92.94
403.974	82.94
404.198	117.94
404.422	90.94
404.645	76.94
404.869	86.94
405.093	86.94
405.317	85.94
405.541	85.94
405.765	86.94
405.988	83.94
406.212	91.94
406.436	76.94
406.66	81.94
406.883	83.94
407.107	86.94
407.331	87.94
407.555	87.94
407.778	91.94
408.002	75.94
408.226	88.94
408.449	67.94
408.673	86.94
408.896	90.94
409.12	83.94
409.344	80.94
409.567	84.94
409.791	80.94
410.014	90.94
410.238	99.94
410.461	81.94
410.685	76.94
410.908	85.94
411.132	101.94
411.355	74.94
411.578	87.94
411.802	85.94
412.025	71.94
412.249	86.94
412.472	85.94
412.695	76.94
412.919	84.94
413.142	94.94
413.365	85.94
413.589	82.94
413.812	101.94
414.035	100.94
414.258	88.94
414.482	92.94
414.705	82.94
414.928	82.94
415.151	104.94
415.374	88.94
415.597	73.94
415.821	87.94
416.044	86.94
416.267	74.94
416.49	82.94
416.713	87.94
416.936	88.94
417.159	80.94
417.382	87.94
417.605	71.94
417.828	86.94
418.051	84.94
418.274	83.94
418.497	89.94
418.72	91.94
418.943	85.94
419.166	67.94
419.389	84.94
419.611	82.94
419.834	86.94
420.057	84.94
420.28	81.94
420.503	84.94
420.726	84.94
420.948	86.94
421.171	82.94
421.394	99.94
421.617	84.94
421.839	78.94
422.062	86.94
422.285	81.94
422.507	77.94
422.73	83.94
422.953	86.94
423.175	84.94
423.398	79.94
423.621	86.94
423.843	78.94
424.066	76.94
424.288	78.94
424.511	82.94
424.733	82.94
424.956	83.94
425.178	84.94
425.401	101.94
425.623	95.94
425.846	83.94
426.068	88.94
426.291	84.94
426.513	82.94
426.735	80.94
426.958	86.94
427.18	83.94
427.402	94.94
427.625	81.94
427.847	79.94
428.069	80.94
428.292	88.94
428.514	95.94
428.736	99.94
428.958	84.94
429.181	90.94
429.403	78.94
429.625	75.94
429.847	81.94
430.069	90.94
430.292	92.94
430.514	75.94
430.736	71.94
430.958	81.94
431.18	91.94
431.402	79.94
431.624	86.94
431.846	75.94
432.068	74.94
432.29	72.94
432.512	81.94
432.734	81.94
432.956	89.94
433.178	87.94
433.4	78.94
433.622	74.94
433.844	88.94
434.066	80.94
434.287	86.94
434.509	85.94
434.731	76.94
434.953	80.94
435.175	74.94
435.397	87.94
435.618	75.94
435.84	90.94
436.062	87.94
436.284	90.94
436.505	73.94
436.727	95.94
436.949	88.94
437.17	87.94
437.392	87.94
437.614	88.94
437.835	70.94
438.057	82.94
438.278	81.94
438.5	77.94
438.721	83.94
438.943	81.94
439.165	93.94
439.386	93.94
439.608	88.94
439.829	76.94
440.05	75.94
440.272	73.94
440.493	79.94
440.715	101.94
440.936	82.94
441.158	77.94
441.379	81.94
441.6	78.94
441.822	82.94
442.043	86.94
442.264	87.94
442.486	74.94
442.707	83.94
442.928	80.94
443.149	89.94
443.371	81.94
443.592	76.94
443.813	77.94
444.034	88.94
444.255	95.94
444.476	88.94
444.698	97.94
444.919	72.94
445.14	195.94
445.361	141.94
445.582	89.94
445.803	85.94
446.024	75.94
446.245	92.94
446.466	85.94
446.687	78.94
446.908	86.94
447.129	76.94
447.35	87.94
447.571	81.94
447.792	95.94
448.013	86.94
448.234	93.94
448.455	81.94
448.675	88.94
448.896	90.94
449.117	81.94
449.338	73.94
449.559	77.94
449.779	90.94
450	60.94
450.221	74.94
450.442	89.94
450.662	83.94
450.883	65.94
451.104	93.94
451.324	86.94
451.545	83.94
451.766	85.94
451.986	75.94
452.207	78.94
452.428	88.94
452.648	87.94
452.869	89.94
453.089	95.94
453.31	93.94
453.53	81.94
453.751	93.94
453.971	82.94
454.192	83.94
454.412	85.94
454.633	85.94
454.853	99.94
455.073	80.94
455.294	97.94
455.514	86.94
455.734	71.94
455.955	74.94
456.175	91.94
456.395	91.94
456.616	73.94
456.836	71.94
457.056	71.94
457.276	87.94
457.497	92.94
457.717	93.94
457.937	93.94
458.157	83.94
458.377	85.94
458.598	93.94
458.818	90.94
459.038	98.94
459.258	87.94
459.478	83.94
459.698	83.94
459.918	89.94
460.138	85.94
460.358	87.94
460.578	103.94
460.798	77.94
461.018	107.94
461.238	77.94
461.458	80.94
461.678	89.94
461.898	76.94
462.118	86.94
462.338	86.94
462.558	89.94
462.777	88.94
462.997	93.94
463.217	105.94
463.437	102.94
463.657	92.94
463.876	104.94
464.096	87.94
464.316	86.94
464.536	89.94
464.755	95.94
464.975	92.94
465.195	98.94
465.414	94.94
465.634	91.94
465.854	84.94
466.073	95.94
466.293	85.94
466.512	85.94
466.732	87.94
466.951	76.94
467.171	86.94
467.391	84.94
467.61	92.94
467.829	92.94
468.049	91.94
468.268	69.94
468.488	81.94
468.707	84.94
468.927	82.94
469.146	90.94
469.365	84.94
469.585	85.94
469.804	85.94
470.023	95.94
470.243	88.94
470.462	96.94
470.681	101.94
470.901	109.94
471.12	92.94
471.339	82.94
471.558	83.94
471.777	82.94
471.997	74.94
472.216	74.94
472.435	98.94
472.654	77.94
472.873	83.94
473.092	82.94
473.311	76.94
473.53	87.94
473.749	83.94
473.968	90.94
474.187	83.94
474.406	96.94
474.625	84.94
474.844	85.94
475.063	93.94
475.282	76.94
475.501	80.94
475.72	83.94
475.939	91.94
476.158	81.94
476.377	92.94
476.596	89.94
476.814	79.94
477.033	97.94
477.252	95.94
477.471	82.94
477.69	85.94
477.908	98.94
478.127	82.94
478.346	80.94
478.564	101.94
478.783	80.94
479.002	82.94
479.22	76.94
479.439	102.94
479.658	96.94
479.876	90.94
480.095	83.94
480.313	90.94
480.532	80.94
480.751	89.94
480.969	82.94
481.188	86.94
481.406	94.94
481.624	91.94
481.843	101.94
482.061	87.94
482.28	111.94
482.498	79.94
482.717	76.94
482.935	89.94
483.153	82.94
483.372	119.94
483.59	96.94
483.808	87.94
484.027	94.94
484.245	83.94
484.463	97.94
484.681	101.94
484.9	88.94
485.118	91.94
485.336	84.94
485.554	91.94
485.772	86.94
485.99	95.94
486.209	88.94
486.427	75.94
486.645	95.94
486.863	95.94
487.081	90.94
487.299	90.94
487.517	100.94
487.735	89.94
487.953	82.94
488.171	98.94
488.389	87.94
488.607	87.94
488.825	98.94
489.043	87.94
489.261	71.94
489.479	89.94
489.696	91.94
489.914	96.94
490.132	92.94
490.35	85.94
490.568	104.94
490.786	89.94
491.003	92.94
491.221	89.94
491.439	92.94
491.657	91.94
491.874	92.94
492.092	89.94
492.31	104.94
492.527	89.94
492.745	98.94
492.963	89.94
493.18	98.94
493.398	86.94
493.615	87.94
493.833	77.94
494.05	71.94
494.268	91.94
494.485	90.94
494.703	100.94
494.92	84.94
495.138	89.94
495.355	84.94
495.573	84.94
495.79	95.94
496.008	75.94
496.225	99.94
496.442	86.94
496.66	101.94
496.877	100.94
497.094	94.94
497.312	98.94
497.529	103.94
497.746	95.94
497.963	76.94
498.181	88.94
498.398	104.94
498.615	96.94
498.832	90.94
499.049	101.94
499.267	96.94
499.484	101.94
499.701	102.94
499.918	103.94
500.135	105.94
500.352	96.94
500.569	106.94
500.786	106.94
501.003	111.94
501.22	115.94
501.437	103.94
501.654	103.94
501.871	103.94
502.088	88.94
502.305	85.94
502.522	99.94
502.739	98.94
502.956	95.94
503.172	91.94
503.389	104.94
503.606	96.94
503.823	90.94
504.04	95.94
504.256	101.94
504.473	89.94
504.69	83.94
504.907	101.94
505.123	90.94
505.34	93.94
505.557	94.94
505.773	77.94
505.99	94.94
506.207	89.94
506.423	86.94
506.64	84.94
506.856	90.94
507.073	81.94
507.289	88.94
507.506	91.94
507.722	73.94
507.939	74.94
508.155	93.94
508.372	103.94
508.588	76.94
508.805	82.94
509.021	109.94
509.238	91.94
509.454	101.94
509.67	92.94
509.887	83.94
510.103	98.94
510.319	104.94
510.536	77.94
510.752	85.94
510.968	82.94
511.184	101.94
511.401	88.94
511.617	88.94
511.833	80.94
512.049	99.94
512.265	89.94
512.481	91.94
512.698	96.94
512.914	83.94
513.13	87.94
513.346	82.94
513.562	86.94
513.778	102.94
513.994	85.94
514.21	93.94
514.426	91.94
514.642	76.94
514.858	99.94
515.074	87.94
515.29	97.94
515.506	74.94
515.721	84.94
515.937	100.94
516.153	92.94
516.369	88.94
516.585	102.94
516.801	77.94
517.016	91.94
517.232	99.94
517.448	90.94
517.664	92.94
517.879	88.94
518.095	93.94
518.311	96.94
518.527	100.94
