Data from Ni(NO3)2@0.0625M.TitratingCurve.Agarose3%dH2O.NegLispCup.LampEnergy10.LIBS07252019_HRD10591_18-14-26-569.txt Node
Date: Thu Jul 25 18:14:26 EDT 2019
User: cochatt
Spectrometer: HR+D1059
Trigger mode: 1
Integration Time (sec): 1.000000E-1
Scans to average: 1
Electric dark correction enabled: true
Nonlinearity correction enabled: false
Boxcar width: 0
XAxis mode: Wavelengths
Number of Pixels in Spectrum: 2048
>>>>>Begin Spectral Data<<<<<
223.165	-19.69
223.4	-19.69
223.635	-19.69
223.869	-15.69
224.104	-20.69
224.338	-11.69
224.573	-22.69
224.808	-20.69
225.042	-13.69
225.277	-6.69
225.511	-0.69
225.746	4.31
225.98	-5.69
226.215	15.31
226.449	12.31
226.683	27.31
226.918	44.31
227.152	34.31
227.387	32.31
227.621	38.31
227.856	38.31
228.09	37.31
228.324	53.31
228.559	54.31
228.793	84.31
229.027	97.31
229.262	115.31
229.496	125.31
229.73	123.31
229.964	124.31
230.199	138.31
230.433	122.31
230.667	135.31
230.901	140.31
231.136	145.31
231.37	141.31
231.604	135.31
231.838	138.31
232.072	159.31
232.306	157.31
232.541	147.31
232.775	157.31
233.009	164.31
233.243	146.31
233.477	152.31
233.711	133.31
233.945	148.31
234.179	151.31
234.413	159.31
234.647	156.31
234.881	176.31
235.115	148.31
235.349	160.31
235.583	165.31
235.817	153.31
236.051	163.31
236.285	159.31
236.519	168.31
236.753	175.31
236.987	164.31
237.221	167.31
237.455	169.31
237.689	174.31
237.922	168.31
238.156	157.31
238.39	169.31
238.624	182.31
238.858	185.31
239.091	181.31
239.325	180.31
239.559	196.31
239.793	194.31
240.027	196.31
240.26	189.31
240.494	193.31
240.728	201.31
240.961	192.31
241.195	211.31
241.429	199.31
241.662	196.31
241.896	198.31
242.13	207.31
242.363	194.31
242.597	213.31
242.83	207.31
243.064	203.31
243.298	215.31
243.531	226.31
243.765	211.31
243.998	236.31
244.232	226.31
244.465	222.31
244.699	227.31
244.932	231.31
245.166	245.31
245.399	236.31
245.633	220.31
245.866	226.31
246.099	240.31
246.333	235.31
246.566	236.31
246.8	242.31
247.033	235.31
247.266	239.31
247.5	263.31
247.733	239.31
247.966	262.31
248.2	264.31
248.433	243.31
248.666	264.31
248.899	271.31
249.133	268.31
249.366	261.31
249.599	269.31
249.832	273.31
250.066	259.31
250.299	287.31
250.532	275.31
250.765	260.31
250.998	273.31
251.231	277.31
251.465	291.31
251.698	297.31
251.931	291.31
252.164	279.31
252.397	282.31
252.63	288.31
252.863	293.31
253.096	298.31
253.329	306.31
253.562	280.31
253.795	295.31
254.028	304.31
254.261	276.31
254.494	311.31
254.727	298.31
254.96	291.31
255.193	307.31
255.426	303.31
255.659	304.31
255.892	305.31
256.124	316.31
256.357	308.31
256.59	322.31
256.823	315.31
257.056	326.31
257.289	328.31
257.521	314.31
257.754	332.31
257.987	314.31
258.22	337.31
258.452	332.31
258.685	320.31
258.918	338.31
259.151	335.31
259.383	357.31
259.616	336.31
259.849	335.31
260.081	346.31
260.314	333.31
260.547	338.31
260.779	332.31
261.012	360.31
261.244	365.31
261.477	364.31
261.71	355.31
261.942	364.31
262.175	373.31
262.407	375.31
262.64	359.31
262.872	353.31
263.105	364.31
263.337	363.31
263.57	372.31
263.802	363.31
264.035	377.31
264.267	374.31
264.499	354.31
264.732	356.31
264.964	369.31
265.197	375.31
265.429	382.31
265.661	387.31
265.894	380.31
266.126	388.31
266.358	387.31
266.591	390.31
266.823	393.31
267.055	381.31
267.287	392.31
267.52	372.31
267.752	385.31
267.984	394.31
268.216	401.31
268.448	401.31
268.681	410.31
268.913	417.31
269.145	396.31
269.377	407.31
269.609	395.31
269.841	412.31
270.073	397.31
270.306	424.31
270.538	410.31
270.77	411.31
271.002	423.31
271.234	401.31
271.466	409.31
271.698	409.31
271.93	421.31
272.162	437.31
272.394	421.31
272.626	402.31
272.858	420.31
273.09	432.31
273.322	433.31
273.553	441.31
273.785	431.31
274.017	449.31
274.249	456.31
274.481	444.31
274.713	439.31
274.945	428.31
275.176	442.31
275.408	462.31
275.64	429.31
275.872	441.31
276.104	489.31
276.335	450.31
276.567	454.31
276.799	449.31
277.031	459.31
277.262	470.31
277.494	472.31
277.726	457.31
277.957	461.31
278.189	449.31
278.421	472.31
278.652	475.31
278.884	472.31
279.115	470.31
279.347	479.31
279.579	465.31
279.81	467.31
280.042	477.31
280.273	467.31
280.505	525.31
280.736	500.31
280.968	491.31
281.199	507.31
281.431	489.31
281.662	515.31
281.894	503.31
282.125	496.31
282.356	506.31
282.588	523.31
282.819	531.31
283.051	513.31
283.282	507.31
283.513	521.31
283.745	537.31
283.976	537.31
284.207	530.31
284.439	527.31
284.67	547.31
284.901	540.31
285.132	520.31
285.364	523.31
285.595	546.31
285.826	506.31
286.057	540.31
286.288	554.31
286.52	553.31
286.751	540.31
286.982	585.31
287.213	556.31
287.444	564.31
287.675	555.31
287.906	550.31
288.138	576.31
288.369	571.31
288.6	583.31
288.831	568.31
289.062	564.31
289.293	571.31
289.524	570.31
289.755	548.31
289.986	562.31
290.217	567.31
290.448	564.31
290.679	577.31
290.91	586.31
291.141	572.31
291.371	559.31
291.602	545.31
291.833	579.31
292.064	564.31
292.295	568.31
292.526	574.31
292.757	568.31
292.987	572.31
293.218	582.31
293.449	579.31
293.68	561.31
293.91	581.31
294.141	592.31
294.372	600.31
294.603	588.31
294.833	601.31
295.064	584.31
295.295	568.31
295.525	599.31
295.756	599.31
295.987	615.31
296.217	632.31
296.448	588.31
296.679	598.31
296.909	591.31
297.14	596.31
297.37	623.31
297.601	636.31
297.831	624.31
298.062	625.31
298.292	611.31
298.523	630.31
298.753	654.31
298.984	665.31
299.214	631.31
299.445	630.31
299.675	659.31
299.905	661.31
300.136	629.31
300.366	614.31
300.597	620.31
300.827	646.31
301.057	669.31
301.288	660.31
301.518	655.31
301.748	664.31
301.979	661.31
302.209	667.31
302.439	652.31
302.669	637.31
302.9	684.31
303.13	650.31
303.36	666.31
303.59	642.31
303.82	653.31
304.051	642.31
304.281	647.31
304.511	634.31
304.741	642.31
304.971	667.31
305.201	638.31
305.431	641.31
305.661	643.31
305.891	650.31
306.121	625.31
306.352	642.31
306.582	628.31
306.812	639.31
307.042	660.31
307.272	643.31
307.502	648.31
307.731	636.31
307.961	616.31
308.191	635.31
308.421	620.31
308.651	620.31
308.881	626.31
309.111	621.31
309.341	625.31
309.571	628.31
309.8	633.31
310.03	620.31
310.26	615.31
310.49	636.31
310.72	641.31
310.949	635.31
311.179	650.31
311.409	638.31
311.639	672.31
311.868	663.31
312.098	645.31
312.328	654.31
312.557	656.31
312.787	670.31
313.017	664.31
313.246	702.31
313.476	692.31
313.706	675.31
313.935	693.31
314.165	690.31
314.394	662.31
314.624	687.31
314.853	694.31
315.083	677.31
315.312	680.31
315.542	690.31
315.771	678.31
316.001	665.31
316.23	691.31
316.46	660.31
316.689	672.31
316.919	671.31
317.148	706.31
317.377	660.31
317.607	658.31
317.836	665.31
318.065	666.31
318.295	668.31
318.524	683.31
318.753	668.31
318.983	663.31
319.212	663.31
319.441	651.31
319.67	669.31
319.9	655.31
320.129	655.31
320.358	656.31
320.587	671.31
320.816	666.31
321.046	659.31
321.275	692.31
321.504	645.31
321.733	680.31
321.962	676.31
322.191	658.31
322.42	667.31
322.649	696.31
322.878	654.31
323.108	664.31
323.337	681.31
323.566	685.31
323.795	679.31
324.024	700.31
324.253	657.31
324.482	689.31
324.71	681.31
324.939	684.31
325.168	704.31
325.397	675.31
325.626	675.31
325.855	722.31
326.084	723.31
326.313	727.31
326.542	732.31
326.77	744.31
326.999	736.31
327.228	753.31
327.457	733.31
327.686	714.31
327.914	721.31
328.143	748.31
328.372	733.31
328.6	733.31
328.829	737.31
329.058	728.31
329.287	748.31
329.515	749.31
329.744	737.31
329.972	756.31
330.201	744.31
330.43	759.31
330.658	760.31
330.887	755.31
331.115	775.31
331.344	785.31
331.572	776.31
331.801	790.31
332.03	789.31
332.258	835.31
332.486	834.31
332.715	885.31
332.943	903.31
333.172	963.31
333.4	1000.31
333.629	1023.31
333.857	1028.31
334.085	998.31
334.314	992.31
334.542	979.31
334.771	937.31
334.999	927.31
335.227	917.31
335.455	934.31
335.684	919.31
335.912	915.31
336.14	879.31
336.369	863.31
336.597	890.31
336.825	893.31
337.053	879.31
337.281	868.31
337.51	855.31
337.738	848.31
337.966	823.31
338.194	806.31
338.422	807.31
338.65	785.31
338.878	816.31
339.106	811.31
339.334	793.31
339.562	777.31
339.79	754.31
340.018	767.31
340.246	755.31
340.474	753.31
340.702	756.31
340.93	788.31
341.158	790.31
341.386	810.31
341.614	760.31
341.842	780.31
342.07	744.31
342.298	757.31
342.526	754.31
342.754	777.31
342.981	790.31
343.209	775.31
343.437	798.31
343.665	858.31
343.893	913.31
344.12	990.31
344.348	969.31
344.576	872.31
344.804	843.31
345.031	814.31
345.259	809.31
345.487	785.31
345.714	766.31
345.942	753.31
346.17	733.31
346.397	738.31
346.625	763.31
346.853	736.31
347.08	753.31
347.308	779.31
347.535	771.31
347.763	768.31
347.99	784.31
348.218	752.31
348.445	731.31
348.673	735.31
348.9	726.31
349.128	742.31
349.355	722.31
349.583	727.31
349.81	730.31
350.037	727.31
350.265	711.31
350.492	714.31
350.72	703.31
350.947	703.31
351.174	703.31
351.402	719.31
351.629	691.31
351.856	696.31
352.083	695.31
352.311	720.31
352.538	720.31
352.765	711.31
352.992	699.31
353.22	718.31
353.447	701.31
353.674	699.31
353.901	705.31
354.128	724.31
354.355	732.31
354.583	703.31
354.81	716.31
355.037	727.31
355.264	709.31
355.491	704.31
355.718	743.31
355.945	726.31
356.172	707.31
356.399	725.31
356.626	705.31
356.853	727.31
357.08	707.31
357.307	717.31
357.534	712.31
357.761	734.31
357.988	710.31
358.215	721.31
358.441	710.31
358.668	692.31
358.895	707.31
359.122	698.31
359.349	700.31
359.576	713.31
359.802	715.31
360.029	726.31
360.256	698.31
360.483	717.31
360.709	746.31
360.936	732.31
361.163	693.31
361.39	706.31
361.616	714.31
361.843	698.31
362.07	697.31
362.296	725.31
362.523	724.31
362.749	704.31
362.976	701.31
363.203	722.31
363.429	687.31
363.656	695.31
363.882	716.31
364.109	696.31
364.335	713.31
364.562	695.31
364.788	708.31
365.015	701.31
365.241	699.31
365.468	718.31
365.694	690.31
365.92	717.31
366.147	699.31
366.373	718.31
366.599	697.31
366.826	704.31
367.052	719.31
367.278	714.31
367.505	726.31
367.731	716.31
367.957	725.31
368.184	712.31
368.41	713.31
368.636	704.31
368.862	733.31
369.089	715.31
369.315	725.31
369.541	740.31
369.767	733.31
369.993	732.31
370.219	739.31
370.445	767.31
370.672	772.31
370.898	765.31
371.124	779.31
371.35	749.31
371.576	771.31
371.802	781.31
372.028	775.31
372.254	746.31
372.48	807.31
372.706	785.31
372.932	803.31
373.158	811.31
373.384	800.31
373.61	765.31
373.835	810.31
374.061	795.31
374.287	796.31
374.513	805.31
374.739	867.31
374.965	850.31
375.191	875.31
375.416	888.31
375.642	843.31
375.868	833.31
376.094	818.31
376.319	776.31
376.545	776.31
376.771	794.31
376.997	770.31
377.222	779.31
377.448	773.31
377.674	771.31
377.899	776.31
378.125	775.31
378.35	778.31
378.576	781.31
378.802	790.31
379.027	777.31
379.253	771.31
379.478	769.31
379.704	784.31
379.929	767.31
380.155	775.31
380.38	768.31
380.606	735.31
380.831	791.31
381.057	758.31
381.282	794.31
381.507	783.31
381.733	782.31
381.958	785.31
382.184	788.31
382.409	790.31
382.634	827.31
382.86	813.31
383.085	847.31
383.31	853.31
383.535	871.31
383.761	882.31
383.986	885.31
384.211	901.31
384.436	944.31
384.662	945.31
384.887	965.31
385.112	916.31
385.337	975.31
385.562	940.31
385.787	943.31
386.013	963.31
386.238	958.31
386.463	960.31
386.688	963.31
386.913	935.31
387.138	952.31
387.363	923.31
387.588	921.31
387.813	933.31
388.038	930.31
388.263	925.31
388.488	928.31
388.713	931.31
388.938	899.31
389.163	923.31
389.387	895.31
389.612	893.31
389.837	939.31
390.062	936.31
390.287	899.31
390.512	923.31
390.736	927.31
390.961	936.31
391.186	974.31
391.411	988.31
391.636	1024.31
391.86	1036.31
392.085	1093.31
392.31	1077.31
392.534	1049.31
392.759	1016.31
392.984	985.31
393.208	984.31
393.433	996.31
393.658	999.31
393.882	1010.31
394.107	1015.31
394.331	1023.31
394.556	1015.31
394.78	1013.31
395.005	1016.31
395.229	1013.31
395.454	1033.31
395.678	1080.31
395.903	1103.31
396.127	1059.31
396.352	1005.31
396.576	971.31
396.801	996.31
397.025	982.31
397.249	1004.31
397.474	1049.31
397.698	1056.31
397.922	1029.31
398.147	1041.31
398.371	1073.31
398.595	1112.31
398.82	1163.31
399.044	1217.31
399.268	1381.31
399.492	1611.31
399.717	1862.31
399.941	1901.31
400.165	1619.31
400.389	1416.31
400.613	1316.31
400.837	1230.31
401.062	1207.31
401.286	1201.31
401.51	1191.31
401.734	1184.31
401.958	1217.31
402.182	1176.31
402.406	1189.31
402.63	1220.31
402.854	1253.31
403.078	1298.31
403.302	1327.31
403.526	1353.31
403.75	1402.31
403.974	1414.31
404.198	1439.31
404.422	1412.31
404.645	1398.31
404.869	1343.31
405.093	1355.31
405.317	1323.31
405.541	1305.31
405.765	1311.31
405.988	1320.31
406.212	1302.31
406.436	1261.31
406.66	1327.31
406.883	1343.31
407.107	1426.31
407.331	1511.31
407.555	1562.31
407.778	1545.31
408.002	1502.31
408.226	1467.31
408.449	1384.31
408.673	1343.31
408.896	1375.31
409.12	1318.31
409.344	1311.31
409.567	1368.31
409.791	1381.31
410.014	1360.31
410.238	1325.31
410.461	1355.31
410.685	1345.31
410.908	1297.31
411.132	1243.31
411.355	1251.31
411.578	1259.31
411.802	1238.31
412.025	1267.31
412.249	1249.31
412.472	1261.31
412.695	1191.31
412.919	1171.31
413.142	1186.31
413.365	1191.31
413.589	1170.31
413.812	1167.31
414.035	1170.31
414.258	1192.31
414.482	1182.31
414.705	1189.31
414.928	1230.31
415.151	1210.31
415.374	1207.31
415.597	1191.31
415.821	1165.31
416.044	1164.31
416.267	1147.31
416.49	1124.31
416.713	1179.31
416.936	1154.31
417.159	1147.31
417.382	1158.31
417.605	1173.31
417.828	1192.31
418.051	1157.31
418.274	1175.31
418.497	1187.31
418.72	1205.31
418.943	1215.31
419.166	1287.31
419.389	1380.31
419.611	1320.31
419.834	1263.31
420.057	1220.31
420.28	1177.31
420.503	1163.31
420.726	1151.31
420.948	1137.31
421.171	1156.31
421.394	1170.31
421.617	1160.31
421.839	1158.31
422.062	1186.31
422.285	1130.31
422.507	1228.31
422.73	1211.31
422.953	1194.31
423.175	1252.31
423.398	1265.31
423.621	1224.31
423.843	1239.31
424.066	1249.31
424.288	1294.31
424.511	1258.31
424.733	1223.31
424.956	1219.31
425.178	1197.31
425.401	1197.31
425.623	1170.31
425.846	1143.31
426.068	1134.31
426.291	1093.31
426.513	1105.31
426.735	1099.31
426.958	1096.31
427.18	1034.31
427.402	1027.31
427.625	1052.31
427.847	1044.31
428.069	1023.31
428.292	1051.31
428.514	1041.31
428.736	1014.31
428.958	1041.31
429.181	1033.31
429.403	988.31
429.625	1035.31
429.847	1024.31
430.069	1010.31
430.292	1017.31
430.514	988.31
430.736	987.31
430.958	1020.31
431.18	987.31
431.402	1018.31
431.624	1016.31
431.846	1067.31
432.068	1074.31
432.29	1073.31
432.512	1028.31
432.734	1019.31
432.956	1025.31
433.178	1043.31
433.4	1035.31
433.622	1029.31
433.844	1059.31
434.066	1043.31
434.287	1067.31
434.509	1108.31
434.731	1155.31
434.953	1177.31
435.175	1179.31
435.397	1171.31
435.618	1116.31
435.84	1083.31
436.062	1083.31
436.284	1076.31
436.505	1023.31
436.727	1027.31
436.949	1048.31
437.17	1069.31
437.392	1047.31
437.614	1014.31
437.835	971.31
438.057	999.31
438.278	1021.31
438.5	1001.31
438.721	1000.31
438.943	1034.31
439.165	1013.31
439.386	1008.31
439.608	1014.31
439.829	1057.31
440.05	1048.31
440.272	1023.31
440.493	1018.31
440.715	1065.31
440.936	1054.31
441.158	1086.31
441.379	1121.31
441.6	1175.31
441.822	1209.31
442.043	1208.31
442.264	1156.31
442.486	1120.31
442.707	1165.31
442.928	1155.31
443.149	1164.31
443.371	1189.31
443.592	1169.31
443.813	1199.31
444.034	1212.31
444.255	1255.31
444.476	1297.31
444.698	1402.31
444.919	1479.31
445.14	1507.31
445.361	1363.31
445.582	1206.31
445.803	1151.31
446.024	1110.31
446.245	1113.31
446.466	1086.31
446.687	1052.31
446.908	1074.31
447.129	1007.31
447.35	1019.31
447.571	999.31
447.792	974.31
448.013	996.31
448.234	988.31
448.455	943.31
448.675	955.31
448.896	949.31
449.117	928.31
449.338	943.31
449.559	926.31
449.779	932.31
450	919.31
450.221	927.31
450.442	944.31
450.662	946.31
450.883	978.31
451.104	980.31
451.324	983.31
451.545	965.31
451.766	972.31
451.986	999.31
452.207	1007.31
452.428	953.31
452.648	949.31
452.869	944.31
453.089	953.31
453.31	933.31
453.53	933.31
453.751	932.31
453.971	931.31
454.192	922.31
454.412	910.31
454.633	915.31
454.853	915.31
455.073	898.31
455.294	891.31
455.514	908.31
455.734	909.31
455.955	921.31
456.175	891.31
456.395	866.31
456.616	878.31
456.836	883.31
457.056	869.31
457.276	845.31
457.497	895.31
457.717	861.31
457.937	879.31
458.157	894.31
458.377	932.31
458.598	929.31
458.818	957.31
459.038	998.31
459.258	1052.31
459.478	1060.31
459.698	1065.31
459.918	1113.31
460.138	1170.31
460.358	1245.31
460.578	1257.31
460.798	1248.31
461.018	1298.31
461.238	1221.31
461.458	1244.31
461.678	1195.31
461.898	1267.31
462.118	1252.31
462.338	1331.31
462.558	1375.31
462.777	1390.31
462.997	1565.31
463.217	1733.31
463.437	1754.31
463.657	1575.31
463.876	1469.31
464.096	1435.31
464.316	1460.31
464.536	1546.31
464.755	1450.31
464.975	1350.31
465.195	1300.31
465.414	1248.31
465.634	1092.31
465.854	1113.31
466.073	1069.31
466.293	1054.31
466.512	1027.31
466.732	989.31
466.951	1006.31
467.171	1011.31
467.391	1000.31
467.61	1004.31
467.829	1042.31
468.049	991.31
468.268	991.31
468.488	964.31
468.707	979.31
468.927	943.31
469.146	964.31
469.365	956.31
469.585	973.31
469.804	1016.31
470.023	1002.31
470.243	1033.31
470.462	1064.31
470.681	1052.31
470.901	1044.31
471.12	1011.31
471.339	995.31
471.558	969.31
471.777	989.31
471.997	949.31
472.216	935.31
472.435	937.31
472.654	930.31
472.873	946.31
473.092	918.31
473.311	920.31
473.53	921.31
473.749	943.31
473.968	940.31
474.187	930.31
474.406	943.31
474.625	949.31
474.844	908.31
475.063	948.31
475.282	928.31
475.501	948.31
475.72	956.31
475.939	948.31
476.158	994.31
476.377	967.31
476.596	991.31
476.814	1009.31
477.033	974.31
477.252	990.31
477.471	1042.31
477.69	1041.31
477.908	1120.31
478.127	1100.31
478.346	1105.31
478.564	1110.31
478.783	1149.31
479.002	1187.31
479.22	1207.31
479.439	1179.31
479.658	1180.31
479.876	1146.31
480.095	1180.31
480.313	1248.31
480.532	1285.31
480.751	1322.31
480.969	1258.31
481.188	1185.31
481.406	1173.31
481.624	1091.31
481.843	1114.31
482.061	1066.31
482.28	1076.31
482.498	1074.31
482.717	1063.31
482.935	1076.31
483.153	1049.31
483.372	1049.31
483.59	1065.31
483.808	1082.31
484.027	1055.31
484.245	1090.31
484.463	1079.31
484.681	1107.31
484.9	1116.31
485.118	1119.31
485.336	1122.31
485.554	1093.31
485.772	1119.31
485.99	1145.31
486.209	1139.31
486.427	1140.31
486.645	1162.31
486.863	1164.31
487.081	1125.31
487.299	1125.31
487.517	1143.31
487.735	1140.31
487.953	1131.31
488.171	1151.31
488.389	1139.31
488.607	1093.31
488.825	1131.31
489.043	1117.31
489.261	1107.31
489.479	1125.31
489.696	1101.31
489.914	1122.31
490.132	1136.31
490.35	1131.31
490.568	1123.31
490.786	1117.31
491.003	1138.31
491.221	1107.31
491.439	1140.31
491.657	1135.31
491.874	1145.31
492.092	1136.31
492.31	1119.31
492.527	1123.31
492.745	1156.31
492.963	1135.31
493.18	1147.31
493.398	1158.31
493.615	1185.31
493.833	1203.31
494.05	1171.31
494.268	1188.31
494.485	1201.31
494.703	1177.31
494.92	1184.31
495.138	1166.31
495.355	1199.31
495.573	1183.31
495.79	1200.31
496.008	1203.31
496.225	1215.31
496.442	1227.31
