Data from Ni(NO3)2@0.0625M.TitratingCurve.Agarose3%dH2O.NegLispCup.LampEnergy10.LIBS07252019_HRD10591_18-14-55-569.txt Node
Date: Thu Jul 25 18:14:55 EDT 2019
User: cochatt
Spectrometer: HR+D1059
Trigger mode: 1
Integration Time (sec): 1.000000E-1
Scans to average: 1
Electric dark correction enabled: true
Nonlinearity correction enabled: false
Boxcar width: 0
XAxis mode: Wavelengths
Number of Pixels in Spectrum: 2048
>>>>>Begin Spectral Data<<<<<
223.165	-19.75
223.4	-19.75
223.635	-19.75
223.869	-20.75
224.104	-26.75
224.338	-12.75
224.573	-28.75
224.808	-2.75
225.042	-9.75
225.277	1.25
225.511	-2.75
225.746	3.25
225.98	11.25
226.215	22.25
226.449	13.25
226.683	22.25
226.918	25.25
227.152	25.25
227.387	34.25
227.621	43.25
227.856	49.25
228.09	43.25
228.324	61.25
228.559	45.25
228.793	68.25
229.027	88.25
229.262	101.25
229.496	97.25
229.73	115.25
229.964	120.25
230.199	104.25
230.433	105.25
230.667	103.25
230.901	123.25
231.136	123.25
231.37	127.25
231.604	129.25
231.838	133.25
232.072	124.25
232.306	115.25
232.541	114.25
232.775	126.25
233.009	116.25
233.243	122.25
233.477	125.25
233.711	139.25
233.945	149.25
234.179	117.25
234.413	123.25
234.647	131.25
234.881	121.25
235.115	129.25
235.349	127.25
235.583	124.25
235.817	131.25
236.051	140.25
236.285	114.25
236.519	134.25
236.753	127.25
236.987	149.25
237.221	124.25
237.455	142.25
237.689	140.25
237.922	136.25
238.156	121.25
238.39	131.25
238.624	135.25
238.858	139.25
239.091	135.25
239.325	136.25
239.559	140.25
239.793	147.25
240.027	147.25
240.26	142.25
240.494	156.25
240.728	147.25
240.961	133.25
241.195	137.25
241.429	156.25
241.662	155.25
241.896	166.25
242.13	159.25
242.363	144.25
242.597	161.25
242.83	150.25
243.064	159.25
243.298	160.25
243.531	158.25
243.765	166.25
243.998	173.25
244.232	167.25
244.465	156.25
244.699	163.25
244.932	153.25
245.166	177.25
245.399	168.25
245.633	166.25
245.866	179.25
246.099	179.25
246.333	167.25
246.566	183.25
246.8	175.25
247.033	186.25
247.266	187.25
247.5	178.25
247.733	194.25
247.966	162.25
248.2	178.25
248.433	198.25
248.666	205.25
248.899	188.25
249.133	175.25
249.366	201.25
249.599	187.25
249.832	191.25
250.066	191.25
250.299	205.25
250.532	186.25
250.765	200.25
250.998	204.25
251.231	190.25
251.465	203.25
251.698	200.25
251.931	203.25
252.164	206.25
252.397	201.25
252.63	202.25
252.863	192.25
253.096	204.25
253.329	206.25
253.562	206.25
253.795	206.25
254.028	212.25
254.261	209.25
254.494	213.25
254.727	221.25
254.96	220.25
255.193	200.25
255.426	214.25
255.659	214.25
255.892	230.25
256.124	221.25
256.357	220.25
256.59	224.25
256.823	222.25
257.056	215.25
257.289	226.25
257.521	202.25
257.754	223.25
257.987	205.25
258.22	241.25
258.452	215.25
258.685	228.25
258.918	212.25
259.151	218.25
259.383	225.25
259.616	241.25
259.849	250.25
260.081	242.25
260.314	243.25
260.547	231.25
260.779	228.25
261.012	233.25
261.244	232.25
261.477	222.25
261.71	209.25
261.942	236.25
262.175	249.25
262.407	226.25
262.64	247.25
262.872	259.25
263.105	230.25
263.337	259.25
263.57	254.25
263.802	250.25
264.035	262.25
264.267	261.25
264.499	254.25
264.732	248.25
264.964	257.25
265.197	269.25
265.429	266.25
265.661	277.25
265.894	277.25
266.126	271.25
266.358	266.25
266.591	270.25
266.823	271.25
267.055	288.25
267.287	253.25
267.52	268.25
267.752	261.25
267.984	264.25
268.216	261.25
268.448	269.25
268.681	288.25
268.913	265.25
269.145	279.25
269.377	276.25
269.609	297.25
269.841	277.25
270.073	274.25
270.306	263.25
270.538	300.25
270.77	280.25
271.002	293.25
271.234	264.25
271.466	298.25
271.698	279.25
271.93	272.25
272.162	286.25
272.394	283.25
272.626	291.25
272.858	299.25
273.09	283.25
273.322	307.25
273.553	271.25
273.785	286.25
274.017	286.25
274.249	297.25
274.481	313.25
274.713	289.25
274.945	291.25
275.176	303.25
275.408	306.25
275.64	285.25
275.872	309.25
276.104	293.25
276.335	299.25
276.567	326.25
276.799	318.25
277.031	298.25
277.262	302.25
277.494	316.25
277.726	299.25
277.957	324.25
278.189	317.25
278.421	318.25
278.652	317.25
278.884	324.25
279.115	335.25
279.347	316.25
279.579	340.25
279.81	329.25
280.042	311.25
280.273	331.25
280.505	308.25
280.736	343.25
280.968	324.25
281.199	323.25
281.431	337.25
281.662	331.25
281.894	346.25
282.125	343.25
282.356	326.25
282.588	349.25
282.819	337.25
283.051	346.25
283.282	336.25
283.513	351.25
283.745	341.25
283.976	327.25
284.207	328.25
284.439	342.25
284.67	346.25
284.901	366.25
285.132	352.25
285.364	353.25
285.595	346.25
285.826	366.25
286.057	365.25
286.288	354.25
286.52	369.25
286.751	375.25
286.982	375.25
287.213	337.25
287.444	375.25
287.675	381.25
287.906	360.25
288.138	373.25
288.369	377.25
288.6	402.25
288.831	371.25
289.062	370.25
289.293	396.25
289.524	394.25
289.755	399.25
289.986	399.25
290.217	394.25
290.448	369.25
290.679	387.25
290.91	392.25
291.141	387.25
291.371	383.25
291.602	393.25
291.833	377.25
292.064	373.25
292.295	398.25
292.526	377.25
292.757	393.25
292.987	379.25
293.218	389.25
293.449	400.25
293.68	399.25
293.91	397.25
294.141	399.25
294.372	399.25
294.603	402.25
294.833	374.25
295.064	375.25
295.295	373.25
295.525	398.25
295.756	413.25
295.987	395.25
296.217	407.25
296.448	404.25
296.679	384.25
296.909	403.25
297.14	415.25
297.37	428.25
297.601	414.25
297.831	443.25
298.062	434.25
298.292	421.25
298.523	446.25
298.753	424.25
298.984	420.25
299.214	424.25
299.445	432.25
299.675	434.25
299.905	427.25
300.136	429.25
300.366	439.25
300.597	442.25
300.827	429.25
301.057	443.25
301.288	446.25
301.518	452.25
301.748	441.25
301.979	443.25
302.209	407.25
302.439	433.25
302.669	426.25
302.9	428.25
303.13	434.25
303.36	447.25
303.59	432.25
303.82	447.25
304.051	433.25
304.281	430.25
304.511	431.25
304.741	444.25
304.971	435.25
305.201	435.25
305.431	432.25
305.661	436.25
305.891	431.25
306.121	411.25
306.352	445.25
306.582	443.25
306.812	416.25
307.042	450.25
307.272	436.25
307.502	426.25
307.731	419.25
307.961	427.25
308.191	415.25
308.421	437.25
308.651	436.25
308.881	417.25
309.111	419.25
309.341	427.25
309.571	443.25
309.8	428.25
310.03	445.25
310.26	447.25
310.49	430.25
310.72	419.25
310.949	412.25
311.179	417.25
311.409	423.25
311.639	438.25
311.868	445.25
312.098	414.25
312.328	471.25
312.557	454.25
312.787	453.25
313.017	453.25
313.246	435.25
313.476	477.25
313.706	458.25
313.935	483.25
314.165	468.25
314.394	463.25
314.624	469.25
314.853	441.25
315.083	467.25
315.312	447.25
315.542	449.25
315.771	475.25
316.001	450.25
316.23	450.25
316.46	474.25
316.689	445.25
316.919	429.25
317.148	469.25
317.377	449.25
317.607	442.25
317.836	444.25
318.065	444.25
318.295	453.25
318.524	447.25
318.753	429.25
318.983	457.25
319.212	457.25
319.441	421.25
319.67	463.25
319.9	456.25
320.129	464.25
320.358	441.25
320.587	442.25
320.816	455.25
321.046	454.25
321.275	442.25
321.504	451.25
321.733	435.25
321.962	446.25
322.191	466.25
322.42	450.25
322.649	450.25
322.878	452.25
323.108	460.25
323.337	468.25
323.566	482.25
323.795	476.25
324.024	460.25
324.253	464.25
324.482	468.25
324.71	471.25
324.939	464.25
325.168	476.25
325.397	448.25
325.626	438.25
325.855	467.25
326.084	502.25
326.313	509.25
326.542	517.25
326.77	517.25
326.999	503.25
327.228	457.25
327.457	474.25
327.686	485.25
327.914	471.25
328.143	492.25
328.372	498.25
328.6	505.25
328.829	498.25
329.058	521.25
329.287	517.25
329.515	498.25
329.744	513.25
329.972	499.25
330.201	526.25
330.43	513.25
330.658	498.25
330.887	516.25
331.115	539.25
331.344	513.25
331.572	513.25
331.801	540.25
332.03	544.25
332.258	549.25
332.486	554.25
332.715	591.25
332.943	609.25
333.172	628.25
333.4	673.25
333.629	669.25
333.857	673.25
334.085	660.25
334.314	653.25
334.542	640.25
334.771	635.25
334.999	630.25
335.227	617.25
335.455	591.25
335.684	599.25
335.912	604.25
336.14	575.25
336.369	597.25
336.597	610.25
336.825	605.25
337.053	586.25
337.281	590.25
337.51	573.25
337.738	557.25
337.966	557.25
338.194	571.25
338.422	555.25
338.65	530.25
338.878	547.25
339.106	541.25
339.334	538.25
339.562	538.25
339.79	523.25
340.018	524.25
340.246	545.25
340.474	503.25
340.702	536.25
340.93	527.25
341.158	518.25
341.386	553.25
341.614	519.25
341.842	512.25
342.07	483.25
342.298	517.25
342.526	529.25
342.754	522.25
342.981	521.25
343.209	542.25
343.437	554.25
343.665	587.25
343.893	622.25
344.12	643.25
344.348	618.25
344.576	578.25
344.804	545.25
345.031	557.25
345.259	545.25
345.487	524.25
345.714	511.25
345.942	529.25
346.17	543.25
346.397	537.25
346.625	528.25
346.853	535.25
347.08	518.25
347.308	526.25
347.535	541.25
347.763	538.25
347.99	523.25
348.218	518.25
348.445	505.25
348.673	531.25
348.9	523.25
349.128	502.25
349.355	509.25
349.583	531.25
349.81	521.25
350.037	508.25
350.265	474.25
350.492	494.25
350.72	484.25
350.947	514.25
351.174	490.25
351.402	487.25
351.629	510.25
351.856	519.25
352.083	483.25
352.311	498.25
352.538	514.25
352.765	490.25
352.992	495.25
353.22	502.25
353.447	476.25
353.674	495.25
353.901	466.25
354.128	491.25
354.355	478.25
354.583	509.25
354.81	497.25
355.037	505.25
355.264	503.25
355.491	497.25
355.718	486.25
355.945	497.25
356.172	485.25
356.399	498.25
356.626	513.25
356.853	491.25
357.08	487.25
357.307	483.25
357.534	482.25
357.761	479.25
357.988	505.25
358.215	481.25
358.441	494.25
358.668	492.25
358.895	504.25
359.122	471.25
359.349	495.25
359.576	497.25
359.802	482.25
360.029	499.25
360.256	471.25
360.483	483.25
360.709	482.25
360.936	481.25
361.163	510.25
361.39	465.25
361.616	499.25
361.843	494.25
362.07	507.25
362.296	493.25
362.523	486.25
362.749	483.25
362.976	484.25
363.203	503.25
363.429	481.25
363.656	490.25
363.882	487.25
364.109	473.25
364.335	497.25
364.562	482.25
364.788	499.25
365.015	505.25
365.241	500.25
365.468	475.25
365.694	488.25
365.92	490.25
366.147	498.25
366.373	507.25
366.599	510.25
366.826	508.25
367.052	499.25
367.278	508.25
367.505	499.25
367.731	509.25
367.957	500.25
368.184	477.25
368.41	503.25
368.636	499.25
368.862	487.25
369.089	509.25
369.315	513.25
369.541	520.25
369.767	539.25
369.993	515.25
370.219	501.25
370.445	533.25
370.672	528.25
370.898	556.25
371.124	531.25
371.35	522.25
371.576	535.25
371.802	539.25
372.028	524.25
372.254	528.25
372.48	531.25
372.706	536.25
372.932	576.25
373.158	571.25
373.384	540.25
373.61	537.25
373.835	518.25
374.061	539.25
374.287	555.25
374.513	538.25
374.739	579.25
374.965	587.25
375.191	583.25
375.416	584.25
375.642	572.25
375.868	574.25
376.094	569.25
376.319	542.25
376.545	545.25
376.771	530.25
376.997	568.25
377.222	543.25
377.448	538.25
377.674	556.25
377.899	543.25
378.125	550.25
378.35	543.25
378.576	534.25
378.802	543.25
379.027	540.25
379.253	559.25
379.478	539.25
379.704	534.25
379.929	506.25
380.155	534.25
380.38	527.25
380.606	548.25
380.831	541.25
381.057	536.25
381.282	528.25
381.507	524.25
381.733	534.25
381.958	562.25
382.184	522.25
382.409	563.25
382.634	547.25
382.86	563.25
383.085	582.25
383.31	561.25
383.535	595.25
383.761	577.25
383.986	579.25
384.211	614.25
384.436	616.25
384.662	627.25
384.887	630.25
385.112	632.25
385.337	643.25
385.562	634.25
385.787	635.25
386.013	652.25
386.238	633.25
386.463	668.25
386.688	649.25
386.913	633.25
387.138	617.25
387.363	612.25
387.588	626.25
387.813	634.25
388.038	634.25
388.263	633.25
388.488	631.25
388.713	629.25
388.938	617.25
389.163	612.25
389.387	635.25
389.612	601.25
389.837	622.25
390.062	595.25
390.287	613.25
390.512	621.25
390.736	630.25
390.961	641.25
391.186	671.25
391.411	667.25
391.636	663.25
391.86	710.25
392.085	691.25
392.31	693.25
392.534	690.25
392.759	674.25
392.984	648.25
393.208	671.25
393.433	657.25
393.658	686.25
393.882	660.25
394.107	697.25
394.331	692.25
394.556	685.25
394.78	699.25
395.005	678.25
395.229	685.25
395.454	708.25
395.678	701.25
395.903	686.25
396.127	682.25
396.352	671.25
396.576	650.25
396.801	681.25
397.025	665.25
397.249	690.25
397.474	689.25
397.698	682.25
397.922	704.25
398.147	700.25
398.371	726.25
398.595	748.25
398.82	786.25
399.044	825.25
399.268	893.25
399.492	1062.25
399.717	1179.25
399.941	1204.25
400.165	1003.25
400.389	925.25
400.613	883.25
400.837	806.25
401.062	758.25
401.286	774.25
401.51	804.25
401.734	798.25
401.958	801.25
402.182	801.25
402.406	829.25
402.63	824.25
402.854	853.25
403.078	847.25
403.302	857.25
403.526	870.25
403.75	911.25
403.974	939.25
404.198	910.25
404.422	934.25
404.645	891.25
404.869	878.25
405.093	897.25
405.317	862.25
405.541	866.25
405.765	886.25
405.988	858.25
406.212	853.25
406.436	870.25
406.66	879.25
406.883	897.25
407.107	931.25
407.331	1034.25
407.555	1009.25
407.778	999.25
408.002	984.25
408.226	938.25
408.449	923.25
408.673	913.25
408.896	913.25
409.12	894.25
409.344	912.25
409.567	917.25
409.791	930.25
410.014	932.25
410.238	883.25
410.461	894.25
410.685	915.25
410.908	890.25
411.132	836.25
411.355	825.25
411.578	827.25
411.802	817.25
412.025	841.25
412.249	841.25
412.472	833.25
412.695	799.25
412.919	812.25
413.142	789.25
413.365	768.25
413.589	797.25
413.812	767.25
414.035	789.25
414.258	801.25
414.482	784.25
414.705	831.25
414.928	782.25
415.151	783.25
415.374	791.25
415.597	781.25
415.821	762.25
416.044	749.25
416.267	767.25
416.49	763.25
416.713	774.25
416.936	790.25
417.159	773.25
417.382	762.25
417.605	795.25
417.828	771.25
418.051	777.25
418.274	791.25
418.497	786.25
418.72	819.25
418.943	803.25
419.166	869.25
419.389	888.25
419.611	870.25
419.834	846.25
420.057	802.25
420.28	774.25
420.503	791.25
420.726	767.25
420.948	757.25
421.171	783.25
421.394	773.25
421.617	746.25
421.839	769.25
422.062	789.25
422.285	762.25
422.507	822.25
422.73	799.25
422.953	819.25
423.175	817.25
423.398	819.25
423.621	835.25
423.843	854.25
424.066	845.25
424.288	835.25
424.511	811.25
424.733	817.25
424.956	811.25
425.178	790.25
425.401	784.25
425.623	788.25
425.846	770.25
426.068	781.25
426.291	752.25
426.513	747.25
426.735	722.25
426.958	719.25
427.18	717.25
427.402	723.25
427.625	707.25
427.847	715.25
428.069	702.25
428.292	734.25
428.514	710.25
428.736	729.25
428.958	686.25
429.181	693.25
429.403	653.25
429.625	686.25
429.847	671.25
430.069	694.25
430.292	665.25
430.514	661.25
430.736	690.25
430.958	675.25
431.18	679.25
431.402	692.25
431.624	689.25
431.846	724.25
432.068	715.25
432.29	714.25
432.512	694.25
432.734	697.25
432.956	694.25
433.178	704.25
433.4	710.25
433.622	758.25
433.844	705.25
434.066	723.25
434.287	733.25
434.509	757.25
434.731	775.25
434.953	807.25
435.175	822.25
435.397	801.25
435.618	751.25
435.84	740.25
436.062	723.25
436.284	709.25
436.505	714.25
436.727	706.25
436.949	718.25
437.17	695.25
437.392	683.25
437.614	691.25
437.835	692.25
438.057	684.25
438.278	683.25
438.5	685.25
438.721	672.25
438.943	663.25
439.165	696.25
439.386	691.25
439.608	712.25
439.829	706.25
440.05	713.25
440.272	721.25
440.493	720.25
440.715	732.25
440.936	735.25
441.158	743.25
441.379	752.25
441.6	774.25
441.822	820.25
442.043	805.25
442.264	802.25
442.486	807.25
442.707	777.25
442.928	756.25
443.149	773.25
443.371	790.25
443.592	795.25
443.813	798.25
444.034	796.25
444.255	819.25
444.476	873.25
444.698	917.25
444.919	933.25
445.14	1010.25
445.361	895.25
445.582	842.25
445.803	750.25
446.024	760.25
446.245	781.25
446.466	727.25
446.687	703.25
446.908	749.25
447.129	701.25
447.35	691.25
447.571	663.25
447.792	666.25
448.013	679.25
448.234	673.25
448.455	676.25
448.675	647.25
448.896	674.25
449.117	664.25
449.338	643.25
449.559	678.25
449.779	659.25
450	649.25
450.221	653.25
450.442	673.25
450.662	675.25
450.883	676.25
451.104	687.25
451.324	687.25
451.545	677.25
451.766	672.25
451.986	664.25
452.207	692.25
452.428	659.25
452.648	667.25
452.869	639.25
453.089	655.25
453.31	655.25
453.53	648.25
453.751	647.25
453.971	649.25
454.192	641.25
454.412	646.25
454.633	628.25
454.853	637.25
455.073	629.25
455.294	622.25
455.514	613.25
455.734	637.25
455.955	622.25
456.175	618.25
456.395	633.25
456.616	622.25
456.836	619.25
457.056	618.25
457.276	628.25
457.497	635.25
457.717	621.25
457.937	636.25
458.157	643.25
458.377	632.25
458.598	633.25
458.818	649.25
459.038	674.25
459.258	690.25
459.478	721.25
459.698	759.25
459.918	764.25
460.138	807.25
460.358	837.25
460.578	834.25
460.798	843.25
461.018	875.25
461.238	836.25
461.458	821.25
461.678	841.25
461.898	831.25
462.118	856.25
462.338	877.25
462.558	927.25
462.777	943.25
462.997	1052.25
463.217	1151.25
463.437	1130.25
463.657	1031.25
463.876	997.25
464.096	976.25
464.316	990.25
464.536	992.25
464.755	953.25
464.975	912.25
465.195	886.25
465.414	826.25
465.634	757.25
465.854	750.25
466.073	745.25
466.293	722.25
466.512	702.25
466.732	699.25
466.951	708.25
467.171	674.25
467.391	711.25
467.61	690.25
467.829	701.25
468.049	669.25
468.268	662.25
468.488	640.25
468.707	678.25
468.927	645.25
469.146	649.25
469.365	686.25
469.585	666.25
469.804	721.25
470.023	707.25
470.243	716.25
470.462	732.25
470.681	730.25
470.901	717.25
471.12	732.25
471.339	697.25
471.558	690.25
471.777	694.25
471.997	653.25
472.216	663.25
472.435	681.25
472.654	650.25
472.873	658.25
473.092	638.25
473.311	655.25
473.53	637.25
473.749	655.25
473.968	647.25
474.187	643.25
474.406	634.25
474.625	638.25
474.844	644.25
475.063	645.25
475.282	636.25
475.501	655.25
475.72	663.25
475.939	662.25
476.158	656.25
476.377	675.25
476.596	683.25
476.814	673.25
477.033	650.25
477.252	693.25
477.471	691.25
477.69	737.25
477.908	724.25
478.127	758.25
478.346	735.25
478.564	802.25
478.783	800.25
479.002	791.25
479.22	810.25
479.439	846.25
479.658	807.25
479.876	783.25
480.095	818.25
480.313	837.25
480.532	856.25
480.751	874.25
480.969	827.25
481.188	791.25
481.406	793.25
481.624	741.25
481.843	758.25
482.061	756.25
482.28	746.25
482.498	747.25
482.717	736.25
482.935	753.25
483.153	756.25
483.372	743.25
483.59	769.25
483.808	755.25
484.027	765.25
484.245	751.25
484.463	761.25
484.681	789.25
484.9	772.25
485.118	774.25
485.336	784.25
485.554	789.25
485.772	814.25
485.99	813.25
486.209	814.25
486.427	819.25
486.645	811.25
486.863	812.25
487.081	813.25
487.299	778.25
487.517	807.25
487.735	780.25
487.953	791.25
488.171	787.25
488.389	771.25
488.607	799.25
488.825	756.25
489.043	778.25
489.261	737.25
489.479	775.25
489.696	794.25
489.914	793.25
490.132	792.25
490.35	792.25
490.568	770.25
490.786	802.25
491.003	786.25
491.221	802.25
491.439	817.25
491.657	788.25
491.874	787.25
492.092	788.25
492.31	798.25
492.527	776.25
492.745	796.25
492.963	802.25
493.18	801.25
493.398	810.25
493.615	815.25
493.833	838.25
494.05	810.25
494.268	801.25
494.485	799.25
494.703	840.25
494.92	836.25
495.138	846.25
495.355	837.25
495.573	821.25
495.79	818.25
496.008	844.25
496.225	787.25
496.442	819.25
496.66	836.25
496.877	850.25
497.094	845.25
497.312	857.25
497.529	888.25
497.746	909.25
497.963	932.25
498.181	966.25
498.398	1037.25
498.615	1066.25
498.832	1127.25
499.049	1228.25
499.267	1308.25
499.484	1433.25
499.701	1628.25
499.918	1748.25
500.135	2006.25
500.352	2337.25
500.569	2481.25
500.786	2429.25
501.003	2237.25
501.22	1981.25
