Data from Ni(NO3)2@0.0625M.TitratingCurve.Agarose3%dH2O.NegLispCup.LampEnergy10.LIBS07252019_HRD10591_18-15-37-569.txt Node
Date: Thu Jul 25 18:15:37 EDT 2019
User: cochatt
Spectrometer: HR+D1059
Trigger mode: 1
Integration Time (sec): 1.000000E-1
Scans to average: 1
Electric dark correction enabled: true
Nonlinearity correction enabled: false
Boxcar width: 0
XAxis mode: Wavelengths
Number of Pixels in Spectrum: 2048
>>>>>Begin Spectral Data<<<<<
223.165	-20.31
223.4	-20.31
223.635	-20.31
223.869	-22.31
224.104	-21.31
224.338	-11.31
224.573	-1.31
224.808	-13.31
225.042	-10.31
225.277	-9.31
225.511	-15.31
225.746	4.69
225.98	19.69
226.215	10.69
226.449	20.69
226.683	19.69
226.918	24.69
227.152	24.69
227.387	42.69
227.621	53.69
227.856	39.69
228.09	37.69
228.324	54.69
228.559	53.69
228.793	79.69
229.027	103.69
229.262	94.69
229.496	109.69
229.73	121.69
229.964	121.69
230.199	110.69
230.433	115.69
230.667	112.69
230.901	111.69
231.136	135.69
231.37	138.69
231.604	127.69
231.838	143.69
232.072	129.69
232.306	142.69
232.541	127.69
232.775	146.69
233.009	147.69
233.243	133.69
233.477	136.69
233.711	134.69
233.945	146.69
234.179	138.69
234.413	143.69
234.647	149.69
234.881	154.69
235.115	147.69
235.349	147.69
235.583	139.69
235.817	150.69
236.051	145.69
236.285	163.69
236.519	138.69
236.753	157.69
236.987	145.69
237.221	146.69
237.455	162.69
237.689	141.69
237.922	148.69
238.156	142.69
238.39	126.69
238.624	152.69
238.858	157.69
239.091	171.69
239.325	163.69
239.559	171.69
239.793	159.69
240.027	161.69
240.26	169.69
240.494	175.69
240.728	162.69
240.961	165.69
241.195	177.69
241.429	180.69
241.662	163.69
241.896	175.69
242.13	181.69
242.363	167.69
242.597	171.69
242.83	173.69
243.064	169.69
243.298	181.69
243.531	193.69
243.765	190.69
243.998	183.69
244.232	190.69
244.465	195.69
244.699	193.69
244.932	190.69
245.166	206.69
245.399	204.69
245.633	194.69
245.866	186.69
246.099	212.69
246.333	215.69
246.566	216.69
246.8	195.69
247.033	198.69
247.266	207.69
247.5	199.69
247.733	206.69
247.966	213.69
248.2	206.69
248.433	218.69
248.666	227.69
248.899	213.69
249.133	205.69
249.366	215.69
249.599	232.69
249.832	222.69
250.066	242.69
250.299	233.69
250.532	247.69
250.765	235.69
250.998	224.69
251.231	223.69
251.465	233.69
251.698	226.69
251.931	249.69
252.164	224.69
252.397	243.69
252.63	227.69
252.863	231.69
253.096	263.69
253.329	248.69
253.562	241.69
253.795	255.69
254.028	257.69
254.261	255.69
254.494	248.69
254.727	261.69
254.96	239.69
255.193	234.69
255.426	250.69
255.659	259.69
255.892	274.69
256.124	249.69
256.357	269.69
256.59	268.69
256.823	266.69
257.056	264.69
257.289	261.69
257.521	276.69
257.754	275.69
257.987	273.69
258.22	275.69
258.452	269.69
258.685	266.69
258.918	267.69
259.151	267.69
259.383	285.69
259.616	273.69
259.849	287.69
260.081	294.69
260.314	283.69
260.547	289.69
260.779	276.69
261.012	279.69
261.244	283.69
261.477	311.69
261.71	288.69
261.942	285.69
262.175	268.69
262.407	285.69
262.64	286.69
262.872	284.69
263.105	291.69
263.337	292.69
263.57	304.69
263.802	295.69
264.035	297.69
264.267	295.69
264.499	309.69
264.732	309.69
264.964	301.69
265.197	302.69
265.429	334.69
265.661	309.69
265.894	329.69
266.126	316.69
266.358	321.69
266.591	325.69
266.823	314.69
267.055	321.69
267.287	345.69
267.52	336.69
267.752	314.69
267.984	331.69
268.216	334.69
268.448	343.69
268.681	349.69
268.913	325.69
269.145	334.69
269.377	315.69
269.609	314.69
269.841	359.69
270.073	337.69
270.306	337.69
270.538	328.69
270.77	341.69
271.002	344.69
271.234	334.69
271.466	342.69
271.698	342.69
271.93	354.69
272.162	357.69
272.394	362.69
272.626	350.69
272.858	357.69
273.09	349.69
273.322	365.69
273.553	346.69
273.785	341.69
274.017	345.69
274.249	357.69
274.481	353.69
274.713	347.69
274.945	356.69
275.176	345.69
275.408	379.69
275.64	352.69
275.872	355.69
276.104	366.69
276.335	379.69
276.567	373.69
276.799	371.69
277.031	378.69
277.262	374.69
277.494	376.69
277.726	395.69
277.957	397.69
278.189	376.69
278.421	377.69
278.652	364.69
278.884	381.69
279.115	396.69
279.347	406.69
279.579	391.69
279.81	386.69
280.042	402.69
280.273	386.69
280.505	391.69
280.736	392.69
280.968	399.69
281.199	395.69
281.431	406.69
281.662	408.69
281.894	416.69
282.125	398.69
282.356	419.69
282.588	419.69
282.819	405.69
283.051	421.69
283.282	415.69
283.513	418.69
283.745	426.69
283.976	441.69
284.207	441.69
284.439	404.69
284.67	452.69
284.901	419.69
285.132	421.69
285.364	416.69
285.595	422.69
285.826	423.69
286.057	401.69
286.288	426.69
286.52	451.69
286.751	449.69
286.982	454.69
287.213	437.69
287.444	435.69
287.675	442.69
287.906	455.69
288.138	426.69
288.369	460.69
288.6	471.69
288.831	455.69
289.062	457.69
289.293	460.69
289.524	443.69
289.755	441.69
289.986	414.69
290.217	459.69
290.448	453.69
290.679	467.69
290.91	449.69
291.141	453.69
291.371	453.69
291.602	459.69
291.833	463.69
292.064	440.69
292.295	451.69
292.526	468.69
292.757	467.69
292.987	465.69
293.218	462.69
293.449	465.69
293.68	478.69
293.91	487.69
294.141	485.69
294.372	466.69
294.603	462.69
294.833	491.69
295.064	462.69
295.295	480.69
295.525	463.69
295.756	475.69
295.987	468.69
296.217	492.69
296.448	483.69
296.679	487.69
296.909	491.69
297.14	492.69
297.37	503.69
297.601	510.69
297.831	509.69
298.062	508.69
298.292	502.69
298.523	537.69
298.753	525.69
298.984	513.69
299.214	520.69
299.445	511.69
299.675	519.69
299.905	551.69
300.136	520.69
300.366	517.69
300.597	521.69
300.827	521.69
301.057	536.69
301.288	533.69
301.518	531.69
301.748	537.69
301.979	535.69
302.209	529.69
302.439	528.69
302.669	533.69
302.9	523.69
303.13	518.69
303.36	516.69
303.59	519.69
303.82	525.69
304.051	525.69
304.281	516.69
304.511	526.69
304.741	537.69
304.971	521.69
305.201	513.69
305.431	506.69
305.661	515.69
305.891	506.69
306.121	509.69
306.352	537.69
306.582	532.69
306.812	536.69
307.042	497.69
307.272	509.69
307.502	506.69
307.731	514.69
307.961	513.69
308.191	499.69
308.421	495.69
308.651	505.69
308.881	501.69
309.111	509.69
309.341	481.69
309.571	502.69
309.8	509.69
310.03	498.69
310.26	514.69
310.49	494.69
310.72	507.69
310.949	519.69
311.179	520.69
311.409	518.69
311.639	522.69
311.868	508.69
312.098	537.69
312.328	518.69
312.557	530.69
312.787	526.69
313.017	541.69
313.246	534.69
313.476	549.69
313.706	558.69
313.935	535.69
314.165	551.69
314.394	550.69
314.624	557.69
314.853	535.69
315.083	526.69
315.312	543.69
315.542	547.69
315.771	554.69
316.001	536.69
316.23	530.69
316.46	546.69
316.689	522.69
316.919	520.69
317.148	542.69
317.377	538.69
317.607	529.69
317.836	514.69
318.065	520.69
318.295	554.69
318.524	521.69
318.753	543.69
318.983	545.69
319.212	513.69
319.441	515.69
319.67	520.69
319.9	552.69
320.129	513.69
320.358	535.69
320.587	523.69
320.816	543.69
321.046	544.69
321.275	533.69
321.504	525.69
321.733	543.69
321.962	537.69
322.191	522.69
322.42	542.69
322.649	553.69
322.878	554.69
323.108	541.69
323.337	550.69
323.566	547.69
323.795	569.69
324.024	567.69
324.253	548.69
324.482	534.69
324.71	555.69
324.939	567.69
325.168	581.69
325.397	570.69
325.626	561.69
325.855	583.69
326.084	571.69
326.313	581.69
326.542	600.69
326.77	604.69
326.999	591.69
327.228	557.69
327.457	561.69
327.686	579.69
327.914	570.69
328.143	596.69
328.372	580.69
328.6	589.69
328.829	566.69
329.058	586.69
329.287	586.69
329.515	593.69
329.744	583.69
329.972	595.69
330.201	593.69
330.43	589.69
330.658	591.69
330.887	597.69
331.115	614.69
331.344	631.69
331.572	615.69
331.801	616.69
332.03	637.69
332.258	643.69
332.486	684.69
332.715	669.69
332.943	733.69
333.172	755.69
333.4	789.69
333.629	799.69
333.857	802.69
334.085	801.69
334.314	791.69
334.542	732.69
334.771	718.69
334.999	735.69
335.227	730.69
335.455	725.69
335.684	716.69
335.912	704.69
336.14	715.69
336.369	714.69
336.597	715.69
336.825	707.69
337.053	692.69
337.281	695.69
337.51	699.69
337.738	651.69
337.966	682.69
338.194	645.69
338.422	625.69
338.65	633.69
338.878	632.69
339.106	617.69
339.334	641.69
339.562	618.69
339.79	614.69
340.018	605.69
340.246	603.69
340.474	598.69
340.702	602.69
340.93	623.69
341.158	619.69
341.386	629.69
341.614	633.69
341.842	618.69
342.07	610.69
342.298	606.69
342.526	615.69
342.754	580.69
342.981	600.69
343.209	601.69
343.437	624.69
343.665	699.69
343.893	745.69
344.12	758.69
344.348	721.69
344.576	698.69
344.804	666.69
345.031	647.69
345.259	636.69
345.487	601.69
345.714	621.69
345.942	619.69
346.17	615.69
346.397	628.69
346.625	604.69
346.853	602.69
347.08	614.69
347.308	613.69
347.535	613.69
347.763	631.69
347.99	585.69
348.218	625.69
348.445	608.69
348.673	591.69
348.9	599.69
349.128	604.69
349.355	597.69
349.583	571.69
349.81	587.69
350.037	578.69
350.265	601.69
350.492	589.69
350.72	561.69
350.947	563.69
351.174	580.69
351.402	583.69
351.629	580.69
351.856	583.69
352.083	556.69
352.311	557.69
352.538	558.69
352.765	580.69
352.992	567.69
353.22	548.69
353.447	567.69
353.674	558.69
353.901	562.69
354.128	581.69
354.355	565.69
354.583	580.69
354.81	563.69
355.037	549.69
355.264	552.69
355.491	553.69
355.718	575.69
355.945	577.69
356.172	583.69
356.399	584.69
356.626	575.69
356.853	587.69
357.08	569.69
357.307	591.69
357.534	574.69
357.761	564.69
357.988	585.69
358.215	566.69
358.441	577.69
358.668	576.69
358.895	561.69
359.122	578.69
359.349	550.69
359.576	551.69
359.802	571.69
360.029	590.69
360.256	550.69
360.483	587.69
360.709	560.69
360.936	596.69
361.163	584.69
361.39	562.69
361.616	565.69
361.843	568.69
362.07	573.69
362.296	558.69
362.523	557.69
362.749	555.69
362.976	574.69
363.203	545.69
363.429	567.69
363.656	585.69
363.882	572.69
364.109	557.69
364.335	565.69
364.562	585.69
364.788	535.69
365.015	571.69
365.241	551.69
365.468	567.69
365.694	545.69
365.92	554.69
366.147	575.69
366.373	583.69
366.599	573.69
366.826	573.69
367.052	579.69
367.278	576.69
367.505	563.69
367.731	561.69
367.957	571.69
368.184	572.69
368.41	579.69
368.636	549.69
368.862	570.69
369.089	577.69
369.315	589.69
369.541	590.69
369.767	601.69
369.993	587.69
370.219	575.69
370.445	573.69
370.672	615.69
370.898	591.69
371.124	595.69
371.35	610.69
371.576	626.69
371.802	627.69
372.028	621.69
372.254	629.69
372.48	641.69
372.706	638.69
372.932	619.69
373.158	658.69
373.384	629.69
373.61	625.69
373.835	631.69
374.061	630.69
374.287	605.69
374.513	640.69
374.739	653.69
374.965	682.69
375.191	678.69
375.416	705.69
375.642	656.69
375.868	674.69
376.094	639.69
376.319	639.69
376.545	648.69
376.771	628.69
376.997	622.69
377.222	625.69
377.448	628.69
377.674	655.69
377.899	626.69
378.125	629.69
378.35	609.69
378.576	609.69
378.802	615.69
379.027	617.69
379.253	615.69
379.478	618.69
379.704	630.69
379.929	599.69
380.155	612.69
380.38	600.69
380.606	609.69
380.831	609.69
381.057	588.69
381.282	595.69
381.507	617.69
381.733	645.69
381.958	627.69
382.184	626.69
382.409	651.69
382.634	638.69
382.86	643.69
383.085	648.69
383.31	678.69
383.535	691.69
383.761	703.69
383.986	695.69
384.211	711.69
384.436	736.69
384.662	749.69
384.887	771.69
385.112	749.69
385.337	754.69
385.562	755.69
385.787	736.69
386.013	746.69
386.238	741.69
386.463	747.69
386.688	780.69
386.913	719.69
387.138	717.69
387.363	733.69
387.588	741.69
387.813	738.69
388.038	717.69
388.263	714.69
388.488	746.69
388.713	741.69
388.938	715.69
389.163	724.69
389.387	742.69
389.612	704.69
389.837	718.69
390.062	722.69
390.287	717.69
390.512	717.69
390.736	727.69
390.961	745.69
391.186	759.69
391.411	750.69
391.636	797.69
391.86	823.69
392.085	834.69
392.31	844.69
392.534	825.69
392.759	826.69
392.984	786.69
393.208	788.69
393.433	777.69
393.658	772.69
393.882	802.69
394.107	813.69
394.331	802.69
394.556	806.69
394.78	808.69
395.005	800.69
395.229	808.69
395.454	853.69
395.678	852.69
395.903	855.69
396.127	843.69
396.352	821.69
396.576	786.69
396.801	778.69
397.025	780.69
397.249	806.69
397.474	801.69
397.698	798.69
397.922	822.69
398.147	828.69
398.371	820.69
398.595	866.69
398.82	893.69
399.044	949.69
399.268	1056.69
399.492	1277.69
399.717	1498.69
399.941	1481.69
400.165	1253.69
400.389	1128.69
400.613	1001.69
400.837	972.69
401.062	959.69
401.286	917.69
401.51	925.69
401.734	909.69
401.958	949.69
402.182	949.69
402.406	964.69
402.63	962.69
402.854	985.69
403.078	1009.69
403.302	1047.69
403.526	1089.69
403.75	1091.69
403.974	1110.69
404.198	1110.69
404.422	1090.69
404.645	1093.69
404.869	1062.69
405.093	1060.69
405.317	1046.69
405.541	1042.69
405.765	1042.69
405.988	1027.69
406.212	1046.69
406.436	1026.69
406.66	1059.69
406.883	1045.69
407.107	1145.69
407.331	1172.69
407.555	1251.69
407.778	1201.69
408.002	1183.69
408.226	1149.69
408.449	1141.69
408.673	1089.69
408.896	1080.69
409.12	1067.69
409.344	1085.69
409.567	1076.69
409.791	1093.69
410.014	1101.69
410.238	1100.69
410.461	1082.69
410.685	1044.69
410.908	1007.69
411.132	1010.69
411.355	973.69
411.578	952.69
411.802	951.69
412.025	988.69
412.249	988.69
412.472	1002.69
412.695	929.69
412.919	936.69
413.142	945.69
413.365	927.69
413.589	922.69
413.812	921.69
414.035	935.69
414.258	925.69
414.482	943.69
414.705	966.69
414.928	935.69
415.151	930.69
415.374	951.69
415.597	951.69
415.821	930.69
416.044	935.69
416.267	906.69
416.49	906.69
416.713	916.69
416.936	923.69
417.159	928.69
417.382	906.69
417.605	895.69
417.828	920.69
418.051	947.69
418.274	948.69
418.497	925.69
418.72	966.69
418.943	972.69
419.166	1052.69
419.389	1085.69
419.611	1089.69
419.834	1027.69
420.057	980.69
420.28	951.69
420.503	932.69
420.726	922.69
420.948	922.69
421.171	906.69
421.394	922.69
421.617	919.69
421.839	902.69
422.062	937.69
422.285	901.69
422.507	960.69
422.73	961.69
422.953	970.69
423.175	965.69
423.398	975.69
423.621	1001.69
423.843	983.69
424.066	986.69
424.288	980.69
424.511	1018.69
424.733	973.69
424.956	962.69
425.178	941.69
425.401	917.69
425.623	937.69
425.846	891.69
426.068	881.69
426.291	898.69
426.513	888.69
426.735	889.69
426.958	878.69
427.18	860.69
427.402	865.69
427.625	863.69
427.847	851.69
428.069	843.69
428.292	833.69
428.514	824.69
428.736	809.69
428.958	836.69
429.181	805.69
429.403	793.69
429.625	833.69
429.847	794.69
430.069	795.69
430.292	811.69
430.514	810.69
430.736	814.69
430.958	823.69
431.18	789.69
431.402	811.69
431.624	800.69
431.846	838.69
432.068	841.69
432.29	842.69
432.512	839.69
432.734	837.69
432.956	814.69
433.178	856.69
433.4	825.69
433.622	840.69
433.844	845.69
434.066	847.69
434.287	864.69
434.509	866.69
434.731	906.69
434.953	972.69
435.175	937.69
435.397	938.69
435.618	907.69
435.84	876.69
436.062	849.69
436.284	834.69
436.505	829.69
436.727	827.69
436.949	834.69
437.17	833.69
437.392	830.69
437.614	805.69
437.835	821.69
438.057	811.69
438.278	784.69
438.5	815.69
438.721	789.69
438.943	821.69
439.165	810.69
439.386	807.69
439.608	824.69
439.829	813.69
440.05	836.69
440.272	851.69
440.493	835.69
440.715	860.69
440.936	862.69
441.158	891.69
441.379	883.69
441.6	934.69
441.822	949.69
442.043	935.69
442.264	914.69
442.486	911.69
442.707	942.69
442.928	903.69
443.149	910.69
443.371	919.69
443.592	934.69
443.813	921.69
444.034	951.69
444.255	977.69
444.476	1004.69
444.698	1083.69
444.919	1149.69
445.14	1222.69
445.361	1065.69
445.582	982.69
445.803	901.69
446.024	865.69
446.245	843.69
446.466	858.69
446.687	854.69
446.908	862.69
447.129	822.69
447.35	829.69
447.571	824.69
447.792	775.69
448.013	779.69
448.234	764.69
448.455	758.69
448.675	769.69
448.896	766.69
449.117	754.69
449.338	748.69
449.559	756.69
449.779	739.69
450	747.69
450.221	753.69
450.442	767.69
450.662	779.69
450.883	789.69
451.104	775.69
451.324	797.69
451.545	805.69
451.766	802.69
451.986	796.69
452.207	769.69
452.428	773.69
452.648	762.69
452.869	762.69
453.089	788.69
453.31	771.69
453.53	740.69
453.751	741.69
453.971	741.69
454.192	747.69
454.412	713.69
454.633	731.69
454.853	753.69
455.073	732.69
455.294	740.69
455.514	726.69
455.734	726.69
455.955	707.69
456.175	723.69
456.395	716.69
456.616	709.69
456.836	686.69
457.056	716.69
457.276	704.69
457.497	727.69
457.717	716.69
457.937	732.69
458.157	770.69
458.377	747.69
458.598	746.69
458.818	786.69
459.038	807.69
459.258	833.69
459.478	857.69
459.698	865.69
459.918	869.69
460.138	900.69
460.358	989.69
460.578	1005.69
460.798	999.69
461.018	1004.69
461.238	995.69
461.458	974.69
461.678	1006.69
461.898	995.69
462.118	981.69
462.338	1036.69
462.558	1057.69
462.777	1102.69
462.997	1220.69
463.217	1356.69
463.437	1362.69
463.657	1245.69
463.876	1166.69
464.096	1167.69
464.316	1202.69
464.536	1205.69
464.755	1126.69
464.975	1085.69
465.195	1047.69
465.414	982.69
465.634	891.69
465.854	888.69
466.073	858.69
466.293	842.69
466.512	828.69
466.732	791.69
466.951	776.69
467.171	799.69
467.391	812.69
467.61	808.69
467.829	806.69
468.049	779.69
468.268	763.69
468.488	783.69
468.707	756.69
468.927	757.69
469.146	760.69
469.365	789.69
469.585	777.69
469.804	776.69
470.023	805.69
470.243	821.69
470.462	843.69
470.681	831.69
470.901	842.69
471.12	837.69
471.339	822.69
471.558	810.69
471.777	786.69
471.997	774.69
472.216	769.69
472.435	760.69
472.654	746.69
472.873	750.69
473.092	712.69
473.311	738.69
473.53	734.69
473.749	747.69
473.968	748.69
474.187	738.69
474.406	737.69
474.625	746.69
474.844	737.69
475.063	769.69
475.282	744.69
475.501	768.69
475.72	768.69
475.939	787.69
476.158	767.69
476.377	784.69
476.596	765.69
476.814	793.69
477.033	787.69
477.252	807.69
477.471	849.69
477.69	814.69
477.908	863.69
478.127	889.69
478.346	908.69
478.564	918.69
478.783	900.69
479.002	957.69
479.22	958.69
479.439	943.69
479.658	918.69
479.876	919.69
480.095	957.69
480.313	995.69
480.532	1051.69
480.751	1025.69
480.969	938.69
481.188	900.69
481.406	890.69
481.624	907.69
481.843	885.69
482.061	846.69
482.28	861.69
482.498	850.69
482.717	866.69
482.935	855.69
483.153	837.69
483.372	862.69
483.59	861.69
483.808	838.69
484.027	863.69
484.245	862.69
484.463	857.69
484.681	865.69
484.9	898.69
485.118	911.69
485.336	883.69
485.554	909.69
485.772	916.69
485.99	922.69
486.209	926.69
486.427	953.69
486.645	884.69
486.863	947.69
487.081	905.69
487.299	896.69
487.517	919.69
487.735	931.69
487.953	900.69
488.171	917.69
488.389	881.69
488.607	893.69
488.825	882.69
489.043	851.69
489.261	887.69
489.479	894.69
489.696	865.69
489.914	896.69
490.132	858.69
490.35	898.69
490.568	901.69
490.786	901.69
491.003	905.69
491.221	922.69
491.439	890.69
491.657	898.69
491.874	889.69
492.092	903.69
492.31	893.69
492.527	887.69
492.745	938.69
492.963	912.69
493.18	935.69
493.398	925.69
493.615	922.69
493.833	943.69
494.05	942.69
494.268	927.69
494.485	935.69
494.703	943.69
494.92	946.69
495.138	959.69
495.355	942.69
495.573	969.69
495.79	952.69
496.008	968.69
496.225	967.69
496.442	989.69
496.66	987.69
496.877	956.69
497.094	993.69
497.312	1014.69
497.529	1023.69
497.746	1054.69
497.963	1063.69
498.181	1126.69
498.398	1175.69
498.615	1212.69
498.832	1319.69
499.049	1421.69
499.267	1548.69
499.484	1711.69
499.701	1909.69
499.918	2095.69
500.135	2473.69
500.352	2819.69
