Data from Ni(NO3)2@0.5M.TitratingCurve.Agarose3%dH2O.NegLispCup.LampEnergy10.LIBS07252019_HRD10591_17-59-43-565.txt Node
Date: Thu Jul 25 17:59:43 EDT 2019
User: cochatt
Spectrometer: HR+D1059
Trigger mode: 1
Integration Time (sec): 1.000000E-1
Scans to average: 1
Electric dark correction enabled: true
Nonlinearity correction enabled: false
Boxcar width: 0
XAxis mode: Wavelengths
Number of Pixels in Spectrum: 2048
>>>>>Begin Spectral Data<<<<<
223.165	5.44
223.4	5.44
223.635	5.44
223.869	-4.56
224.104	-11.56
224.338	-15.56
224.573	-11.56
224.808	-1.56
225.042	1.44
225.277	-18.56
225.511	-4.56
225.746	-0.56
225.98	-7.56
226.215	10.44
226.449	14.44
226.683	-3.56
226.918	20.44
227.152	27.44
227.387	37.44
227.621	47.44
227.856	53.44
228.09	42.44
228.324	46.44
228.559	76.44
228.793	69.44
229.027	88.44
229.262	110.44
229.496	103.44
229.73	102.44
229.964	111.44
230.199	143.44
230.433	133.44
230.667	131.44
230.901	120.44
231.136	123.44
231.37	117.44
231.604	134.44
231.838	135.44
232.072	139.44
232.306	143.44
232.541	132.44
232.775	123.44
233.009	124.44
233.243	126.44
233.477	119.44
233.711	131.44
233.945	119.44
234.179	124.44
234.413	120.44
234.647	123.44
234.881	141.44
235.115	112.44
235.349	120.44
235.583	128.44
235.817	120.44
236.051	125.44
236.285	131.44
236.519	111.44
236.753	112.44
236.987	123.44
237.221	127.44
237.455	120.44
237.689	127.44
237.922	130.44
238.156	117.44
238.39	116.44
238.624	130.44
238.858	123.44
239.091	119.44
239.325	137.44
239.559	137.44
239.793	144.44
240.027	136.44
240.26	123.44
240.494	127.44
240.728	127.44
240.961	133.44
241.195	127.44
241.429	145.44
241.662	139.44
241.896	154.44
242.13	148.44
242.363	143.44
242.597	133.44
242.83	135.44
243.064	145.44
243.298	146.44
243.531	129.44
243.765	135.44
243.998	156.44
244.232	144.44
244.465	147.44
244.699	148.44
244.932	134.44
245.166	145.44
245.399	151.44
245.633	151.44
245.866	140.44
246.099	145.44
246.333	144.44
246.566	156.44
246.8	145.44
247.033	159.44
247.266	150.44
247.5	174.44
247.733	154.44
247.966	151.44
248.2	148.44
248.433	155.44
248.666	165.44
248.899	161.44
249.133	155.44
249.366	185.44
249.599	143.44
249.832	159.44
250.066	163.44
250.299	165.44
250.532	173.44
250.765	165.44
250.998	158.44
251.231	169.44
251.465	174.44
251.698	185.44
251.931	176.44
252.164	167.44
252.397	181.44
252.63	173.44
252.863	176.44
253.096	182.44
253.329	173.44
253.562	168.44
253.795	192.44
254.028	191.44
254.261	177.44
254.494	173.44
254.727	188.44
254.96	185.44
255.193	184.44
255.426	163.44
255.659	177.44
255.892	175.44
256.124	184.44
256.357	182.44
256.59	198.44
256.823	182.44
257.056	187.44
257.289	184.44
257.521	187.44
257.754	187.44
257.987	195.44
258.22	188.44
258.452	195.44
258.685	191.44
258.918	197.44
259.151	189.44
259.383	188.44
259.616	202.44
259.849	203.44
260.081	213.44
260.314	205.44
260.547	179.44
260.779	211.44
261.012	213.44
261.244	188.44
261.477	195.44
261.71	218.44
261.942	218.44
262.175	211.44
262.407	208.44
262.64	194.44
262.872	217.44
263.105	219.44
263.337	209.44
263.57	232.44
263.802	221.44
264.035	207.44
264.267	218.44
264.499	235.44
264.732	238.44
264.964	228.44
265.197	212.44
265.429	242.44
265.661	212.44
265.894	213.44
266.126	222.44
266.358	217.44
266.591	212.44
266.823	246.44
267.055	223.44
267.287	235.44
267.52	235.44
267.752	235.44
267.984	252.44
268.216	226.44
268.448	227.44
268.681	233.44
268.913	247.44
269.145	238.44
269.377	243.44
269.609	222.44
269.841	227.44
270.073	234.44
270.306	234.44
270.538	214.44
270.77	244.44
271.002	250.44
271.234	231.44
271.466	240.44
271.698	248.44
271.93	238.44
272.162	249.44
272.394	251.44
272.626	228.44
272.858	239.44
273.09	239.44
273.322	248.44
273.553	246.44
273.785	243.44
274.017	245.44
274.249	235.44
274.481	249.44
274.713	252.44
274.945	243.44
275.176	248.44
275.408	256.44
275.64	261.44
275.872	269.44
276.104	274.44
276.335	273.44
276.567	259.44
276.799	283.44
277.031	250.44
277.262	268.44
277.494	263.44
277.726	263.44
277.957	266.44
278.189	280.44
278.421	269.44
278.652	248.44
278.884	279.44
279.115	281.44
279.347	264.44
279.579	274.44
279.81	255.44
280.042	261.44
280.273	273.44
280.505	273.44
280.736	273.44
280.968	275.44
281.199	283.44
281.431	279.44
281.662	277.44
281.894	271.44
282.125	282.44
282.356	283.44
282.588	278.44
282.819	274.44
283.051	287.44
283.282	276.44
283.513	281.44
283.745	281.44
283.976	266.44
284.207	291.44
284.439	283.44
284.67	288.44
284.901	300.44
285.132	274.44
285.364	293.44
285.595	297.44
285.826	292.44
286.057	302.44
286.288	298.44
286.52	298.44
286.751	304.44
286.982	311.44
287.213	318.44
287.444	312.44
287.675	318.44
287.906	307.44
288.138	293.44
288.369	314.44
288.6	300.44
288.831	294.44
289.062	301.44
289.293	317.44
289.524	287.44
289.755	299.44
289.986	300.44
290.217	301.44
290.448	307.44
290.679	304.44
290.91	309.44
291.141	299.44
291.371	312.44
291.602	316.44
291.833	317.44
292.064	291.44
292.295	296.44
292.526	313.44
292.757	303.44
292.987	306.44
293.218	311.44
293.449	325.44
293.68	307.44
293.91	297.44
294.141	315.44
294.372	325.44
294.603	317.44
294.833	307.44
295.064	312.44
295.295	309.44
295.525	314.44
295.756	332.44
295.987	327.44
296.217	325.44
296.448	305.44
296.679	305.44
296.909	325.44
297.14	328.44
297.37	328.44
297.601	318.44
297.831	328.44
298.062	316.44
298.292	331.44
298.523	319.44
298.753	333.44
298.984	315.44
299.214	347.44
299.445	338.44
299.675	340.44
299.905	342.44
300.136	346.44
300.366	340.44
300.597	362.44
300.827	355.44
301.057	358.44
301.288	348.44
301.518	336.44
301.748	359.44
301.979	324.44
302.209	353.44
302.439	361.44
302.669	365.44
302.9	369.44
303.13	354.44
303.36	357.44
303.59	361.44
303.82	372.44
304.051	353.44
304.281	343.44
304.511	355.44
304.741	351.44
304.971	357.44
305.201	384.44
305.431	366.44
305.661	377.44
305.891	359.44
306.121	360.44
306.352	352.44
306.582	342.44
306.812	339.44
307.042	343.44
307.272	336.44
307.502	344.44
307.731	350.44
307.961	355.44
308.191	361.44
308.421	349.44
308.651	364.44
308.881	333.44
309.111	367.44
309.341	349.44
309.571	345.44
309.8	376.44
310.03	383.44
310.26	372.44
310.49	362.44
310.72	369.44
310.949	370.44
311.179	373.44
311.409	372.44
311.639	381.44
311.868	382.44
312.098	359.44
312.328	354.44
312.557	357.44
312.787	378.44
313.017	378.44
313.246	367.44
313.476	381.44
313.706	377.44
313.935	392.44
314.165	383.44
314.394	375.44
314.624	368.44
314.853	381.44
315.083	387.44
315.312	392.44
315.542	393.44
315.771	372.44
316.001	375.44
316.23	398.44
316.46	380.44
316.689	391.44
316.919	371.44
317.148	363.44
317.377	383.44
317.607	393.44
317.836	390.44
318.065	389.44
318.295	405.44
318.524	375.44
318.753	364.44
318.983	399.44
319.212	393.44
319.441	396.44
319.67	391.44
319.9	401.44
320.129	399.44
320.358	391.44
320.587	389.44
320.816	411.44
321.046	389.44
321.275	394.44
321.504	380.44
321.733	411.44
321.962	398.44
322.191	403.44
322.42	388.44
322.649	393.44
322.878	378.44
323.108	390.44
323.337	411.44
323.566	413.44
323.795	401.44
324.024	407.44
324.253	420.44
324.482	402.44
324.71	427.44
324.939	414.44
325.168	436.44
325.397	402.44
325.626	417.44
325.855	408.44
326.084	445.44
326.313	420.44
326.542	416.44
326.77	423.44
326.999	425.44
327.228	427.44
327.457	428.44
327.686	427.44
327.914	447.44
328.143	423.44
328.372	420.44
328.6	422.44
328.829	412.44
329.058	407.44
329.287	412.44
329.515	425.44
329.744	422.44
329.972	440.44
330.201	413.44
330.43	431.44
330.658	429.44
330.887	438.44
331.115	440.44
331.344	452.44
331.572	459.44
331.801	443.44
332.03	455.44
332.258	464.44
332.486	465.44
332.715	459.44
332.943	464.44
333.172	473.44
333.4	506.44
333.629	480.44
333.857	492.44
334.085	491.44
334.314	485.44
334.542	519.44
334.771	487.44
334.999	492.44
335.227	502.44
335.455	476.44
335.684	479.44
335.912	496.44
336.14	512.44
336.369	519.44
336.597	494.44
336.825	497.44
337.053	511.44
337.281	496.44
337.51	482.44
337.738	484.44
337.966	505.44
338.194	504.44
338.422	507.44
338.65	466.44
338.878	462.44
339.106	453.44
339.334	489.44
339.562	479.44
339.79	463.44
340.018	464.44
340.246	475.44
340.474	482.44
340.702	452.44
340.93	463.44
341.158	462.44
341.386	472.44
341.614	493.44
341.842	473.44
342.07	457.44
342.298	472.44
342.526	472.44
342.754	474.44
342.981	464.44
343.209	454.44
343.437	455.44
343.665	485.44
343.893	495.44
344.12	479.44
344.348	489.44
344.576	505.44
344.804	491.44
345.031	490.44
345.259	476.44
345.487	489.44
345.714	485.44
345.942	476.44
346.17	480.44
346.397	466.44
346.625	456.44
346.853	429.44
347.08	449.44
347.308	457.44
347.535	468.44
347.763	459.44
347.99	437.44
348.218	461.44
348.445	448.44
348.673	436.44
348.9	467.44
349.128	462.44
349.355	469.44
349.583	464.44
349.81	446.44
350.037	463.44
350.265	449.44
350.492	445.44
350.72	429.44
350.947	420.44
351.174	458.44
351.402	467.44
351.629	467.44
351.856	444.44
352.083	455.44
352.311	470.44
352.538	488.44
352.765	465.44
352.992	441.44
353.22	428.44
353.447	408.44
353.674	431.44
353.901	447.44
354.128	437.44
354.355	440.44
354.583	422.44
354.81	441.44
355.037	446.44
355.264	431.44
355.491	449.44
355.718	453.44
355.945	430.44
356.172	445.44
356.399	447.44
356.626	455.44
356.853	459.44
357.08	437.44
357.307	442.44
357.534	455.44
357.761	454.44
357.988	431.44
358.215	428.44
358.441	424.44
358.668	432.44
358.895	435.44
359.122	430.44
359.349	429.44
359.576	429.44
359.802	445.44
360.029	456.44
360.256	433.44
360.483	445.44
360.709	444.44
360.936	448.44
361.163	465.44
361.39	440.44
361.616	447.44
361.843	459.44
362.07	487.44
362.296	459.44
362.523	451.44
362.749	437.44
362.976	458.44
363.203	438.44
363.429	444.44
363.656	420.44
363.882	439.44
364.109	452.44
364.335	444.44
364.562	443.44
364.788	445.44
365.015	446.44
365.241	444.44
365.468	437.44
365.694	440.44
365.92	441.44
366.147	451.44
366.373	452.44
366.599	440.44
366.826	453.44
367.052	455.44
367.278	458.44
367.505	463.44
367.731	447.44
367.957	425.44
368.184	444.44
368.41	460.44
368.636	451.44
368.862	441.44
369.089	455.44
369.315	455.44
369.541	460.44
369.767	450.44
369.993	456.44
370.219	472.44
370.445	460.44
370.672	466.44
370.898	473.44
371.124	484.44
371.35	454.44
371.576	484.44
371.802	464.44
372.028	463.44
372.254	462.44
372.48	461.44
372.706	485.44
372.932	487.44
373.158	486.44
373.384	465.44
373.61	469.44
373.835	451.44
374.061	480.44
374.287	473.44
374.513	493.44
374.739	468.44
374.965	494.44
375.191	502.44
375.416	497.44
375.642	484.44
375.868	483.44
376.094	490.44
376.319	479.44
376.545	488.44
376.771	480.44
376.997	479.44
377.222	490.44
377.448	479.44
377.674	473.44
377.899	455.44
378.125	478.44
378.35	447.44
378.576	473.44
378.802	445.44
379.027	475.44
379.253	452.44
379.478	470.44
379.704	462.44
379.929	463.44
380.155	486.44
380.38	475.44
380.606	476.44
380.831	474.44
381.057	478.44
381.282	453.44
381.507	467.44
381.733	491.44
381.958	465.44
382.184	469.44
382.409	496.44
382.634	487.44
382.86	487.44
383.085	472.44
383.31	482.44
383.535	518.44
383.761	491.44
383.986	477.44
384.211	520.44
384.436	514.44
384.662	506.44
384.887	522.44
385.112	513.44
385.337	537.44
385.562	524.44
385.787	517.44
386.013	543.44
386.238	518.44
386.463	512.44
386.688	532.44
386.913	527.44
387.138	516.44
387.363	523.44
387.588	516.44
387.813	537.44
388.038	525.44
388.263	542.44
388.488	525.44
388.713	531.44
388.938	535.44
389.163	521.44
389.387	517.44
389.612	507.44
389.837	538.44
390.062	534.44
390.287	538.44
390.512	500.44
390.736	539.44
390.961	565.44
391.186	537.44
391.411	529.44
391.636	563.44
391.86	566.44
392.085	562.44
392.31	557.44
392.534	556.44
392.759	562.44
392.984	549.44
393.208	560.44
393.433	576.44
393.658	571.44
393.882	571.44
394.107	550.44
394.331	554.44
394.556	545.44
394.78	575.44
395.005	562.44
395.229	565.44
395.454	570.44
395.678	550.44
395.903	577.44
396.127	578.44
396.352	557.44
396.576	569.44
396.801	590.44
397.025	560.44
397.249	597.44
397.474	593.44
397.698	587.44
397.922	593.44
398.147	589.44
398.371	621.44
398.595	614.44
398.82	645.44
399.044	662.44
399.268	656.44
399.492	698.44
399.717	728.44
399.941	751.44
400.165	740.44
400.389	713.44
400.613	697.44
400.837	654.44
401.062	642.44
401.286	664.44
401.51	617.44
401.734	635.44
401.958	637.44
402.182	656.44
402.406	633.44
402.63	621.44
402.854	631.44
403.078	638.44
403.302	623.44
403.526	618.44
403.75	643.44
403.974	643.44
404.198	638.44
404.422	648.44
404.645	644.44
404.869	668.44
405.093	679.44
405.317	646.44
405.541	639.44
405.765	665.44
405.988	643.44
406.212	642.44
406.436	662.44
406.66	701.44
406.883	679.44
407.107	695.44
407.331	715.44
407.555	737.44
407.778	733.44
408.002	703.44
408.226	700.44
408.449	714.44
408.673	708.44
408.896	704.44
409.12	676.44
409.344	705.44
409.567	672.44
409.791	692.44
410.014	684.44
410.238	675.44
410.461	691.44
410.685	643.44
410.908	661.44
411.132	656.44
411.355	624.44
411.578	657.44
411.802	643.44
412.025	644.44
412.249	658.44
412.472	653.44
412.695	651.44
412.919	647.44
413.142	621.44
413.365	623.44
413.589	644.44
413.812	641.44
414.035	637.44
414.258	633.44
414.482	628.44
414.705	632.44
414.928	643.44
415.151	620.44
415.374	609.44
415.597	642.44
415.821	617.44
416.044	613.44
416.267	593.44
416.49	611.44
416.713	599.44
416.936	623.44
417.159	615.44
417.382	610.44
417.605	602.44
417.828	624.44
418.051	588.44
418.274	602.44
418.497	598.44
418.72	617.44
418.943	622.44
419.166	663.44
419.389	682.44
419.611	651.44
419.834	644.44
420.057	641.44
420.28	627.44
420.503	598.44
420.726	595.44
420.948	629.44
421.171	600.44
421.394	612.44
421.617	627.44
421.839	616.44
422.062	611.44
422.285	592.44
422.507	609.44
422.73	600.44
422.953	576.44
423.175	598.44
423.398	611.44
423.621	619.44
423.843	634.44
424.066	613.44
424.288	615.44
424.511	619.44
424.733	622.44
424.956	594.44
425.178	622.44
425.401	620.44
425.623	606.44
425.846	589.44
426.068	603.44
426.291	606.44
426.513	608.44
426.735	581.44
426.958	604.44
427.18	600.44
427.402	616.44
427.625	605.44
427.847	567.44
428.069	579.44
428.292	593.44
428.514	596.44
428.736	559.44
428.958	588.44
429.181	560.44
429.403	576.44
429.625	583.44
429.847	576.44
430.069	597.44
430.292	585.44
430.514	566.44
430.736	556.44
430.958	582.44
431.18	568.44
431.402	574.44
431.624	580.44
431.846	560.44
432.068	585.44
432.29	597.44
432.512	571.44
432.734	590.44
432.956	587.44
433.178	607.44
433.4	623.44
433.622	631.44
433.844	624.44
434.066	617.44
434.287	609.44
434.509	593.44
434.731	605.44
434.953	608.44
435.175	648.44
435.397	623.44
435.618	611.44
435.84	598.44
436.062	594.44
436.284	607.44
436.505	594.44
436.727	591.44
436.949	594.44
437.17	585.44
437.392	565.44
437.614	571.44
437.835	554.44
438.057	569.44
438.278	572.44
438.5	564.44
438.721	559.44
438.943	573.44
439.165	589.44
439.386	565.44
439.608	592.44
439.829	576.44
440.05	576.44
440.272	585.44
440.493	597.44
440.715	589.44
440.936	565.44
441.158	596.44
441.379	619.44
441.6	622.44
441.822	616.44
442.043	626.44
442.264	616.44
442.486	596.44
442.707	578.44
442.928	605.44
443.149	624.44
443.371	634.44
443.592	647.44
443.813	641.44
444.034	621.44
444.255	618.44
444.476	636.44
444.698	637.44
444.919	669.44
445.14	755.44
445.361	689.44
445.582	640.44
445.803	612.44
446.024	615.44
446.245	640.44
446.466	607.44
446.687	587.44
446.908	573.44
447.129	588.44
447.35	563.44
447.571	551.44
447.792	531.44
448.013	555.44
448.234	557.44
448.455	539.44
448.675	544.44
448.896	543.44
449.117	544.44
449.338	547.44
449.559	538.44
449.779	520.44
450	536.44
450.221	551.44
450.442	556.44
450.662	559.44
450.883	569.44
451.104	552.44
451.324	520.44
451.545	535.44
451.766	570.44
451.986	528.44
452.207	535.44
452.428	519.44
452.648	536.44
452.869	516.44
453.089	523.44
453.31	514.44
453.53	504.44
453.751	531.44
453.971	524.44
454.192	519.44
454.412	511.44
454.633	534.44
454.853	528.44
455.073	532.44
455.294	531.44
455.514	519.44
455.734	533.44
455.955	523.44
456.175	524.44
456.395	515.44
456.616	500.44
456.836	530.44
457.056	504.44
457.276	501.44
457.497	529.44
457.717	538.44
457.937	537.44
458.157	538.44
458.377	540.44
458.598	518.44
458.818	531.44
459.038	547.44
459.258	570.44
459.478	611.44
459.698	625.44
459.918	642.44
460.138	633.44
460.358	644.44
460.578	630.44
460.798	647.44
461.018	675.44
461.238	639.44
461.458	645.44
461.678	643.44
461.898	649.44
462.118	634.44
462.338	643.44
462.558	664.44
462.777	688.44
462.997	725.44
463.217	712.44
463.437	771.44
463.657	729.44
463.876	695.44
464.096	696.44
464.316	701.44
464.536	671.44
464.755	693.44
464.975	666.44
465.195	634.44
465.414	640.44
465.634	592.44
465.854	574.44
466.073	598.44
466.293	575.44
466.512	560.44
466.732	559.44
466.951	570.44
467.171	590.44
467.391	589.44
467.61	575.44
467.829	553.44
468.049	553.44
468.268	551.44
468.488	532.44
468.707	545.44
468.927	574.44
469.146	577.44
469.365	583.44
469.585	569.44
469.804	589.44
470.023	583.44
470.243	551.44
470.462	556.44
470.681	580.44
470.901	568.44
471.12	586.44
471.339	552.44
471.558	574.44
471.777	558.44
471.997	563.44
472.216	558.44
472.435	550.44
472.654	559.44
472.873	561.44
473.092	540.44
473.311	539.44
473.53	536.44
473.749	558.44
473.968	548.44
474.187	565.44
474.406	557.44
474.625	560.44
474.844	563.44
475.063	557.44
475.282	565.44
475.501	563.44
475.72	580.44
475.939	584.44
476.158	552.44
476.377	563.44
476.596	558.44
476.814	616.44
477.033	612.44
477.252	611.44
477.471	635.44
477.69	605.44
477.908	590.44
478.127	620.44
478.346	598.44
478.564	635.44
478.783	646.44
479.002	673.44
479.22	686.44
479.439	661.44
479.658	676.44
479.876	657.44
480.095	653.44
480.313	674.44
480.532	668.44
480.751	652.44
480.969	662.44
481.188	651.44
481.406	655.44
481.624	645.44
481.843	653.44
482.061	640.44
482.28	675.44
482.498	667.44
482.717	634.44
482.935	649.44
483.153	647.44
483.372	687.44
483.59	704.44
483.808	667.44
484.027	640.44
484.245	682.44
484.463	667.44
484.681	671.44
484.9	695.44
485.118	679.44
485.336	692.44
485.554	682.44
485.772	668.44
485.99	678.44
486.209	667.44
486.427	692.44
486.645	675.44
486.863	673.44
487.081	664.44
487.299	685.44
487.517	698.44
487.735	699.44
487.953	704.44
488.171	722.44
488.389	665.44
488.607	709.44
488.825	683.44
489.043	687.44
489.261	711.44
489.479	673.44
489.696	681.44
489.914	686.44
490.132	660.44
490.35	684.44
490.568	693.44
490.786	668.44
491.003	661.44
491.221	675.44
491.439	682.44
491.657	688.44
491.874	712.44
492.092	694.44
492.31	715.44
492.527	686.44
492.745	695.44
492.963	699.44
493.18	688.44
493.398	688.44
493.615	714.44
493.833	717.44
494.05	706.44
494.268	676.44
494.485	709.44
494.703	707.44
494.92	702.44
495.138	709.44
495.355	718.44
495.573	682.44
495.79	716.44
496.008	710.44
496.225	687.44
496.442	729.44
496.66	752.44
496.877	752.44
497.094	756.44
497.312	771.44
497.529	775.44
497.746	775.44
497.963	805.44
498.181	828.44
498.398	812.44
498.615	841.44
498.832	880.44
499.049	930.44
499.267	936.44
499.484	987.44
499.701	1032.44
499.918	1098.44
500.135	1156.44
500.352	1232.44
500.569	1263.44
500.786	1232.44
501.003	1187.44
501.22	1170.44
501.437	1095.44
