Data from Ni(NO3)2@0.25M.TitratingCurve.Agarose3%dH2O.NegLispCup.LampEnergy10.LIBS07252019_HRD10591_18-02-43-565.txt Node
Date: Thu Jul 25 18:02:43 EDT 2019
User: cochatt
Spectrometer: HR+D1059
Trigger mode: 1
Integration Time (sec): 1.000000E-1
Scans to average: 1
Electric dark correction enabled: true
Nonlinearity correction enabled: false
Boxcar width: 0
XAxis mode: Wavelengths
Number of Pixels in Spectrum: 2048
>>>>>Begin Spectral Data<<<<<
223.165	-10.5
223.4	-10.5
223.635	-10.5
223.869	-18.5
224.104	-14.5
224.338	-27.5
224.573	-25.5
224.808	-18.5
225.042	-14.5
225.277	-3.5
225.511	-3.5
225.746	2.5
225.98	18.5
226.215	13.5
226.449	21.5
226.683	8.5
226.918	27.5
227.152	44.5
227.387	35.5
227.621	28.5
227.856	43.5
228.09	33.5
228.324	51.5
228.559	56.5
228.793	60.5
229.027	86.5
229.262	98.5
229.496	86.5
229.73	104.5
229.964	115.5
230.199	122.5
230.433	136.5
230.667	126.5
230.901	115.5
231.136	109.5
231.37	119.5
231.604	117.5
231.838	108.5
232.072	124.5
232.306	117.5
232.541	123.5
232.775	120.5
233.009	113.5
233.243	106.5
233.477	124.5
233.711	108.5
233.945	118.5
234.179	120.5
234.413	128.5
234.647	118.5
234.881	133.5
235.115	135.5
235.349	125.5
235.583	129.5
235.817	120.5
236.051	118.5
236.285	130.5
236.519	113.5
236.753	124.5
236.987	125.5
237.221	139.5
237.455	120.5
237.689	128.5
237.922	128.5
238.156	133.5
238.39	132.5
238.624	134.5
238.858	132.5
239.091	135.5
239.325	123.5
239.559	130.5
239.793	142.5
240.027	149.5
240.26	149.5
240.494	140.5
240.728	136.5
240.961	132.5
241.195	139.5
241.429	146.5
241.662	127.5
241.896	157.5
242.13	163.5
242.363	145.5
242.597	128.5
242.83	137.5
243.064	142.5
243.298	127.5
243.531	144.5
243.765	160.5
243.998	148.5
244.232	151.5
244.465	141.5
244.699	153.5
244.932	150.5
245.166	160.5
245.399	156.5
245.633	141.5
245.866	150.5
246.099	149.5
246.333	154.5
246.566	162.5
246.8	169.5
247.033	165.5
247.266	173.5
247.5	169.5
247.733	162.5
247.966	186.5
248.2	161.5
248.433	173.5
248.666	168.5
248.899	177.5
249.133	177.5
249.366	193.5
249.599	179.5
249.832	197.5
250.066	183.5
250.299	188.5
250.532	193.5
250.765	187.5
250.998	212.5
251.231	193.5
251.465	190.5
251.698	212.5
251.931	207.5
252.164	196.5
252.397	214.5
252.63	206.5
252.863	213.5
253.096	210.5
253.329	210.5
253.562	227.5
253.795	227.5
254.028	225.5
254.261	212.5
254.494	217.5
254.727	226.5
254.96	230.5
255.193	225.5
255.426	238.5
255.659	225.5
255.892	230.5
256.124	237.5
256.357	240.5
256.59	233.5
256.823	244.5
257.056	243.5
257.289	243.5
257.521	267.5
257.754	257.5
257.987	236.5
258.22	243.5
258.452	252.5
258.685	265.5
258.918	262.5
259.151	251.5
259.383	255.5
259.616	269.5
259.849	254.5
260.081	259.5
260.314	276.5
260.547	260.5
260.779	277.5
261.012	283.5
261.244	277.5
261.477	276.5
261.71	270.5
261.942	278.5
262.175	262.5
262.407	293.5
262.64	284.5
262.872	294.5
263.105	278.5
263.337	295.5
263.57	292.5
263.802	291.5
264.035	301.5
264.267	298.5
264.499	290.5
264.732	282.5
264.964	292.5
265.197	280.5
265.429	273.5
265.661	294.5
265.894	287.5
266.126	283.5
266.358	292.5
266.591	308.5
266.823	301.5
267.055	304.5
267.287	296.5
267.52	292.5
267.752	293.5
267.984	298.5
268.216	299.5
268.448	300.5
268.681	306.5
268.913	310.5
269.145	347.5
269.377	314.5
269.609	310.5
269.841	308.5
270.073	317.5
270.306	326.5
270.538	293.5
270.77	314.5
271.002	314.5
271.234	312.5
271.466	312.5
271.698	313.5
271.93	329.5
272.162	336.5
272.394	320.5
272.626	332.5
272.858	325.5
273.09	329.5
273.322	320.5
273.553	325.5
273.785	333.5
274.017	318.5
274.249	317.5
274.481	350.5
274.713	345.5
274.945	345.5
275.176	316.5
275.408	320.5
275.64	348.5
275.872	333.5
276.104	325.5
276.335	338.5
276.567	347.5
276.799	334.5
277.031	343.5
277.262	331.5
277.494	331.5
277.726	349.5
277.957	348.5
278.189	354.5
278.421	344.5
278.652	338.5
278.884	339.5
279.115	344.5
279.347	356.5
279.579	359.5
279.81	344.5
280.042	365.5
280.273	359.5
280.505	358.5
280.736	354.5
280.968	355.5
281.199	370.5
281.431	378.5
281.662	368.5
281.894	376.5
282.125	341.5
282.356	339.5
282.588	364.5
282.819	363.5
283.051	374.5
283.282	369.5
283.513	382.5
283.745	376.5
283.976	376.5
284.207	375.5
284.439	387.5
284.67	375.5
284.901	363.5
285.132	364.5
285.364	363.5
285.595	357.5
285.826	375.5
286.057	384.5
286.288	373.5
286.52	382.5
286.751	387.5
286.982	387.5
287.213	386.5
287.444	377.5
287.675	372.5
287.906	377.5
288.138	391.5
288.369	380.5
288.6	382.5
288.831	376.5
289.062	379.5
289.293	365.5
289.524	370.5
289.755	386.5
289.986	390.5
290.217	393.5
290.448	399.5
290.679	398.5
290.91	389.5
291.141	393.5
291.371	376.5
291.602	399.5
291.833	386.5
292.064	398.5
292.295	386.5
292.526	398.5
292.757	402.5
292.987	384.5
293.218	379.5
293.449	378.5
293.68	387.5
293.91	387.5
294.141	397.5
294.372	409.5
294.603	405.5
294.833	389.5
295.064	401.5
295.295	404.5
295.525	387.5
295.756	393.5
295.987	386.5
296.217	404.5
296.448	380.5
296.679	392.5
296.909	395.5
297.14	390.5
297.37	413.5
297.601	408.5
297.831	395.5
298.062	419.5
298.292	426.5
298.523	434.5
298.753	435.5
298.984	424.5
299.214	405.5
299.445	422.5
299.675	423.5
299.905	425.5
300.136	417.5
300.366	419.5
300.597	445.5
300.827	450.5
301.057	423.5
301.288	437.5
301.518	456.5
301.748	442.5
301.979	445.5
302.209	438.5
302.439	449.5
302.669	451.5
302.9	436.5
303.13	449.5
303.36	435.5
303.59	444.5
303.82	446.5
304.051	441.5
304.281	450.5
304.511	464.5
304.741	466.5
304.971	475.5
305.201	462.5
305.431	451.5
305.661	462.5
305.891	448.5
306.121	436.5
306.352	454.5
306.582	440.5
306.812	438.5
307.042	459.5
307.272	440.5
307.502	438.5
307.731	439.5
307.961	438.5
308.191	438.5
308.421	445.5
308.651	458.5
308.881	461.5
309.111	448.5
309.341	456.5
309.571	456.5
309.8	452.5
310.03	453.5
310.26	437.5
310.49	468.5
310.72	471.5
310.949	468.5
311.179	459.5
311.409	476.5
311.639	448.5
311.868	466.5
312.098	486.5
312.328	485.5
312.557	497.5
312.787	485.5
313.017	474.5
313.246	492.5
313.476	483.5
313.706	504.5
313.935	508.5
314.165	497.5
314.394	483.5
314.624	493.5
314.853	513.5
315.083	516.5
315.312	525.5
315.542	524.5
315.771	508.5
316.001	522.5
316.23	528.5
316.46	533.5
316.689	525.5
316.919	529.5
317.148	508.5
317.377	530.5
317.607	537.5
317.836	531.5
318.065	536.5
318.295	536.5
318.524	550.5
318.753	531.5
318.983	536.5
319.212	526.5
319.441	548.5
319.67	532.5
319.9	544.5
320.129	548.5
320.358	554.5
320.587	555.5
320.816	538.5
321.046	540.5
321.275	557.5
321.504	565.5
321.733	554.5
321.962	580.5
322.191	576.5
322.42	573.5
322.649	581.5
322.878	589.5
323.108	578.5
323.337	573.5
323.566	593.5
323.795	575.5
324.024	605.5
324.253	602.5
324.482	606.5
324.71	610.5
324.939	606.5
325.168	617.5
325.397	621.5
325.626	627.5
325.855	634.5
326.084	638.5
326.313	617.5
326.542	638.5
326.77	646.5
326.999	642.5
327.228	624.5
327.457	646.5
327.686	650.5
327.914	657.5
328.143	650.5
328.372	660.5
328.6	654.5
328.829	673.5
329.058	673.5
329.287	702.5
329.515	666.5
329.744	674.5
329.972	681.5
330.201	678.5
330.43	677.5
330.658	689.5
330.887	697.5
331.115	703.5
331.344	693.5
331.572	728.5
331.801	728.5
332.03	743.5
332.258	719.5
332.486	733.5
332.715	765.5
332.943	732.5
333.172	778.5
333.4	780.5
333.629	780.5
333.857	841.5
334.085	837.5
334.314	813.5
334.542	822.5
334.771	829.5
334.999	799.5
335.227	828.5
335.455	842.5
335.684	812.5
335.912	820.5
336.14	827.5
336.369	800.5
336.597	813.5
336.825	807.5
337.053	820.5
337.281	806.5
337.51	800.5
337.738	795.5
337.966	776.5
338.194	778.5
338.422	750.5
338.65	765.5
338.878	788.5
339.106	771.5
339.334	781.5
339.562	766.5
339.79	743.5
340.018	752.5
340.246	732.5
340.474	728.5
340.702	757.5
340.93	748.5
341.158	758.5
341.386	762.5
341.614	754.5
341.842	742.5
342.07	730.5
342.298	731.5
342.526	750.5
342.754	771.5
342.981	741.5
343.209	764.5
343.437	782.5
343.665	801.5
343.893	834.5
344.12	841.5
344.348	799.5
344.576	843.5
344.804	793.5
345.031	792.5
345.259	803.5
345.487	776.5
345.714	768.5
345.942	763.5
346.17	749.5
346.397	744.5
346.625	717.5
346.853	745.5
347.08	738.5
347.308	726.5
347.535	716.5
347.763	705.5
347.99	720.5
348.218	741.5
348.445	717.5
348.673	702.5
348.9	732.5
349.128	706.5
349.355	733.5
349.583	712.5
349.81	708.5
350.037	718.5
350.265	700.5
350.492	699.5
350.72	704.5
350.947	724.5
351.174	743.5
351.402	730.5
351.629	733.5
351.856	691.5
352.083	691.5
352.311	710.5
352.538	709.5
352.765	700.5
352.992	675.5
353.22	688.5
353.447	665.5
353.674	705.5
353.901	676.5
354.128	704.5
354.355	717.5
354.583	697.5
354.81	678.5
355.037	683.5
355.264	685.5
355.491	703.5
355.718	678.5
355.945	701.5
356.172	680.5
356.399	697.5
356.626	720.5
356.853	729.5
357.08	704.5
357.307	699.5
357.534	706.5
357.761	662.5
357.988	702.5
358.215	704.5
358.441	682.5
358.668	691.5
358.895	684.5
359.122	690.5
359.349	692.5
359.576	685.5
359.802	689.5
360.029	696.5
360.256	698.5
360.483	692.5
360.709	691.5
360.936	691.5
361.163	697.5
361.39	702.5
361.616	699.5
361.843	726.5
362.07	722.5
362.296	700.5
362.523	694.5
362.749	702.5
362.976	689.5
363.203	683.5
363.429	684.5
363.656	680.5
363.882	680.5
364.109	698.5
364.335	699.5
364.562	684.5
364.788	660.5
365.015	696.5
365.241	688.5
365.468	675.5
365.694	661.5
365.92	691.5
366.147	699.5
366.373	698.5
366.599	679.5
366.826	686.5
367.052	700.5
367.278	697.5
367.505	684.5
367.731	668.5
367.957	673.5
368.184	688.5
368.41	686.5
368.636	684.5
368.862	709.5
369.089	681.5
369.315	680.5
369.541	705.5
369.767	708.5
369.993	708.5
370.219	718.5
370.445	707.5
370.672	698.5
370.898	714.5
371.124	738.5
371.35	705.5
371.576	752.5
371.802	727.5
372.028	738.5
372.254	722.5
372.48	741.5
372.706	723.5
372.932	717.5
373.158	729.5
373.384	759.5
373.61	723.5
373.835	721.5
374.061	731.5
374.287	730.5
374.513	732.5
374.739	746.5
374.965	752.5
375.191	753.5
375.416	732.5
375.642	738.5
375.868	733.5
376.094	715.5
376.319	706.5
376.545	707.5
376.771	690.5
376.997	712.5
377.222	733.5
377.448	705.5
377.674	694.5
377.899	679.5
378.125	683.5
378.35	702.5
378.576	686.5
378.802	694.5
379.027	689.5
379.253	697.5
379.478	677.5
379.704	706.5
379.929	684.5
380.155	690.5
380.38	706.5
380.606	719.5
380.831	701.5
381.057	697.5
381.282	718.5
381.507	716.5
381.733	713.5
381.958	675.5
382.184	714.5
382.409	698.5
382.634	693.5
382.86	716.5
383.085	721.5
383.31	731.5
383.535	732.5
383.761	755.5
383.986	713.5
384.211	736.5
384.436	738.5
384.662	761.5
384.887	764.5
385.112	786.5
385.337	777.5
385.562	760.5
385.787	788.5
386.013	799.5
386.238	784.5
386.463	800.5
386.688	800.5
386.913	780.5
387.138	802.5
387.363	771.5
387.588	787.5
387.813	769.5
388.038	806.5
388.263	816.5
388.488	794.5
388.713	796.5
388.938	770.5
389.163	753.5
389.387	785.5
389.612	759.5
389.837	785.5
390.062	782.5
390.287	811.5
390.512	803.5
390.736	803.5
390.961	811.5
391.186	821.5
391.411	836.5
391.636	873.5
391.86	861.5
392.085	883.5
392.31	858.5
392.534	845.5
392.759	847.5
392.984	860.5
393.208	843.5
393.433	829.5
393.658	832.5
393.882	822.5
394.107	857.5
394.331	836.5
394.556	835.5
394.78	823.5
395.005	834.5
395.229	853.5
395.454	883.5
395.678	891.5
395.903	872.5
396.127	892.5
396.352	851.5
396.576	846.5
396.801	856.5
397.025	861.5
397.249	886.5
397.474	877.5
397.698	866.5
397.922	925.5
398.147	897.5
398.371	944.5
398.595	966.5
398.82	961.5
399.044	1035.5
399.268	1060.5
399.492	1149.5
399.717	1179.5
399.941	1152.5
400.165	1124.5
400.389	1101.5
400.613	1064.5
400.837	1037.5
401.062	979.5
401.286	1009.5
401.51	994.5
401.734	957.5
401.958	985.5
402.182	1000.5
402.406	971.5
402.63	979.5
402.854	998.5
403.078	996.5
403.302	1031.5
403.526	1027.5
403.75	1028.5
403.974	1066.5
404.198	1026.5
404.422	1021.5
404.645	1016.5
404.869	1025.5
405.093	1052.5
405.317	1021.5
405.541	1001.5
405.765	1044.5
405.988	1010.5
406.212	1047.5
406.436	1025.5
406.66	1064.5
406.883	1108.5
407.107	1116.5
407.331	1131.5
407.555	1157.5
407.778	1142.5
408.002	1168.5
408.226	1136.5
408.449	1128.5
408.673	1104.5
408.896	1095.5
409.12	1065.5
409.344	1102.5
409.567	1056.5
409.791	1096.5
410.014	1077.5
410.238	1059.5
410.461	1056.5
410.685	1049.5
410.908	1051.5
411.132	1050.5
411.355	1031.5
411.578	1033.5
411.802	1047.5
412.025	1026.5
412.249	1019.5
412.472	1033.5
412.695	1026.5
412.919	988.5
413.142	1014.5
413.365	1040.5
413.589	1011.5
413.812	1028.5
414.035	985.5
414.258	1013.5
414.482	999.5
414.705	988.5
414.928	1001.5
415.151	1006.5
415.374	970.5
415.597	1002.5
415.821	973.5
416.044	988.5
416.267	1006.5
416.49	981.5
416.713	981.5
416.936	967.5
417.159	979.5
417.382	977.5
417.605	972.5
417.828	973.5
418.051	1003.5
418.274	996.5
418.497	1033.5
418.72	1010.5
418.943	1011.5
419.166	1063.5
419.389	1101.5
419.611	1114.5
419.834	1052.5
420.057	1047.5
420.28	991.5
420.503	975.5
420.726	983.5
420.948	983.5
421.171	977.5
421.394	1012.5
421.617	974.5
421.839	984.5
422.062	973.5
422.285	1008.5
422.507	991.5
422.73	1008.5
422.953	992.5
423.175	1010.5
423.398	1000.5
423.621	992.5
423.843	987.5
424.066	1032.5
424.288	1000.5
424.511	1007.5
424.733	998.5
424.956	989.5
425.178	983.5
425.401	1025.5
425.623	1009.5
425.846	974.5
426.068	1021.5
426.291	982.5
426.513	951.5
426.735	979.5
426.958	965.5
427.18	968.5
427.402	978.5
427.625	970.5
427.847	940.5
428.069	940.5
428.292	982.5
428.514	934.5
428.736	947.5
428.958	962.5
429.181	955.5
429.403	930.5
429.625	970.5
429.847	951.5
430.069	928.5
430.292	961.5
430.514	920.5
430.736	957.5
430.958	969.5
431.18	921.5
431.402	952.5
431.624	944.5
431.846	981.5
432.068	944.5
432.29	931.5
432.512	965.5
432.734	972.5
432.956	968.5
433.178	951.5
433.4	981.5
433.622	994.5
433.844	996.5
434.066	1000.5
434.287	981.5
434.509	995.5
434.731	1006.5
434.953	1021.5
435.175	1022.5
435.397	1033.5
435.618	995.5
435.84	973.5
436.062	957.5
436.284	981.5
436.505	949.5
436.727	967.5
436.949	947.5
437.17	1001.5
437.392	976.5
437.614	964.5
437.835	904.5
438.057	923.5
438.278	931.5
438.5	921.5
438.721	948.5
438.943	950.5
439.165	954.5
439.386	953.5
439.608	953.5
439.829	923.5
440.05	979.5
440.272	974.5
440.493	955.5
440.715	989.5
440.936	1003.5
441.158	1015.5
441.379	1003.5
441.6	1072.5
441.822	1052.5
442.043	1060.5
442.264	1032.5
442.486	1042.5
442.707	1016.5
442.928	1021.5
443.149	1040.5
443.371	1013.5
443.592	1049.5
443.813	1064.5
444.034	1029.5
444.255	1068.5
444.476	1103.5
444.698	1112.5
444.919	1125.5
445.14	1236.5
445.361	1148.5
445.582	1047.5
445.803	1065.5
446.024	1013.5
446.245	1028.5
446.466	1020.5
446.687	966.5
446.908	966.5
447.129	1001.5
447.35	964.5
447.571	975.5
447.792	891.5
448.013	936.5
448.234	939.5
448.455	926.5
448.675	902.5
448.896	908.5
449.117	900.5
449.338	881.5
449.559	888.5
449.779	919.5
450	875.5
450.221	898.5
450.442	901.5
450.662	906.5
450.883	912.5
451.104	896.5
451.324	918.5
451.545	911.5
451.766	911.5
451.986	904.5
452.207	889.5
452.428	895.5
452.648	880.5
452.869	852.5
453.089	845.5
453.31	892.5
453.53	862.5
453.751	843.5
453.971	852.5
454.192	877.5
454.412	875.5
454.633	868.5
454.853	852.5
455.073	855.5
455.294	851.5
455.514	871.5
455.734	868.5
455.955	865.5
456.175	855.5
456.395	842.5
456.616	842.5
456.836	844.5
457.056	845.5
457.276	830.5
457.497	889.5
457.717	862.5
457.937	873.5
458.157	865.5
458.377	852.5
458.598	866.5
458.818	886.5
459.038	911.5
459.258	909.5
459.478	958.5
459.698	981.5
459.918	1017.5
460.138	997.5
460.358	1036.5
460.578	1074.5
460.798	1080.5
461.018	1086.5
461.238	1045.5
461.458	1076.5
461.678	1064.5
461.898	1078.5
462.118	1116.5
462.338	1116.5
462.558	1132.5
462.777	1166.5
462.997	1222.5
463.217	1239.5
463.437	1253.5
463.657	1258.5
463.876	1210.5
464.096	1205.5
464.316	1170.5
464.536	1170.5
464.755	1143.5
464.975	1140.5
465.195	1080.5
465.414	1052.5
465.634	1011.5
465.854	971.5
466.073	989.5
466.293	969.5
466.512	963.5
466.732	960.5
466.951	932.5
467.171	936.5
467.391	935.5
467.61	943.5
467.829	907.5
468.049	945.5
468.268	933.5
468.488	944.5
468.707	918.5
468.927	902.5
469.146	914.5
469.365	930.5
469.585	914.5
469.804	966.5
470.023	966.5
470.243	972.5
470.462	953.5
470.681	939.5
470.901	956.5
471.12	962.5
471.339	963.5
471.558	929.5
471.777	937.5
471.997	935.5
472.216	933.5
472.435	915.5
472.654	902.5
472.873	896.5
473.092	908.5
473.311	905.5
473.53	924.5
473.749	911.5
473.968	912.5
474.187	926.5
474.406	922.5
474.625	906.5
474.844	915.5
475.063	941.5
475.282	921.5
475.501	915.5
475.72	958.5
475.939	955.5
476.158	975.5
476.377	941.5
476.596	960.5
476.814	956.5
477.033	947.5
477.252	980.5
477.471	1004.5
477.69	1037.5
477.908	1010.5
478.127	1062.5
478.346	1045.5
478.564	1083.5
478.783	1090.5
479.002	1083.5
479.22	1085.5
479.439	1078.5
479.658	1064.5
479.876	1095.5
480.095	1120.5
480.313	1120.5
480.532	1096.5
480.751	1126.5
480.969	1076.5
481.188	1082.5
481.406	1067.5
481.624	1058.5
481.843	1078.5
482.061	1034.5
482.28	1047.5
482.498	1024.5
482.717	995.5
482.935	1015.5
483.153	1080.5
483.372	1072.5
483.59	1066.5
483.808	1065.5
484.027	1067.5
484.245	1073.5
484.463	1084.5
484.681	1088.5
484.9	1084.5
485.118	1097.5
485.336	1047.5
485.554	1067.5
485.772	1057.5
485.99	1077.5
486.209	1072.5
486.427	1070.5
486.645	1104.5
486.863	1082.5
487.081	1082.5
487.299	1101.5
487.517	1085.5
487.735	1137.5
487.953	1097.5
488.171	1148.5
488.389	1067.5
488.607	1082.5
488.825	1099.5
489.043	1078.5
489.261	1081.5
489.479	1091.5
489.696	1074.5
489.914	1104.5
490.132	1124.5
490.35	1075.5
490.568	1123.5
490.786	1144.5
491.003	1110.5
491.221	1127.5
491.439	1124.5
491.657	1106.5
491.874	1136.5
492.092	1192.5
492.31	1211.5
492.527	1185.5
492.745	1194.5
492.963	1177.5
493.18	1162.5
493.398	1171.5
493.615	1188.5
493.833	1154.5
494.05	1195.5
494.268	1202.5
494.485	1176.5
494.703	1170.5
494.92	1190.5
495.138	1187.5
495.355	1233.5
495.573	1204.5
495.79	1218.5
496.008	1216.5
496.225	1252.5
496.442	1260.5
496.66	1244.5
496.877	1291.5
497.094	1282.5
497.312	1302.5
497.529	1303.5
497.746	1330.5
497.963	1373.5
498.181	1409.5
498.398	1448.5
498.615	1485.5
498.832	1573.5
499.049	1602.5
499.267	1724.5
499.484	1782.5
499.701	1925.5
499.918	2008.5
500.135	2198.5
500.352	2273.5
500.569	2262.5
500.786	2236.5
501.003	2152.5
501.22	2091.5
501.437	2017.5
501.654	1889.5
501.871	1772.5
502.088	1703.5
502.305	1630.5
502.522	1523.5
502.739	1516.5
502.956	1442.5
503.172	1409.5
503.389	1353.5
503.606	1344.5
503.823	1323.5
504.04	1318.5
504.256	1307.5
504.473	1294.5
504.69	1267.5
504.907	1267.5
505.123	1213.5
505.34	1195.5
505.557	1173.5
505.773	1177.5
505.99	1129.5
506.207	1116.5
506.423	1110.5
506.64	1088.5
506.856	1094.5
507.073	1059.5
507.289	1047.5
507.506	1069.5
507.722	1030.5
507.939	1058.5
508.155	1037.5
508.372	1068.5
508.588	1019.5
508.805	981.5
509.021	1005.5
509.238	1005.5
509.454	993.5
509.67	971.5
509.887	967.5
510.103	977.5
510.319	975.5
510.536	978.5
510.752	958.5
510.968	967.5
511.184	938.5
511.401	964.5
511.617	968.5
511.833	965.5
512.049	943.5
512.265	951.5
512.481	935.5
512.698	957.5
512.914	958.5
513.13	929.5
513.346	982.5
513.562	966.5
513.778	962.5
513.994	970.5
514.21	982.5
514.426	952.5
514.642	990.5
514.858	968.5
515.074	990.5
515.29	972.5
