Data from Ni(NO3)2@0.5M.TitratingCurve.Agarose3%dH2O.NegLispCup.LampEnergy10.LIBS07252019_HRD10591_17-57-28-564.txt Node
Date: Thu Jul 25 17:57:28 EDT 2019
User: cochatt
Spectrometer: HR+D1059
Trigger mode: 1
Integration Time (sec): 1.000000E-1
Scans to average: 1
Electric dark correction enabled: true
Nonlinearity correction enabled: false
Boxcar width: 0
XAxis mode: Wavelengths
Number of Pixels in Spectrum: 2048
>>>>>Begin Spectral Data<<<<<
223.165	-19.06
223.4	-19.06
223.635	-19.06
223.869	-5.06
224.104	-15.06
224.338	-3.06
224.573	-26.06
224.808	-19.06
225.042	-9.06
225.277	1.94
225.511	-8.06
225.746	2.94
225.98	-5.06
226.215	14.94
226.449	14.94
226.683	17.94
226.918	27.94
227.152	28.94
227.387	27.94
227.621	48.94
227.856	38.94
228.09	52.94
228.324	55.94
228.559	57.94
228.793	89.94
229.027	128.94
229.262	145.94
229.496	146.94
229.73	153.94
229.964	166.94
230.199	171.94
230.433	185.94
230.667	185.94
230.901	185.94
231.136	182.94
231.37	172.94
231.604	164.94
231.838	184.94
232.072	200.94
232.306	182.94
232.541	180.94
232.775	186.94
233.009	176.94
233.243	199.94
233.477	181.94
233.711	169.94
233.945	186.94
234.179	179.94
234.413	174.94
234.647	182.94
234.881	187.94
235.115	194.94
235.349	176.94
235.583	200.94
235.817	194.94
236.051	179.94
236.285	202.94
236.519	197.94
236.753	201.94
236.987	188.94
237.221	194.94
237.455	201.94
237.689	210.94
237.922	205.94
238.156	212.94
238.39	206.94
238.624	195.94
238.858	217.94
239.091	226.94
239.325	223.94
239.559	246.94
239.793	237.94
240.027	245.94
240.26	228.94
240.494	246.94
240.728	239.94
240.961	246.94
241.195	226.94
241.429	229.94
241.662	251.94
241.896	257.94
242.13	262.94
242.363	246.94
242.597	242.94
242.83	237.94
243.064	256.94
243.298	248.94
243.531	248.94
243.765	260.94
243.998	259.94
244.232	251.94
244.465	264.94
244.699	286.94
244.932	271.94
245.166	267.94
245.399	270.94
245.633	278.94
245.866	278.94
246.099	293.94
246.333	288.94
246.566	298.94
246.8	298.94
247.033	296.94
247.266	287.94
247.5	289.94
247.733	295.94
247.966	327.94
248.2	313.94
248.433	309.94
248.666	309.94
248.899	313.94
249.133	333.94
249.366	326.94
249.599	336.94
249.832	321.94
250.066	340.94
250.299	339.94
250.532	332.94
250.765	337.94
250.998	329.94
251.231	363.94
251.465	374.94
251.698	370.94
251.931	363.94
252.164	354.94
252.397	384.94
252.63	353.94
252.863	366.94
253.096	377.94
253.329	396.94
253.562	368.94
253.795	368.94
254.028	393.94
254.261	400.94
254.494	399.94
254.727	407.94
254.96	412.94
255.193	406.94
255.426	404.94
255.659	436.94
255.892	399.94
256.124	396.94
256.357	438.94
256.59	439.94
256.823	428.94
257.056	430.94
257.289	419.94
257.521	429.94
257.754	437.94
257.987	448.94
258.22	428.94
258.452	438.94
258.685	444.94
258.918	455.94
259.151	460.94
259.383	447.94
259.616	447.94
259.849	465.94
260.081	480.94
260.314	458.94
260.547	482.94
260.779	472.94
261.012	477.94
261.244	477.94
261.477	496.94
261.71	496.94
261.942	477.94
262.175	468.94
262.407	501.94
262.64	481.94
262.872	474.94
263.105	497.94
263.337	512.94
263.57	498.94
263.802	503.94
264.035	523.94
264.267	520.94
264.499	511.94
264.732	488.94
264.964	527.94
265.197	525.94
265.429	510.94
265.661	524.94
265.894	533.94
266.126	552.94
266.358	533.94
266.591	528.94
266.823	543.94
267.055	541.94
267.287	542.94
267.52	541.94
267.752	541.94
267.984	522.94
268.216	541.94
268.448	550.94
268.681	562.94
268.913	558.94
269.145	552.94
269.377	568.94
269.609	550.94
269.841	567.94
270.073	570.94
270.306	569.94
270.538	557.94
270.77	583.94
271.002	596.94
271.234	588.94
271.466	587.94
271.698	556.94
271.93	570.94
272.162	597.94
272.394	610.94
272.626	566.94
272.858	584.94
273.09	600.94
273.322	612.94
273.553	577.94
273.785	590.94
274.017	597.94
274.249	604.94
274.481	628.94
274.713	620.94
274.945	615.94
275.176	624.94
275.408	618.94
275.64	600.94
275.872	620.94
276.104	620.94
276.335	641.94
276.567	638.94
276.799	623.94
277.031	655.94
277.262	644.94
277.494	626.94
277.726	645.94
277.957	639.94
278.189	652.94
278.421	634.94
278.652	675.94
278.884	652.94
279.115	643.94
279.347	669.94
279.579	653.94
279.81	634.94
280.042	640.94
280.273	678.94
280.505	663.94
280.736	676.94
280.968	658.94
281.199	652.94
281.431	672.94
281.662	680.94
281.894	688.94
282.125	666.94
282.356	670.94
282.588	668.94
282.819	683.94
283.051	680.94
283.282	697.94
283.513	692.94
283.745	694.94
283.976	705.94
284.207	693.94
284.439	695.94
284.67	684.94
284.901	713.94
285.132	715.94
285.364	710.94
285.595	716.94
285.826	695.94
286.057	711.94
286.288	695.94
286.52	721.94
286.751	723.94
286.982	740.94
287.213	738.94
287.444	719.94
287.675	737.94
287.906	721.94
288.138	741.94
288.369	744.94
288.6	725.94
288.831	716.94
289.062	722.94
289.293	760.94
289.524	731.94
289.755	740.94
289.986	730.94
290.217	759.94
290.448	768.94
290.679	756.94
290.91	757.94
291.141	747.94
291.371	754.94
291.602	713.94
291.833	764.94
292.064	758.94
292.295	762.94
292.526	747.94
292.757	749.94
292.987	741.94
293.218	744.94
293.449	748.94
293.68	768.94
293.91	735.94
294.141	756.94
294.372	729.94
294.603	721.94
294.833	772.94
295.064	760.94
295.295	764.94
295.525	756.94
295.756	783.94
295.987	754.94
296.217	738.94
296.448	778.94
296.679	793.94
296.909	744.94
297.14	752.94
297.37	764.94
297.601	812.94
297.831	776.94
298.062	757.94
298.292	804.94
298.523	790.94
298.753	780.94
298.984	772.94
299.214	798.94
299.445	798.94
299.675	779.94
299.905	804.94
300.136	817.94
300.366	829.94
300.597	837.94
300.827	828.94
301.057	821.94
301.288	820.94
301.518	831.94
301.748	822.94
301.979	841.94
302.209	838.94
302.439	823.94
302.669	837.94
302.9	817.94
303.13	836.94
303.36	823.94
303.59	848.94
303.82	858.94
304.051	857.94
304.281	877.94
304.511	845.94
304.741	859.94
304.971	866.94
305.201	882.94
305.431	890.94
305.661	882.94
305.891	845.94
306.121	846.94
306.352	870.94
306.582	876.94
306.812	865.94
307.042	867.94
307.272	867.94
307.502	849.94
307.731	845.94
307.961	884.94
308.191	893.94
308.421	875.94
308.651	894.94
308.881	858.94
309.111	873.94
309.341	870.94
309.571	873.94
309.8	858.94
310.03	900.94
310.26	932.94
310.49	917.94
310.72	916.94
310.949	889.94
311.179	922.94
311.409	910.94
311.639	893.94
311.868	914.94
312.098	917.94
312.328	927.94
312.557	908.94
312.787	931.94
313.017	957.94
313.246	950.94
313.476	940.94
313.706	951.94
313.935	954.94
314.165	959.94
314.394	964.94
314.624	953.94
314.853	951.94
315.083	927.94
315.312	938.94
315.542	985.94
315.771	951.94
316.001	972.94
316.23	975.94
316.46	994.94
316.689	976.94
316.919	984.94
317.148	985.94
317.377	985.94
317.607	1004.94
317.836	1008.94
318.065	1014.94
318.295	1001.94
318.524	1038.94
318.753	1020.94
318.983	999.94
319.212	1010.94
319.441	1034.94
319.67	1012.94
319.9	1044.94
320.129	1045.94
320.358	1045.94
320.587	1060.94
320.816	1032.94
321.046	1053.94
321.275	1053.94
321.504	1061.94
321.733	1048.94
321.962	1046.94
322.191	1062.94
322.42	1065.94
322.649	1051.94
322.878	1069.94
323.108	1092.94
323.337	1066.94
323.566	1075.94
323.795	1093.94
324.024	1106.94
324.253	1100.94
324.482	1081.94
324.71	1092.94
324.939	1106.94
325.168	1142.94
325.397	1101.94
325.626	1110.94
325.855	1098.94
326.084	1124.94
326.313	1116.94
326.542	1126.94
326.77	1127.94
326.999	1106.94
327.228	1156.94
327.457	1154.94
327.686	1133.94
327.914	1124.94
328.143	1152.94
328.372	1148.94
328.6	1133.94
328.829	1178.94
329.058	1170.94
329.287	1159.94
329.515	1184.94
329.744	1165.94
329.972	1178.94
330.201	1174.94
330.43	1153.94
330.658	1160.94
330.887	1183.94
331.115	1192.94
331.344	1228.94
331.572	1179.94
331.801	1185.94
332.03	1190.94
332.258	1201.94
332.486	1182.94
332.715	1222.94
332.943	1216.94
333.172	1223.94
333.4	1220.94
333.629	1213.94
333.857	1244.94
334.085	1247.94
334.314	1233.94
334.542	1256.94
334.771	1264.94
334.999	1268.94
335.227	1230.94
335.455	1274.94
335.684	1270.94
335.912	1266.94
336.14	1284.94
336.369	1303.94
336.597	1348.94
336.825	1306.94
337.053	1271.94
337.281	1279.94
337.51	1277.94
337.738	1286.94
337.966	1298.94
338.194	1298.94
338.422	1282.94
338.65	1276.94
338.878	1231.94
339.106	1255.94
339.334	1311.94
339.562	1307.94
339.79	1222.94
340.018	1263.94
340.246	1233.94
340.474	1253.94
340.702	1276.94
340.93	1243.94
341.158	1264.94
341.386	1225.94
341.614	1273.94
341.842	1287.94
342.07	1241.94
342.298	1244.94
342.526	1254.94
342.754	1261.94
342.981	1204.94
343.209	1251.94
343.437	1250.94
343.665	1267.94
343.893	1282.94
344.12	1274.94
344.348	1254.94
344.576	1275.94
344.804	1251.94
345.031	1280.94
345.259	1242.94
345.487	1288.94
345.714	1261.94
345.942	1273.94
346.17	1280.94
346.397	1248.94
346.625	1246.94
346.853	1217.94
347.08	1214.94
347.308	1225.94
347.535	1213.94
347.763	1188.94
347.99	1208.94
348.218	1232.94
348.445	1220.94
348.673	1223.94
348.9	1189.94
349.128	1217.94
349.355	1220.94
349.583	1231.94
349.81	1234.94
350.037	1217.94
350.265	1212.94
350.492	1221.94
350.72	1195.94
350.947	1189.94
351.174	1229.94
351.402	1242.94
351.629	1259.94
351.856	1237.94
352.083	1208.94
352.311	1198.94
352.538	1243.94
352.765	1243.94
352.992	1185.94
353.22	1179.94
353.447	1197.94
353.674	1175.94
353.901	1203.94
354.128	1206.94
354.355	1200.94
354.583	1189.94
354.81	1183.94
355.037	1204.94
355.264	1204.94
355.491	1163.94
355.718	1178.94
355.945	1203.94
356.172	1174.94
356.399	1158.94
356.626	1187.94
356.853	1218.94
357.08	1209.94
357.307	1208.94
357.534	1173.94
357.761	1192.94
357.988	1202.94
358.215	1189.94
358.441	1190.94
358.668	1163.94
358.895	1176.94
359.122	1181.94
359.349	1189.94
359.576	1165.94
359.802	1189.94
360.029	1157.94
360.256	1182.94
360.483	1193.94
360.709	1186.94
360.936	1194.94
361.163	1200.94
361.39	1203.94
361.616	1209.94
361.843	1212.94
362.07	1224.94
362.296	1225.94
362.523	1193.94
362.749	1206.94
362.976	1228.94
363.203	1201.94
363.429	1197.94
363.656	1172.94
363.882	1173.94
364.109	1179.94
364.335	1181.94
364.562	1224.94
364.788	1194.94
365.015	1196.94
365.241	1187.94
365.468	1201.94
365.694	1188.94
365.92	1189.94
366.147	1186.94
366.373	1200.94
366.599	1196.94
366.826	1210.94
367.052	1225.94
367.278	1207.94
367.505	1178.94
367.731	1216.94
367.957	1194.94
368.184	1221.94
368.41	1204.94
368.636	1249.94
368.862	1212.94
369.089	1218.94
369.315	1205.94
369.541	1210.94
369.767	1231.94
369.993	1212.94
370.219	1227.94
370.445	1208.94
370.672	1232.94
370.898	1190.94
371.124	1227.94
371.35	1220.94
371.576	1223.94
371.802	1221.94
372.028	1220.94
372.254	1231.94
372.48	1220.94
372.706	1243.94
372.932	1238.94
373.158	1238.94
373.384	1223.94
373.61	1220.94
373.835	1214.94
374.061	1211.94
374.287	1209.94
374.513	1263.94
374.739	1239.94
374.965	1239.94
375.191	1261.94
375.416	1234.94
375.642	1203.94
375.868	1213.94
376.094	1216.94
376.319	1222.94
376.545	1223.94
376.771	1200.94
376.997	1213.94
377.222	1191.94
377.448	1172.94
377.674	1187.94
377.899	1225.94
378.125	1208.94
378.35	1175.94
378.576	1190.94
378.802	1186.94
379.027	1197.94
379.253	1218.94
379.478	1180.94
379.704	1208.94
379.929	1194.94
380.155	1180.94
380.38	1186.94
380.606	1210.94
380.831	1148.94
381.057	1221.94
381.282	1177.94
381.507	1160.94
381.733	1184.94
381.958	1224.94
382.184	1213.94
382.409	1207.94
382.634	1203.94
382.86	1204.94
383.085	1202.94
383.31	1220.94
383.535	1201.94
383.761	1212.94
383.986	1214.94
384.211	1226.94
384.436	1197.94
384.662	1216.94
384.887	1227.94
385.112	1250.94
385.337	1234.94
385.562	1248.94
385.787	1265.94
386.013	1272.94
386.238	1256.94
386.463	1275.94
386.688	1235.94
386.913	1252.94
387.138	1251.94
387.363	1267.94
387.588	1263.94
387.813	1256.94
388.038	1267.94
388.263	1271.94
388.488	1264.94
388.713	1243.94
388.938	1293.94
389.163	1250.94
389.387	1302.94
389.612	1261.94
389.837	1254.94
390.062	1282.94
390.287	1313.94
390.512	1269.94
390.736	1276.94
390.961	1290.94
391.186	1296.94
391.411	1270.94
391.636	1284.94
391.86	1313.94
392.085	1290.94
392.31	1286.94
392.534	1286.94
392.759	1294.94
392.984	1272.94
393.208	1314.94
393.433	1273.94
393.658	1295.94
393.882	1286.94
394.107	1293.94
394.331	1272.94
394.556	1287.94
394.78	1296.94
395.005	1280.94
395.229	1286.94
395.454	1296.94
395.678	1292.94
395.903	1329.94
396.127	1282.94
396.352	1300.94
396.576	1306.94
396.801	1309.94
397.025	1334.94
397.249	1348.94
397.474	1338.94
397.698	1315.94
397.922	1334.94
398.147	1346.94
398.371	1352.94
398.595	1365.94
398.82	1343.94
399.044	1397.94
399.268	1406.94
399.492	1411.94
399.717	1408.94
399.941	1403.94
400.165	1426.94
400.389	1435.94
400.613	1396.94
400.837	1404.94
401.062	1402.94
401.286	1366.94
401.51	1349.94
401.734	1375.94
401.958	1404.94
402.182	1357.94
402.406	1389.94
402.63	1378.94
402.854	1396.94
403.078	1381.94
403.302	1374.94
403.526	1363.94
403.75	1354.94
403.974	1387.94
404.198	1352.94
404.422	1395.94
404.645	1354.94
404.869	1389.94
405.093	1411.94
405.317	1405.94
405.541	1401.94
405.765	1422.94
405.988	1395.94
406.212	1408.94
406.436	1410.94
406.66	1402.94
406.883	1433.94
407.107	1429.94
407.331	1453.94
407.555	1500.94
407.778	1460.94
408.002	1481.94
408.226	1460.94
408.449	1462.94
408.673	1419.94
408.896	1453.94
409.12	1462.94
409.344	1471.94
409.567	1447.94
409.791	1460.94
410.014	1445.94
410.238	1444.94
410.461	1405.94
410.685	1458.94
410.908	1443.94
411.132	1416.94
411.355	1398.94
411.578	1410.94
411.802	1421.94
412.025	1380.94
412.249	1418.94
412.472	1421.94
412.695	1376.94
412.919	1426.94
413.142	1419.94
413.365	1410.94
413.589	1437.94
413.812	1430.94
414.035	1373.94
414.258	1371.94
414.482	1434.94
414.705	1408.94
414.928	1387.94
415.151	1376.94
415.374	1354.94
415.597	1373.94
415.821	1354.94
416.044	1378.94
416.267	1320.94
416.49	1359.94
416.713	1325.94
416.936	1336.94
417.159	1376.94
417.382	1300.94
417.605	1321.94
417.828	1326.94
418.051	1343.94
418.274	1321.94
418.497	1316.94
418.72	1332.94
418.943	1307.94
419.166	1368.94
419.389	1435.94
419.611	1441.94
419.834	1366.94
420.057	1359.94
420.28	1331.94
420.503	1320.94
420.726	1289.94
420.948	1333.94
421.171	1305.94
421.394	1314.94
421.617	1308.94
421.839	1326.94
422.062	1305.94
422.285	1315.94
422.507	1346.94
422.73	1326.94
422.953	1338.94
423.175	1352.94
423.398	1329.94
423.621	1286.94
423.843	1309.94
424.066	1332.94
424.288	1332.94
424.511	1319.94
424.733	1321.94
424.956	1361.94
425.178	1312.94
425.401	1362.94
425.623	1341.94
425.846	1337.94
426.068	1306.94
426.291	1354.94
426.513	1313.94
426.735	1318.94
426.958	1312.94
427.18	1286.94
427.402	1334.94
427.625	1322.94
427.847	1289.94
428.069	1308.94
428.292	1365.94
428.514	1316.94
428.736	1299.94
428.958	1335.94
429.181	1325.94
429.403	1292.94
429.625	1292.94
429.847	1355.94
430.069	1328.94
430.292	1317.94
430.514	1310.94
430.736	1312.94
430.958	1328.94
431.18	1300.94
431.402	1346.94
431.624	1297.94
431.846	1307.94
432.068	1330.94
432.29	1307.94
432.512	1309.94
432.734	1339.94
432.956	1309.94
433.178	1322.94
433.4	1369.94
433.622	1353.94
433.844	1363.94
434.066	1349.94
434.287	1331.94
434.509	1298.94
434.731	1319.94
434.953	1325.94
435.175	1347.94
435.397	1363.94
435.618	1325.94
435.84	1326.94
436.062	1300.94
436.284	1333.94
436.505	1314.94
436.727	1377.94
436.949	1310.94
437.17	1330.94
437.392	1300.94
437.614	1310.94
437.835	1300.94
438.057	1305.94
438.278	1286.94
438.5	1284.94
438.721	1254.94
438.943	1296.94
439.165	1317.94
439.386	1273.94
439.608	1346.94
439.829	1302.94
440.05	1299.94
440.272	1302.94
440.493	1314.94
440.715	1307.94
440.936	1312.94
441.158	1295.94
441.379	1293.94
441.6	1325.94
441.822	1345.94
442.043	1376.94
442.264	1355.94
442.486	1319.94
442.707	1342.94
442.928	1300.94
443.149	1294.94
443.371	1371.94
443.592	1414.94
443.813	1356.94
444.034	1315.94
444.255	1311.94
444.476	1315.94
444.698	1325.94
444.919	1346.94
445.14	1501.94
445.361	1386.94
445.582	1314.94
445.803	1337.94
446.024	1296.94
446.245	1281.94
446.466	1315.94
446.687	1261.94
446.908	1316.94
447.129	1267.94
447.35	1256.94
447.571	1286.94
447.792	1227.94
448.013	1244.94
448.234	1203.94
448.455	1253.94
448.675	1244.94
448.896	1236.94
449.117	1223.94
449.338	1212.94
449.559	1244.94
449.779	1223.94
450	1238.94
450.221	1239.94
450.442	1234.94
450.662	1189.94
450.883	1202.94
451.104	1224.94
451.324	1171.94
451.545	1204.94
451.766	1221.94
451.986	1211.94
452.207	1206.94
452.428	1214.94
452.648	1201.94
452.869	1188.94
453.089	1201.94
453.31	1212.94
453.53	1209.94
453.751	1175.94
453.971	1171.94
454.192	1170.94
454.412	1161.94
454.633	1180.94
454.853	1184.94
455.073	1153.94
455.294	1190.94
455.514	1217.94
455.734	1174.94
455.955	1206.94
456.175	1204.94
456.395	1164.94
456.616	1178.94
456.836	1193.94
457.056	1187.94
457.276	1144.94
457.497	1209.94
457.717	1209.94
457.937	1169.94
458.157	1198.94
458.377	1180.94
458.598	1204.94
458.818	1214.94
459.038	1179.94
459.258	1217.94
459.478	1266.94
459.698	1290.94
459.918	1270.94
460.138	1276.94
460.358	1265.94
460.578	1287.94
460.798	1308.94
461.018	1331.94
461.238	1251.94
461.458	1313.94
461.678	1293.94
461.898	1292.94
462.118	1286.94
462.338	1333.94
462.558	1318.94
462.777	1313.94
462.997	1352.94
463.217	1387.94
463.437	1388.94
463.657	1367.94
463.876	1371.94
464.096	1341.94
464.316	1333.94
464.536	1326.94
464.755	1325.94
464.975	1325.94
465.195	1281.94
465.414	1304.94
465.634	1259.94
465.854	1255.94
466.073	1276.94
466.293	1236.94
466.512	1261.94
466.732	1268.94
466.951	1242.94
467.171	1279.94
467.391	1301.94
467.61	1258.94
467.829	1225.94
468.049	1274.94
468.268	1253.94
468.488	1265.94
468.707	1259.94
468.927	1272.94
469.146	1302.94
469.365	1272.94
469.585	1269.94
469.804	1273.94
470.023	1256.94
470.243	1245.94
470.462	1248.94
470.681	1273.94
470.901	1290.94
471.12	1296.94
471.339	1292.94
471.558	1307.94
471.777	1281.94
471.997	1294.94
472.216	1260.94
472.435	1265.94
472.654	1288.94
472.873	1267.94
473.092	1306.94
473.311	1316.94
473.53	1300.94
473.749	1328.94
473.968	1315.94
474.187	1332.94
474.406	1324.94
474.625	1309.94
474.844	1314.94
475.063	1321.94
475.282	1383.94
475.501	1366.94
475.72	1348.94
475.939	1354.94
476.158	1355.94
476.377	1376.94
476.596	1388.94
476.814	1400.94
477.033	1384.94
477.252	1387.94
477.471	1418.94
477.69	1414.94
477.908	1457.94
478.127	1444.94
478.346	1429.94
478.564	1427.94
478.783	1473.94
479.002	1510.94
479.22	1539.94
479.439	1509.94
479.658	1513.94
479.876	1512.94
480.095	1493.94
480.313	1513.94
480.532	1532.94
480.751	1517.94
480.969	1520.94
481.188	1494.94
481.406	1509.94
481.624	1550.94
481.843	1489.94
482.061	1541.94
482.28	1532.94
482.498	1546.94
482.717	1506.94
482.935	1529.94
483.153	1596.94
483.372	1557.94
483.59	1604.94
483.808	1611.94
484.027	1548.94
484.245	1591.94
484.463	1571.94
484.681	1643.94
484.9	1613.94
485.118	1608.94
485.336	1604.94
485.554	1608.94
485.772	1602.94
485.99	1595.94
486.209	1615.94
486.427	1605.94
486.645	1574.94
486.863	1608.94
487.081	1623.94
487.299	1648.94
487.517	1585.94
487.735	1630.94
487.953	1683.94
488.171	1664.94
488.389	1631.94
488.607	1635.94
488.825	1610.94
489.043	1625.94
489.261	1618.94
489.479	1602.94
489.696	1621.94
489.914	1642.94
490.132	1579.94
490.35	1626.94
490.568	1653.94
490.786	1655.94
491.003	1656.94
