Data from Ni(NO3)2@0.0625M.TitratingCurve.Agarose3%dH2O.NegLispCup.LampEnergy10.LIBS07252019_HRD10591_18-14-52-570.txt Node
Date: Thu Jul 25 18:14:52 EDT 2019
User: cochatt
Spectrometer: HR+D1059
Trigger mode: 1
Integration Time (sec): 1.000000E-1
Scans to average: 1
Electric dark correction enabled: true
Nonlinearity correction enabled: false
Boxcar width: 0
XAxis mode: Wavelengths
Number of Pixels in Spectrum: 2048
>>>>>Begin Spectral Data<<<<<
223.165	-13.44
223.4	-13.44
223.635	-13.44
223.869	-17.44
224.104	-20.44
224.338	-3.44
224.573	-10.44
224.808	-20.44
225.042	-18.44
225.277	1.56
225.511	0.56
225.746	10.56
225.98	10.56
226.215	5.56
226.449	12.56
226.683	21.56
226.918	18.56
227.152	22.56
227.387	29.56
227.621	37.56
227.856	41.56
228.09	45.56
228.324	47.56
228.559	56.56
228.793	75.56
229.027	92.56
229.262	100.56
229.496	103.56
229.73	107.56
229.964	117.56
230.199	101.56
230.433	123.56
230.667	119.56
230.901	104.56
231.136	112.56
231.37	119.56
231.604	106.56
231.838	127.56
232.072	113.56
232.306	131.56
232.541	136.56
232.775	140.56
233.009	135.56
233.243	135.56
233.477	130.56
233.711	133.56
233.945	141.56
234.179	133.56
234.413	140.56
234.647	125.56
234.881	131.56
235.115	111.56
235.349	124.56
235.583	122.56
235.817	129.56
236.051	126.56
236.285	136.56
236.519	129.56
236.753	127.56
236.987	126.56
237.221	127.56
237.455	142.56
237.689	143.56
237.922	130.56
238.156	127.56
238.39	139.56
238.624	125.56
238.858	127.56
239.091	151.56
239.325	137.56
239.559	143.56
239.793	133.56
240.027	147.56
240.26	147.56
240.494	145.56
240.728	144.56
240.961	154.56
241.195	151.56
241.429	149.56
241.662	155.56
241.896	151.56
242.13	165.56
242.363	153.56
242.597	153.56
242.83	156.56
243.064	160.56
243.298	169.56
243.531	170.56
243.765	167.56
243.998	161.56
244.232	164.56
244.465	163.56
244.699	173.56
244.932	163.56
245.166	177.56
245.399	166.56
245.633	167.56
245.866	159.56
246.099	171.56
246.333	183.56
246.566	177.56
246.8	180.56
247.033	157.56
247.266	170.56
247.5	174.56
247.733	182.56
247.966	199.56
248.2	180.56
248.433	168.56
248.666	176.56
248.899	182.56
249.133	184.56
249.366	179.56
249.599	190.56
249.832	196.56
250.066	198.56
250.299	202.56
250.532	209.56
250.765	189.56
250.998	189.56
251.231	210.56
251.465	196.56
251.698	202.56
251.931	209.56
252.164	213.56
252.397	197.56
252.63	211.56
252.863	211.56
253.096	203.56
253.329	208.56
253.562	191.56
253.795	211.56
254.028	200.56
254.261	221.56
254.494	204.56
254.727	222.56
254.96	222.56
255.193	221.56
255.426	216.56
255.659	207.56
255.892	234.56
256.124	212.56
256.357	207.56
256.59	229.56
256.823	242.56
257.056	236.56
257.289	234.56
257.521	213.56
257.754	217.56
257.987	239.56
258.22	222.56
258.452	221.56
258.685	248.56
258.918	222.56
259.151	227.56
259.383	234.56
259.616	235.56
259.849	228.56
260.081	217.56
260.314	229.56
260.547	223.56
260.779	239.56
261.012	239.56
261.244	241.56
261.477	245.56
261.71	233.56
261.942	216.56
262.175	249.56
262.407	257.56
262.64	245.56
262.872	247.56
263.105	241.56
263.337	260.56
263.57	248.56
263.802	256.56
264.035	257.56
264.267	251.56
264.499	259.56
264.732	261.56
264.964	265.56
265.197	261.56
265.429	251.56
265.661	236.56
265.894	257.56
266.126	274.56
266.358	264.56
266.591	265.56
266.823	272.56
267.055	272.56
267.287	263.56
267.52	270.56
267.752	268.56
267.984	286.56
268.216	279.56
268.448	286.56
268.681	281.56
268.913	283.56
269.145	277.56
269.377	273.56
269.609	290.56
269.841	285.56
270.073	281.56
270.306	265.56
270.538	293.56
270.77	284.56
271.002	314.56
271.234	267.56
271.466	298.56
271.698	275.56
271.93	285.56
272.162	271.56
272.394	277.56
272.626	288.56
272.858	311.56
273.09	307.56
273.322	303.56
273.553	296.56
273.785	310.56
274.017	310.56
274.249	315.56
274.481	300.56
274.713	309.56
274.945	292.56
275.176	303.56
275.408	297.56
275.64	294.56
275.872	314.56
276.104	309.56
276.335	325.56
276.567	321.56
276.799	307.56
277.031	294.56
277.262	316.56
277.494	327.56
277.726	321.56
277.957	331.56
278.189	326.56
278.421	322.56
278.652	309.56
278.884	313.56
279.115	327.56
279.347	327.56
279.579	328.56
279.81	338.56
280.042	310.56
280.273	320.56
280.505	322.56
280.736	332.56
280.968	335.56
281.199	349.56
281.431	345.56
281.662	337.56
281.894	358.56
282.125	344.56
282.356	330.56
282.588	353.56
282.819	346.56
283.051	335.56
283.282	333.56
283.513	353.56
283.745	354.56
283.976	365.56
284.207	349.56
284.439	338.56
284.67	375.56
284.901	371.56
285.132	348.56
285.364	350.56
285.595	358.56
285.826	377.56
286.057	391.56
286.288	365.56
286.52	369.56
286.751	405.56
286.982	386.56
287.213	360.56
287.444	378.56
287.675	369.56
287.906	371.56
288.138	378.56
288.369	388.56
288.6	367.56
288.831	369.56
289.062	383.56
289.293	381.56
289.524	374.56
289.755	390.56
289.986	383.56
290.217	375.56
290.448	392.56
290.679	407.56
290.91	378.56
291.141	374.56
291.371	366.56
291.602	383.56
291.833	391.56
292.064	379.56
292.295	377.56
292.526	392.56
292.757	392.56
292.987	387.56
293.218	364.56
293.449	411.56
293.68	409.56
293.91	385.56
294.141	385.56
294.372	387.56
294.603	400.56
294.833	394.56
295.064	413.56
295.295	380.56
295.525	394.56
295.756	393.56
295.987	400.56
296.217	405.56
296.448	412.56
296.679	403.56
296.909	410.56
297.14	407.56
297.37	413.56
297.601	411.56
297.831	414.56
298.062	415.56
298.292	418.56
298.523	436.56
298.753	422.56
298.984	401.56
299.214	437.56
299.445	436.56
299.675	416.56
299.905	438.56
300.136	438.56
300.366	430.56
300.597	426.56
300.827	447.56
301.057	445.56
301.288	445.56
301.518	437.56
301.748	449.56
301.979	462.56
302.209	451.56
302.439	444.56
302.669	433.56
302.9	422.56
303.13	439.56
303.36	439.56
303.59	433.56
303.82	445.56
304.051	438.56
304.281	416.56
304.511	444.56
304.741	433.56
304.971	458.56
305.201	447.56
305.431	430.56
305.661	431.56
305.891	426.56
306.121	446.56
306.352	437.56
306.582	426.56
306.812	444.56
307.042	423.56
307.272	425.56
307.502	434.56
307.731	427.56
307.961	429.56
308.191	423.56
308.421	430.56
308.651	436.56
308.881	428.56
309.111	424.56
309.341	453.56
309.571	426.56
309.8	441.56
310.03	421.56
310.26	441.56
310.49	430.56
310.72	430.56
310.949	432.56
311.179	428.56
311.409	439.56
311.639	469.56
311.868	440.56
312.098	449.56
312.328	453.56
312.557	449.56
312.787	443.56
313.017	441.56
313.246	460.56
313.476	460.56
313.706	459.56
313.935	465.56
314.165	466.56
314.394	465.56
314.624	451.56
314.853	446.56
315.083	453.56
315.312	452.56
315.542	438.56
315.771	458.56
316.001	467.56
316.23	443.56
316.46	456.56
316.689	462.56
316.919	463.56
317.148	459.56
317.377	483.56
317.607	467.56
317.836	455.56
318.065	449.56
318.295	467.56
318.524	462.56
318.753	459.56
318.983	441.56
319.212	445.56
319.441	447.56
319.67	458.56
319.9	444.56
320.129	450.56
320.358	458.56
320.587	463.56
320.816	446.56
321.046	455.56
321.275	446.56
321.504	464.56
321.733	458.56
321.962	439.56
322.191	462.56
322.42	483.56
322.649	457.56
322.878	457.56
323.108	457.56
323.337	462.56
323.566	487.56
323.795	468.56
324.024	492.56
324.253	469.56
324.482	467.56
324.71	476.56
324.939	473.56
325.168	456.56
325.397	463.56
325.626	467.56
325.855	500.56
326.084	518.56
326.313	481.56
326.542	467.56
326.77	511.56
326.999	505.56
327.228	510.56
327.457	495.56
327.686	500.56
327.914	507.56
328.143	496.56
328.372	505.56
328.6	505.56
328.829	534.56
329.058	487.56
329.287	478.56
329.515	513.56
329.744	524.56
329.972	503.56
330.201	525.56
330.43	509.56
330.658	498.56
330.887	520.56
331.115	535.56
331.344	532.56
331.572	528.56
331.801	549.56
332.03	543.56
332.258	563.56
332.486	567.56
332.715	593.56
332.943	614.56
333.172	640.56
333.4	665.56
333.629	686.56
333.857	664.56
334.085	677.56
334.314	651.56
334.542	647.56
334.771	658.56
334.999	649.56
335.227	626.56
335.455	599.56
335.684	599.56
335.912	621.56
336.14	614.56
336.369	595.56
336.597	618.56
336.825	597.56
337.053	601.56
337.281	610.56
337.51	575.56
337.738	565.56
337.966	579.56
338.194	570.56
338.422	536.56
338.65	543.56
338.878	534.56
339.106	542.56
339.334	540.56
339.562	540.56
339.79	548.56
340.018	541.56
340.246	523.56
340.474	537.56
340.702	523.56
340.93	530.56
341.158	545.56
341.386	545.56
341.614	537.56
341.842	547.56
342.07	535.56
342.298	533.56
342.526	536.56
342.754	505.56
342.981	534.56
343.209	549.56
343.437	536.56
343.665	603.56
343.893	625.56
344.12	676.56
344.348	637.56
344.576	585.56
344.804	583.56
345.031	537.56
345.259	539.56
345.487	525.56
345.714	529.56
345.942	535.56
346.17	537.56
346.397	524.56
346.625	505.56
346.853	507.56
347.08	516.56
347.308	517.56
347.535	537.56
347.763	519.56
347.99	526.56
348.218	534.56
348.445	517.56
348.673	531.56
348.9	503.56
349.128	511.56
349.355	522.56
349.583	514.56
349.81	519.56
350.037	509.56
350.265	517.56
350.492	475.56
350.72	454.56
350.947	493.56
351.174	515.56
351.402	530.56
351.629	505.56
351.856	505.56
352.083	511.56
352.311	508.56
352.538	483.56
352.765	494.56
352.992	493.56
353.22	491.56
353.447	488.56
353.674	486.56
353.901	498.56
354.128	509.56
354.355	518.56
354.583	507.56
354.81	483.56
355.037	494.56
355.264	505.56
355.491	502.56
355.718	499.56
355.945	483.56
356.172	505.56
356.399	499.56
356.626	509.56
356.853	498.56
357.08	505.56
357.307	491.56
357.534	504.56
357.761	507.56
357.988	486.56
358.215	525.56
358.441	517.56
358.668	503.56
358.895	514.56
359.122	485.56
359.349	497.56
359.576	494.56
359.802	504.56
360.029	499.56
360.256	501.56
360.483	478.56
360.709	497.56
360.936	505.56
361.163	513.56
361.39	490.56
361.616	477.56
361.843	496.56
362.07	494.56
362.296	503.56
362.523	517.56
362.749	494.56
362.976	498.56
363.203	483.56
363.429	479.56
363.656	520.56
363.882	473.56
364.109	493.56
364.335	499.56
364.562	490.56
364.788	480.56
365.015	480.56
365.241	482.56
365.468	477.56
365.694	489.56
365.92	483.56
366.147	489.56
366.373	490.56
366.599	488.56
366.826	502.56
367.052	493.56
367.278	480.56
367.505	527.56
367.731	519.56
367.957	485.56
368.184	511.56
368.41	518.56
368.636	511.56
368.862	513.56
369.089	479.56
369.315	484.56
369.541	502.56
369.767	522.56
369.993	519.56
370.219	499.56
370.445	533.56
370.672	538.56
370.898	536.56
371.124	517.56
371.35	525.56
371.576	543.56
371.802	538.56
372.028	542.56
372.254	534.56
372.48	538.56
372.706	569.56
372.932	548.56
373.158	553.56
373.384	541.56
373.61	539.56
373.835	549.56
374.061	534.56
374.287	549.56
374.513	557.56
374.739	590.56
374.965	586.56
375.191	596.56
375.416	599.56
375.642	585.56
375.868	582.56
376.094	571.56
376.319	547.56
376.545	551.56
376.771	548.56
376.997	547.56
377.222	540.56
377.448	538.56
377.674	558.56
377.899	527.56
378.125	516.56
378.35	533.56
378.576	511.56
378.802	541.56
379.027	541.56
379.253	534.56
379.478	540.56
379.704	530.56
379.929	537.56
380.155	549.56
380.38	537.56
380.606	523.56
380.831	521.56
381.057	562.56
381.282	541.56
381.507	528.56
381.733	541.56
381.958	525.56
382.184	545.56
382.409	580.56
382.634	555.56
382.86	557.56
383.085	559.56
383.31	567.56
383.535	599.56
383.761	593.56
383.986	600.56
384.211	638.56
384.436	653.56
384.662	660.56
384.887	646.56
385.112	647.56
385.337	671.56
385.562	668.56
385.787	648.56
386.013	652.56
386.238	665.56
386.463	643.56
386.688	671.56
386.913	630.56
387.138	646.56
387.363	636.56
387.588	631.56
387.813	638.56
388.038	624.56
388.263	635.56
388.488	656.56
388.713	641.56
388.938	645.56
389.163	630.56
389.387	634.56
389.612	623.56
389.837	615.56
390.062	640.56
390.287	639.56
390.512	631.56
390.736	626.56
390.961	649.56
391.186	653.56
391.411	676.56
391.636	690.56
391.86	713.56
392.085	741.56
392.31	743.56
392.534	720.56
392.759	684.56
392.984	679.56
393.208	701.56
393.433	661.56
393.658	694.56
393.882	689.56
394.107	667.56
394.331	671.56
394.556	682.56
394.78	698.56
395.005	677.56
395.229	704.56
395.454	713.56
395.678	742.56
395.903	729.56
396.127	717.56
396.352	673.56
396.576	703.56
396.801	682.56
397.025	712.56
397.249	720.56
397.474	711.56
397.698	712.56
397.922	732.56
398.147	689.56
398.371	729.56
398.595	734.56
398.82	793.56
399.044	831.56
399.268	929.56
399.492	1095.56
399.717	1240.56
399.941	1202.56
400.165	1055.56
400.389	937.56
400.613	871.56
400.837	852.56
401.062	833.56
401.286	813.56
401.51	788.56
401.734	786.56
401.958	807.56
402.182	790.56
402.406	824.56
402.63	836.56
402.854	860.56
403.078	851.56
403.302	897.56
403.526	901.56
403.75	958.56
403.974	949.56
404.198	974.56
404.422	958.56
404.645	950.56
404.869	939.56
405.093	927.56
405.317	893.56
405.541	886.56
405.765	886.56
405.988	881.56
406.212	893.56
406.436	866.56
406.66	895.56
406.883	910.56
407.107	997.56
407.331	1039.56
407.555	1065.56
407.778	1062.56
408.002	989.56
408.226	954.56
408.449	953.56
408.673	919.56
408.896	906.56
409.12	892.56
409.344	898.56
409.567	919.56
409.791	929.56
410.014	936.56
410.238	908.56
410.461	920.56
410.685	885.56
410.908	868.56
411.132	856.56
411.355	835.56
411.578	861.56
411.802	832.56
412.025	834.56
412.249	841.56
412.472	845.56
412.695	789.56
412.919	815.56
413.142	792.56
413.365	805.56
413.589	837.56
413.812	809.56
414.035	791.56
414.258	807.56
414.482	802.56
414.705	845.56
414.928	827.56
415.151	825.56
415.374	798.56
415.597	819.56
415.821	797.56
416.044	794.56
416.267	795.56
416.49	787.56
416.713	801.56
416.936	781.56
417.159	787.56
417.382	799.56
417.605	791.56
417.828	780.56
418.051	811.56
418.274	822.56
418.497	813.56
418.72	800.56
418.943	824.56
419.166	861.56
419.389	927.56
419.611	897.56
419.834	830.56
420.057	866.56
420.28	780.56
420.503	783.56
420.726	777.56
420.948	797.56
421.171	773.56
421.394	788.56
421.617	777.56
421.839	782.56
422.062	788.56
422.285	804.56
422.507	838.56
422.73	791.56
422.953	821.56
423.175	843.56
423.398	861.56
423.621	830.56
423.843	830.56
424.066	847.56
424.288	838.56
424.511	842.56
424.733	823.56
424.956	832.56
425.178	820.56
425.401	795.56
425.623	799.56
425.846	779.56
426.068	778.56
426.291	781.56
426.513	741.56
426.735	771.56
426.958	766.56
427.18	732.56
427.402	747.56
427.625	732.56
427.847	723.56
428.069	713.56
428.292	714.56
428.514	708.56
428.736	686.56
428.958	701.56
429.181	689.56
429.403	665.56
429.625	677.56
429.847	693.56
430.069	683.56
430.292	715.56
430.514	676.56
430.736	703.56
430.958	709.56
431.18	669.56
431.402	673.56
431.624	694.56
431.846	718.56
432.068	731.56
432.29	732.56
432.512	712.56
432.734	723.56
432.956	683.56
433.178	709.56
433.4	710.56
433.622	725.56
433.844	727.56
434.066	759.56
434.287	742.56
434.509	714.56
434.731	769.56
434.953	801.56
435.175	829.56
435.397	815.56
435.618	781.56
435.84	727.56
436.062	712.56
436.284	734.56
436.505	716.56
436.727	707.56
436.949	699.56
437.17	704.56
437.392	701.56
437.614	695.56
437.835	684.56
438.057	695.56
438.278	677.56
438.5	659.56
438.721	697.56
438.943	699.56
439.165	698.56
439.386	679.56
439.608	691.56
439.829	709.56
440.05	718.56
440.272	731.56
440.493	697.56
440.715	719.56
440.936	757.56
441.158	746.56
441.379	757.56
441.6	817.56
441.822	823.56
442.043	817.56
442.264	774.56
442.486	783.56
442.707	798.56
442.928	787.56
443.149	813.56
443.371	781.56
443.592	794.56
443.813	808.56
444.034	813.56
444.255	829.56
444.476	861.56
444.698	930.56
444.919	978.56
445.14	994.56
445.361	917.56
445.582	815.56
445.803	780.56
446.024	740.56
446.245	737.56
446.466	732.56
446.687	715.56
446.908	737.56
447.129	695.56
447.35	701.56
447.571	689.56
447.792	673.56
448.013	671.56
448.234	677.56
448.455	675.56
448.675	656.56
448.896	672.56
449.117	668.56
449.338	661.56
449.559	641.56
449.779	644.56
450	655.56
450.221	651.56
450.442	658.56
450.662	657.56
450.883	679.56
451.104	691.56
451.324	669.56
451.545	671.56
451.766	654.56
451.986	674.56
452.207	655.56
452.428	679.56
452.648	671.56
452.869	660.56
453.089	664.56
453.31	649.56
453.53	639.56
453.751	618.56
453.971	645.56
454.192	652.56
454.412	632.56
454.633	633.56
454.853	610.56
455.073	622.56
455.294	640.56
455.514	646.56
455.734	631.56
455.955	599.56
456.175	605.56
456.395	614.56
456.616	612.56
456.836	621.56
457.056	623.56
457.276	594.56
457.497	614.56
457.717	621.56
457.937	618.56
458.157	632.56
458.377	616.56
458.598	653.56
458.818	649.56
459.038	661.56
459.258	705.56
459.478	719.56
459.698	731.56
459.918	737.56
460.138	789.56
460.358	829.56
460.578	866.56
460.798	853.56
461.018	859.56
461.238	840.56
461.458	822.56
461.678	855.56
461.898	837.56
462.118	847.56
462.338	863.56
462.558	922.56
462.777	962.56
462.997	1051.56
463.217	1173.56
463.437	1158.56
463.657	1053.56
463.876	990.56
464.096	982.56
464.316	983.56
464.536	1015.56
464.755	953.56
464.975	889.56
465.195	905.56
465.414	828.56
465.634	761.56
465.854	737.56
466.073	739.56
466.293	734.56
466.512	728.56
466.732	707.56
466.951	691.56
467.171	694.56
467.391	679.56
467.61	685.56
467.829	675.56
468.049	666.56
468.268	664.56
468.488	673.56
468.707	667.56
468.927	642.56
469.146	664.56
469.365	641.56
469.585	674.56
469.804	660.56
470.023	729.56
470.243	715.56
470.462	703.56
470.681	725.56
470.901	739.56
471.12	710.56
471.339	701.56
471.558	674.56
471.777	667.56
471.997	652.56
472.216	678.56
472.435	654.56
472.654	653.56
472.873	642.56
473.092	634.56
473.311	631.56
473.53	632.56
473.749	635.56
473.968	636.56
474.187	629.56
474.406	625.56
474.625	636.56
474.844	653.56
475.063	645.56
475.282	659.56
475.501	643.56
475.72	637.56
475.939	669.56
476.158	644.56
476.377	690.56
476.596	631.56
476.814	670.56
477.033	647.56
477.252	689.56
477.471	722.56
477.69	714.56
477.908	728.56
478.127	732.56
478.346	767.56
478.564	777.56
478.783	801.56
479.002	823.56
479.22	799.56
479.439	768.56
479.658	771.56
479.876	814.56
480.095	809.56
480.313	829.56
480.532	869.56
480.751	853.56
480.969	837.56
481.188	797.56
481.406	761.56
481.624	761.56
481.843	742.56
482.061	729.56
482.28	734.56
482.498	731.56
482.717	731.56
482.935	737.56
483.153	723.56
483.372	727.56
483.59	761.56
483.808	750.56
484.027	735.56
484.245	761.56
484.463	756.56
484.681	794.56
484.9	762.56
485.118	757.56
485.336	747.56
485.554	767.56
485.772	778.56
485.99	772.56
486.209	758.56
486.427	782.56
486.645	794.56
486.863	775.56
487.081	781.56
487.299	776.56
487.517	772.56
487.735	757.56
487.953	748.56
488.171	795.56
488.389	781.56
488.607	768.56
488.825	766.56
489.043	779.56
489.261	744.56
489.479	771.56
489.696	781.56
489.914	765.56
490.132	776.56
490.35	753.56
490.568	764.56
490.786	754.56
491.003	802.56
491.221	738.56
491.439	754.56
491.657	761.56
491.874	784.56
492.092	790.56
492.31	787.56
492.527	778.56
492.745	767.56
492.963	797.56
493.18	773.56
493.398	792.56
493.615	795.56
493.833	799.56
494.05	824.56
494.268	827.56
494.485	822.56
494.703	819.56
494.92	818.56
495.138	793.56
495.355	805.56
495.573	785.56
495.79	809.56
496.008	856.56
496.225	804.56
496.442	835.56
496.66	813.56
496.877	828.56
497.094	833.56
497.312	878.56
497.529	872.56
497.746	906.56
497.963	906.56
498.181	991.56
498.398	996.56
498.615	1087.56
498.832	1151.56
499.049	1235.56
499.267	1334.56
499.484	1469.56
499.701	1620.56
499.918	1754.56
500.135	2095.56
500.352	2392.56
500.569	2505.56
500.786	2461.56
501.003	2258.56
501.22	1949.56
