Data from Ni(NO3)2@0.25M.TitratingCurve.Agarose3%dH2O.NegLispCup.LampEnergy10.LIBS07252019_HRD10591_18-05-05-566.txt Node
Date: Thu Jul 25 18:05:05 EDT 2019
User: cochatt
Spectrometer: HR+D1059
Trigger mode: 1
Integration Time (sec): 1.000000E-1
Scans to average: 1
Electric dark correction enabled: true
Nonlinearity correction enabled: false
Boxcar width: 0
XAxis mode: Wavelengths
Number of Pixels in Spectrum: 2048
>>>>>Begin Spectral Data<<<<<
223.165	-9.94
223.4	-9.94
223.635	-9.94
223.869	-23.94
224.104	-19.94
224.338	-10.94
224.573	-11.94
224.808	-11.94
225.042	-10.94
225.277	-6.94
225.511	-3.94
225.746	0.06
225.98	7.06
226.215	12.06
226.449	11.06
226.683	18.06
226.918	19.06
227.152	43.06
227.387	44.06
227.621	43.06
227.856	53.06
228.09	47.06
228.324	48.06
228.559	60.06
228.793	58.06
229.027	89.06
229.262	99.06
229.496	92.06
229.73	102.06
229.964	121.06
230.199	107.06
230.433	104.06
230.667	123.06
230.901	128.06
231.136	109.06
231.37	123.06
231.604	141.06
231.838	132.06
232.072	138.06
232.306	129.06
232.541	141.06
232.775	120.06
233.009	140.06
233.243	146.06
233.477	125.06
233.711	128.06
233.945	156.06
234.179	136.06
234.413	141.06
234.647	153.06
234.881	139.06
235.115	141.06
235.349	132.06
235.583	154.06
235.817	116.06
236.051	140.06
236.285	150.06
236.519	133.06
236.753	127.06
236.987	122.06
237.221	124.06
237.455	140.06
237.689	152.06
237.922	157.06
238.156	140.06
238.39	157.06
238.624	149.06
238.858	149.06
239.091	146.06
239.325	162.06
239.559	140.06
239.793	165.06
240.027	145.06
240.26	149.06
240.494	152.06
240.728	152.06
240.961	158.06
241.195	160.06
241.429	170.06
241.662	170.06
241.896	158.06
242.13	178.06
242.363	160.06
242.597	156.06
242.83	172.06
243.064	180.06
243.298	163.06
243.531	186.06
243.765	184.06
243.998	176.06
244.232	172.06
244.465	181.06
244.699	164.06
244.932	188.06
245.166	189.06
245.399	184.06
245.633	199.06
245.866	192.06
246.099	193.06
246.333	191.06
246.566	185.06
246.8	184.06
247.033	196.06
247.266	190.06
247.5	185.06
247.733	213.06
247.966	206.06
248.2	210.06
248.433	201.06
248.666	204.06
248.899	211.06
249.133	212.06
249.366	219.06
249.599	218.06
249.832	214.06
250.066	230.06
250.299	241.06
250.532	233.06
250.765	233.06
250.998	236.06
251.231	234.06
251.465	230.06
251.698	238.06
251.931	216.06
252.164	241.06
252.397	230.06
252.63	228.06
252.863	258.06
253.096	271.06
253.329	248.06
253.562	242.06
253.795	244.06
254.028	254.06
254.261	260.06
254.494	264.06
254.727	258.06
254.96	270.06
255.193	257.06
255.426	283.06
255.659	258.06
255.892	270.06
256.124	269.06
256.357	286.06
256.59	284.06
256.823	272.06
257.056	288.06
257.289	286.06
257.521	278.06
257.754	283.06
257.987	280.06
258.22	301.06
258.452	293.06
258.685	299.06
258.918	291.06
259.151	288.06
259.383	304.06
259.616	291.06
259.849	302.06
260.081	297.06
260.314	271.06
260.547	306.06
260.779	312.06
261.012	307.06
261.244	304.06
261.477	308.06
261.71	327.06
261.942	326.06
262.175	304.06
262.407	317.06
262.64	317.06
262.872	310.06
263.105	315.06
263.337	318.06
263.57	327.06
263.802	320.06
264.035	328.06
264.267	308.06
264.499	318.06
264.732	331.06
264.964	337.06
265.197	342.06
265.429	321.06
265.661	333.06
265.894	339.06
266.126	342.06
266.358	322.06
266.591	356.06
266.823	349.06
267.055	347.06
267.287	341.06
267.52	370.06
267.752	342.06
267.984	359.06
268.216	362.06
268.448	356.06
268.681	359.06
268.913	353.06
269.145	329.06
269.377	365.06
269.609	357.06
269.841	337.06
270.073	358.06
270.306	350.06
270.538	356.06
270.77	360.06
271.002	352.06
271.234	378.06
271.466	376.06
271.698	358.06
271.93	356.06
272.162	372.06
272.394	361.06
272.626	375.06
272.858	362.06
273.09	383.06
273.322	380.06
273.553	355.06
273.785	392.06
274.017	389.06
274.249	384.06
274.481	371.06
274.713	388.06
274.945	376.06
275.176	368.06
275.408	388.06
275.64	392.06
275.872	410.06
276.104	378.06
276.335	404.06
276.567	385.06
276.799	385.06
277.031	380.06
277.262	397.06
277.494	393.06
277.726	364.06
277.957	386.06
278.189	402.06
278.421	410.06
278.652	418.06
278.884	411.06
279.115	420.06
279.347	384.06
279.579	408.06
279.81	412.06
280.042	414.06
280.273	427.06
280.505	417.06
280.736	425.06
280.968	429.06
281.199	445.06
281.431	433.06
281.662	431.06
281.894	417.06
282.125	446.06
282.356	434.06
282.588	441.06
282.819	419.06
283.051	446.06
283.282	432.06
283.513	441.06
283.745	441.06
283.976	443.06
284.207	425.06
284.439	446.06
284.67	438.06
284.901	447.06
285.132	432.06
285.364	453.06
285.595	450.06
285.826	444.06
286.057	451.06
286.288	465.06
286.52	466.06
286.751	444.06
286.982	465.06
287.213	453.06
287.444	451.06
287.675	453.06
287.906	466.06
288.138	454.06
288.369	468.06
288.6	474.06
288.831	470.06
289.062	460.06
289.293	462.06
289.524	471.06
289.755	466.06
289.986	470.06
290.217	461.06
290.448	483.06
290.679	477.06
290.91	458.06
291.141	480.06
291.371	476.06
291.602	469.06
291.833	478.06
292.064	473.06
292.295	478.06
292.526	481.06
292.757	472.06
292.987	470.06
293.218	456.06
293.449	473.06
293.68	495.06
293.91	474.06
294.141	483.06
294.372	474.06
294.603	477.06
294.833	477.06
295.064	475.06
295.295	482.06
295.525	489.06
295.756	486.06
295.987	486.06
296.217	500.06
296.448	490.06
296.679	485.06
296.909	500.06
297.14	492.06
297.37	500.06
297.601	509.06
297.831	510.06
298.062	504.06
298.292	516.06
298.523	509.06
298.753	524.06
298.984	496.06
299.214	514.06
299.445	514.06
299.675	509.06
299.905	517.06
300.136	514.06
300.366	546.06
300.597	549.06
300.827	553.06
301.057	518.06
301.288	558.06
301.518	552.06
301.748	521.06
301.979	552.06
302.209	556.06
302.439	534.06
302.669	534.06
302.9	524.06
303.13	532.06
303.36	552.06
303.59	520.06
303.82	539.06
304.051	532.06
304.281	544.06
304.511	534.06
304.741	531.06
304.971	542.06
305.201	553.06
305.431	532.06
305.661	539.06
305.891	516.06
306.121	529.06
306.352	547.06
306.582	550.06
306.812	529.06
307.042	548.06
307.272	538.06
307.502	523.06
307.731	553.06
307.961	527.06
308.191	522.06
308.421	516.06
308.651	560.06
308.881	508.06
309.111	523.06
309.341	527.06
309.571	545.06
309.8	531.06
310.03	538.06
310.26	538.06
310.49	567.06
310.72	549.06
310.949	532.06
311.179	566.06
311.409	553.06
311.639	554.06
311.868	550.06
312.098	566.06
312.328	571.06
312.557	576.06
312.787	570.06
313.017	592.06
313.246	560.06
313.476	592.06
313.706	592.06
313.935	593.06
314.165	573.06
314.394	603.06
314.624	577.06
314.853	601.06
315.083	598.06
315.312	594.06
315.542	590.06
315.771	588.06
316.001	607.06
316.23	588.06
316.46	582.06
316.689	593.06
316.919	584.06
317.148	603.06
317.377	594.06
317.607	605.06
317.836	597.06
318.065	569.06
318.295	578.06
318.524	599.06
318.753	602.06
318.983	597.06
319.212	563.06
319.441	582.06
319.67	618.06
319.9	583.06
320.129	609.06
320.358	612.06
320.587	588.06
320.816	599.06
321.046	607.06
321.275	590.06
321.504	590.06
321.733	634.06
321.962	611.06
322.191	610.06
322.42	615.06
322.649	614.06
322.878	619.06
323.108	622.06
323.337	628.06
323.566	659.06
323.795	620.06
324.024	638.06
324.253	650.06
324.482	639.06
324.71	669.06
324.939	652.06
325.168	669.06
325.397	659.06
325.626	663.06
325.855	676.06
326.084	696.06
326.313	690.06
326.542	697.06
326.77	696.06
326.999	672.06
327.228	688.06
327.457	694.06
327.686	696.06
327.914	718.06
328.143	723.06
328.372	698.06
328.6	718.06
328.829	703.06
329.058	711.06
329.287	709.06
329.515	720.06
329.744	717.06
329.972	730.06
330.201	719.06
330.43	716.06
330.658	736.06
330.887	754.06
331.115	738.06
331.344	754.06
331.572	748.06
331.801	749.06
332.03	789.06
332.258	796.06
332.486	839.06
332.715	832.06
332.943	857.06
333.172	894.06
333.4	946.06
333.629	942.06
333.857	948.06
334.085	981.06
334.314	923.06
334.542	911.06
334.771	969.06
334.999	928.06
335.227	929.06
335.455	916.06
335.684	894.06
335.912	886.06
336.14	886.06
336.369	898.06
336.597	878.06
336.825	894.06
337.053	882.06
337.281	868.06
337.51	859.06
337.738	847.06
337.966	837.06
338.194	819.06
338.422	804.06
338.65	801.06
338.878	796.06
339.106	804.06
339.334	816.06
339.562	808.06
339.79	783.06
340.018	769.06
340.246	758.06
340.474	757.06
340.702	795.06
340.93	780.06
341.158	802.06
341.386	804.06
341.614	786.06
341.842	800.06
342.07	768.06
342.298	753.06
342.526	774.06
342.754	776.06
342.981	769.06
343.209	786.06
343.437	813.06
343.665	890.06
343.893	914.06
344.12	954.06
344.348	936.06
344.576	889.06
344.804	842.06
345.031	828.06
345.259	809.06
345.487	788.06
345.714	774.06
345.942	782.06
346.17	792.06
346.397	761.06
346.625	763.06
346.853	769.06
347.08	739.06
347.308	748.06
347.535	758.06
347.763	762.06
347.99	757.06
348.218	738.06
348.445	750.06
348.673	725.06
348.9	760.06
349.128	745.06
349.355	753.06
349.583	752.06
349.81	727.06
350.037	717.06
350.265	739.06
350.492	715.06
350.72	722.06
350.947	710.06
351.174	734.06
351.402	736.06
351.629	745.06
351.856	718.06
352.083	722.06
352.311	730.06
352.538	721.06
352.765	754.06
352.992	718.06
353.22	702.06
353.447	676.06
353.674	729.06
353.901	697.06
354.128	704.06
354.355	733.06
354.583	725.06
354.81	720.06
355.037	715.06
355.264	684.06
355.491	701.06
355.718	711.06
355.945	717.06
356.172	712.06
356.399	723.06
356.626	714.06
356.853	728.06
357.08	720.06
357.307	734.06
357.534	722.06
357.761	747.06
357.988	720.06
358.215	698.06
358.441	720.06
358.668	692.06
358.895	698.06
359.122	708.06
359.349	740.06
359.576	706.06
359.802	731.06
360.029	726.06
360.256	726.06
360.483	725.06
360.709	714.06
360.936	714.06
361.163	733.06
361.39	704.06
361.616	725.06
361.843	752.06
362.07	741.06
362.296	733.06
362.523	717.06
362.749	714.06
362.976	749.06
363.203	688.06
363.429	713.06
363.656	721.06
363.882	699.06
364.109	702.06
364.335	706.06
364.562	716.06
364.788	712.06
365.015	692.06
365.241	699.06
365.468	697.06
365.694	713.06
365.92	698.06
366.147	711.06
366.373	713.06
366.599	716.06
366.826	697.06
367.052	699.06
367.278	720.06
367.505	709.06
367.731	699.06
367.957	712.06
368.184	698.06
368.41	698.06
368.636	710.06
368.862	705.06
369.089	741.06
369.315	720.06
369.541	724.06
369.767	725.06
369.993	734.06
370.219	722.06
370.445	732.06
370.672	754.06
370.898	756.06
371.124	764.06
371.35	786.06
371.576	779.06
371.802	730.06
372.028	761.06
372.254	768.06
372.48	784.06
372.706	784.06
372.932	783.06
373.158	767.06
373.384	777.06
373.61	753.06
373.835	746.06
374.061	754.06
374.287	758.06
374.513	784.06
374.739	789.06
374.965	810.06
375.191	840.06
375.416	858.06
375.642	802.06
375.868	785.06
376.094	795.06
376.319	768.06
376.545	790.06
376.771	762.06
376.997	753.06
377.222	755.06
377.448	763.06
377.674	736.06
377.899	755.06
378.125	769.06
378.35	712.06
378.576	736.06
378.802	711.06
379.027	748.06
379.253	748.06
379.478	752.06
379.704	728.06
379.929	720.06
380.155	746.06
380.38	727.06
380.606	726.06
380.831	726.06
381.057	748.06
381.282	729.06
381.507	743.06
381.733	741.06
381.958	768.06
382.184	766.06
382.409	748.06
382.634	731.06
382.86	747.06
383.085	803.06
383.31	793.06
383.535	792.06
383.761	810.06
383.986	791.06
384.211	842.06
384.436	850.06
384.662	877.06
384.887	891.06
385.112	892.06
385.337	850.06
385.562	888.06
385.787	890.06
386.013	914.06
386.238	897.06
386.463	884.06
386.688	865.06
386.913	890.06
387.138	910.06
387.363	893.06
387.588	888.06
387.813	890.06
388.038	873.06
388.263	914.06
388.488	883.06
388.713	868.06
388.938	883.06
389.163	862.06
389.387	876.06
389.612	886.06
389.837	872.06
390.062	874.06
390.287	884.06
390.512	865.06
390.736	871.06
390.961	914.06
391.186	927.06
391.411	926.06
391.636	937.06
391.86	1009.06
392.085	1007.06
392.31	1006.06
392.534	945.06
392.759	989.06
392.984	979.06
393.208	948.06
393.433	964.06
393.658	926.06
393.882	939.06
394.107	944.06
394.331	937.06
394.556	942.06
394.78	936.06
395.005	959.06
395.229	956.06
395.454	966.06
395.678	984.06
395.903	1016.06
396.127	997.06
396.352	984.06
396.576	975.06
396.801	923.06
397.025	984.06
397.249	1003.06
397.474	1029.06
397.698	1013.06
397.922	1020.06
398.147	1022.06
398.371	1066.06
398.595	1094.06
398.82	1126.06
399.044	1204.06
399.268	1314.06
399.492	1492.06
399.717	1620.06
399.941	1626.06
400.165	1527.06
400.389	1347.06
400.613	1264.06
400.837	1216.06
401.062	1190.06
401.286	1160.06
401.51	1180.06
401.734	1144.06
401.958	1174.06
402.182	1173.06
402.406	1173.06
402.63	1152.06
402.854	1197.06
403.078	1213.06
403.302	1231.06
403.526	1237.06
403.75	1260.06
403.974	1285.06
404.198	1282.06
404.422	1268.06
404.645	1295.06
404.869	1278.06
405.093	1221.06
405.317	1232.06
405.541	1217.06
405.765	1232.06
405.988	1253.06
406.212	1211.06
406.436	1233.06
406.66	1260.06
406.883	1288.06
407.107	1346.06
407.331	1422.06
407.555	1486.06
407.778	1459.06
408.002	1441.06
408.226	1390.06
408.449	1374.06
408.673	1321.06
408.896	1247.06
409.12	1240.06
409.344	1298.06
409.567	1288.06
409.791	1277.06
410.014	1271.06
410.238	1265.06
410.461	1245.06
410.685	1268.06
410.908	1213.06
411.132	1204.06
411.355	1178.06
411.578	1211.06
411.802	1236.06
412.025	1189.06
412.249	1175.06
412.472	1204.06
412.695	1198.06
412.919	1176.06
413.142	1170.06
413.365	1201.06
413.589	1158.06
413.812	1154.06
414.035	1140.06
414.258	1129.06
414.482	1124.06
414.705	1158.06
414.928	1174.06
415.151	1160.06
415.374	1181.06
415.597	1176.06
415.821	1176.06
416.044	1135.06
416.267	1144.06
416.49	1150.06
416.713	1124.06
416.936	1123.06
417.159	1123.06
417.382	1157.06
417.605	1093.06
417.828	1145.06
418.051	1140.06
418.274	1150.06
418.497	1165.06
418.72	1171.06
418.943	1206.06
419.166	1250.06
419.389	1318.06
419.611	1292.06
419.834	1260.06
420.057	1222.06
420.28	1188.06
420.503	1150.06
420.726	1145.06
420.948	1129.06
421.171	1152.06
421.394	1137.06
421.617	1151.06
421.839	1159.06
422.062	1165.06
422.285	1150.06
422.507	1162.06
422.73	1162.06
422.953	1160.06
423.175	1159.06
423.398	1192.06
423.621	1194.06
423.843	1177.06
424.066	1199.06
424.288	1180.06
424.511	1184.06
424.733	1183.06
424.956	1156.06
425.178	1171.06
425.401	1152.06
425.623	1176.06
425.846	1110.06
426.068	1113.06
426.291	1114.06
426.513	1128.06
426.735	1084.06
426.958	1125.06
427.18	1062.06
427.402	1085.06
427.625	1075.06
427.847	1055.06
428.069	1044.06
428.292	1069.06
428.514	1033.06
428.736	1028.06
428.958	1038.06
429.181	1024.06
429.403	1027.06
429.625	1062.06
429.847	1010.06
430.069	1000.06
430.292	1032.06
430.514	1011.06
430.736	1011.06
430.958	1028.06
431.18	1039.06
431.402	1066.06
431.624	1017.06
431.846	1060.06
432.068	1044.06
432.29	1077.06
432.512	1052.06
432.734	1039.06
432.956	1066.06
433.178	1040.06
433.4	1061.06
433.622	1064.06
433.844	1082.06
434.066	1058.06
434.287	1060.06
434.509	1095.06
434.731	1140.06
434.953	1159.06
435.175	1152.06
435.397	1148.06
435.618	1118.06
435.84	1068.06
436.062	1068.06
436.284	1071.06
436.505	1056.06
436.727	1084.06
436.949	1049.06
437.17	1066.06
437.392	1040.06
437.614	1029.06
437.835	1022.06
438.057	1001.06
438.278	998.06
438.5	1001.06
438.721	1012.06
438.943	1046.06
439.165	1011.06
439.386	1047.06
439.608	1089.06
439.829	1049.06
440.05	1072.06
440.272	1055.06
440.493	1052.06
440.715	1074.06
440.936	1109.06
441.158	1101.06
441.379	1121.06
441.6	1172.06
441.822	1150.06
442.043	1202.06
442.264	1188.06
442.486	1137.06
442.707	1150.06
442.928	1168.06
443.149	1160.06
443.371	1162.06
443.592	1188.06
443.813	1170.06
444.034	1221.06
444.255	1233.06
444.476	1300.06
444.698	1352.06
444.919	1389.06
445.14	1471.06
445.361	1322.06
445.582	1234.06
445.803	1188.06
446.024	1147.06
446.245	1142.06
446.466	1139.06
446.687	1069.06
446.908	1083.06
447.129	1052.06
447.35	1027.06
447.571	1043.06
447.792	1006.06
448.013	1005.06
448.234	1020.06
448.455	998.06
448.675	976.06
448.896	974.06
449.117	972.06
449.338	958.06
449.559	972.06
449.779	941.06
450	945.06
450.221	967.06
450.442	991.06
450.662	958.06
450.883	999.06
451.104	993.06
451.324	970.06
451.545	997.06
451.766	989.06
451.986	957.06
452.207	959.06
452.428	958.06
452.648	948.06
452.869	958.06
453.089	939.06
453.31	949.06
453.53	932.06
453.751	925.06
453.971	911.06
454.192	927.06
454.412	925.06
454.633	884.06
454.853	939.06
455.073	903.06
455.294	908.06
455.514	918.06
455.734	932.06
455.955	906.06
456.175	889.06
456.395	910.06
456.616	896.06
456.836	920.06
457.056	908.06
457.276	906.06
457.497	906.06
457.717	900.06
457.937	918.06
458.157	935.06
458.377	916.06
458.598	950.06
458.818	981.06
459.038	992.06
459.258	1027.06
459.478	1084.06
459.698	1108.06
459.918	1139.06
460.138	1173.06
460.358	1210.06
460.578	1226.06
460.798	1242.06
461.018	1232.06
461.238	1240.06
461.458	1230.06
461.678	1247.06
461.898	1289.06
462.118	1268.06
462.338	1348.06
462.558	1357.06
462.777	1411.06
462.997	1540.06
463.217	1611.06
463.437	1603.06
463.657	1515.06
463.876	1478.06
464.096	1454.06
464.316	1434.06
464.536	1449.06
464.755	1397.06
464.975	1362.06
465.195	1289.06
465.414	1214.06
465.634	1145.06
465.854	1118.06
466.073	1098.06
466.293	1080.06
466.512	1033.06
466.732	1024.06
466.951	1051.06
467.171	1002.06
467.391	1024.06
467.61	1006.06
467.829	1010.06
468.049	982.06
468.268	992.06
468.488	964.06
468.707	937.06
468.927	1015.06
469.146	970.06
469.365	966.06
469.585	984.06
469.804	1020.06
470.023	1047.06
470.243	1062.06
470.462	1069.06
470.681	1059.06
470.901	1037.06
471.12	1013.06
471.339	1027.06
471.558	994.06
471.777	1012.06
471.997	973.06
472.216	982.06
472.435	991.06
472.654	972.06
472.873	972.06
473.092	966.06
473.311	952.06
473.53	963.06
473.749	955.06
473.968	934.06
474.187	928.06
474.406	939.06
474.625	953.06
474.844	958.06
475.063	955.06
475.282	971.06
475.501	953.06
475.72	965.06
475.939	986.06
476.158	986.06
476.377	996.06
476.596	1037.06
476.814	1026.06
477.033	1006.06
477.252	1005.06
477.471	1049.06
477.69	1067.06
477.908	1069.06
478.127	1127.06
478.346	1148.06
478.564	1150.06
478.783	1151.06
479.002	1189.06
479.22	1202.06
479.439	1204.06
479.658	1204.06
479.876	1177.06
480.095	1218.06
480.313	1231.06
480.532	1269.06
480.751	1256.06
480.969	1182.06
481.188	1164.06
481.406	1151.06
481.624	1121.06
481.843	1088.06
482.061	1093.06
482.28	1065.06
482.498	1068.06
482.717	1076.06
482.935	1092.06
483.153	1082.06
483.372	1101.06
483.59	1090.06
483.808	1093.06
484.027	1086.06
484.245	1085.06
484.463	1087.06
484.681	1117.06
484.9	1121.06
485.118	1104.06
485.336	1116.06
485.554	1114.06
485.772	1110.06
485.99	1122.06
486.209	1128.06
486.427	1144.06
486.645	1141.06
486.863	1104.06
487.081	1131.06
487.299	1132.06
487.517	1136.06
487.735	1153.06
487.953	1144.06
488.171	1121.06
488.389	1140.06
488.607	1114.06
488.825	1084.06
489.043	1106.06
489.261	1108.06
489.479	1110.06
489.696	1113.06
489.914	1118.06
490.132	1152.06
490.35	1140.06
490.568	1138.06
490.786	1136.06
491.003	1150.06
491.221	1142.06
491.439	1164.06
491.657	1142.06
491.874	1188.06
492.092	1176.06
492.31	1195.06
492.527	1173.06
492.745	1192.06
492.963	1174.06
493.18	1190.06
493.398	1229.06
493.615	1203.06
493.833	1194.06
494.05	1211.06
494.268	1222.06
494.485	1194.06
494.703	1269.06
494.92	1213.06
495.138	1226.06
495.355	1237.06
495.573	1261.06
495.79	1260.06
496.008	1258.06
496.225	1245.06
496.442	1279.06
