Data from Ni(NO3)2@0.0625M.TitratingCurve.Agarose3%dH2O.NegLispCup.LampEnergy10.LIBS07252019_HRD10591_18-14-04-568.txt Node
Date: Thu Jul 25 18:14:04 EDT 2019
User: cochatt
Spectrometer: HR+D1059
Trigger mode: 1
Integration Time (sec): 1.000000E-1
Scans to average: 1
Electric dark correction enabled: true
Nonlinearity correction enabled: false
Boxcar width: 0
XAxis mode: Wavelengths
Number of Pixels in Spectrum: 2048
>>>>>Begin Spectral Data<<<<<
223.165	-22.56
223.4	-22.56
223.635	-22.56
223.869	-17.56
224.104	-19.56
224.338	3.44
224.573	-19.56
224.808	-13.56
225.042	-12.56
225.277	2.44
225.511	-4.56
225.746	9.44
225.98	3.44
226.215	10.44
226.449	13.44
226.683	11.44
226.918	29.44
227.152	26.44
227.387	35.44
227.621	39.44
227.856	58.44
228.09	51.44
228.324	39.44
228.559	60.44
228.793	78.44
229.027	119.44
229.262	119.44
229.496	119.44
229.73	124.44
229.964	137.44
230.199	116.44
230.433	141.44
230.667	139.44
230.901	135.44
231.136	142.44
231.37	138.44
231.604	149.44
231.838	135.44
232.072	136.44
232.306	157.44
232.541	138.44
232.775	142.44
233.009	162.44
233.243	152.44
233.477	143.44
233.711	149.44
233.945	150.44
234.179	147.44
234.413	157.44
234.647	156.44
234.881	154.44
235.115	163.44
235.349	164.44
235.583	158.44
235.817	150.44
236.051	143.44
236.285	157.44
236.519	145.44
236.753	155.44
236.987	148.44
237.221	159.44
237.455	162.44
237.689	173.44
237.922	164.44
238.156	164.44
238.39	171.44
238.624	177.44
238.858	178.44
239.091	163.44
239.325	160.44
239.559	162.44
239.793	175.44
240.027	164.44
240.26	164.44
240.494	188.44
240.728	179.44
240.961	168.44
241.195	181.44
241.429	182.44
241.662	188.44
241.896	190.44
242.13	204.44
242.363	202.44
242.597	192.44
242.83	191.44
243.064	201.44
243.298	198.44
243.531	213.44
243.765	204.44
243.998	188.44
244.232	214.44
244.465	214.44
244.699	218.44
244.932	223.44
245.166	203.44
245.399	202.44
245.633	235.44
245.866	212.44
246.099	231.44
246.333	235.44
246.566	230.44
246.8	222.44
247.033	232.44
247.266	234.44
247.5	228.44
247.733	226.44
247.966	226.44
248.2	216.44
248.433	235.44
248.666	218.44
248.899	242.44
249.133	248.44
249.366	260.44
249.599	235.44
249.832	230.44
250.066	243.44
250.299	258.44
250.532	264.44
250.765	241.44
250.998	244.44
251.231	248.44
251.465	264.44
251.698	269.44
251.931	254.44
252.164	279.44
252.397	277.44
252.63	275.44
252.863	272.44
253.096	261.44
253.329	270.44
253.562	288.44
253.795	271.44
254.028	282.44
254.261	279.44
254.494	283.44
254.727	278.44
254.96	290.44
255.193	274.44
255.426	271.44
255.659	273.44
255.892	299.44
256.124	282.44
256.357	291.44
256.59	271.44
256.823	283.44
257.056	295.44
257.289	306.44
257.521	310.44
257.754	313.44
257.987	294.44
258.22	313.44
258.452	301.44
258.685	287.44
258.918	316.44
259.151	295.44
259.383	290.44
259.616	305.44
259.849	305.44
260.081	316.44
260.314	310.44
260.547	326.44
260.779	334.44
261.012	336.44
261.244	309.44
261.477	319.44
261.71	313.44
261.942	336.44
262.175	343.44
262.407	325.44
262.64	324.44
262.872	336.44
263.105	323.44
263.337	335.44
263.57	334.44
263.802	323.44
264.035	364.44
264.267	342.44
264.499	339.44
264.732	350.44
264.964	335.44
265.197	347.44
265.429	350.44
265.661	351.44
265.894	344.44
266.126	358.44
266.358	350.44
266.591	343.44
266.823	371.44
267.055	372.44
267.287	346.44
267.52	359.44
267.752	349.44
267.984	359.44
268.216	376.44
268.448	372.44
268.681	385.44
268.913	363.44
269.145	378.44
269.377	372.44
269.609	372.44
269.841	362.44
270.073	367.44
270.306	382.44
270.538	373.44
270.77	364.44
271.002	382.44
271.234	370.44
271.466	376.44
271.698	374.44
271.93	387.44
272.162	377.44
272.394	391.44
272.626	396.44
272.858	387.44
273.09	391.44
273.322	393.44
273.553	384.44
273.785	407.44
274.017	395.44
274.249	403.44
274.481	396.44
274.713	385.44
274.945	410.44
275.176	408.44
275.408	405.44
275.64	413.44
275.872	414.44
276.104	419.44
276.335	399.44
276.567	430.44
276.799	414.44
277.031	435.44
277.262	414.44
277.494	419.44
277.726	432.44
277.957	440.44
278.189	440.44
278.421	435.44
278.652	406.44
278.884	430.44
279.115	430.44
279.347	437.44
279.579	431.44
279.81	438.44
280.042	448.44
280.273	450.44
280.505	440.44
280.736	459.44
280.968	443.44
281.199	454.44
281.431	455.44
281.662	438.44
281.894	453.44
282.125	460.44
282.356	444.44
282.588	444.44
282.819	463.44
283.051	463.44
283.282	458.44
283.513	479.44
283.745	475.44
283.976	459.44
284.207	460.44
284.439	484.44
284.67	500.44
284.901	475.44
285.132	489.44
285.364	483.44
285.595	479.44
285.826	462.44
286.057	452.44
286.288	480.44
286.52	483.44
286.751	519.44
286.982	489.44
287.213	490.44
287.444	482.44
287.675	493.44
287.906	498.44
288.138	482.44
288.369	512.44
288.6	488.44
288.831	493.44
289.062	500.44
289.293	528.44
289.524	532.44
289.755	524.44
289.986	494.44
290.217	524.44
290.448	510.44
290.679	523.44
290.91	539.44
291.141	504.44
291.371	537.44
291.602	518.44
291.833	527.44
292.064	518.44
292.295	515.44
292.526	536.44
292.757	522.44
292.987	533.44
293.218	508.44
293.449	540.44
293.68	508.44
293.91	523.44
294.141	519.44
294.372	544.44
294.603	546.44
294.833	524.44
295.064	543.44
295.295	526.44
295.525	540.44
295.756	556.44
295.987	542.44
296.217	541.44
296.448	536.44
296.679	552.44
296.909	573.44
297.14	549.44
297.37	573.44
297.601	564.44
297.831	564.44
298.062	577.44
298.292	552.44
298.523	573.44
298.753	587.44
298.984	596.44
299.214	551.44
299.445	568.44
299.675	583.44
299.905	573.44
300.136	550.44
300.366	574.44
300.597	584.44
300.827	581.44
301.057	572.44
301.288	591.44
301.518	607.44
301.748	605.44
301.979	619.44
302.209	608.44
302.439	585.44
302.669	610.44
302.9	573.44
303.13	586.44
303.36	583.44
303.59	576.44
303.82	586.44
304.051	600.44
304.281	583.44
304.511	601.44
304.741	581.44
304.971	585.44
305.201	620.44
305.431	589.44
305.661	576.44
305.891	590.44
306.121	582.44
306.352	593.44
306.582	601.44
306.812	559.44
307.042	579.44
307.272	564.44
307.502	578.44
307.731	568.44
307.961	566.44
308.191	573.44
308.421	569.44
308.651	555.44
308.881	570.44
309.111	552.44
309.341	585.44
309.571	567.44
309.8	576.44
310.03	565.44
310.26	573.44
310.49	573.44
310.72	575.44
310.949	567.44
311.179	570.44
311.409	566.44
311.639	568.44
311.868	582.44
312.098	591.44
312.328	588.44
312.557	593.44
312.787	601.44
313.017	585.44
313.246	615.44
313.476	613.44
313.706	623.44
313.935	632.44
314.165	626.44
314.394	624.44
314.624	610.44
314.853	613.44
315.083	601.44
315.312	612.44
315.542	608.44
315.771	605.44
316.001	619.44
316.23	610.44
316.46	592.44
316.689	576.44
316.919	607.44
317.148	585.44
317.377	584.44
317.607	586.44
317.836	589.44
318.065	587.44
318.295	631.44
318.524	610.44
318.753	598.44
318.983	600.44
319.212	582.44
319.441	590.44
319.67	626.44
319.9	574.44
320.129	611.44
320.358	586.44
320.587	603.44
320.816	614.44
321.046	623.44
321.275	621.44
321.504	616.44
321.733	605.44
321.962	604.44
322.191	593.44
322.42	602.44
322.649	620.44
322.878	617.44
323.108	616.44
323.337	621.44
323.566	611.44
323.795	634.44
324.024	613.44
324.253	605.44
324.482	619.44
324.71	602.44
324.939	611.44
325.168	632.44
325.397	648.44
325.626	646.44
325.855	652.44
326.084	655.44
326.313	668.44
326.542	662.44
326.77	671.44
326.999	632.44
327.228	641.44
327.457	669.44
327.686	636.44
327.914	652.44
328.143	649.44
328.372	670.44
328.6	648.44
328.829	666.44
329.058	664.44
329.287	668.44
329.515	663.44
329.744	654.44
329.972	650.44
330.201	638.44
330.43	679.44
330.658	670.44
330.887	697.44
331.115	694.44
331.344	702.44
331.572	706.44
331.801	707.44
332.03	716.44
332.258	752.44
332.486	754.44
332.715	822.44
332.943	820.44
333.172	837.44
333.4	898.44
333.629	894.44
333.857	950.44
334.085	926.44
334.314	884.44
334.542	848.44
334.771	835.44
334.999	828.44
335.227	834.44
335.455	819.44
335.684	852.44
335.912	812.44
336.14	802.44
336.369	778.44
336.597	814.44
336.825	798.44
337.053	800.44
337.281	786.44
337.51	760.44
337.738	768.44
337.966	741.44
338.194	716.44
338.422	704.44
338.65	722.44
338.878	716.44
339.106	748.44
339.334	700.44
339.562	683.44
339.79	715.44
340.018	682.44
340.246	674.44
340.474	690.44
340.702	684.44
340.93	697.44
341.158	687.44
341.386	699.44
341.614	720.44
341.842	697.44
342.07	680.44
342.298	660.44
342.526	669.44
342.754	666.44
342.981	696.44
343.209	721.44
343.437	738.44
343.665	783.44
343.893	837.44
344.12	886.44
344.348	838.44
344.576	786.44
344.804	765.44
345.031	723.44
345.259	716.44
345.487	730.44
345.714	669.44
345.942	718.44
346.17	710.44
346.397	687.44
346.625	682.44
346.853	695.44
347.08	660.44
347.308	693.44
347.535	707.44
347.763	706.44
347.99	687.44
348.218	696.44
348.445	718.44
348.673	677.44
348.9	681.44
349.128	692.44
349.355	642.44
349.583	667.44
349.81	651.44
350.037	646.44
350.265	636.44
350.492	648.44
350.72	661.44
350.947	639.44
351.174	662.44
351.402	644.44
351.629	648.44
351.856	634.44
352.083	646.44
352.311	642.44
352.538	644.44
352.765	650.44
352.992	633.44
353.22	649.44
353.447	618.44
353.674	642.44
353.901	638.44
354.128	661.44
354.355	638.44
354.583	638.44
354.81	639.44
355.037	647.44
355.264	631.44
355.491	664.44
355.718	679.44
355.945	647.44
356.172	667.44
356.399	650.44
356.626	622.44
356.853	653.44
357.08	642.44
357.307	646.44
357.534	676.44
357.761	667.44
357.988	635.44
358.215	656.44
358.441	650.44
358.668	645.44
358.895	665.44
359.122	649.44
359.349	621.44
359.576	642.44
359.802	640.44
360.029	661.44
360.256	647.44
360.483	650.44
360.709	636.44
360.936	654.44
361.163	642.44
361.39	642.44
361.616	656.44
361.843	611.44
362.07	656.44
362.296	651.44
362.523	644.44
362.749	650.44
362.976	643.44
363.203	643.44
363.429	639.44
363.656	650.44
363.882	631.44
364.109	627.44
364.335	635.44
364.562	660.44
364.788	623.44
365.015	632.44
365.241	646.44
365.468	655.44
365.694	650.44
365.92	631.44
366.147	633.44
366.373	635.44
366.599	636.44
366.826	622.44
367.052	660.44
367.278	653.44
367.505	660.44
367.731	648.44
367.957	662.44
368.184	665.44
368.41	669.44
368.636	647.44
368.862	645.44
369.089	670.44
369.315	672.44
369.541	668.44
369.767	684.44
369.993	670.44
370.219	682.44
370.445	679.44
370.672	706.44
370.898	703.44
371.124	684.44
371.35	704.44
371.576	727.44
371.802	699.44
372.028	692.44
372.254	697.44
372.48	676.44
372.706	725.44
372.932	735.44
373.158	724.44
373.384	712.44
373.61	719.44
373.835	695.44
374.061	682.44
374.287	699.44
374.513	718.44
374.739	749.44
374.965	791.44
375.191	798.44
375.416	775.44
375.642	761.44
375.868	776.44
376.094	743.44
376.319	715.44
376.545	738.44
376.771	704.44
376.997	714.44
377.222	692.44
377.448	687.44
377.674	682.44
377.899	684.44
378.125	715.44
378.35	710.44
378.576	696.44
378.802	680.44
379.027	693.44
379.253	690.44
379.478	680.44
379.704	703.44
379.929	695.44
380.155	675.44
380.38	672.44
380.606	687.44
380.831	681.44
381.057	698.44
381.282	679.44
381.507	701.44
381.733	706.44
381.958	706.44
382.184	729.44
382.409	732.44
382.634	719.44
382.86	742.44
383.085	767.44
383.31	758.44
383.535	782.44
383.761	783.44
383.986	822.44
384.211	835.44
384.436	838.44
384.662	839.44
384.887	835.44
385.112	873.44
385.337	858.44
385.562	868.44
385.787	851.44
386.013	875.44
386.238	851.44
386.463	884.44
386.688	848.44
386.913	859.44
387.138	823.44
387.363	842.44
387.588	834.44
387.813	836.44
388.038	823.44
388.263	843.44
388.488	830.44
388.713	842.44
388.938	833.44
389.163	828.44
389.387	816.44
389.612	818.44
389.837	831.44
390.062	838.44
390.287	843.44
390.512	828.44
390.736	834.44
390.961	846.44
391.186	838.44
391.411	898.44
391.636	896.44
391.86	935.44
392.085	986.44
392.31	972.44
392.534	940.44
392.759	909.44
392.984	910.44
393.208	898.44
393.433	906.44
393.658	893.44
393.882	886.44
394.107	873.44
394.331	924.44
394.556	958.44
394.78	903.44
395.005	914.44
395.229	931.44
395.454	936.44
395.678	970.44
395.903	966.44
396.127	941.44
396.352	931.44
396.576	920.44
396.801	899.44
397.025	896.44
397.249	924.44
397.474	920.44
397.698	962.44
397.922	954.44
398.147	941.44
398.371	957.44
398.595	973.44
398.82	1016.44
399.044	1082.44
399.268	1230.44
399.492	1431.44
399.717	1645.44
399.941	1687.44
400.165	1474.44
400.389	1266.44
400.613	1197.44
400.837	1102.44
401.062	1090.44
401.286	1088.44
401.51	1038.44
401.734	1034.44
401.958	1029.44
402.182	1106.44
402.406	1110.44
402.63	1130.44
402.854	1141.44
403.078	1140.44
403.302	1185.44
403.526	1220.44
403.75	1232.44
403.974	1265.44
404.198	1290.44
404.422	1288.44
404.645	1279.44
404.869	1233.44
405.093	1204.44
405.317	1178.44
405.541	1195.44
405.765	1154.44
405.988	1164.44
406.212	1154.44
406.436	1172.44
406.66	1174.44
406.883	1236.44
407.107	1273.44
407.331	1379.44
407.555	1395.44
407.778	1378.44
408.002	1367.44
408.226	1321.44
408.449	1287.44
408.673	1245.44
408.896	1230.44
409.12	1193.44
409.344	1211.44
409.567	1190.44
409.791	1232.44
410.014	1224.44
410.238	1208.44
410.461	1207.44
410.685	1217.44
410.908	1178.44
411.132	1140.44
411.355	1104.44
411.578	1112.44
411.802	1108.44
412.025	1129.44
412.249	1145.44
412.472	1094.44
412.695	1080.44
412.919	1060.44
413.142	1064.44
413.365	1044.44
413.589	1091.44
413.812	1070.44
414.035	1023.44
414.258	1033.44
414.482	1084.44
414.705	1092.44
414.928	1071.44
415.151	1093.44
415.374	1061.44
415.597	1067.44
415.821	1074.44
416.044	1044.44
416.267	1021.44
416.49	1029.44
416.713	1031.44
416.936	1053.44
417.159	1030.44
417.382	1063.44
417.605	1053.44
417.828	1033.44
418.051	1058.44
418.274	1052.44
418.497	1047.44
418.72	1099.44
418.943	1100.44
419.166	1168.44
419.389	1245.44
419.611	1220.44
419.834	1148.44
420.057	1106.44
420.28	1063.44
420.503	1042.44
420.726	1049.44
420.948	1039.44
421.171	1039.44
421.394	1029.44
421.617	1011.44
421.839	1067.44
422.062	1065.44
422.285	1063.44
422.507	1122.44
422.73	1076.44
422.953	1076.44
423.175	1141.44
423.398	1127.44
423.621	1141.44
423.843	1115.44
424.066	1154.44
424.288	1127.44
424.511	1134.44
424.733	1116.44
424.956	1115.44
425.178	1078.44
425.401	1067.44
425.623	1054.44
425.846	1004.44
426.068	1009.44
426.291	998.44
426.513	990.44
426.735	979.44
426.958	962.44
427.18	949.44
427.402	951.44
427.625	940.44
427.847	928.44
428.069	968.44
428.292	991.44
428.514	930.44
428.736	927.44
428.958	920.44
429.181	925.44
429.403	890.44
429.625	909.44
429.847	903.44
430.069	898.44
430.292	950.44
430.514	893.44
430.736	867.44
430.958	906.44
431.18	894.44
431.402	924.44
431.624	931.44
431.846	974.44
432.068	961.44
432.29	958.44
432.512	936.44
432.734	942.44
432.956	937.44
433.178	951.44
433.4	958.44
433.622	946.44
433.844	953.44
434.066	966.44
434.287	1000.44
434.509	989.44
434.731	1014.44
434.953	1058.44
435.175	1068.44
435.397	1058.44
435.618	1000.44
435.84	975.44
436.062	942.44
436.284	926.44
436.505	932.44
436.727	914.44
436.949	939.44
437.17	967.44
437.392	946.44
437.614	921.44
437.835	896.44
438.057	887.44
438.278	869.44
438.5	877.44
438.721	907.44
438.943	912.44
439.165	894.44
439.386	910.44
439.608	925.44
439.829	961.44
440.05	928.44
440.272	946.44
440.493	933.44
440.715	976.44
440.936	987.44
441.158	980.44
441.379	991.44
441.6	1058.44
441.822	1062.44
442.043	1078.44
442.264	1062.44
442.486	1031.44
442.707	1052.44
442.928	1067.44
443.149	1055.44
443.371	1044.44
443.592	1058.44
443.813	1069.44
444.034	1071.44
444.255	1103.44
444.476	1155.44
444.698	1247.44
444.919	1311.44
445.14	1358.44
445.361	1186.44
445.582	1099.44
445.803	1036.44
446.024	1024.44
446.245	986.44
446.466	951.44
446.687	954.44
446.908	957.44
447.129	930.44
447.35	933.44
447.571	921.44
447.792	894.44
448.013	896.44
448.234	860.44
448.455	887.44
448.675	843.44
448.896	853.44
449.117	844.44
449.338	861.44
449.559	855.44
449.779	860.44
450	855.44
450.221	855.44
450.442	855.44
450.662	851.44
450.883	883.44
451.104	900.44
451.324	909.44
451.545	906.44
451.766	905.44
451.986	925.44
452.207	855.44
452.428	884.44
452.648	864.44
452.869	886.44
453.089	859.44
453.31	862.44
453.53	882.44
453.751	824.44
453.971	837.44
454.192	852.44
454.412	813.44
454.633	844.44
454.853	851.44
455.073	793.44
455.294	828.44
455.514	814.44
455.734	824.44
455.955	820.44
456.175	789.44
456.395	790.44
456.616	803.44
456.836	800.44
457.056	806.44
457.276	805.44
457.497	820.44
457.717	832.44
457.937	815.44
458.157	820.44
458.377	820.44
458.598	860.44
458.818	887.44
459.038	902.44
459.258	933.44
459.478	964.44
459.698	962.44
459.918	963.44
460.138	1037.44
460.358	1101.44
460.578	1118.44
460.798	1140.44
461.018	1156.44
461.238	1169.44
461.458	1100.44
461.678	1123.44
461.898	1112.44
462.118	1127.44
462.338	1217.44
462.558	1206.44
462.777	1257.44
462.997	1436.44
463.217	1545.44
463.437	1583.44
463.657	1421.44
463.876	1344.44
464.096	1332.44
464.316	1302.44
464.536	1338.44
464.755	1284.44
464.975	1252.44
465.195	1150.44
465.414	1118.44
465.634	1021.44
465.854	990.44
466.073	964.44
466.293	962.44
466.512	950.44
466.732	926.44
466.951	905.44
467.171	896.44
467.391	897.44
467.61	902.44
467.829	901.44
468.049	901.44
468.268	879.44
468.488	864.44
468.707	861.44
468.927	858.44
469.146	855.44
469.365	888.44
469.585	861.44
469.804	890.44
470.023	933.44
470.243	909.44
470.462	906.44
470.681	948.44
470.901	954.44
471.12	921.44
471.339	931.44
471.558	884.44
471.777	890.44
471.997	895.44
472.216	839.44
472.435	844.44
472.654	840.44
472.873	861.44
473.092	863.44
473.311	835.44
473.53	824.44
473.749	848.44
473.968	847.44
474.187	848.44
474.406	832.44
474.625	867.44
474.844	836.44
475.063	868.44
475.282	860.44
475.501	868.44
475.72	858.44
475.939	836.44
476.158	865.44
476.377	866.44
476.596	891.44
476.814	898.44
477.033	920.44
477.252	914.44
477.471	912.44
477.69	953.44
477.908	957.44
478.127	992.44
478.346	1010.44
478.564	1020.44
478.783	1015.44
479.002	1061.44
479.22	1075.44
479.439	1032.44
479.658	1060.44
479.876	1078.44
480.095	1082.44
480.313	1150.44
480.532	1155.44
480.751	1169.44
480.969	1091.44
481.188	1022.44
481.406	1040.44
481.624	997.44
481.843	972.44
482.061	969.44
482.28	962.44
482.498	993.44
482.717	975.44
482.935	948.44
483.153	984.44
483.372	981.44
483.59	949.44
483.808	955.44
484.027	967.44
484.245	967.44
484.463	974.44
484.681	1014.44
484.9	1003.44
485.118	989.44
485.336	1007.44
485.554	995.44
485.772	1007.44
485.99	1016.44
486.209	1073.44
486.427	1066.44
486.645	1019.44
486.863	1006.44
487.081	1026.44
487.299	992.44
487.517	1020.44
487.735	1008.44
487.953	1044.44
488.171	1031.44
488.389	982.44
488.607	991.44
488.825	1001.44
489.043	961.44
489.261	1004.44
489.479	991.44
489.696	1026.44
489.914	1010.44
490.132	997.44
490.35	994.44
490.568	998.44
490.786	1032.44
491.003	999.44
491.221	1019.44
491.439	1055.44
491.657	1008.44
491.874	1033.44
492.092	999.44
492.31	1032.44
492.527	992.44
492.745	1063.44
492.963	1056.44
493.18	1040.44
493.398	1067.44
493.615	1072.44
493.833	1065.44
494.05	1068.44
494.268	1082.44
494.485	1051.44
494.703	1048.44
494.92	1067.44
495.138	1074.44
495.355	1074.44
495.573	1055.44
495.79	1087.44
496.008	1117.44
496.225	1100.44
496.442	1099.44
496.66	1109.44
496.877	1117.44
497.094	1133.44
497.312	1164.44
497.529	1204.44
497.746	1200.44
497.963	1235.44
498.181	1307.44
