Data from Ni(NO3)2@0.125M.TitratingCurve.Agarose3%dH2O.NegLispCup.LampEnergy10.LIBS07252019_HRD10591_18-09-36-567.txt Node
Date: Thu Jul 25 18:09:36 EDT 2019
User: cochatt
Spectrometer: HR+D1059
Trigger mode: 1
Integration Time (sec): 1.000000E-1
Scans to average: 1
Electric dark correction enabled: true
Nonlinearity correction enabled: false
Boxcar width: 0
XAxis mode: Wavelengths
Number of Pixels in Spectrum: 2048
>>>>>Begin Spectral Data<<<<<
223.165	1.06
223.4	1.06
223.635	1.06
223.869	-27.94
224.104	-12.94
224.338	-28.94
224.573	-22.94
224.808	-10.94
225.042	-2.94
225.277	-1.94
225.511	-6.94
225.746	7.06
225.98	19.06
226.215	17.06
226.449	-5.94
226.683	12.06
226.918	33.06
227.152	32.06
227.387	30.06
227.621	42.06
227.856	46.06
228.09	66.06
228.324	52.06
228.559	53.06
228.793	61.06
229.027	112.06
229.262	138.06
229.496	125.06
229.73	122.06
229.964	138.06
230.199	140.06
230.433	123.06
230.667	133.06
230.901	152.06
231.136	152.06
231.37	144.06
231.604	139.06
231.838	156.06
232.072	146.06
232.306	146.06
232.541	155.06
232.775	164.06
233.009	154.06
233.243	153.06
233.477	146.06
233.711	142.06
233.945	155.06
234.179	182.06
234.413	171.06
234.647	180.06
234.881	158.06
235.115	159.06
235.349	146.06
235.583	156.06
235.817	161.06
236.051	170.06
236.285	164.06
236.519	163.06
236.753	172.06
236.987	167.06
237.221	165.06
237.455	174.06
237.689	164.06
237.922	180.06
238.156	178.06
238.39	182.06
238.624	179.06
238.858	196.06
239.091	192.06
239.325	176.06
239.559	185.06
239.793	186.06
240.027	189.06
240.26	207.06
240.494	190.06
240.728	178.06
240.961	181.06
241.195	197.06
241.429	189.06
241.662	195.06
241.896	210.06
242.13	198.06
242.363	186.06
242.597	212.06
242.83	206.06
243.064	213.06
243.298	207.06
243.531	217.06
243.765	242.06
243.998	232.06
244.232	220.06
244.465	230.06
244.699	209.06
244.932	235.06
245.166	236.06
245.399	237.06
245.633	247.06
245.866	240.06
246.099	238.06
246.333	249.06
246.566	243.06
246.8	249.06
247.033	240.06
247.266	240.06
247.5	240.06
247.733	259.06
247.966	264.06
248.2	263.06
248.433	258.06
248.666	274.06
248.899	273.06
249.133	268.06
249.366	284.06
249.599	280.06
249.832	289.06
250.066	268.06
250.299	274.06
250.532	270.06
250.765	299.06
250.998	302.06
251.231	268.06
251.465	280.06
251.698	297.06
251.931	284.06
252.164	294.06
252.397	295.06
252.63	298.06
252.863	317.06
253.096	318.06
253.329	307.06
253.562	299.06
253.795	324.06
254.028	296.06
254.261	316.06
254.494	321.06
254.727	320.06
254.96	323.06
255.193	313.06
255.426	326.06
255.659	316.06
255.892	310.06
256.124	321.06
256.357	319.06
256.59	345.06
256.823	340.06
257.056	313.06
257.289	340.06
257.521	306.06
257.754	353.06
257.987	325.06
258.22	345.06
258.452	340.06
258.685	349.06
258.918	362.06
259.151	335.06
259.383	348.06
259.616	343.06
259.849	342.06
260.081	361.06
260.314	344.06
260.547	360.06
260.779	366.06
261.012	356.06
261.244	356.06
261.477	357.06
261.71	352.06
261.942	355.06
262.175	379.06
262.407	351.06
262.64	354.06
262.872	373.06
263.105	373.06
263.337	396.06
263.57	376.06
263.802	358.06
264.035	376.06
264.267	393.06
264.499	381.06
264.732	378.06
264.964	389.06
265.197	389.06
265.429	383.06
265.661	401.06
265.894	376.06
266.126	388.06
266.358	396.06
266.591	387.06
266.823	410.06
267.055	424.06
267.287	406.06
267.52	421.06
267.752	420.06
267.984	399.06
268.216	421.06
268.448	422.06
268.681	411.06
268.913	422.06
269.145	420.06
269.377	424.06
269.609	438.06
269.841	414.06
270.073	435.06
270.306	437.06
270.538	429.06
270.77	424.06
271.002	427.06
271.234	423.06
271.466	450.06
271.698	422.06
271.93	450.06
272.162	420.06
272.394	463.06
272.626	450.06
272.858	432.06
273.09	461.06
273.322	435.06
273.553	448.06
273.785	450.06
274.017	444.06
274.249	459.06
274.481	454.06
274.713	449.06
274.945	455.06
275.176	462.06
275.408	477.06
275.64	477.06
275.872	468.06
276.104	488.06
276.335	476.06
276.567	490.06
276.799	483.06
277.031	473.06
277.262	475.06
277.494	470.06
277.726	464.06
277.957	483.06
278.189	485.06
278.421	488.06
278.652	502.06
278.884	486.06
279.115	502.06
279.347	510.06
279.579	500.06
279.81	523.06
280.042	527.06
280.273	490.06
280.505	520.06
280.736	503.06
280.968	512.06
281.199	502.06
281.431	518.06
281.662	510.06
281.894	521.06
282.125	522.06
282.356	537.06
282.588	532.06
282.819	541.06
283.051	544.06
283.282	527.06
283.513	542.06
283.745	545.06
283.976	526.06
284.207	544.06
284.439	522.06
284.67	540.06
284.901	555.06
285.132	564.06
285.364	564.06
285.595	543.06
285.826	551.06
286.057	563.06
286.288	553.06
286.52	558.06
286.751	564.06
286.982	566.06
287.213	570.06
287.444	572.06
287.675	595.06
287.906	566.06
288.138	570.06
288.369	584.06
288.6	573.06
288.831	583.06
289.062	577.06
289.293	589.06
289.524	600.06
289.755	589.06
289.986	600.06
290.217	606.06
290.448	594.06
290.679	599.06
290.91	594.06
291.141	595.06
291.371	621.06
291.602	602.06
291.833	600.06
292.064	622.06
292.295	620.06
292.526	617.06
292.757	578.06
292.987	601.06
293.218	606.06
293.449	626.06
293.68	625.06
293.91	621.06
294.141	606.06
294.372	608.06
294.603	608.06
294.833	596.06
295.064	604.06
295.295	601.06
295.525	590.06
295.756	616.06
295.987	605.06
296.217	589.06
296.448	619.06
296.679	633.06
296.909	636.06
297.14	642.06
297.37	640.06
297.601	643.06
297.831	642.06
298.062	630.06
298.292	633.06
298.523	683.06
298.753	646.06
298.984	653.06
299.214	669.06
299.445	657.06
299.675	634.06
299.905	638.06
300.136	621.06
300.366	690.06
300.597	660.06
300.827	655.06
301.057	666.06
301.288	684.06
301.518	695.06
301.748	688.06
301.979	681.06
302.209	696.06
302.439	682.06
302.669	684.06
302.9	666.06
303.13	682.06
303.36	678.06
303.59	650.06
303.82	696.06
304.051	654.06
304.281	660.06
304.511	672.06
304.741	679.06
304.971	683.06
305.201	678.06
305.431	645.06
305.661	646.06
305.891	689.06
306.121	654.06
306.352	652.06
306.582	662.06
306.812	634.06
307.042	659.06
307.272	682.06
307.502	679.06
307.731	660.06
307.961	676.06
308.191	668.06
308.421	639.06
308.651	659.06
308.881	660.06
309.111	688.06
309.341	660.06
309.571	678.06
309.8	684.06
310.03	664.06
310.26	674.06
310.49	676.06
310.72	679.06
310.949	666.06
311.179	664.06
311.409	667.06
311.639	707.06
311.868	688.06
312.098	690.06
312.328	689.06
312.557	697.06
312.787	678.06
313.017	682.06
313.246	717.06
313.476	701.06
313.706	721.06
313.935	720.06
314.165	739.06
314.394	722.06
314.624	708.06
314.853	712.06
315.083	701.06
315.312	706.06
315.542	697.06
315.771	708.06
316.001	718.06
316.23	709.06
316.46	684.06
316.689	664.06
316.919	688.06
317.148	717.06
317.377	703.06
317.607	718.06
317.836	690.06
318.065	713.06
318.295	719.06
318.524	706.06
318.753	676.06
318.983	682.06
319.212	692.06
319.441	690.06
319.67	694.06
319.9	701.06
320.129	730.06
320.358	712.06
320.587	693.06
320.816	725.06
321.046	723.06
321.275	714.06
321.504	718.06
321.733	713.06
321.962	722.06
322.191	737.06
322.42	704.06
322.649	710.06
322.878	728.06
323.108	707.06
323.337	720.06
323.566	728.06
323.795	733.06
324.024	738.06
324.253	713.06
324.482	742.06
324.71	754.06
324.939	744.06
325.168	735.06
325.397	709.06
325.626	753.06
325.855	776.06
326.084	785.06
326.313	770.06
326.542	806.06
326.77	801.06
326.999	786.06
327.228	778.06
327.457	790.06
327.686	806.06
327.914	792.06
328.143	806.06
328.372	813.06
328.6	803.06
328.829	793.06
329.058	772.06
329.287	798.06
329.515	804.06
329.744	812.06
329.972	806.06
330.201	818.06
330.43	800.06
330.658	798.06
330.887	817.06
331.115	809.06
331.344	834.06
331.572	843.06
331.801	864.06
332.03	877.06
332.258	885.06
332.486	941.06
332.715	978.06
332.943	989.06
333.172	1037.06
333.4	1086.06
333.629	1133.06
333.857	1145.06
334.085	1081.06
334.314	1033.06
334.542	1034.06
334.771	1050.06
334.999	981.06
335.227	1013.06
335.455	1012.06
335.684	981.06
335.912	984.06
336.14	981.06
336.369	963.06
336.597	962.06
336.825	916.06
337.053	941.06
337.281	911.06
337.51	931.06
337.738	936.06
337.966	884.06
338.194	889.06
338.422	859.06
338.65	852.06
338.878	865.06
339.106	864.06
339.334	863.06
339.562	854.06
339.79	860.06
340.018	829.06
340.246	850.06
340.474	840.06
340.702	824.06
340.93	866.06
341.158	836.06
341.386	829.06
341.614	824.06
341.842	806.06
342.07	854.06
342.298	824.06
342.526	832.06
342.754	802.06
342.981	822.06
343.209	842.06
343.437	893.06
343.665	956.06
343.893	1018.06
344.12	1049.06
344.348	1022.06
344.576	932.06
344.804	885.06
345.031	877.06
345.259	875.06
345.487	820.06
345.714	801.06
345.942	837.06
346.17	813.06
346.397	813.06
346.625	785.06
346.853	816.06
347.08	825.06
347.308	820.06
347.535	808.06
347.763	814.06
347.99	807.06
348.218	826.06
348.445	852.06
348.673	802.06
348.9	817.06
349.128	807.06
349.355	800.06
349.583	804.06
349.81	804.06
350.037	785.06
350.265	757.06
350.492	768.06
350.72	768.06
350.947	769.06
351.174	763.06
351.402	782.06
351.629	786.06
351.856	777.06
352.083	778.06
352.311	772.06
352.538	781.06
352.765	801.06
352.992	774.06
353.22	738.06
353.447	744.06
353.674	762.06
353.901	746.06
354.128	772.06
354.355	770.06
354.583	747.06
354.81	770.06
355.037	782.06
355.264	765.06
355.491	764.06
355.718	764.06
355.945	805.06
356.172	792.06
356.399	792.06
356.626	791.06
356.853	759.06
357.08	779.06
357.307	771.06
357.534	787.06
357.761	758.06
357.988	780.06
358.215	781.06
358.441	765.06
358.668	774.06
358.895	777.06
359.122	762.06
359.349	792.06
359.576	797.06
359.802	797.06
360.029	770.06
360.256	776.06
360.483	786.06
360.709	804.06
360.936	795.06
361.163	735.06
361.39	750.06
361.616	771.06
361.843	782.06
362.07	776.06
362.296	773.06
362.523	781.06
362.749	809.06
362.976	772.06
363.203	750.06
363.429	735.06
363.656	757.06
363.882	762.06
364.109	769.06
364.335	773.06
364.562	761.06
364.788	736.06
365.015	758.06
365.241	742.06
365.468	768.06
365.694	754.06
365.92	757.06
366.147	765.06
366.373	760.06
366.599	780.06
366.826	783.06
367.052	758.06
367.278	764.06
367.505	766.06
367.731	758.06
367.957	754.06
368.184	804.06
368.41	774.06
368.636	742.06
368.862	798.06
369.089	778.06
369.315	802.06
369.541	791.06
369.767	816.06
369.993	771.06
370.219	800.06
370.445	843.06
370.672	830.06
370.898	806.06
371.124	838.06
371.35	831.06
371.576	822.06
371.802	836.06
372.028	834.06
372.254	832.06
372.48	855.06
372.706	858.06
372.932	845.06
373.158	857.06
373.384	853.06
373.61	840.06
373.835	842.06
374.061	851.06
374.287	843.06
374.513	845.06
374.739	890.06
374.965	922.06
375.191	951.06
375.416	919.06
375.642	910.06
375.868	879.06
376.094	873.06
376.319	852.06
376.545	877.06
376.771	849.06
376.997	858.06
377.222	857.06
377.448	832.06
377.674	838.06
377.899	826.06
378.125	824.06
378.35	842.06
378.576	846.06
378.802	835.06
379.027	806.06
379.253	824.06
379.478	822.06
379.704	841.06
379.929	814.06
380.155	830.06
380.38	820.06
380.606	832.06
380.831	806.06
381.057	843.06
381.282	806.06
381.507	829.06
381.733	850.06
381.958	854.06
382.184	865.06
382.409	864.06
382.634	888.06
382.86	888.06
383.085	913.06
383.31	894.06
383.535	932.06
383.761	917.06
383.986	925.06
384.211	992.06
384.436	985.06
384.662	1008.06
384.887	1018.06
385.112	996.06
385.337	1018.06
385.562	1034.06
385.787	1038.06
386.013	1034.06
386.238	1025.06
386.463	1017.06
386.688	994.06
386.913	984.06
387.138	993.06
387.363	1003.06
387.588	990.06
387.813	988.06
388.038	949.06
388.263	1013.06
388.488	1036.06
388.713	1005.06
388.938	985.06
389.163	968.06
389.387	1004.06
389.612	971.06
389.837	948.06
390.062	957.06
390.287	956.06
390.512	980.06
390.736	995.06
390.961	1010.06
391.186	1047.06
391.411	1027.06
391.636	1084.06
391.86	1129.06
392.085	1154.06
392.31	1172.06
392.534	1132.06
392.759	1107.06
392.984	1061.06
393.208	1050.06
393.433	1056.06
393.658	1033.06
393.882	1044.06
394.107	1076.06
394.331	1081.06
394.556	1076.06
394.78	1106.06
395.005	1096.06
395.229	1109.06
395.454	1131.06
395.678	1163.06
395.903	1133.06
396.127	1115.06
396.352	1077.06
396.576	1057.06
396.801	1057.06
397.025	1044.06
397.249	1080.06
397.474	1120.06
397.698	1117.06
397.922	1100.06
398.147	1107.06
398.371	1155.06
398.595	1182.06
398.82	1220.06
399.044	1324.06
399.268	1484.06
399.492	1747.06
399.717	1987.06
399.941	1973.06
400.165	1705.06
400.389	1538.06
400.613	1388.06
400.837	1354.06
401.062	1310.06
401.286	1280.06
401.51	1253.06
401.734	1261.06
401.958	1294.06
402.182	1280.06
402.406	1302.06
402.63	1312.06
402.854	1337.06
403.078	1383.06
403.302	1435.06
403.526	1437.06
403.75	1478.06
403.974	1471.06
404.198	1474.06
404.422	1531.06
404.645	1479.06
404.869	1490.06
405.093	1469.06
405.317	1439.06
405.541	1403.06
405.765	1383.06
405.988	1401.06
406.212	1392.06
406.436	1400.06
406.66	1415.06
406.883	1440.06
407.107	1571.06
407.331	1630.06
407.555	1687.06
407.778	1660.06
408.002	1589.06
408.226	1576.06
408.449	1482.06
408.673	1474.06
408.896	1398.06
409.12	1422.06
409.344	1422.06
409.567	1440.06
409.791	1453.06
410.014	1452.06
410.238	1442.06
410.461	1422.06
410.685	1409.06
410.908	1401.06
411.132	1350.06
411.355	1306.06
411.578	1332.06
411.802	1304.06
412.025	1310.06
412.249	1351.06
412.472	1336.06
412.695	1294.06
412.919	1269.06
413.142	1228.06
413.365	1241.06
413.589	1245.06
413.812	1255.06
414.035	1264.06
414.258	1262.06
414.482	1253.06
414.705	1293.06
414.928	1278.06
415.151	1318.06
415.374	1286.06
415.597	1271.06
415.821	1222.06
416.044	1211.06
416.267	1221.06
416.49	1228.06
416.713	1221.06
416.936	1229.06
417.159	1265.06
417.382	1266.06
417.605	1255.06
417.828	1254.06
418.051	1254.06
418.274	1267.06
418.497	1258.06
418.72	1328.06
418.943	1291.06
419.166	1376.06
419.389	1444.06
419.611	1434.06
419.834	1366.06
420.057	1325.06
420.28	1310.06
420.503	1240.06
420.726	1224.06
420.948	1270.06
421.171	1229.06
421.394	1217.06
421.617	1225.06
421.839	1238.06
422.062	1294.06
422.285	1257.06
422.507	1332.06
422.73	1312.06
422.953	1273.06
423.175	1312.06
423.398	1362.06
423.621	1350.06
423.843	1381.06
424.066	1344.06
424.288	1353.06
424.511	1333.06
424.733	1330.06
424.956	1277.06
425.178	1275.06
425.401	1262.06
425.623	1283.06
425.846	1228.06
426.068	1207.06
426.291	1222.06
426.513	1186.06
426.735	1184.06
426.958	1166.06
427.18	1114.06
427.402	1145.06
427.625	1129.06
427.847	1147.06
428.069	1110.06
428.292	1117.06
428.514	1095.06
428.736	1100.06
428.958	1127.06
429.181	1096.06
429.403	1113.06
429.625	1095.06
429.847	1092.06
430.069	1051.06
430.292	1078.06
430.514	1062.06
430.736	1102.06
430.958	1064.06
431.18	1078.06
431.402	1110.06
431.624	1107.06
431.846	1117.06
432.068	1113.06
432.29	1137.06
432.512	1066.06
432.734	1144.06
432.956	1114.06
433.178	1132.06
433.4	1087.06
433.622	1122.06
433.844	1130.06
434.066	1120.06
434.287	1141.06
434.509	1186.06
434.731	1211.06
434.953	1257.06
435.175	1270.06
435.397	1256.06
435.618	1184.06
435.84	1186.06
436.062	1130.06
436.284	1113.06
436.505	1092.06
436.727	1102.06
436.949	1147.06
437.17	1141.06
437.392	1097.06
437.614	1100.06
437.835	1061.06
438.057	1076.06
438.278	1056.06
438.5	1076.06
438.721	1064.06
438.943	1100.06
439.165	1070.06
439.386	1077.06
439.608	1117.06
439.829	1122.06
440.05	1092.06
440.272	1121.06
440.493	1109.06
440.715	1111.06
440.936	1176.06
441.158	1208.06
441.379	1204.06
441.6	1282.06
441.822	1335.06
442.043	1278.06
442.264	1280.06
442.486	1244.06
442.707	1262.06
442.928	1234.06
443.149	1273.06
443.371	1258.06
443.592	1244.06
443.813	1257.06
444.034	1287.06
444.255	1337.06
444.476	1397.06
444.698	1494.06
444.919	1563.06
445.14	1570.06
445.361	1411.06
445.582	1301.06
445.803	1216.06
446.024	1186.06
446.245	1202.06
446.466	1157.06
446.687	1124.06
446.908	1152.06
447.129	1094.06
447.35	1104.06
447.571	1065.06
447.792	1053.06
448.013	1033.06
448.234	1023.06
448.455	1027.06
448.675	1034.06
448.896	1034.06
449.117	1031.06
449.338	1013.06
449.559	1015.06
449.779	1009.06
450	1027.06
450.221	1023.06
450.442	1047.06
450.662	1020.06
450.883	1028.06
451.104	1083.06
451.324	1066.06
451.545	1033.06
451.766	1049.06
451.986	1038.06
452.207	1052.06
452.428	1025.06
452.648	1013.06
452.869	1013.06
453.089	970.06
453.31	1006.06
453.53	997.06
453.751	1006.06
453.971	1001.06
454.192	988.06
454.412	981.06
454.633	972.06
454.853	960.06
455.073	962.06
455.294	983.06
455.514	976.06
455.734	993.06
455.955	939.06
456.175	938.06
456.395	947.06
456.616	937.06
456.836	970.06
457.056	982.06
457.276	925.06
457.497	963.06
457.717	955.06
457.937	958.06
458.157	976.06
458.377	974.06
458.598	992.06
458.818	1022.06
459.038	1065.06
459.258	1085.06
459.478	1106.06
459.698	1161.06
459.918	1157.06
460.138	1248.06
460.358	1310.06
460.578	1352.06
460.798	1349.06
461.018	1405.06
461.238	1305.06
461.458	1314.06
461.678	1312.06
461.898	1325.06
462.118	1319.06
462.338	1447.06
462.558	1481.06
462.777	1494.06
462.997	1661.06
463.217	1846.06
463.437	1842.06
463.657	1628.06
463.876	1566.06
464.096	1505.06
464.316	1566.06
464.536	1596.06
464.755	1512.06
464.975	1478.06
465.195	1376.06
465.414	1268.06
465.634	1204.06
465.854	1180.06
466.073	1131.06
466.293	1123.06
466.512	1117.06
466.732	1084.06
466.951	1062.06
467.171	1078.06
467.391	1083.06
467.61	1086.06
467.829	1094.06
468.049	1017.06
468.268	1051.06
468.488	974.06
468.707	1020.06
468.927	1039.06
469.146	1029.06
469.365	1017.06
469.585	1045.06
469.804	1075.06
470.023	1056.06
470.243	1118.06
470.462	1108.06
470.681	1131.06
470.901	1109.06
471.12	1110.06
471.339	1053.06
471.558	1045.06
471.777	1028.06
471.997	1020.06
472.216	1038.06
472.435	991.06
472.654	971.06
472.873	994.06
473.092	988.06
473.311	1000.06
473.53	987.06
473.749	1000.06
473.968	1006.06
474.187	996.06
474.406	972.06
474.625	980.06
474.844	982.06
475.063	981.06
475.282	973.06
475.501	974.06
475.72	981.06
475.939	1026.06
476.158	1005.06
476.377	1022.06
476.596	1057.06
476.814	1058.06
477.033	1045.06
477.252	1079.06
477.471	1106.06
477.69	1134.06
477.908	1149.06
478.127	1204.06
478.346	1201.06
478.564	1188.06
478.783	1224.06
479.002	1261.06
479.22	1246.06
479.439	1257.06
479.658	1255.06
479.876	1260.06
480.095	1248.06
480.313	1277.06
480.532	1352.06
480.751	1359.06
480.969	1256.06
481.188	1227.06
481.406	1211.06
481.624	1171.06
481.843	1149.06
482.061	1130.06
482.28	1134.06
482.498	1105.06
482.717	1104.06
482.935	1153.06
483.153	1125.06
483.372	1123.06
483.59	1113.06
483.808	1132.06
484.027	1150.06
484.245	1159.06
484.463	1116.06
484.681	1148.06
484.9	1125.06
485.118	1196.06
485.336	1168.06
485.554	1162.06
485.772	1184.06
485.99	1178.06
486.209	1230.06
486.427	1206.06
486.645	1196.06
486.863	1163.06
487.081	1205.06
487.299	1185.06
487.517	1190.06
487.735	1201.06
487.953	1205.06
488.171	1195.06
488.389	1202.06
488.607	1156.06
488.825	1177.06
489.043	1187.06
489.261	1160.06
489.479	1171.06
489.696	1179.06
489.914	1205.06
490.132	1203.06
490.35	1178.06
490.568	1211.06
490.786	1190.06
491.003	1204.06
491.221	1188.06
491.439	1188.06
491.657	1208.06
491.874	1222.06
492.092	1208.06
492.31	1216.06
492.527	1229.06
492.745	1220.06
492.963	1237.06
493.18	1234.06
493.398	1245.06
493.615	1234.06
493.833	1261.06
494.05	1244.06
494.268	1275.06
494.485	1251.06
494.703	1259.06
494.92	1265.06
495.138	1236.06
495.355	1278.06
