Data from Ni(NO3)2@0.25M.TitratingCurve.Agarose3%dH2O.NegLispCup.LampEnergy10.LIBS07252019_HRD10591_18-03-29-565.txt Node
Date: Thu Jul 25 18:03:29 EDT 2019
User: cochatt
Spectrometer: HR+D1059
Trigger mode: 1
Integration Time (sec): 1.000000E-1
Scans to average: 1
Electric dark correction enabled: true
Nonlinearity correction enabled: false
Boxcar width: 0
XAxis mode: Wavelengths
Number of Pixels in Spectrum: 2048
>>>>>Begin Spectral Data<<<<<
223.165	-28.81
223.4	-28.81
223.635	-28.81
223.869	-22.81
224.104	-14.81
224.338	-23.81
224.573	-14.81
224.808	2.19
225.042	-0.81
225.277	-7.81
225.511	10.19
225.746	-1.81
225.98	2.19
226.215	16.19
226.449	4.19
226.683	14.19
226.918	29.19
227.152	37.19
227.387	49.19
227.621	46.19
227.856	53.19
228.09	51.19
228.324	59.19
228.559	59.19
228.793	66.19
229.027	80.19
229.262	77.19
229.496	88.19
229.73	101.19
229.964	102.19
230.199	110.19
230.433	102.19
230.667	100.19
230.901	122.19
231.136	110.19
231.37	98.19
231.604	101.19
231.838	113.19
232.072	113.19
232.306	109.19
232.541	110.19
232.775	97.19
233.009	104.19
233.243	100.19
233.477	97.19
233.711	97.19
233.945	114.19
234.179	88.19
234.413	109.19
234.647	95.19
234.881	102.19
235.115	110.19
235.349	109.19
235.583	105.19
235.817	96.19
236.051	87.19
236.285	110.19
236.519	88.19
236.753	95.19
236.987	107.19
237.221	105.19
237.455	100.19
237.689	109.19
237.922	108.19
238.156	86.19
238.39	92.19
238.624	86.19
238.858	96.19
239.091	95.19
239.325	101.19
239.559	105.19
239.793	120.19
240.027	118.19
240.26	89.19
240.494	88.19
240.728	112.19
240.961	104.19
241.195	110.19
241.429	104.19
241.662	106.19
241.896	100.19
242.13	105.19
242.363	95.19
242.597	117.19
242.83	119.19
243.064	106.19
243.298	105.19
243.531	109.19
243.765	94.19
243.998	123.19
244.232	106.19
244.465	111.19
244.699	116.19
244.932	126.19
245.166	111.19
245.399	113.19
245.633	106.19
245.866	123.19
246.099	106.19
246.333	116.19
246.566	114.19
246.8	114.19
247.033	129.19
247.266	135.19
247.5	121.19
247.733	119.19
247.966	127.19
248.2	126.19
248.433	124.19
248.666	134.19
248.899	118.19
249.133	138.19
249.366	158.19
249.599	134.19
249.832	147.19
250.066	152.19
250.299	145.19
250.532	157.19
250.765	175.19
250.998	169.19
251.231	185.19
251.465	177.19
251.698	180.19
251.931	176.19
252.164	166.19
252.397	182.19
252.63	180.19
252.863	192.19
253.096	188.19
253.329	197.19
253.562	206.19
253.795	194.19
254.028	194.19
254.261	198.19
254.494	212.19
254.727	205.19
254.96	201.19
255.193	229.19
255.426	225.19
255.659	221.19
255.892	235.19
256.124	236.19
256.357	247.19
256.59	251.19
256.823	241.19
257.056	240.19
257.289	240.19
257.521	236.19
257.754	245.19
257.987	253.19
258.22	253.19
258.452	250.19
258.685	260.19
258.918	266.19
259.151	288.19
259.383	267.19
259.616	269.19
259.849	267.19
260.081	281.19
260.314	286.19
260.547	271.19
260.779	280.19
261.012	274.19
261.244	294.19
261.477	280.19
261.71	269.19
261.942	288.19
262.175	290.19
262.407	290.19
262.64	272.19
262.872	294.19
263.105	309.19
263.337	287.19
263.57	302.19
263.802	296.19
264.035	288.19
264.267	300.19
264.499	284.19
264.732	300.19
264.964	304.19
265.197	288.19
265.429	292.19
265.661	303.19
265.894	290.19
266.126	310.19
266.358	317.19
266.591	311.19
266.823	297.19
267.055	312.19
267.287	299.19
267.52	316.19
267.752	317.19
267.984	303.19
268.216	310.19
268.448	312.19
268.681	298.19
268.913	315.19
269.145	338.19
269.377	312.19
269.609	316.19
269.841	312.19
270.073	322.19
270.306	306.19
270.538	317.19
270.77	316.19
271.002	305.19
271.234	309.19
271.466	312.19
271.698	330.19
271.93	316.19
272.162	338.19
272.394	344.19
272.626	338.19
272.858	331.19
273.09	326.19
273.322	313.19
273.553	322.19
273.785	308.19
274.017	331.19
274.249	343.19
274.481	320.19
274.713	309.19
274.945	294.19
275.176	313.19
275.408	328.19
275.64	335.19
275.872	325.19
276.104	321.19
276.335	312.19
276.567	337.19
276.799	329.19
277.031	336.19
277.262	316.19
277.494	344.19
277.726	328.19
277.957	319.19
278.189	304.19
278.421	320.19
278.652	320.19
278.884	331.19
279.115	324.19
279.347	337.19
279.579	350.19
279.81	314.19
280.042	322.19
280.273	326.19
280.505	351.19
280.736	339.19
280.968	324.19
281.199	314.19
281.431	310.19
281.662	317.19
281.894	328.19
282.125	330.19
282.356	314.19
282.588	324.19
282.819	327.19
283.051	293.19
283.282	297.19
283.513	317.19
283.745	328.19
283.976	328.19
284.207	334.19
284.439	322.19
284.67	312.19
284.901	299.19
285.132	341.19
285.364	312.19
285.595	320.19
285.826	340.19
286.057	299.19
286.288	324.19
286.52	330.19
286.751	328.19
286.982	320.19
287.213	322.19
287.444	320.19
287.675	302.19
287.906	326.19
288.138	303.19
288.369	320.19
288.6	313.19
288.831	328.19
289.062	330.19
289.293	314.19
289.524	312.19
289.755	328.19
289.986	302.19
290.217	312.19
290.448	301.19
290.679	305.19
290.91	319.19
291.141	322.19
291.371	334.19
291.602	320.19
291.833	290.19
292.064	305.19
292.295	310.19
292.526	300.19
292.757	300.19
292.987	300.19
293.218	296.19
293.449	314.19
293.68	314.19
293.91	306.19
294.141	310.19
294.372	308.19
294.603	298.19
294.833	294.19
295.064	295.19
295.295	301.19
295.525	297.19
295.756	305.19
295.987	303.19
296.217	300.19
296.448	308.19
296.679	299.19
296.909	302.19
297.14	306.19
297.37	315.19
297.601	296.19
297.831	310.19
298.062	308.19
298.292	334.19
298.523	330.19
298.753	317.19
298.984	336.19
299.214	324.19
299.445	306.19
299.675	318.19
299.905	328.19
300.136	329.19
300.366	324.19
300.597	329.19
300.827	322.19
301.057	339.19
301.288	335.19
301.518	328.19
301.748	340.19
301.979	342.19
302.209	316.19
302.439	343.19
302.669	332.19
302.9	333.19
303.13	327.19
303.36	332.19
303.59	330.19
303.82	351.19
304.051	352.19
304.281	345.19
304.511	326.19
304.741	337.19
304.971	357.19
305.201	348.19
305.431	350.19
305.661	358.19
305.891	360.19
306.121	350.19
306.352	352.19
306.582	353.19
306.812	328.19
307.042	350.19
307.272	337.19
307.502	340.19
307.731	380.19
307.961	356.19
308.191	357.19
308.421	357.19
308.651	344.19
308.881	379.19
309.111	353.19
309.341	371.19
309.571	361.19
309.8	369.19
310.03	382.19
310.26	373.19
310.49	393.19
310.72	390.19
310.949	396.19
311.179	377.19
311.409	392.19
311.639	397.19
311.868	400.19
312.098	398.19
312.328	409.19
312.557	419.19
312.787	420.19
313.017	428.19
313.246	442.19
313.476	418.19
313.706	431.19
313.935	447.19
314.165	451.19
314.394	456.19
314.624	429.19
314.853	454.19
315.083	457.19
315.312	457.19
315.542	466.19
315.771	480.19
316.001	469.19
316.23	464.19
316.46	491.19
316.689	466.19
316.919	496.19
317.148	491.19
317.377	502.19
317.607	504.19
317.836	512.19
318.065	510.19
318.295	510.19
318.524	517.19
318.753	530.19
318.983	518.19
319.212	526.19
319.441	537.19
319.67	550.19
319.9	552.19
320.129	556.19
320.358	568.19
320.587	586.19
320.816	564.19
321.046	566.19
321.275	581.19
321.504	575.19
321.733	602.19
321.962	578.19
322.191	615.19
322.42	609.19
322.649	612.19
322.878	620.19
323.108	615.19
323.337	658.19
323.566	634.19
323.795	624.19
324.024	658.19
324.253	656.19
324.482	661.19
324.71	666.19
324.939	676.19
325.168	689.19
325.397	689.19
325.626	682.19
325.855	707.19
326.084	710.19
326.313	704.19
326.542	699.19
326.77	731.19
326.999	735.19
327.228	728.19
327.457	719.19
327.686	787.19
327.914	754.19
328.143	754.19
328.372	752.19
328.6	760.19
328.829	770.19
329.058	779.19
329.287	734.19
329.515	780.19
329.744	804.19
329.972	804.19
330.201	772.19
330.43	811.19
330.658	809.19
330.887	797.19
331.115	802.19
331.344	804.19
331.572	806.19
331.801	806.19
332.03	808.19
332.258	828.19
332.486	876.19
332.715	877.19
332.943	842.19
333.172	878.19
333.4	882.19
333.629	885.19
333.857	906.19
334.085	884.19
334.314	907.19
334.542	894.19
334.771	884.19
334.999	925.19
335.227	912.19
335.455	881.19
335.684	906.19
335.912	934.19
336.14	933.19
336.369	912.19
336.597	928.19
336.825	926.19
337.053	902.19
337.281	894.19
337.51	912.19
337.738	913.19
337.966	876.19
338.194	912.19
338.422	886.19
338.65	897.19
338.878	901.19
339.106	894.19
339.334	896.19
339.562	869.19
339.79	898.19
340.018	886.19
340.246	908.19
340.474	898.19
340.702	894.19
340.93	907.19
341.158	903.19
341.386	909.19
341.614	891.19
341.842	892.19
342.07	884.19
342.298	876.19
342.526	902.19
342.754	915.19
342.981	900.19
343.209	901.19
343.437	891.19
343.665	896.19
343.893	937.19
344.12	952.19
344.348	915.19
344.576	912.19
344.804	932.19
345.031	924.19
345.259	932.19
345.487	932.19
345.714	900.19
345.942	890.19
346.17	903.19
346.397	876.19
346.625	879.19
346.853	884.19
347.08	896.19
347.308	886.19
347.535	898.19
347.763	899.19
347.99	893.19
348.218	894.19
348.445	883.19
348.673	878.19
348.9	872.19
349.128	875.19
349.355	882.19
349.583	902.19
349.81	865.19
350.037	872.19
350.265	862.19
350.492	875.19
350.72	840.19
350.947	867.19
351.174	871.19
351.402	905.19
351.629	861.19
351.856	859.19
352.083	849.19
352.311	866.19
352.538	859.19
352.765	851.19
352.992	858.19
353.22	848.19
353.447	861.19
353.674	863.19
353.901	869.19
354.128	868.19
354.355	869.19
354.583	871.19
354.81	869.19
355.037	870.19
355.264	890.19
355.491	876.19
355.718	861.19
355.945	878.19
356.172	861.19
356.399	887.19
356.626	888.19
356.853	861.19
357.08	862.19
357.307	876.19
357.534	869.19
357.761	850.19
357.988	880.19
358.215	861.19
358.441	860.19
358.668	868.19
358.895	854.19
359.122	854.19
359.349	856.19
359.576	841.19
359.802	855.19
360.029	852.19
360.256	870.19
360.483	864.19
360.709	879.19
360.936	849.19
361.163	859.19
361.39	842.19
361.616	847.19
361.843	854.19
362.07	843.19
362.296	861.19
362.523	842.19
362.749	829.19
362.976	822.19
363.203	854.19
363.429	853.19
363.656	864.19
363.882	878.19
364.109	844.19
364.335	853.19
364.562	836.19
364.788	856.19
365.015	862.19
365.241	863.19
365.468	821.19
365.694	853.19
365.92	844.19
366.147	840.19
366.373	858.19
366.599	828.19
366.826	873.19
367.052	844.19
367.278	848.19
367.505	864.19
367.731	849.19
367.957	861.19
368.184	860.19
368.41	847.19
368.636	843.19
368.862	830.19
369.089	794.19
369.315	844.19
369.541	824.19
369.767	860.19
369.993	838.19
370.219	853.19
370.445	836.19
370.672	838.19
370.898	818.19
371.124	827.19
371.35	828.19
371.576	849.19
371.802	861.19
372.028	844.19
372.254	826.19
372.48	834.19
372.706	849.19
372.932	830.19
373.158	844.19
373.384	829.19
373.61	832.19
373.835	842.19
374.061	814.19
374.287	813.19
374.513	817.19
374.739	820.19
374.965	831.19
375.191	823.19
375.416	821.19
375.642	818.19
375.868	821.19
376.094	817.19
376.319	815.19
376.545	804.19
376.771	793.19
376.997	790.19
377.222	801.19
377.448	795.19
377.674	792.19
377.899	770.19
378.125	759.19
378.35	757.19
378.576	770.19
378.802	780.19
379.027	763.19
379.253	770.19
379.478	758.19
379.704	776.19
379.929	786.19
380.155	769.19
380.38	756.19
380.606	770.19
380.831	762.19
381.057	784.19
381.282	778.19
381.507	768.19
381.733	756.19
381.958	787.19
382.184	782.19
382.409	770.19
382.634	764.19
382.86	779.19
383.085	794.19
383.31	780.19
383.535	766.19
383.761	752.19
383.986	758.19
384.211	788.19
384.436	800.19
384.662	798.19
384.887	784.19
385.112	783.19
385.337	771.19
385.562	808.19
385.787	773.19
386.013	809.19
386.238	816.19
386.463	801.19
386.688	817.19
386.913	761.19
387.138	796.19
387.363	779.19
387.588	800.19
387.813	783.19
388.038	773.19
388.263	817.19
388.488	774.19
388.713	793.19
388.938	785.19
389.163	790.19
389.387	817.19
389.612	831.19
389.837	792.19
390.062	792.19
390.287	790.19
390.512	784.19
390.736	788.19
390.961	822.19
391.186	822.19
391.411	797.19
391.636	811.19
391.86	834.19
392.085	820.19
392.31	815.19
392.534	810.19
392.759	811.19
392.984	826.19
393.208	788.19
393.433	815.19
393.658	804.19
393.882	802.19
394.107	794.19
394.331	832.19
394.556	811.19
394.78	788.19
395.005	818.19
395.229	845.19
395.454	838.19
395.678	815.19
395.903	836.19
396.127	810.19
396.352	814.19
396.576	824.19
396.801	839.19
397.025	838.19
397.249	837.19
397.474	854.19
397.698	841.19
397.922	876.19
398.147	863.19
398.371	858.19
398.595	860.19
398.82	895.19
399.044	884.19
399.268	916.19
399.492	960.19
399.717	973.19
399.941	980.19
400.165	962.19
400.389	934.19
400.613	924.19
400.837	904.19
401.062	898.19
401.286	923.19
401.51	917.19
401.734	901.19
401.958	902.19
402.182	937.19
402.406	904.19
402.63	924.19
402.854	938.19
403.078	887.19
403.302	940.19
403.526	941.19
403.75	936.19
403.974	946.19
404.198	952.19
404.422	946.19
404.645	925.19
404.869	918.19
405.093	935.19
405.317	937.19
405.541	966.19
405.765	958.19
405.988	931.19
406.212	948.19
406.436	982.19
406.66	1005.19
406.883	962.19
407.107	994.19
407.331	999.19
407.555	1028.19
407.778	1014.19
408.002	1014.19
408.226	1048.19
408.449	1026.19
408.673	1002.19
408.896	983.19
409.12	990.19
409.344	1010.19
409.567	1000.19
409.791	1009.19
410.014	1013.19
410.238	982.19
410.461	983.19
410.685	958.19
410.908	976.19
411.132	997.19
411.355	983.19
411.578	960.19
411.802	985.19
412.025	1001.19
412.249	998.19
412.472	1003.19
412.695	986.19
412.919	979.19
413.142	997.19
413.365	998.19
413.589	999.19
413.812	974.19
414.035	938.19
414.258	1008.19
414.482	975.19
414.705	976.19
414.928	996.19
415.151	999.19
415.374	989.19
415.597	986.19
415.821	1001.19
416.044	1012.19
416.267	969.19
416.49	974.19
416.713	976.19
416.936	1017.19
417.159	986.19
417.382	958.19
417.605	958.19
417.828	978.19
418.051	996.19
418.274	996.19
418.497	982.19
418.72	993.19
418.943	958.19
419.166	1037.19
419.389	1096.19
419.611	1084.19
419.834	1031.19
420.057	1018.19
420.28	1013.19
420.503	977.19
420.726	988.19
420.948	997.19
421.171	992.19
421.394	1012.19
421.617	1003.19
421.839	1021.19
422.062	1022.19
422.285	968.19
422.507	1001.19
422.73	988.19
422.953	989.19
423.175	1001.19
423.398	1048.19
423.621	989.19
423.843	1037.19
424.066	1063.19
424.288	1044.19
424.511	1020.19
424.733	1045.19
424.956	986.19
425.178	1031.19
425.401	1018.19
425.623	1054.19
425.846	1008.19
426.068	1042.19
426.291	1036.19
426.513	1021.19
426.735	1034.19
426.958	1065.19
427.18	1015.19
427.402	1014.19
427.625	1040.19
427.847	1019.19
428.069	1006.19
428.292	1035.19
428.514	1039.19
428.736	1029.19
428.958	1037.19
429.181	1021.19
429.403	1025.19
429.625	1020.19
429.847	1038.19
430.069	1015.19
430.292	1044.19
430.514	1058.19
430.736	1066.19
430.958	1076.19
431.18	1052.19
431.402	1054.19
431.624	1006.19
431.846	1038.19
432.068	1005.19
432.29	1032.19
432.512	998.19
432.734	1057.19
432.956	1082.19
433.178	1063.19
433.4	1095.19
433.622	1105.19
433.844	1060.19
434.066	1048.19
434.287	1075.19
434.509	1062.19
434.731	1078.19
434.953	1095.19
435.175	1114.19
435.397	1085.19
435.618	1082.19
435.84	1057.19
436.062	1050.19
436.284	1042.19
436.505	1055.19
436.727	1068.19
436.949	1081.19
437.17	1068.19
437.392	1069.19
437.614	1050.19
437.835	1032.19
438.057	1009.19
438.278	1018.19
438.5	1028.19
438.721	1064.19
438.943	1093.19
439.165	1015.19
439.386	1025.19
439.608	1066.19
439.829	1068.19
440.05	1087.19
440.272	1063.19
440.493	1074.19
440.715	1061.19
440.936	1080.19
441.158	1069.19
441.379	1120.19
441.6	1125.19
441.822	1112.19
442.043	1127.19
442.264	1107.19
442.486	1073.19
442.707	1107.19
442.928	1094.19
443.149	1090.19
443.371	1086.19
443.592	1125.19
443.813	1113.19
444.034	1104.19
444.255	1092.19
444.476	1096.19
444.698	1095.19
444.919	1118.19
445.14	1232.19
445.361	1193.19
445.582	1099.19
445.803	1086.19
446.024	1091.19
446.245	1078.19
446.466	1121.19
446.687	1064.19
446.908	1114.19
447.129	1049.19
447.35	1056.19
447.571	1037.19
447.792	1024.19
448.013	1051.19
448.234	1032.19
448.455	1021.19
448.675	1022.19
448.896	1030.19
449.117	1005.19
449.338	1051.19
449.559	1003.19
449.779	1012.19
450	985.19
450.221	1017.19
450.442	1023.19
450.662	1019.19
450.883	1036.19
451.104	1031.19
451.324	1005.19
451.545	1005.19
451.766	977.19
451.986	973.19
452.207	974.19
452.428	986.19
452.648	994.19
452.869	975.19
453.089	981.19
453.31	990.19
453.53	983.19
453.751	954.19
453.971	980.19
454.192	953.19
454.412	940.19
454.633	985.19
454.853	948.19
455.073	986.19
455.294	965.19
455.514	966.19
455.734	990.19
455.955	943.19
456.175	982.19
456.395	962.19
456.616	943.19
456.836	984.19
457.056	973.19
457.276	969.19
457.497	989.19
457.717	987.19
457.937	985.19
458.157	961.19
458.377	1008.19
458.598	984.19
458.818	999.19
459.038	967.19
459.258	1005.19
459.478	1030.19
459.698	1062.19
459.918	1033.19
460.138	1054.19
460.358	1102.19
460.578	1094.19
460.798	1086.19
461.018	1113.19
461.238	1104.19
461.458	1090.19
461.678	1049.19
461.898	1116.19
462.118	1076.19
462.338	1095.19
462.558	1097.19
462.777	1146.19
462.997	1153.19
463.217	1206.19
463.437	1202.19
463.657	1189.19
463.876	1115.19
464.096	1168.19
464.316	1163.19
464.536	1164.19
464.755	1129.19
464.975	1135.19
465.195	1139.19
465.414	1104.19
465.634	1076.19
465.854	1105.19
466.073	1042.19
466.293	1089.19
466.512	1063.19
466.732	1029.19
466.951	1084.19
467.171	1035.19
467.391	1050.19
467.61	1054.19
467.829	1047.19
468.049	1072.19
468.268	1035.19
468.488	1054.19
468.707	1052.19
468.927	1028.19
469.146	1056.19
469.365	1088.19
469.585	1058.19
469.804	1074.19
470.023	1046.19
470.243	1089.19
470.462	1057.19
470.681	1042.19
470.901	1056.19
471.12	1095.19
471.339	1088.19
471.558	1066.19
471.777	1053.19
471.997	1076.19
472.216	1078.19
472.435	1081.19
472.654	1067.19
472.873	1056.19
473.092	1068.19
473.311	1070.19
473.53	1069.19
473.749	1059.19
473.968	1069.19
474.187	1097.19
474.406	1101.19
474.625	1086.19
474.844	1083.19
475.063	1105.19
475.282	1093.19
475.501	1105.19
475.72	1103.19
475.939	1142.19
476.158	1114.19
476.377	1120.19
476.596	1129.19
476.814	1113.19
477.033	1129.19
477.252	1176.19
477.471	1210.19
477.69	1154.19
477.908	1174.19
478.127	1195.19
478.346	1226.19
478.564	1248.19
478.783	1259.19
479.002	1239.19
479.22	1256.19
479.439	1286.19
479.658	1216.19
479.876	1213.19
480.095	1225.19
480.313	1280.19
480.532	1260.19
480.751	1231.19
480.969	1276.19
481.188	1290.19
481.406	1263.19
481.624	1274.19
481.843	1271.19
482.061	1245.19
482.28	1280.19
482.498	1256.19
482.717	1241.19
482.935	1296.19
483.153	1279.19
483.372	1307.19
483.59	1306.19
483.808	1288.19
484.027	1262.19
484.245	1291.19
484.463	1311.19
484.681	1304.19
484.9	1326.19
485.118	1328.19
485.336	1312.19
485.554	1291.19
485.772	1305.19
485.99	1305.19
486.209	1272.19
486.427	1361.19
486.645	1324.19
486.863	1308.19
487.081	1361.19
487.299	1328.19
487.517	1319.19
487.735	1375.19
487.953	1372.19
488.171	1345.19
488.389	1347.19
488.607	1324.19
488.825	1364.19
489.043	1340.19
489.261	1304.19
489.479	1336.19
489.696	1342.19
489.914	1348.19
490.132	1343.19
490.35	1349.19
490.568	1356.19
490.786	1355.19
491.003	1360.19
491.221	1391.19
491.439	1400.19
491.657	1404.19
491.874	1400.19
492.092	1415.19
492.31	1410.19
492.527	1376.19
492.745	1416.19
492.963	1408.19
493.18	1423.19
493.398	1413.19
493.615	1403.19
493.833	1432.19
494.05	1436.19
494.268	1391.19
494.485	1409.19
494.703	1428.19
494.92	1445.19
495.138	1435.19
495.355	1425.19
495.573	1441.19
495.79	1464.19
496.008	1464.19
496.225	1439.19
496.442	1486.19
496.66	1481.19
496.877	1473.19
497.094	1501.19
497.312	1505.19
