Data from Ni(NO3)2@0.25M.TitratingCurve.Agarose3%dH2O.NegLispCup.LampEnergy10.LIBS07252019_HRD10591_18-05-38-566.txt Node
Date: Thu Jul 25 18:05:38 EDT 2019
User: cochatt
Spectrometer: HR+D1059
Trigger mode: 1
Integration Time (sec): 1.000000E-1
Scans to average: 1
Electric dark correction enabled: true
Nonlinearity correction enabled: false
Boxcar width: 0
XAxis mode: Wavelengths
Number of Pixels in Spectrum: 2048
>>>>>Begin Spectral Data<<<<<
223.165	-27.12
223.4	-27.12
223.635	-27.12
223.869	-17.12
224.104	-5.12
224.338	-10.12
224.573	-18.12
224.808	-34.12
225.042	-1.12
225.277	-7.12
225.511	-11.12
225.746	5.88
225.98	15.88
226.215	19.88
226.449	17.88
226.683	14.88
226.918	29.88
227.152	26.88
227.387	52.88
227.621	31.88
227.856	43.88
228.09	46.88
228.324	45.88
228.559	55.88
228.793	93.88
229.027	91.88
229.262	108.88
229.496	109.88
229.73	108.88
229.964	111.88
230.199	140.88
230.433	124.88
230.667	120.88
230.901	143.88
231.136	128.88
231.37	130.88
231.604	132.88
231.838	126.88
232.072	141.88
232.306	148.88
232.541	132.88
232.775	141.88
233.009	153.88
233.243	128.88
233.477	141.88
233.711	119.88
233.945	146.88
234.179	141.88
234.413	140.88
234.647	137.88
234.881	149.88
235.115	132.88
235.349	146.88
235.583	149.88
235.817	149.88
236.051	135.88
236.285	145.88
236.519	146.88
236.753	148.88
236.987	140.88
237.221	142.88
237.455	153.88
237.689	145.88
237.922	153.88
238.156	134.88
238.39	149.88
238.624	144.88
238.858	149.88
239.091	159.88
239.325	160.88
239.559	165.88
239.793	148.88
240.027	162.88
240.26	157.88
240.494	171.88
240.728	157.88
240.961	172.88
241.195	180.88
241.429	155.88
241.662	165.88
241.896	164.88
242.13	195.88
242.363	178.88
242.597	187.88
242.83	180.88
243.064	191.88
243.298	178.88
243.531	181.88
243.765	187.88
243.998	202.88
244.232	187.88
244.465	197.88
244.699	188.88
244.932	215.88
245.166	221.88
245.399	202.88
245.633	215.88
245.866	200.88
246.099	205.88
246.333	205.88
246.566	193.88
246.8	204.88
247.033	203.88
247.266	214.88
247.5	214.88
247.733	217.88
247.966	216.88
248.2	217.88
248.433	225.88
248.666	219.88
248.899	217.88
249.133	228.88
249.366	242.88
249.599	240.88
249.832	213.88
250.066	241.88
250.299	227.88
250.532	220.88
250.765	245.88
250.998	239.88
251.231	245.88
251.465	248.88
251.698	244.88
251.931	272.88
252.164	250.88
252.397	243.88
252.63	250.88
252.863	246.88
253.096	256.88
253.329	258.88
253.562	235.88
253.795	243.88
254.028	270.88
254.261	251.88
254.494	270.88
254.727	287.88
254.96	277.88
255.193	265.88
255.426	273.88
255.659	267.88
255.892	283.88
256.124	282.88
256.357	296.88
256.59	294.88
256.823	274.88
257.056	274.88
257.289	286.88
257.521	300.88
257.754	290.88
257.987	288.88
258.22	289.88
258.452	291.88
258.685	293.88
258.918	291.88
259.151	272.88
259.383	299.88
259.616	314.88
259.849	293.88
260.081	334.88
260.314	295.88
260.547	309.88
260.779	314.88
261.012	296.88
261.244	337.88
261.477	307.88
261.71	307.88
261.942	301.88
262.175	328.88
262.407	301.88
262.64	322.88
262.872	301.88
263.105	324.88
263.337	304.88
263.57	336.88
263.802	337.88
264.035	331.88
264.267	334.88
264.499	338.88
264.732	339.88
264.964	329.88
265.197	338.88
265.429	328.88
265.661	329.88
265.894	342.88
266.126	349.88
266.358	325.88
266.591	354.88
266.823	367.88
267.055	342.88
267.287	360.88
267.52	341.88
267.752	352.88
267.984	368.88
268.216	363.88
268.448	345.88
268.681	356.88
268.913	359.88
269.145	342.88
269.377	365.88
269.609	358.88
269.841	358.88
270.073	359.88
270.306	364.88
270.538	349.88
270.77	362.88
271.002	377.88
271.234	366.88
271.466	359.88
271.698	346.88
271.93	364.88
272.162	390.88
272.394	390.88
272.626	365.88
272.858	370.88
273.09	388.88
273.322	380.88
273.553	361.88
273.785	396.88
274.017	392.88
274.249	392.88
274.481	378.88
274.713	387.88
274.945	397.88
275.176	395.88
275.408	395.88
275.64	396.88
275.872	392.88
276.104	385.88
276.335	401.88
276.567	406.88
276.799	389.88
277.031	392.88
277.262	399.88
277.494	418.88
277.726	421.88
277.957	409.88
278.189	412.88
278.421	405.88
278.652	406.88
278.884	417.88
279.115	423.88
279.347	406.88
279.579	421.88
279.81	402.88
280.042	435.88
280.273	442.88
280.505	421.88
280.736	417.88
280.968	420.88
281.199	457.88
281.431	431.88
281.662	441.88
281.894	453.88
282.125	442.88
282.356	466.88
282.588	448.88
282.819	453.88
283.051	446.88
283.282	465.88
283.513	462.88
283.745	456.88
283.976	434.88
284.207	460.88
284.439	462.88
284.67	457.88
284.901	466.88
285.132	457.88
285.364	457.88
285.595	449.88
285.826	473.88
286.057	470.88
286.288	463.88
286.52	466.88
286.751	480.88
286.982	483.88
287.213	478.88
287.444	484.88
287.675	481.88
287.906	488.88
288.138	492.88
288.369	483.88
288.6	490.88
288.831	473.88
289.062	465.88
289.293	509.88
289.524	493.88
289.755	485.88
289.986	498.88
290.217	504.88
290.448	520.88
290.679	486.88
290.91	485.88
291.141	482.88
291.371	519.88
291.602	508.88
291.833	492.88
292.064	479.88
292.295	499.88
292.526	492.88
292.757	488.88
292.987	491.88
293.218	480.88
293.449	500.88
293.68	468.88
293.91	503.88
294.141	492.88
294.372	488.88
294.603	482.88
294.833	497.88
295.064	514.88
295.295	506.88
295.525	495.88
295.756	501.88
295.987	501.88
296.217	499.88
296.448	500.88
296.679	501.88
296.909	506.88
297.14	503.88
297.37	538.88
297.601	548.88
297.831	548.88
298.062	533.88
298.292	548.88
298.523	567.88
298.753	550.88
298.984	530.88
299.214	537.88
299.445	534.88
299.675	548.88
299.905	532.88
300.136	526.88
300.366	544.88
300.597	562.88
300.827	564.88
301.057	576.88
301.288	562.88
301.518	558.88
301.748	560.88
301.979	572.88
302.209	584.88
302.439	556.88
302.669	552.88
302.9	566.88
303.13	564.88
303.36	558.88
303.59	565.88
303.82	561.88
304.051	551.88
304.281	571.88
304.511	539.88
304.741	564.88
304.971	562.88
305.201	556.88
305.431	568.88
305.661	578.88
305.891	547.88
306.121	555.88
306.352	578.88
306.582	527.88
306.812	551.88
307.042	578.88
307.272	566.88
307.502	561.88
307.731	564.88
307.961	573.88
308.191	552.88
308.421	581.88
308.651	560.88
308.881	568.88
309.111	546.88
309.341	567.88
309.571	571.88
309.8	565.88
310.03	569.88
310.26	573.88
310.49	570.88
310.72	553.88
310.949	567.88
311.179	570.88
311.409	579.88
311.639	577.88
311.868	580.88
312.098	587.88
312.328	562.88
312.557	604.88
312.787	594.88
313.017	596.88
313.246	597.88
313.476	600.88
313.706	610.88
313.935	600.88
314.165	621.88
314.394	616.88
314.624	624.88
314.853	581.88
315.083	605.88
315.312	590.88
315.542	622.88
315.771	599.88
316.001	595.88
316.23	585.88
316.46	589.88
316.689	596.88
316.919	610.88
317.148	613.88
317.377	609.88
317.607	613.88
317.836	622.88
318.065	586.88
318.295	597.88
318.524	609.88
318.753	602.88
318.983	607.88
319.212	578.88
319.441	619.88
319.67	616.88
319.9	608.88
320.129	606.88
320.358	616.88
320.587	613.88
320.816	618.88
321.046	626.88
321.275	640.88
321.504	630.88
321.733	638.88
321.962	606.88
322.191	603.88
322.42	614.88
322.649	621.88
322.878	628.88
323.108	612.88
323.337	620.88
323.566	660.88
323.795	646.88
324.024	648.88
324.253	647.88
324.482	645.88
324.71	627.88
324.939	642.88
325.168	666.88
325.397	638.88
325.626	663.88
325.855	660.88
326.084	673.88
326.313	682.88
326.542	669.88
326.77	686.88
326.999	669.88
327.228	706.88
327.457	708.88
327.686	670.88
327.914	668.88
328.143	676.88
328.372	692.88
328.6	709.88
328.829	681.88
329.058	677.88
329.287	678.88
329.515	681.88
329.744	688.88
329.972	718.88
330.201	708.88
330.43	718.88
330.658	735.88
330.887	720.88
331.115	725.88
331.344	728.88
331.572	740.88
331.801	757.88
332.03	758.88
332.258	802.88
332.486	796.88
332.715	830.88
332.943	867.88
333.172	863.88
333.4	926.88
333.629	929.88
333.857	908.88
334.085	940.88
334.314	916.88
334.542	938.88
334.771	920.88
334.999	907.88
335.227	861.88
335.455	900.88
335.684	882.88
335.912	873.88
336.14	854.88
336.369	838.88
336.597	844.88
336.825	853.88
337.053	857.88
337.281	806.88
337.51	810.88
337.738	823.88
337.966	800.88
338.194	810.88
338.422	770.88
338.65	773.88
338.878	783.88
339.106	792.88
339.334	781.88
339.562	768.88
339.79	760.88
340.018	749.88
340.246	742.88
340.474	743.88
340.702	756.88
340.93	746.88
341.158	746.88
341.386	764.88
341.614	744.88
341.842	733.88
342.07	734.88
342.298	716.88
342.526	757.88
342.754	730.88
342.981	726.88
343.209	776.88
343.437	772.88
343.665	837.88
343.893	883.88
344.12	918.88
344.348	865.88
344.576	861.88
344.804	817.88
345.031	805.88
345.259	798.88
345.487	753.88
345.714	755.88
345.942	722.88
346.17	723.88
346.397	756.88
346.625	739.88
346.853	723.88
347.08	736.88
347.308	706.88
347.535	713.88
347.763	695.88
347.99	722.88
348.218	722.88
348.445	727.88
348.673	708.88
348.9	717.88
349.128	724.88
349.355	693.88
349.583	710.88
349.81	710.88
350.037	686.88
350.265	701.88
350.492	691.88
350.72	680.88
350.947	696.88
351.174	697.88
351.402	696.88
351.629	705.88
351.856	697.88
352.083	684.88
352.311	700.88
352.538	714.88
352.765	720.88
352.992	682.88
353.22	679.88
353.447	677.88
353.674	682.88
353.901	678.88
354.128	688.88
354.355	681.88
354.583	695.88
354.81	663.88
355.037	690.88
355.264	680.88
355.491	690.88
355.718	699.88
355.945	685.88
356.172	709.88
356.399	712.88
356.626	701.88
356.853	685.88
357.08	712.88
357.307	706.88
357.534	706.88
357.761	679.88
357.988	693.88
358.215	698.88
358.441	705.88
358.668	673.88
358.895	694.88
359.122	712.88
359.349	689.88
359.576	715.88
359.802	668.88
360.029	682.88
360.256	694.88
360.483	684.88
360.709	669.88
360.936	690.88
361.163	696.88
361.39	701.88
361.616	696.88
361.843	684.88
362.07	699.88
362.296	704.88
362.523	690.88
362.749	704.88
362.976	691.88
363.203	677.88
363.429	673.88
363.656	684.88
363.882	670.88
364.109	670.88
364.335	698.88
364.562	690.88
364.788	684.88
365.015	688.88
365.241	674.88
365.468	681.88
365.694	690.88
365.92	669.88
366.147	678.88
366.373	688.88
366.599	685.88
366.826	684.88
367.052	677.88
367.278	701.88
367.505	658.88
367.731	696.88
367.957	694.88
368.184	662.88
368.41	705.88
368.636	706.88
368.862	713.88
369.089	706.88
369.315	713.88
369.541	696.88
369.767	709.88
369.993	726.88
370.219	695.88
370.445	724.88
370.672	723.88
370.898	699.88
371.124	746.88
371.35	745.88
371.576	746.88
371.802	756.88
372.028	707.88
372.254	748.88
372.48	771.88
372.706	770.88
372.932	768.88
373.158	750.88
373.384	734.88
373.61	737.88
373.835	748.88
374.061	737.88
374.287	739.88
374.513	766.88
374.739	778.88
374.965	816.88
375.191	828.88
375.416	837.88
375.642	818.88
375.868	774.88
376.094	768.88
376.319	755.88
376.545	762.88
376.771	739.88
376.997	729.88
377.222	738.88
377.448	754.88
377.674	746.88
377.899	730.88
378.125	739.88
378.35	732.88
378.576	714.88
378.802	736.88
379.027	730.88
379.253	722.88
379.478	745.88
379.704	737.88
379.929	741.88
380.155	725.88
380.38	729.88
380.606	722.88
380.831	735.88
381.057	731.88
381.282	730.88
381.507	747.88
381.733	766.88
381.958	762.88
382.184	732.88
382.409	775.88
382.634	745.88
382.86	765.88
383.085	801.88
383.31	782.88
383.535	797.88
383.761	798.88
383.986	810.88
384.211	832.88
384.436	838.88
384.662	849.88
384.887	880.88
385.112	852.88
385.337	897.88
385.562	901.88
385.787	885.88
386.013	882.88
386.238	876.88
386.463	862.88
386.688	905.88
386.913	890.88
387.138	882.88
387.363	874.88
387.588	873.88
387.813	889.88
388.038	896.88
388.263	897.88
388.488	866.88
388.713	886.88
388.938	857.88
389.163	828.88
389.387	848.88
389.612	861.88
389.837	849.88
390.062	860.88
390.287	889.88
390.512	886.88
390.736	880.88
390.961	899.88
391.186	903.88
391.411	934.88
391.636	963.88
391.86	989.88
392.085	1028.88
392.31	986.88
392.534	954.88
392.759	973.88
392.984	931.88
393.208	930.88
393.433	922.88
393.658	955.88
393.882	935.88
394.107	928.88
394.331	940.88
394.556	932.88
394.78	948.88
395.005	946.88
395.229	936.88
395.454	978.88
395.678	1008.88
395.903	995.88
396.127	992.88
396.352	974.88
396.576	965.88
396.801	960.88
397.025	969.88
397.249	986.88
397.474	994.88
397.698	1007.88
397.922	1008.88
398.147	987.88
398.371	1048.88
398.595	1057.88
398.82	1113.88
399.044	1219.88
399.268	1317.88
399.492	1489.88
399.717	1623.88
399.941	1606.88
400.165	1506.88
400.389	1347.88
400.613	1260.88
400.837	1218.88
401.062	1171.88
401.286	1139.88
401.51	1109.88
401.734	1150.88
401.958	1149.88
402.182	1147.88
402.406	1125.88
402.63	1166.88
402.854	1180.88
403.078	1190.88
403.302	1211.88
403.526	1218.88
403.75	1220.88
403.974	1233.88
404.198	1247.88
404.422	1285.88
404.645	1221.88
404.869	1239.88
405.093	1236.88
405.317	1261.88
405.541	1242.88
405.765	1254.88
405.988	1228.88
406.212	1222.88
406.436	1235.88
406.66	1296.88
406.883	1245.88
407.107	1332.88
407.331	1406.88
407.555	1440.88
407.778	1444.88
408.002	1420.88
408.226	1369.88
408.449	1357.88
408.673	1314.88
408.896	1289.88
409.12	1288.88
409.344	1280.88
409.567	1265.88
409.791	1276.88
410.014	1239.88
410.238	1268.88
410.461	1216.88
410.685	1234.88
410.908	1187.88
411.132	1216.88
411.355	1180.88
411.578	1177.88
411.802	1172.88
412.025	1161.88
412.249	1187.88
412.472	1172.88
412.695	1184.88
412.919	1129.88
413.142	1156.88
413.365	1140.88
413.589	1146.88
413.812	1120.88
414.035	1125.88
414.258	1117.88
414.482	1125.88
414.705	1125.88
414.928	1148.88
415.151	1166.88
415.374	1132.88
415.597	1111.88
415.821	1128.88
416.044	1122.88
416.267	1107.88
416.49	1096.88
416.713	1109.88
416.936	1100.88
417.159	1106.88
417.382	1108.88
417.605	1092.88
417.828	1095.88
418.051	1094.88
418.274	1133.88
418.497	1084.88
418.72	1130.88
418.943	1170.88
419.166	1186.88
419.389	1283.88
419.611	1257.88
419.834	1200.88
420.057	1184.88
420.28	1131.88
420.503	1104.88
420.726	1108.88
420.948	1107.88
421.171	1127.88
421.394	1100.88
421.617	1152.88
421.839	1124.88
422.062	1138.88
422.285	1106.88
422.507	1129.88
422.73	1120.88
422.953	1112.88
423.175	1175.88
423.398	1170.88
423.621	1146.88
423.843	1139.88
424.066	1178.88
424.288	1188.88
424.511	1134.88
424.733	1131.88
424.956	1142.88
425.178	1129.88
425.401	1137.88
425.623	1119.88
425.846	1083.88
426.068	1081.88
426.291	1112.88
426.513	1068.88
426.735	1052.88
426.958	1075.88
427.18	1031.88
427.402	1049.88
427.625	1042.88
427.847	1005.88
428.069	1015.88
428.292	1037.88
428.514	1038.88
428.736	1000.88
428.958	1007.88
429.181	992.88
429.403	984.88
429.625	978.88
429.847	989.88
430.069	965.88
430.292	975.88
430.514	963.88
430.736	991.88
430.958	970.88
431.18	965.88
431.402	993.88
431.624	983.88
431.846	1043.88
432.068	1030.88
432.29	1021.88
432.512	1001.88
432.734	1014.88
432.956	995.88
433.178	1026.88
433.4	1004.88
433.622	1024.88
433.844	1056.88
434.066	1030.88
434.287	1038.88
434.509	1056.88
434.731	1076.88
434.953	1151.88
435.175	1099.88
435.397	1114.88
435.618	1072.88
435.84	1055.88
436.062	1024.88
436.284	1035.88
436.505	1025.88
436.727	996.88
436.949	1020.88
437.17	1021.88
437.392	970.88
437.614	1018.88
437.835	983.88
438.057	952.88
438.278	954.88
438.5	936.88
438.721	950.88
438.943	974.88
439.165	981.88
439.386	979.88
439.608	1025.88
439.829	1012.88
440.05	1048.88
440.272	1014.88
440.493	1024.88
440.715	1050.88
440.936	1063.88
441.158	1083.88
441.379	1091.88
441.6	1132.88
441.822	1150.88
442.043	1115.88
442.264	1118.88
442.486	1103.88
442.707	1090.88
442.928	1097.88
443.149	1115.88
443.371	1135.88
443.592	1115.88
443.813	1118.88
444.034	1157.88
444.255	1156.88
444.476	1233.88
444.698	1287.88
444.919	1320.88
445.14	1419.88
445.361	1280.88
445.582	1204.88
445.803	1148.88
446.024	1089.88
446.245	1076.88
446.466	1086.88
446.687	1034.88
446.908	1058.88
447.129	1044.88
447.35	982.88
447.571	997.88
447.792	965.88
448.013	948.88
448.234	956.88
448.455	961.88
448.675	944.88
448.896	960.88
449.117	916.88
449.338	920.88
449.559	949.88
449.779	938.88
450	928.88
450.221	913.88
450.442	924.88
450.662	956.88
450.883	920.88
451.104	964.88
451.324	950.88
451.545	947.88
451.766	922.88
451.986	929.88
452.207	925.88
452.428	927.88
452.648	932.88
452.869	916.88
453.089	899.88
453.31	916.88
453.53	883.88
453.751	900.88
453.971	872.88
454.192	889.88
454.412	856.88
454.633	890.88
454.853	892.88
455.073	914.88
455.294	856.88
455.514	862.88
455.734	872.88
455.955	848.88
456.175	858.88
456.395	853.88
456.616	834.88
456.836	873.88
457.056	848.88
457.276	829.88
457.497	893.88
457.717	861.88
457.937	904.88
458.157	892.88
458.377	878.88
458.598	912.88
458.818	916.88
459.038	963.88
459.258	969.88
459.478	1050.88
459.698	1067.88
459.918	1078.88
460.138	1109.88
460.358	1178.88
460.578	1181.88
460.798	1188.88
461.018	1186.88
461.238	1217.88
461.458	1189.88
461.678	1176.88
461.898	1189.88
462.118	1200.88
462.338	1292.88
462.558	1338.88
462.777	1400.88
462.997	1445.88
463.217	1535.88
463.437	1569.88
463.657	1472.88
463.876	1410.88
464.096	1349.88
464.316	1395.88
464.536	1372.88
464.755	1315.88
464.975	1294.88
465.195	1205.88
465.414	1166.88
465.634	1046.88
465.854	1031.88
466.073	1008.88
466.293	1018.88
466.512	1011.88
466.732	988.88
466.951	992.88
467.171	962.88
467.391	977.88
467.61	982.88
467.829	966.88
468.049	963.88
468.268	934.88
468.488	904.88
468.707	925.88
468.927	944.88
469.146	948.88
469.365	965.88
469.585	941.88
469.804	983.88
470.023	1003.88
470.243	1004.88
470.462	986.88
470.681	1026.88
470.901	999.88
471.12	967.88
471.339	980.88
471.558	941.88
471.777	940.88
471.997	942.88
472.216	952.88
472.435	938.88
472.654	936.88
472.873	906.88
473.092	898.88
473.311	889.88
473.53	914.88
473.749	929.88
473.968	909.88
474.187	880.88
474.406	909.88
474.625	914.88
474.844	888.88
475.063	930.88
475.282	904.88
475.501	900.88
475.72	938.88
475.939	896.88
476.158	937.88
476.377	932.88
476.596	951.88
476.814	956.88
477.033	956.88
477.252	979.88
477.471	1012.88
477.69	993.88
477.908	1036.88
478.127	1069.88
478.346	1060.88
478.564	1090.88
478.783	1088.88
479.002	1153.88
479.22	1130.88
479.439	1109.88
479.658	1126.88
479.876	1130.88
480.095	1145.88
480.313	1184.88
480.532	1206.88
480.751	1183.88
480.969	1127.88
481.188	1102.88
481.406	1074.88
481.624	1060.88
481.843	1040.88
482.061	1036.88
482.28	1048.88
482.498	1032.88
482.717	1001.88
482.935	1029.88
483.153	1028.88
483.372	1030.88
483.59	1031.88
483.808	1054.88
484.027	1026.88
484.245	1010.88
484.463	1016.88
484.681	1088.88
484.9	1065.88
485.118	1056.88
485.336	1085.88
485.554	1056.88
485.772	1065.88
485.99	1063.88
486.209	1059.88
486.427	1059.88
486.645	1077.88
486.863	1094.88
487.081	1063.88
487.299	1054.88
487.517	1065.88
487.735	1077.88
487.953	1088.88
488.171	1089.88
488.389	1073.88
488.607	1060.88
488.825	1046.88
489.043	1042.88
489.261	1037.88
489.479	1040.88
489.696	1072.88
489.914	1075.88
490.132	1085.88
490.35	1059.88
490.568	1066.88
490.786	1069.88
491.003	1102.88
491.221	1098.88
491.439	1107.88
491.657	1107.88
491.874	1109.88
492.092	1105.88
492.31	1103.88
492.527	1126.88
492.745	1138.88
492.963	1130.88
493.18	1144.88
493.398	1152.88
493.615	1138.88
493.833	1153.88
494.05	1132.88
494.268	1127.88
494.485	1137.88
494.703	1144.88
494.92	1170.88
495.138	1147.88
495.355	1178.88
495.573	1178.88
495.79	1181.88
496.008	1192.88
496.225	1204.88
496.442	1189.88
496.66	1223.88
496.877	1193.88
497.094	1272.88
