Data from Ni(NO3)2@0.25M.TitratingCurve.Agarose3%dH2O.NegLispCup.LampEnergy10.LIBS07252019_HRD10591_18-04-44-566.txt Node
Date: Thu Jul 25 18:04:44 EDT 2019
User: cochatt
Spectrometer: HR+D1059
Trigger mode: 1
Integration Time (sec): 1.000000E-1
Scans to average: 1
Electric dark correction enabled: true
Nonlinearity correction enabled: false
Boxcar width: 0
XAxis mode: Wavelengths
Number of Pixels in Spectrum: 2048
>>>>>Begin Spectral Data<<<<<
223.165	-20.69
223.4	-20.69
223.635	-20.69
223.869	-29.69
224.104	-26.69
224.338	-8.69
224.573	-1.69
224.808	-22.69
225.042	-12.69
225.277	-13.69
225.511	9.31
225.746	8.31
225.98	8.31
226.215	7.31
226.449	20.31
226.683	30.31
226.918	22.31
227.152	30.31
227.387	29.31
227.621	32.31
227.856	29.31
228.09	47.31
228.324	47.31
228.559	62.31
228.793	61.31
229.027	92.31
229.262	92.31
229.496	108.31
229.73	96.31
229.964	104.31
230.199	110.31
230.433	103.31
230.667	107.31
230.901	114.31
231.136	116.31
231.37	106.31
231.604	101.31
231.838	125.31
232.072	128.31
232.306	114.31
232.541	124.31
232.775	123.31
233.009	124.31
233.243	115.31
233.477	120.31
233.711	109.31
233.945	122.31
234.179	108.31
234.413	125.31
234.647	120.31
234.881	122.31
235.115	107.31
235.349	120.31
235.583	126.31
235.817	115.31
236.051	112.31
236.285	128.31
236.519	119.31
236.753	118.31
236.987	125.31
237.221	121.31
237.455	120.31
237.689	111.31
237.922	116.31
238.156	120.31
238.39	138.31
238.624	114.31
238.858	142.31
239.091	131.31
239.325	134.31
239.559	150.31
239.793	139.31
240.027	136.31
240.26	131.31
240.494	150.31
240.728	142.31
240.961	139.31
241.195	136.31
241.429	145.31
241.662	128.31
241.896	141.31
242.13	132.31
242.363	148.31
242.597	133.31
242.83	145.31
243.064	152.31
243.298	148.31
243.531	128.31
243.765	129.31
243.998	152.31
244.232	158.31
244.465	157.31
244.699	133.31
244.932	143.31
245.166	155.31
245.399	160.31
245.633	161.31
245.866	153.31
246.099	150.31
246.333	157.31
246.566	150.31
246.8	163.31
247.033	156.31
247.266	139.31
247.5	164.31
247.733	163.31
247.966	174.31
248.2	169.31
248.433	182.31
248.666	158.31
248.899	162.31
249.133	180.31
249.366	179.31
249.599	181.31
249.832	188.31
250.066	182.31
250.299	156.31
250.532	178.31
250.765	182.31
250.998	193.31
251.231	178.31
251.465	209.31
251.698	190.31
251.931	201.31
252.164	179.31
252.397	192.31
252.63	197.31
252.863	197.31
253.096	188.31
253.329	218.31
253.562	206.31
253.795	201.31
254.028	213.31
254.261	196.31
254.494	209.31
254.727	215.31
254.96	197.31
255.193	200.31
255.426	214.31
255.659	213.31
255.892	209.31
256.124	228.31
256.357	212.31
256.59	198.31
256.823	218.31
257.056	203.31
257.289	218.31
257.521	217.31
257.754	215.31
257.987	232.31
258.22	215.31
258.452	220.31
258.685	204.31
258.918	224.31
259.151	217.31
259.383	227.31
259.616	236.31
259.849	247.31
260.081	216.31
260.314	232.31
260.547	229.31
260.779	229.31
261.012	236.31
261.244	242.31
261.477	237.31
261.71	231.31
261.942	243.31
262.175	252.31
262.407	255.31
262.64	235.31
262.872	247.31
263.105	249.31
263.337	236.31
263.57	250.31
263.802	253.31
264.035	259.31
264.267	268.31
264.499	258.31
264.732	254.31
264.964	253.31
265.197	256.31
265.429	260.31
265.661	238.31
265.894	258.31
266.126	261.31
266.358	270.31
266.591	278.31
266.823	277.31
267.055	253.31
267.287	272.31
267.52	261.31
267.752	281.31
267.984	267.31
268.216	276.31
268.448	280.31
268.681	275.31
268.913	266.31
269.145	278.31
269.377	258.31
269.609	278.31
269.841	275.31
270.073	274.31
270.306	281.31
270.538	278.31
270.77	263.31
271.002	285.31
271.234	270.31
271.466	307.31
271.698	274.31
271.93	278.31
272.162	287.31
272.394	291.31
272.626	304.31
272.858	281.31
273.09	293.31
273.322	267.31
273.553	285.31
273.785	278.31
274.017	284.31
274.249	288.31
274.481	317.31
274.713	286.31
274.945	286.31
275.176	298.31
275.408	305.31
275.64	309.31
275.872	302.31
276.104	285.31
276.335	307.31
276.567	280.31
276.799	312.31
277.031	302.31
277.262	310.31
277.494	310.31
277.726	318.31
277.957	302.31
278.189	316.31
278.421	301.31
278.652	314.31
278.884	323.31
279.115	289.31
279.347	298.31
279.579	323.31
279.81	315.31
280.042	328.31
280.273	328.31
280.505	325.31
280.736	322.31
280.968	320.31
281.199	324.31
281.431	333.31
281.662	319.31
281.894	327.31
282.125	335.31
282.356	342.31
282.588	327.31
282.819	329.31
283.051	322.31
283.282	312.31
283.513	341.31
283.745	340.31
283.976	328.31
284.207	342.31
284.439	327.31
284.67	333.31
284.901	333.31
285.132	330.31
285.364	317.31
285.595	332.31
285.826	355.31
286.057	349.31
286.288	346.31
286.52	337.31
286.751	366.31
286.982	364.31
287.213	348.31
287.444	334.31
287.675	349.31
287.906	358.31
288.138	365.31
288.369	363.31
288.6	362.31
288.831	334.31
289.062	320.31
289.293	351.31
289.524	346.31
289.755	366.31
289.986	355.31
290.217	355.31
290.448	360.31
290.679	370.31
290.91	362.31
291.141	355.31
291.371	341.31
291.602	354.31
291.833	363.31
292.064	339.31
292.295	357.31
292.526	350.31
292.757	364.31
292.987	350.31
293.218	336.31
293.449	357.31
293.68	349.31
293.91	356.31
294.141	369.31
294.372	346.31
294.603	377.31
294.833	377.31
295.064	347.31
295.295	350.31
295.525	335.31
295.756	366.31
295.987	394.31
296.217	344.31
296.448	374.31
296.679	373.31
296.909	371.31
297.14	375.31
297.37	389.31
297.601	382.31
297.831	391.31
298.062	404.31
298.292	377.31
298.523	384.31
298.753	393.31
298.984	384.31
299.214	365.31
299.445	382.31
299.675	375.31
299.905	381.31
300.136	407.31
300.366	406.31
300.597	400.31
300.827	408.31
301.057	398.31
301.288	396.31
301.518	403.31
301.748	406.31
301.979	410.31
302.209	415.31
302.439	417.31
302.669	404.31
302.9	399.31
303.13	395.31
303.36	398.31
303.59	382.31
303.82	402.31
304.051	416.31
304.281	410.31
304.511	406.31
304.741	408.31
304.971	393.31
305.201	394.31
305.431	408.31
305.661	397.31
305.891	413.31
306.121	410.31
306.352	401.31
306.582	387.31
306.812	403.31
307.042	378.31
307.272	399.31
307.502	404.31
307.731	390.31
307.961	392.31
308.191	404.31
308.421	397.31
308.651	396.31
308.881	410.31
309.111	411.31
309.341	392.31
309.571	400.31
309.8	411.31
310.03	418.31
310.26	403.31
310.49	422.31
310.72	385.31
310.949	411.31
311.179	430.31
311.409	422.31
311.639	412.31
311.868	416.31
312.098	421.31
312.328	409.31
312.557	415.31
312.787	436.31
313.017	443.31
313.246	434.31
313.476	444.31
313.706	443.31
313.935	420.31
314.165	444.31
314.394	424.31
314.624	425.31
314.853	442.31
315.083	445.31
315.312	443.31
315.542	434.31
315.771	448.31
316.001	448.31
316.23	463.31
316.46	428.31
316.689	434.31
316.919	443.31
317.148	445.31
317.377	444.31
317.607	475.31
317.836	435.31
318.065	438.31
318.295	455.31
318.524	447.31
318.753	446.31
318.983	441.31
319.212	451.31
319.441	441.31
319.67	466.31
319.9	454.31
320.129	461.31
320.358	469.31
320.587	464.31
320.816	466.31
321.046	468.31
321.275	458.31
321.504	470.31
321.733	475.31
321.962	494.31
322.191	470.31
322.42	495.31
322.649	473.31
322.878	458.31
323.108	498.31
323.337	493.31
323.566	504.31
323.795	506.31
324.024	503.31
324.253	474.31
324.482	478.31
324.71	488.31
324.939	492.31
325.168	496.31
325.397	512.31
325.626	518.31
325.855	512.31
326.084	511.31
326.313	520.31
326.542	520.31
326.77	528.31
326.999	542.31
327.228	517.31
327.457	525.31
327.686	535.31
327.914	538.31
328.143	549.31
328.372	524.31
328.6	519.31
328.829	542.31
329.058	509.31
329.287	541.31
329.515	560.31
329.744	546.31
329.972	558.31
330.201	552.31
330.43	548.31
330.658	564.31
330.887	553.31
331.115	574.31
331.344	562.31
331.572	588.31
331.801	596.31
332.03	613.31
332.258	598.31
332.486	611.31
332.715	634.31
332.943	634.31
333.172	657.31
333.4	670.31
333.629	640.31
333.857	672.31
334.085	672.31
334.314	680.31
334.542	702.31
334.771	691.31
334.999	680.31
335.227	692.31
335.455	685.31
335.684	684.31
335.912	688.31
336.14	672.31
336.369	676.31
336.597	688.31
336.825	667.31
337.053	686.31
337.281	665.31
337.51	633.31
337.738	635.31
337.966	647.31
338.194	647.31
338.422	641.31
338.65	627.31
338.878	607.31
339.106	646.31
339.334	597.31
339.562	612.31
339.79	605.31
340.018	608.31
340.246	583.31
340.474	595.31
340.702	589.31
340.93	588.31
341.158	593.31
341.386	610.31
341.614	634.31
341.842	609.31
342.07	589.31
342.298	630.31
342.526	615.31
342.754	594.31
342.981	612.31
343.209	613.31
343.437	632.31
343.665	663.31
343.893	671.31
344.12	673.31
344.348	667.31
344.576	696.31
344.804	675.31
345.031	644.31
345.259	618.31
345.487	610.31
345.714	627.31
345.942	612.31
346.17	607.31
346.397	608.31
346.625	613.31
346.853	592.31
347.08	588.31
347.308	595.31
347.535	582.31
347.763	565.31
347.99	590.31
348.218	584.31
348.445	578.31
348.673	582.31
348.9	568.31
349.128	582.31
349.355	576.31
349.583	586.31
349.81	589.31
350.037	566.31
350.265	582.31
350.492	570.31
350.72	579.31
350.947	566.31
351.174	546.31
351.402	570.31
351.629	592.31
351.856	575.31
352.083	562.31
352.311	541.31
352.538	598.31
352.765	584.31
352.992	565.31
353.22	535.31
353.447	544.31
353.674	564.31
353.901	558.31
354.128	561.31
354.355	551.31
354.583	570.31
354.81	559.31
355.037	555.31
355.264	546.31
355.491	550.31
355.718	535.31
355.945	550.31
356.172	553.31
356.399	550.31
356.626	574.31
356.853	572.31
357.08	575.31
357.307	562.31
357.534	547.31
357.761	548.31
357.988	529.31
358.215	546.31
358.441	550.31
358.668	536.31
358.895	548.31
359.122	556.31
359.349	562.31
359.576	562.31
359.802	560.31
360.029	547.31
360.256	514.31
360.483	556.31
360.709	561.31
360.936	560.31
361.163	576.31
361.39	564.31
361.616	559.31
361.843	586.31
362.07	566.31
362.296	559.31
362.523	529.31
362.749	546.31
362.976	570.31
363.203	556.31
363.429	557.31
363.656	567.31
363.882	538.31
364.109	578.31
364.335	564.31
364.562	534.31
364.788	545.31
365.015	558.31
365.241	522.31
365.468	572.31
365.694	541.31
365.92	549.31
366.147	552.31
366.373	560.31
366.599	547.31
366.826	556.31
367.052	552.31
367.278	544.31
367.505	558.31
367.731	546.31
367.957	533.31
368.184	569.31
368.41	554.31
368.636	563.31
368.862	555.31
369.089	567.31
369.315	578.31
369.541	569.31
369.767	555.31
369.993	587.31
370.219	563.31
370.445	574.31
370.672	558.31
370.898	563.31
371.124	568.31
371.35	582.31
371.576	588.31
371.802	588.31
372.028	592.31
372.254	595.31
372.48	590.31
372.706	608.31
372.932	602.31
373.158	632.31
373.384	598.31
373.61	591.31
373.835	589.31
374.061	598.31
374.287	600.31
374.513	587.31
374.739	612.31
374.965	622.31
375.191	621.31
375.416	606.31
375.642	611.31
375.868	611.31
376.094	597.31
376.319	593.31
376.545	599.31
376.771	602.31
376.997	577.31
377.222	592.31
377.448	572.31
377.674	579.31
377.899	588.31
378.125	565.31
378.35	595.31
378.576	576.31
378.802	564.31
379.027	564.31
379.253	571.31
379.478	567.31
379.704	573.31
379.929	578.31
380.155	588.31
380.38	566.31
380.606	551.31
380.831	567.31
381.057	572.31
381.282	593.31
381.507	573.31
381.733	588.31
381.958	580.31
382.184	551.31
382.409	564.31
382.634	605.31
382.86	601.31
383.085	599.31
383.31	603.31
383.535	611.31
383.761	614.31
383.986	618.31
384.211	642.31
384.436	627.31
384.662	654.31
384.887	618.31
385.112	650.31
385.337	657.31
385.562	646.31
385.787	637.31
386.013	687.31
386.238	680.31
386.463	687.31
386.688	679.31
386.913	654.31
387.138	660.31
387.363	688.31
387.588	670.31
387.813	672.31
388.038	652.31
388.263	674.31
388.488	679.31
388.713	652.31
388.938	648.31
389.163	673.31
389.387	668.31
389.612	651.31
389.837	664.31
390.062	627.31
390.287	651.31
390.512	652.31
390.736	685.31
390.961	687.31
391.186	718.31
391.411	714.31
391.636	725.31
391.86	750.31
392.085	730.31
392.31	729.31
392.534	710.31
392.759	711.31
392.984	736.31
393.208	720.31
393.433	706.31
393.658	708.31
393.882	693.31
394.107	702.31
394.331	701.31
394.556	719.31
394.78	723.31
395.005	729.31
395.229	704.31
395.454	734.31
395.678	733.31
395.903	748.31
396.127	716.31
396.352	735.31
396.576	706.31
396.801	754.31
397.025	740.31
397.249	747.31
397.474	741.31
397.698	778.31
397.922	794.31
398.147	766.31
398.371	773.31
398.595	794.31
398.82	829.31
399.044	861.31
399.268	911.31
399.492	1020.31
399.717	1090.31
399.941	1083.31
400.165	1067.31
400.389	976.31
400.613	921.31
400.837	878.31
401.062	837.31
401.286	870.31
401.51	855.31
401.734	837.31
401.958	864.31
402.182	847.31
402.406	855.31
402.63	839.31
402.854	871.31
403.078	857.31
403.302	894.31
403.526	879.31
403.75	892.31
403.974	894.31
404.198	877.31
404.422	895.31
404.645	885.31
404.869	900.31
405.093	902.31
405.317	896.31
405.541	895.31
405.765	891.31
405.988	916.31
406.212	896.31
406.436	933.31
406.66	953.31
406.883	938.31
407.107	984.31
407.331	989.31
407.555	1020.31
407.778	1044.31
408.002	1028.31
408.226	992.31
408.449	1011.31
408.673	946.31
408.896	930.31
409.12	926.31
409.344	965.31
409.567	902.31
409.791	917.31
410.014	951.31
410.238	916.31
410.461	935.31
410.685	917.31
410.908	908.31
411.132	907.31
411.355	878.31
411.578	871.31
411.802	868.31
412.025	868.31
412.249	889.31
412.472	854.31
412.695	882.31
412.919	860.31
413.142	848.31
413.365	879.31
413.589	856.31
413.812	853.31
414.035	848.31
414.258	851.31
414.482	892.31
414.705	870.31
414.928	864.31
415.151	860.31
415.374	867.31
415.597	841.31
415.821	841.31
416.044	856.31
416.267	853.31
416.49	846.31
416.713	834.31
416.936	837.31
417.159	847.31
417.382	824.31
417.605	850.31
417.828	834.31
418.051	840.31
418.274	843.31
418.497	834.31
418.72	877.31
418.943	842.31
419.166	895.31
419.389	983.31
419.611	930.31
419.834	890.31
420.057	879.31
420.28	861.31
420.503	853.31
420.726	860.31
420.948	840.31
421.171	870.31
421.394	851.31
421.617	834.31
421.839	862.31
422.062	855.31
422.285	843.31
422.507	859.31
422.73	843.31
422.953	886.31
423.175	866.31
423.398	851.31
423.621	831.31
423.843	877.31
424.066	882.31
424.288	850.31
424.511	855.31
424.733	873.31
424.956	855.31
425.178	840.31
425.401	872.31
425.623	877.31
425.846	859.31
426.068	831.31
426.291	834.31
426.513	852.31
426.735	824.31
426.958	806.31
427.18	790.31
427.402	827.31
427.625	794.31
427.847	802.31
428.069	802.31
428.292	798.31
428.514	784.31
428.736	815.31
428.958	805.31
429.181	794.31
429.403	792.31
429.625	756.31
429.847	804.31
430.069	800.31
430.292	793.31
430.514	808.31
430.736	803.31
430.958	784.31
431.18	789.31
431.402	798.31
431.624	780.31
431.846	804.31
432.068	803.31
432.29	818.31
432.512	799.31
432.734	787.31
432.956	815.31
433.178	808.31
433.4	806.31
433.622	845.31
433.844	819.31
434.066	830.31
434.287	838.31
434.509	814.31
434.731	845.31
434.953	873.31
435.175	868.31
435.397	904.31
435.618	835.31
435.84	836.31
436.062	821.31
436.284	800.31
436.505	787.31
436.727	840.31
436.949	818.31
437.17	803.31
437.392	804.31
437.614	785.31
437.835	756.31
438.057	782.31
438.278	757.31
438.5	767.31
438.721	794.31
438.943	794.31
439.165	807.31
439.386	791.31
439.608	797.31
439.829	810.31
440.05	812.31
440.272	806.31
440.493	825.31
440.715	815.31
440.936	868.31
441.158	831.31
441.379	858.31
441.6	882.31
441.822	872.31
442.043	880.31
442.264	870.31
442.486	839.31
442.707	880.31
442.928	872.31
443.149	880.31
443.371	863.31
443.592	881.31
443.813	892.31
444.034	900.31
444.255	941.31
444.476	951.31
444.698	946.31
444.919	978.31
445.14	1029.31
445.361	971.31
445.582	918.31
445.803	884.31
446.024	865.31
446.245	858.31
446.466	853.31
446.687	822.31
446.908	827.31
447.129	805.31
447.35	772.31
447.571	808.31
447.792	787.31
448.013	792.31
448.234	759.31
448.455	787.31
448.675	738.31
448.896	766.31
449.117	767.31
449.338	748.31
449.559	739.31
449.779	748.31
450	743.31
450.221	777.31
450.442	755.31
450.662	756.31
450.883	771.31
451.104	790.31
451.324	750.31
451.545	746.31
451.766	747.31
451.986	756.31
452.207	747.31
452.428	728.31
452.648	731.31
452.869	725.31
453.089	706.31
453.31	747.31
453.53	709.31
453.751	710.31
453.971	714.31
454.192	717.31
454.412	714.31
454.633	704.31
454.853	708.31
455.073	702.31
455.294	681.31
455.514	677.31
455.734	711.31
455.955	717.31
456.175	707.31
456.395	718.31
456.616	693.31
456.836	716.31
457.056	701.31
457.276	680.31
457.497	727.31
457.717	700.31
457.937	722.31
458.157	717.31
458.377	721.31
458.598	733.31
458.818	726.31
459.038	776.31
459.258	824.31
459.478	813.31
459.698	850.31
459.918	841.31
460.138	856.31
460.358	868.31
460.578	903.31
460.798	922.31
461.018	916.31
461.238	919.31
461.458	894.31
461.678	894.31
461.898	948.31
462.118	933.31
462.338	972.31
462.558	1003.31
462.777	1081.31
462.997	1055.31
463.217	1119.31
463.437	1125.31
463.657	1090.31
463.876	1049.31
464.096	1044.31
464.316	1046.31
464.536	1045.31
464.755	1020.31
464.975	962.31
465.195	930.31
465.414	911.31
465.634	876.31
465.854	854.31
466.073	838.31
466.293	831.31
466.512	803.31
466.732	809.31
466.951	800.31
467.171	798.31
467.391	803.31
467.61	805.31
467.829	788.31
468.049	791.31
468.268	759.31
468.488	751.31
468.707	747.31
468.927	768.31
469.146	783.31
469.365	762.31
469.585	788.31
469.804	805.31
470.023	803.31
470.243	797.31
470.462	794.31
470.681	781.31
470.901	802.31
471.12	780.31
471.339	821.31
471.558	799.31
471.777	785.31
471.997	778.31
472.216	746.31
472.435	765.31
472.654	739.31
472.873	750.31
473.092	757.31
473.311	741.31
473.53	747.31
473.749	735.31
473.968	763.31
474.187	744.31
474.406	731.31
474.625	748.31
474.844	742.31
475.063	764.31
475.282	746.31
475.501	736.31
475.72	796.31
475.939	753.31
476.158	790.31
476.377	778.31
476.596	790.31
476.814	779.31
477.033	788.31
477.252	782.31
477.471	845.31
477.69	798.31
477.908	847.31
478.127	855.31
478.346	854.31
478.564	912.31
478.783	884.31
479.002	908.31
479.22	891.31
479.439	912.31
479.658	889.31
479.876	912.31
480.095	880.31
480.313	922.31
480.532	946.31
480.751	920.31
480.969	895.31
481.188	914.31
481.406	874.31
481.624	890.31
481.843	845.31
482.061	869.31
482.28	875.31
482.498	838.31
482.717	824.31
482.935	842.31
483.153	870.31
483.372	866.31
483.59	860.31
483.808	861.31
484.027	877.31
484.245	868.31
484.463	887.31
484.681	891.31
484.9	865.31
485.118	876.31
485.336	851.31
485.554	893.31
485.772	869.31
485.99	863.31
486.209	894.31
486.427	913.31
486.645	907.31
486.863	895.31
487.081	910.31
487.299	898.31
487.517	901.31
487.735	903.31
487.953	894.31
488.171	893.31
488.389	869.31
488.607	895.31
488.825	884.31
489.043	873.31
489.261	864.31
489.479	871.31
489.696	886.31
489.914	872.31
490.132	919.31
490.35	920.31
490.568	929.31
490.786	915.31
491.003	925.31
491.221	898.31
491.439	911.31
491.657	920.31
491.874	954.31
492.092	941.31
492.31	949.31
492.527	916.31
492.745	926.31
492.963	955.31
493.18	966.31
493.398	933.31
493.615	948.31
493.833	945.31
494.05	981.31
494.268	982.31
494.485	998.31
494.703	952.31
494.92	981.31
495.138	981.31
495.355	997.31
495.573	1023.31
495.79	988.31
496.008	971.31
496.225	1002.31
496.442	1012.31
496.66	1033.31
496.877	1008.31
497.094	1054.31
497.312	1047.31
497.529	1093.31
497.746	1124.31
497.963	1156.31
498.181	1202.31
498.398	1223.31
498.615	1270.31
498.832	1361.31
499.049	1446.31
499.267	1507.31
499.484	1620.31
499.701	1737.31
499.918	1819.31
500.135	2029.31
500.352	2153.31
500.569	2174.31
500.786	2197.31
501.003	2077.31
