Data from Ni(NO3)2@0.25M.TitratingCurve.Agarose3%dH2O.NegLispCup.LampEnergy10.LIBS07252019_HRD10591_18-04-35-565.txt Node
Date: Thu Jul 25 18:04:35 EDT 2019
User: cochatt
Spectrometer: HR+D1059
Trigger mode: 1
Integration Time (sec): 1.000000E-1
Scans to average: 1
Electric dark correction enabled: true
Nonlinearity correction enabled: false
Boxcar width: 0
XAxis mode: Wavelengths
Number of Pixels in Spectrum: 2048
>>>>>Begin Spectral Data<<<<<
223.165	-15.19
223.4	-15.19
223.635	-15.19
223.869	-25.19
224.104	-19.19
224.338	-25.19
224.573	-26.19
224.808	-23.19
225.042	15.81
225.277	-2.19
225.511	-7.19
225.746	2.81
225.98	0.81
226.215	11.81
226.449	18.81
226.683	26.81
226.918	35.81
227.152	30.81
227.387	38.81
227.621	32.81
227.856	46.81
228.09	62.81
228.324	40.81
228.559	55.81
228.793	57.81
229.027	91.81
229.262	97.81
229.496	118.81
229.73	94.81
229.964	117.81
230.199	123.81
230.433	117.81
230.667	113.81
230.901	122.81
231.136	120.81
231.37	111.81
231.604	132.81
231.838	130.81
232.072	138.81
232.306	139.81
232.541	125.81
232.775	129.81
233.009	124.81
233.243	129.81
233.477	124.81
233.711	126.81
233.945	123.81
234.179	107.81
234.413	136.81
234.647	132.81
234.881	126.81
235.115	128.81
235.349	131.81
235.583	137.81
235.817	124.81
236.051	119.81
236.285	128.81
236.519	120.81
236.753	118.81
236.987	128.81
237.221	141.81
237.455	137.81
237.689	135.81
237.922	125.81
238.156	139.81
238.39	135.81
238.624	123.81
238.858	130.81
239.091	143.81
239.325	149.81
239.559	165.81
239.793	145.81
240.027	148.81
240.26	146.81
240.494	142.81
240.728	142.81
240.961	137.81
241.195	155.81
241.429	168.81
241.662	138.81
241.896	156.81
242.13	162.81
242.363	157.81
242.597	153.81
242.83	157.81
243.064	159.81
243.298	164.81
243.531	166.81
243.765	165.81
243.998	170.81
244.232	154.81
244.465	160.81
244.699	166.81
244.932	180.81
245.166	176.81
245.399	158.81
245.633	170.81
245.866	179.81
246.099	178.81
246.333	177.81
246.566	177.81
246.8	166.81
247.033	196.81
247.266	182.81
247.5	192.81
247.733	181.81
247.966	189.81
248.2	205.81
248.433	210.81
248.666	198.81
248.899	188.81
249.133	189.81
249.366	190.81
249.599	198.81
249.832	217.81
250.066	201.81
250.299	193.81
250.532	206.81
250.765	195.81
250.998	208.81
251.231	208.81
251.465	206.81
251.698	214.81
251.931	218.81
252.164	228.81
252.397	221.81
252.63	217.81
252.863	218.81
253.096	213.81
253.329	220.81
253.562	228.81
253.795	226.81
254.028	233.81
254.261	234.81
254.494	241.81
254.727	245.81
254.96	236.81
255.193	245.81
255.426	238.81
255.659	258.81
255.892	257.81
256.124	252.81
256.357	250.81
256.59	247.81
256.823	254.81
257.056	246.81
257.289	264.81
257.521	265.81
257.754	261.81
257.987	268.81
258.22	269.81
258.452	274.81
258.685	270.81
258.918	269.81
259.151	269.81
259.383	258.81
259.616	254.81
259.849	282.81
260.081	280.81
260.314	270.81
260.547	283.81
260.779	264.81
261.012	294.81
261.244	281.81
261.477	296.81
261.71	271.81
261.942	285.81
262.175	286.81
262.407	275.81
262.64	283.81
262.872	293.81
263.105	289.81
263.337	288.81
263.57	298.81
263.802	286.81
264.035	295.81
264.267	310.81
264.499	300.81
264.732	296.81
264.964	280.81
265.197	315.81
265.429	287.81
265.661	298.81
265.894	293.81
266.126	305.81
266.358	304.81
266.591	310.81
266.823	306.81
267.055	302.81
267.287	314.81
267.52	331.81
267.752	298.81
267.984	307.81
268.216	316.81
268.448	309.81
268.681	308.81
268.913	306.81
269.145	341.81
269.377	326.81
269.609	309.81
269.841	309.81
270.073	325.81
270.306	327.81
270.538	321.81
270.77	336.81
271.002	342.81
271.234	330.81
271.466	342.81
271.698	322.81
271.93	335.81
272.162	324.81
272.394	333.81
272.626	347.81
272.858	323.81
273.09	344.81
273.322	339.81
273.553	330.81
273.785	330.81
274.017	359.81
274.249	333.81
274.481	346.81
274.713	352.81
274.945	359.81
275.176	329.81
275.408	327.81
275.64	348.81
275.872	347.81
276.104	358.81
276.335	352.81
276.567	360.81
276.799	365.81
277.031	354.81
277.262	332.81
277.494	358.81
277.726	356.81
277.957	369.81
278.189	365.81
278.421	344.81
278.652	356.81
278.884	375.81
279.115	364.81
279.347	390.81
279.579	361.81
279.81	359.81
280.042	384.81
280.273	369.81
280.505	369.81
280.736	373.81
280.968	378.81
281.199	364.81
281.431	386.81
281.662	397.81
281.894	375.81
282.125	380.81
282.356	403.81
282.588	371.81
282.819	385.81
283.051	375.81
283.282	390.81
283.513	392.81
283.745	382.81
283.976	394.81
284.207	390.81
284.439	405.81
284.67	402.81
284.901	402.81
285.132	409.81
285.364	414.81
285.595	407.81
285.826	402.81
286.057	379.81
286.288	414.81
286.52	419.81
286.751	412.81
286.982	393.81
287.213	401.81
287.444	414.81
287.675	432.81
287.906	412.81
288.138	413.81
288.369	421.81
288.6	414.81
288.831	416.81
289.062	411.81
289.293	395.81
289.524	401.81
289.755	408.81
289.986	421.81
290.217	404.81
290.448	414.81
290.679	439.81
290.91	427.81
291.141	419.81
291.371	438.81
291.602	409.81
291.833	411.81
292.064	417.81
292.295	403.81
292.526	430.81
292.757	413.81
292.987	439.81
293.218	416.81
293.449	456.81
293.68	425.81
293.91	433.81
294.141	429.81
294.372	412.81
294.603	430.81
294.833	439.81
295.064	440.81
295.295	418.81
295.525	438.81
295.756	424.81
295.987	414.81
296.217	434.81
296.448	438.81
296.679	441.81
296.909	434.81
297.14	450.81
297.37	458.81
297.601	429.81
297.831	448.81
298.062	442.81
298.292	430.81
298.523	434.81
298.753	448.81
298.984	445.81
299.214	468.81
299.445	456.81
299.675	443.81
299.905	450.81
300.136	448.81
300.366	451.81
300.597	480.81
300.827	476.81
301.057	484.81
301.288	492.81
301.518	469.81
301.748	480.81
301.979	471.81
302.209	498.81
302.439	498.81
302.669	472.81
302.9	473.81
303.13	483.81
303.36	512.81
303.59	472.81
303.82	479.81
304.051	475.81
304.281	474.81
304.511	472.81
304.741	468.81
304.971	475.81
305.201	492.81
305.431	498.81
305.661	467.81
305.891	488.81
306.121	488.81
306.352	467.81
306.582	457.81
306.812	460.81
307.042	472.81
307.272	483.81
307.502	461.81
307.731	479.81
307.961	475.81
308.191	484.81
308.421	476.81
308.651	485.81
308.881	475.81
309.111	484.81
309.341	493.81
309.571	471.81
309.8	504.81
310.03	485.81
310.26	503.81
310.49	493.81
310.72	480.81
310.949	478.81
311.179	502.81
311.409	506.81
311.639	490.81
311.868	503.81
312.098	513.81
312.328	507.81
312.557	501.81
312.787	516.81
313.017	506.81
313.246	518.81
313.476	540.81
313.706	532.81
313.935	533.81
314.165	530.81
314.394	514.81
314.624	539.81
314.853	525.81
315.083	513.81
315.312	542.81
315.542	556.81
315.771	540.81
316.001	531.81
316.23	517.81
316.46	531.81
316.689	542.81
316.919	535.81
317.148	537.81
317.377	516.81
317.607	528.81
317.836	549.81
318.065	525.81
318.295	537.81
318.524	550.81
318.753	538.81
318.983	560.81
319.212	531.81
319.441	553.81
319.67	561.81
319.9	551.81
320.129	557.81
320.358	551.81
320.587	541.81
320.816	549.81
321.046	555.81
321.275	569.81
321.504	550.81
321.733	552.81
321.962	556.81
322.191	574.81
322.42	568.81
322.649	566.81
322.878	559.81
323.108	589.81
323.337	563.81
323.566	574.81
323.795	589.81
324.024	565.81
324.253	550.81
324.482	570.81
324.71	593.81
324.939	608.81
325.168	617.81
325.397	613.81
325.626	605.81
325.855	625.81
326.084	626.81
326.313	641.81
326.542	627.81
326.77	644.81
326.999	634.81
327.228	609.81
327.457	642.81
327.686	627.81
327.914	645.81
328.143	642.81
328.372	646.81
328.6	633.81
328.829	645.81
329.058	633.81
329.287	640.81
329.515	659.81
329.744	668.81
329.972	678.81
330.201	690.81
330.43	672.81
330.658	672.81
330.887	661.81
331.115	669.81
331.344	682.81
331.572	717.81
331.801	718.81
332.03	725.81
332.258	741.81
332.486	757.81
332.715	776.81
332.943	786.81
333.172	832.81
333.4	828.81
333.629	841.81
333.857	853.81
334.085	866.81
334.314	876.81
334.542	851.81
334.771	803.81
334.999	831.81
335.227	826.81
335.455	845.81
335.684	842.81
335.912	832.81
336.14	844.81
336.369	828.81
336.597	806.81
336.825	817.81
337.053	834.81
337.281	800.81
337.51	795.81
337.738	766.81
337.966	782.81
338.194	805.81
338.422	769.81
338.65	743.81
338.878	747.81
339.106	745.81
339.334	767.81
339.562	747.81
339.79	738.81
340.018	738.81
340.246	712.81
340.474	717.81
340.702	736.81
340.93	721.81
341.158	739.81
341.386	720.81
341.614	733.81
341.842	756.81
342.07	714.81
342.298	754.81
342.526	694.81
342.754	724.81
342.981	722.81
343.209	740.81
343.437	760.81
343.665	813.81
343.893	816.81
344.12	842.81
344.348	825.81
344.576	816.81
344.804	764.81
345.031	752.81
345.259	732.81
345.487	740.81
345.714	702.81
345.942	720.81
346.17	733.81
346.397	738.81
346.625	717.81
346.853	684.81
347.08	696.81
347.308	725.81
347.535	711.81
347.763	730.81
347.99	701.81
348.218	697.81
348.445	699.81
348.673	688.81
348.9	692.81
349.128	685.81
349.355	692.81
349.583	708.81
349.81	678.81
350.037	695.81
350.265	658.81
350.492	669.81
350.72	667.81
350.947	680.81
351.174	663.81
351.402	671.81
351.629	695.81
351.856	667.81
352.083	665.81
352.311	692.81
352.538	690.81
352.765	690.81
352.992	666.81
353.22	652.81
353.447	658.81
353.674	654.81
353.901	658.81
354.128	668.81
354.355	643.81
354.583	658.81
354.81	655.81
355.037	645.81
355.264	695.81
355.491	652.81
355.718	674.81
355.945	680.81
356.172	677.81
356.399	679.81
356.626	688.81
356.853	689.81
357.08	665.81
357.307	686.81
357.534	681.81
357.761	687.81
357.988	664.81
358.215	658.81
358.441	660.81
358.668	655.81
358.895	646.81
359.122	694.81
359.349	685.81
359.576	660.81
359.802	660.81
360.029	682.81
360.256	645.81
360.483	685.81
360.709	652.81
360.936	676.81
361.163	679.81
361.39	672.81
361.616	667.81
361.843	672.81
362.07	682.81
362.296	684.81
362.523	681.81
362.749	660.81
362.976	635.81
363.203	667.81
363.429	644.81
363.656	676.81
363.882	643.81
364.109	653.81
364.335	635.81
364.562	681.81
364.788	660.81
365.015	655.81
365.241	646.81
365.468	664.81
365.694	651.81
365.92	642.81
366.147	640.81
366.373	658.81
366.599	667.81
366.826	670.81
367.052	677.81
367.278	657.81
367.505	660.81
367.731	676.81
367.957	640.81
368.184	664.81
368.41	674.81
368.636	666.81
368.862	666.81
369.089	683.81
369.315	669.81
369.541	661.81
369.767	683.81
369.993	691.81
370.219	699.81
370.445	664.81
370.672	687.81
370.898	702.81
371.124	693.81
371.35	707.81
371.576	718.81
371.802	707.81
372.028	713.81
372.254	703.81
372.48	705.81
372.706	707.81
372.932	722.81
373.158	717.81
373.384	713.81
373.61	686.81
373.835	701.81
374.061	691.81
374.287	710.81
374.513	710.81
374.739	736.81
374.965	731.81
375.191	756.81
375.416	727.81
375.642	723.81
375.868	742.81
376.094	724.81
376.319	725.81
376.545	702.81
376.771	702.81
376.997	713.81
377.222	688.81
377.448	690.81
377.674	692.81
377.899	693.81
378.125	695.81
378.35	696.81
378.576	668.81
378.802	663.81
379.027	664.81
379.253	704.81
379.478	670.81
379.704	681.81
379.929	678.81
380.155	683.81
380.38	662.81
380.606	670.81
380.831	680.81
381.057	691.81
381.282	677.81
381.507	675.81
381.733	683.81
381.958	706.81
382.184	700.81
382.409	683.81
382.634	708.81
382.86	697.81
383.085	715.81
383.31	744.81
383.535	755.81
383.761	739.81
383.986	731.81
384.211	749.81
384.436	783.81
384.662	779.81
384.887	780.81
385.112	773.81
385.337	790.81
385.562	786.81
385.787	794.81
386.013	824.81
386.238	812.81
386.463	819.81
386.688	813.81
386.913	773.81
387.138	803.81
387.363	796.81
387.588	800.81
387.813	807.81
388.038	810.81
388.263	817.81
388.488	826.81
388.713	806.81
388.938	804.81
389.163	832.81
389.387	802.81
389.612	795.81
389.837	800.81
390.062	776.81
390.287	822.81
390.512	832.81
390.736	811.81
390.961	823.81
391.186	829.81
391.411	847.81
391.636	876.81
391.86	875.81
392.085	894.81
392.31	907.81
392.534	892.81
392.759	904.81
392.984	853.81
393.208	882.81
393.433	875.81
393.658	853.81
393.882	858.81
394.107	869.81
394.331	839.81
394.556	856.81
394.78	878.81
395.005	890.81
395.229	868.81
395.454	904.81
395.678	872.81
395.903	910.81
396.127	920.81
396.352	892.81
396.576	876.81
396.801	910.81
397.025	868.81
397.249	900.81
397.474	895.81
397.698	937.81
397.922	938.81
398.147	939.81
398.371	934.81
398.595	975.81
398.82	1008.81
399.044	1086.81
399.268	1173.81
399.492	1297.81
399.717	1371.81
399.941	1398.81
400.165	1278.81
400.389	1227.81
400.613	1119.81
400.837	1100.81
401.062	1083.81
401.286	1049.81
401.51	1026.81
401.734	1048.81
401.958	1046.81
402.182	1056.81
402.406	1044.81
402.63	1050.81
402.854	1054.81
403.078	1081.81
403.302	1093.81
403.526	1109.81
403.75	1141.81
403.974	1110.81
404.198	1126.81
404.422	1130.81
404.645	1110.81
404.869	1125.81
405.093	1114.81
405.317	1107.81
405.541	1117.81
405.765	1128.81
405.988	1110.81
406.212	1146.81
406.436	1132.81
406.66	1176.81
406.883	1176.81
407.107	1192.81
407.331	1256.81
407.555	1299.81
407.778	1300.81
408.002	1288.81
408.226	1226.81
408.449	1165.81
408.673	1190.81
408.896	1161.81
409.12	1168.81
409.344	1173.81
409.567	1139.81
409.791	1153.81
410.014	1154.81
410.238	1143.81
410.461	1117.81
410.685	1109.81
410.908	1102.81
411.132	1109.81
411.355	1057.81
411.578	1092.81
411.802	1095.81
412.025	1066.81
412.249	1114.81
412.472	1099.81
412.695	1047.81
412.919	1048.81
413.142	1058.81
413.365	1045.81
413.589	1045.81
413.812	1058.81
414.035	1073.81
414.258	1059.81
414.482	1063.81
414.705	1087.81
414.928	1068.81
415.151	1059.81
415.374	1045.81
415.597	1054.81
415.821	1025.81
416.044	1050.81
416.267	1024.81
416.49	1033.81
416.713	1041.81
416.936	1041.81
417.159	1019.81
417.382	1006.81
417.605	1027.81
417.828	1018.81
418.051	1024.81
418.274	1037.81
418.497	1004.81
418.72	1059.81
418.943	1080.81
419.166	1129.81
419.389	1185.81
419.611	1168.81
419.834	1131.81
420.057	1106.81
420.28	1077.81
420.503	1073.81
420.726	1030.81
420.948	1045.81
421.171	1038.81
421.394	1060.81
421.617	1024.81
421.839	1048.81
422.062	1024.81
422.285	1013.81
422.507	1042.81
422.73	1068.81
422.953	1060.81
423.175	1056.81
423.398	1096.81
423.621	1084.81
423.843	1077.81
424.066	1065.81
424.288	1052.81
424.511	1099.81
424.733	1074.81
424.956	1061.81
425.178	1048.81
425.401	1092.81
425.623	1029.81
425.846	1023.81
426.068	1039.81
426.291	1034.81
426.513	1006.81
426.735	1017.81
426.958	1034.81
427.18	976.81
427.402	969.81
427.625	987.81
427.847	966.81
428.069	965.81
428.292	1022.81
428.514	979.81
428.736	940.81
428.958	1000.81
429.181	959.81
429.403	952.81
429.625	931.81
429.847	947.81
430.069	913.81
430.292	930.81
430.514	929.81
430.736	964.81
430.958	962.81
431.18	968.81
431.402	976.81
431.624	959.81
431.846	961.81
432.068	967.81
432.29	974.81
432.512	956.81
432.734	977.81
432.956	951.81
433.178	1001.81
433.4	990.81
433.622	966.81
433.844	990.81
434.066	988.81
434.287	981.81
434.509	1013.81
434.731	1064.81
434.953	1042.81
435.175	1066.81
435.397	1068.81
435.618	1017.81
435.84	962.81
436.062	960.81
436.284	965.81
436.505	965.81
436.727	978.81
436.949	972.81
437.17	954.81
437.392	963.81
437.614	952.81
437.835	910.81
438.057	963.81
438.278	923.81
438.5	933.81
438.721	927.81
438.943	954.81
439.165	934.81
439.386	959.81
439.608	983.81
439.829	981.81
440.05	970.81
440.272	984.81
440.493	991.81
440.715	997.81
440.936	1017.81
441.158	1007.81
441.379	1062.81
441.6	1091.81
441.822	1080.81
442.043	1082.81
442.264	1039.81
442.486	1075.81
442.707	1066.81
442.928	1076.81
443.149	1090.81
443.371	1045.81
443.592	1099.81
443.813	1055.81
444.034	1108.81
444.255	1120.81
444.476	1154.81
444.698	1160.81
444.919	1233.81
445.14	1310.81
445.361	1202.81
445.582	1096.81
445.803	1093.81
446.024	1058.81
446.245	1031.81
446.466	1019.81
446.687	1042.81
446.908	1027.81
447.129	999.81
447.35	963.81
447.571	991.81
447.792	954.81
448.013	948.81
448.234	935.81
448.455	893.81
448.675	906.81
448.896	929.81
449.117	904.81
449.338	904.81
449.559	894.81
449.779	897.81
450	910.81
450.221	876.81
450.442	922.81
450.662	907.81
450.883	918.81
451.104	937.81
451.324	908.81
451.545	917.81
451.766	919.81
451.986	918.81
452.207	903.81
452.428	928.81
452.648	906.81
452.869	882.81
453.089	861.81
453.31	874.81
453.53	857.81
453.751	839.81
453.971	841.81
454.192	855.81
454.412	830.81
454.633	850.81
454.853	840.81
455.073	834.81
455.294	860.81
455.514	855.81
455.734	876.81
455.955	810.81
456.175	836.81
456.395	845.81
456.616	835.81
456.836	837.81
457.056	831.81
457.276	841.81
457.497	874.81
457.717	865.81
457.937	858.81
458.157	856.81
458.377	859.81
458.598	900.81
458.818	913.81
459.038	932.81
459.258	924.81
459.478	981.81
459.698	1020.81
459.918	1026.81
460.138	1041.81
460.358	1084.81
460.578	1108.81
460.798	1128.81
461.018	1140.81
461.238	1084.81
461.458	1115.81
461.678	1105.81
461.898	1129.81
462.118	1146.81
462.338	1170.81
462.558	1244.81
462.777	1252.81
462.997	1322.81
463.217	1414.81
463.437	1408.81
463.657	1339.81
463.876	1304.81
464.096	1278.81
464.316	1291.81
464.536	1298.81
464.755	1246.81
464.975	1224.81
465.195	1100.81
465.414	1109.81
465.634	1047.81
465.854	1020.81
466.073	980.81
466.293	1001.81
466.512	972.81
466.732	950.81
466.951	947.81
467.171	935.81
467.391	941.81
467.61	912.81
467.829	946.81
468.049	927.81
468.268	912.81
468.488	885.81
468.707	890.81
468.927	914.81
469.146	926.81
469.365	944.81
469.585	931.81
469.804	935.81
470.023	945.81
470.243	968.81
470.462	938.81
470.681	957.81
470.901	952.81
471.12	972.81
471.339	942.81
471.558	947.81
471.777	933.81
471.997	914.81
472.216	904.81
472.435	893.81
472.654	885.81
472.873	876.81
473.092	888.81
473.311	890.81
473.53	902.81
473.749	891.81
473.968	866.81
474.187	869.81
474.406	878.81
474.625	905.81
474.844	906.81
475.063	932.81
475.282	907.81
475.501	906.81
475.72	902.81
475.939	918.81
476.158	908.81
476.377	939.81
476.596	937.81
476.814	942.81
477.033	961.81
477.252	958.81
477.471	978.81
477.69	982.81
477.908	1009.81
478.127	1044.81
478.346	1062.81
478.564	1067.81
478.783	1088.81
479.002	1110.81
479.22	1102.81
479.439	1112.81
479.658	1057.81
479.876	1072.81
480.095	1065.81
480.313	1127.81
480.532	1149.81
480.751	1129.81
480.969	1094.81
481.188	1105.81
481.406	1058.81
481.624	1031.81
481.843	1029.81
482.061	1024.81
482.28	1024.81
482.498	977.81
482.717	1011.81
482.935	1013.81
483.153	1023.81
483.372	977.81
483.59	1019.81
483.808	998.81
484.027	1060.81
484.245	1063.81
484.463	1041.81
484.681	1044.81
484.9	1042.81
485.118	1050.81
485.336	1033.81
485.554	1061.81
485.772	1061.81
485.99	1044.81
486.209	1060.81
486.427	1063.81
486.645	1071.81
486.863	1069.81
487.081	1049.81
487.299	1088.81
487.517	1058.81
487.735	1092.81
487.953	1081.81
488.171	1080.81
488.389	1073.81
488.607	1020.81
488.825	1044.81
489.043	1064.81
489.261	1038.81
489.479	1068.81
489.696	1066.81
489.914	1065.81
490.132	1088.81
490.35	1057.81
490.568	1087.81
490.786	1106.81
491.003	1069.81
491.221	1137.81
491.439	1136.81
491.657	1108.81
491.874	1088.81
492.092	1132.81
492.31	1129.81
492.527	1114.81
492.745	1123.81
492.963	1125.81
493.18	1118.81
493.398	1134.81
493.615	1097.81
493.833	1152.81
494.05	1150.81
494.268	1157.81
494.485	1169.81
494.703	1173.81
494.92	1164.81
495.138	1153.81
495.355	1166.81
495.573	1185.81
495.79	1190.81
496.008	1192.81
496.225	1215.81
496.442	1224.81
496.66	1204.81
496.877	1247.81
497.094	1266.81
497.312	1288.81
497.529	1299.81
497.746	1340.81
