Data from Ni(NO3)2@0.125M.TitratingCurve.Agarose3%dH2O.NegLispCup.LampEnergy10.LIBS07252019_HRD10591_18-10-23-568.txt Node
Date: Thu Jul 25 18:10:23 EDT 2019
User: cochatt
Spectrometer: HR+D1059
Trigger mode: 1
Integration Time (sec): 1.000000E-1
Scans to average: 1
Electric dark correction enabled: true
Nonlinearity correction enabled: false
Boxcar width: 0
XAxis mode: Wavelengths
Number of Pixels in Spectrum: 2048
>>>>>Begin Spectral Data<<<<<
223.165	-9.69
223.4	-9.69
223.635	-9.69
223.869	-23.69
224.104	-26.69
224.338	-18.69
224.573	-8.69
224.808	-5.69
225.042	-10.69
225.277	-3.69
225.511	-2.69
225.746	1.31
225.98	2.31
226.215	17.31
226.449	11.31
226.683	20.31
226.918	26.31
227.152	31.31
227.387	44.31
227.621	38.31
227.856	46.31
228.09	50.31
228.324	51.31
228.559	57.31
228.793	67.31
229.027	94.31
229.262	93.31
229.496	93.31
229.73	115.31
229.964	123.31
230.199	109.31
230.433	119.31
230.667	105.31
230.901	109.31
231.136	110.31
231.37	128.31
231.604	110.31
231.838	119.31
232.072	123.31
232.306	102.31
232.541	123.31
232.775	143.31
233.009	124.31
233.243	123.31
233.477	119.31
233.711	133.31
233.945	138.31
234.179	124.31
234.413	131.31
234.647	136.31
234.881	123.31
235.115	138.31
235.349	136.31
235.583	133.31
235.817	121.31
236.051	122.31
236.285	145.31
236.519	129.31
236.753	123.31
236.987	131.31
237.221	125.31
237.455	133.31
237.689	128.31
237.922	131.31
238.156	142.31
238.39	145.31
238.624	142.31
238.858	145.31
239.091	139.31
239.325	141.31
239.559	151.31
239.793	131.31
240.027	140.31
240.26	153.31
240.494	149.31
240.728	147.31
240.961	148.31
241.195	150.31
241.429	138.31
241.662	148.31
241.896	158.31
242.13	165.31
242.363	146.31
242.597	158.31
242.83	153.31
243.064	159.31
243.298	155.31
243.531	168.31
243.765	153.31
243.998	167.31
244.232	166.31
244.465	178.31
244.699	163.31
244.932	160.31
245.166	166.31
245.399	185.31
245.633	179.31
245.866	177.31
246.099	170.31
246.333	186.31
246.566	180.31
246.8	176.31
247.033	195.31
247.266	174.31
247.5	185.31
247.733	171.31
247.966	180.31
248.2	173.31
248.433	196.31
248.666	185.31
248.899	188.31
249.133	202.31
249.366	199.31
249.599	199.31
249.832	202.31
250.066	210.31
250.299	203.31
250.532	189.31
250.765	204.31
250.998	190.31
251.231	190.31
251.465	205.31
251.698	200.31
251.931	194.31
252.164	209.31
252.397	205.31
252.63	213.31
252.863	217.31
253.096	216.31
253.329	204.31
253.562	206.31
253.795	203.31
254.028	219.31
254.261	207.31
254.494	214.31
254.727	194.31
254.96	223.31
255.193	226.31
255.426	222.31
255.659	224.31
255.892	232.31
256.124	237.31
256.357	219.31
256.59	226.31
256.823	239.31
257.056	233.31
257.289	231.31
257.521	218.31
257.754	225.31
257.987	228.31
258.22	226.31
258.452	231.31
258.685	238.31
258.918	238.31
259.151	227.31
259.383	248.31
259.616	240.31
259.849	247.31
260.081	251.31
260.314	242.31
260.547	242.31
260.779	247.31
261.012	258.31
261.244	236.31
261.477	237.31
261.71	256.31
261.942	246.31
262.175	245.31
262.407	271.31
262.64	249.31
262.872	242.31
263.105	262.31
263.337	257.31
263.57	257.31
263.802	260.31
264.035	265.31
264.267	268.31
264.499	259.31
264.732	258.31
264.964	265.31
265.197	276.31
265.429	258.31
265.661	262.31
265.894	270.31
266.126	287.31
266.358	276.31
266.591	286.31
266.823	284.31
267.055	264.31
267.287	269.31
267.52	252.31
267.752	270.31
267.984	289.31
268.216	257.31
268.448	285.31
268.681	273.31
268.913	279.31
269.145	292.31
269.377	285.31
269.609	285.31
269.841	293.31
270.073	295.31
270.306	272.31
270.538	275.31
270.77	299.31
271.002	272.31
271.234	283.31
271.466	298.31
271.698	290.31
271.93	305.31
272.162	284.31
272.394	280.31
272.626	294.31
272.858	286.31
273.09	297.31
273.322	324.31
273.553	289.31
273.785	303.31
274.017	303.31
274.249	303.31
274.481	309.31
274.713	297.31
274.945	307.31
275.176	322.31
275.408	323.31
275.64	316.31
275.872	295.31
276.104	323.31
276.335	303.31
276.567	317.31
276.799	323.31
277.031	316.31
277.262	302.31
277.494	315.31
277.726	313.31
277.957	303.31
278.189	322.31
278.421	313.31
278.652	325.31
278.884	331.31
279.115	343.31
279.347	330.31
279.579	358.31
279.81	338.31
280.042	347.31
280.273	351.31
280.505	351.31
280.736	350.31
280.968	338.31
281.199	334.31
281.431	323.31
281.662	334.31
281.894	343.31
282.125	326.31
282.356	351.31
282.588	345.31
282.819	335.31
283.051	347.31
283.282	333.31
283.513	363.31
283.745	350.31
283.976	352.31
284.207	342.31
284.439	367.31
284.67	357.31
284.901	358.31
285.132	362.31
285.364	362.31
285.595	364.31
285.826	348.31
286.057	374.31
286.288	373.31
286.52	359.31
286.751	376.31
286.982	369.31
287.213	374.31
287.444	377.31
287.675	358.31
287.906	373.31
288.138	389.31
288.369	392.31
288.6	403.31
288.831	377.31
289.062	390.31
289.293	385.31
289.524	378.31
289.755	372.31
289.986	380.31
290.217	381.31
290.448	378.31
290.679	371.31
290.91	402.31
291.141	379.31
291.371	380.31
291.602	390.31
291.833	391.31
292.064	398.31
292.295	393.31
292.526	408.31
292.757	390.31
292.987	387.31
293.218	385.31
293.449	393.31
293.68	395.31
293.91	397.31
294.141	392.31
294.372	401.31
294.603	392.31
294.833	408.31
295.064	390.31
295.295	418.31
295.525	399.31
295.756	386.31
295.987	399.31
296.217	414.31
296.448	403.31
296.679	400.31
296.909	390.31
297.14	409.31
297.37	416.31
297.601	427.31
297.831	412.31
298.062	433.31
298.292	429.31
298.523	439.31
298.753	439.31
298.984	445.31
299.214	417.31
299.445	424.31
299.675	436.31
299.905	420.31
300.136	462.31
300.366	454.31
300.597	447.31
300.827	430.31
301.057	439.31
301.288	444.31
301.518	458.31
301.748	447.31
301.979	466.31
302.209	453.31
302.439	445.31
302.669	431.31
302.9	456.31
303.13	413.31
303.36	420.31
303.59	456.31
303.82	441.31
304.051	442.31
304.281	442.31
304.511	446.31
304.741	453.31
304.971	449.31
305.201	406.31
305.431	418.31
305.661	444.31
305.891	447.31
306.121	443.31
306.352	434.31
306.582	427.31
306.812	439.31
307.042	437.31
307.272	436.31
307.502	421.31
307.731	406.31
307.961	421.31
308.191	405.31
308.421	428.31
308.651	444.31
308.881	416.31
309.111	445.31
309.341	409.31
309.571	423.31
309.8	423.31
310.03	423.31
310.26	434.31
310.49	423.31
310.72	430.31
310.949	437.31
311.179	425.31
311.409	435.31
311.639	430.31
311.868	452.31
312.098	445.31
312.328	464.31
312.557	453.31
312.787	444.31
313.017	453.31
313.246	472.31
313.476	467.31
313.706	463.31
313.935	467.31
314.165	482.31
314.394	457.31
314.624	477.31
314.853	463.31
315.083	463.31
315.312	466.31
315.542	449.31
315.771	458.31
316.001	451.31
316.23	466.31
316.46	433.31
316.689	450.31
316.919	435.31
317.148	438.31
317.377	440.31
317.607	459.31
317.836	438.31
318.065	439.31
318.295	437.31
318.524	440.31
318.753	462.31
318.983	440.31
319.212	428.31
319.441	457.31
319.67	439.31
319.9	453.31
320.129	440.31
320.358	467.31
320.587	457.31
320.816	457.31
321.046	449.31
321.275	464.31
321.504	455.31
321.733	471.31
321.962	457.31
322.191	449.31
322.42	436.31
322.649	452.31
322.878	472.31
323.108	468.31
323.337	471.31
323.566	441.31
323.795	466.31
324.024	438.31
324.253	471.31
324.482	445.31
324.71	471.31
324.939	455.31
325.168	476.31
325.397	449.31
325.626	495.31
325.855	472.31
326.084	486.31
326.313	483.31
326.542	479.31
326.77	522.31
326.999	486.31
327.228	498.31
327.457	506.31
327.686	488.31
327.914	493.31
328.143	493.31
328.372	514.31
328.6	497.31
328.829	511.31
329.058	487.31
329.287	498.31
329.515	514.31
329.744	520.31
329.972	500.31
330.201	487.31
330.43	489.31
330.658	503.31
330.887	515.31
331.115	534.31
331.344	527.31
331.572	501.31
331.801	540.31
332.03	557.31
332.258	563.31
332.486	601.31
332.715	594.31
332.943	638.31
333.172	649.31
333.4	656.31
333.629	720.31
333.857	671.31
334.085	666.31
334.314	643.31
334.542	667.31
334.771	654.31
334.999	641.31
335.227	630.31
335.455	632.31
335.684	618.31
335.912	623.31
336.14	586.31
336.369	627.31
336.597	622.31
336.825	587.31
337.053	622.31
337.281	586.31
337.51	577.31
337.738	598.31
337.966	567.31
338.194	557.31
338.422	536.31
338.65	558.31
338.878	553.31
339.106	535.31
339.334	561.31
339.562	545.31
339.79	526.31
340.018	535.31
340.246	520.31
340.474	530.31
340.702	538.31
340.93	523.31
341.158	554.31
341.386	517.31
341.614	515.31
341.842	531.31
342.07	513.31
342.298	511.31
342.526	515.31
342.754	503.31
342.981	519.31
343.209	530.31
343.437	549.31
343.665	597.31
343.893	639.31
344.12	639.31
344.348	629.31
344.576	596.31
344.804	573.31
345.031	559.31
345.259	534.31
345.487	541.31
345.714	530.31
345.942	522.31
346.17	520.31
346.397	502.31
346.625	484.31
346.853	520.31
347.08	515.31
347.308	529.31
347.535	520.31
347.763	514.31
347.99	529.31
348.218	538.31
348.445	521.31
348.673	527.31
348.9	517.31
349.128	509.31
349.355	502.31
349.583	493.31
349.81	521.31
350.037	488.31
350.265	481.31
350.492	501.31
350.72	484.31
350.947	492.31
351.174	501.31
351.402	476.31
351.629	498.31
351.856	489.31
352.083	463.31
352.311	475.31
352.538	489.31
352.765	484.31
352.992	490.31
353.22	493.31
353.447	481.31
353.674	497.31
353.901	486.31
354.128	476.31
354.355	477.31
354.583	481.31
354.81	493.31
355.037	491.31
355.264	509.31
355.491	502.31
355.718	498.31
355.945	498.31
356.172	483.31
356.399	502.31
356.626	500.31
356.853	482.31
357.08	502.31
357.307	505.31
357.534	483.31
357.761	497.31
357.988	493.31
358.215	479.31
358.441	486.31
358.668	490.31
358.895	482.31
359.122	481.31
359.349	503.31
359.576	489.31
359.802	492.31
360.029	474.31
360.256	477.31
360.483	487.31
360.709	488.31
360.936	514.31
361.163	516.31
361.39	493.31
361.616	511.31
361.843	510.31
362.07	470.31
362.296	458.31
362.523	492.31
362.749	508.31
362.976	477.31
363.203	482.31
363.429	480.31
363.656	493.31
363.882	473.31
364.109	472.31
364.335	493.31
364.562	465.31
364.788	469.31
365.015	488.31
365.241	507.31
365.468	491.31
365.694	502.31
365.92	479.31
366.147	498.31
366.373	496.31
366.599	500.31
366.826	503.31
367.052	483.31
367.278	511.31
367.505	486.31
367.731	498.31
367.957	494.31
368.184	477.31
368.41	493.31
368.636	503.31
368.862	507.31
369.089	508.31
369.315	506.31
369.541	507.31
369.767	481.31
369.993	511.31
370.219	535.31
370.445	507.31
370.672	504.31
370.898	493.31
371.124	528.31
371.35	525.31
371.576	517.31
371.802	524.31
372.028	548.31
372.254	534.31
372.48	518.31
372.706	527.31
372.932	576.31
373.158	539.31
373.384	532.31
373.61	539.31
373.835	513.31
374.061	539.31
374.287	537.31
374.513	531.31
374.739	558.31
374.965	574.31
375.191	603.31
375.416	589.31
375.642	587.31
375.868	557.31
376.094	551.31
376.319	563.31
376.545	566.31
376.771	556.31
376.997	537.31
377.222	538.31
377.448	531.31
377.674	534.31
377.899	558.31
378.125	535.31
378.35	532.31
378.576	535.31
378.802	534.31
379.027	512.31
379.253	535.31
379.478	542.31
379.704	533.31
379.929	529.31
380.155	514.31
380.38	538.31
380.606	538.31
380.831	521.31
381.057	541.31
381.282	513.31
381.507	526.31
381.733	544.31
381.958	535.31
382.184	551.31
382.409	558.31
382.634	551.31
382.86	527.31
383.085	575.31
383.31	565.31
383.535	596.31
383.761	604.31
383.986	607.31
384.211	600.31
384.436	623.31
384.662	632.31
384.887	651.31
385.112	660.31
385.337	656.31
385.562	643.31
385.787	640.31
386.013	643.31
386.238	653.31
386.463	638.31
386.688	637.31
386.913	629.31
387.138	629.31
387.363	628.31
387.588	620.31
387.813	637.31
388.038	637.31
388.263	613.31
388.488	637.31
388.713	616.31
388.938	616.31
389.163	602.31
389.387	624.31
389.612	608.31
389.837	599.31
390.062	631.31
390.287	608.31
390.512	616.31
390.736	612.31
390.961	629.31
391.186	663.31
391.411	676.31
391.636	671.31
391.86	698.31
392.085	714.31
392.31	721.31
392.534	678.31
392.759	683.31
392.984	699.31
393.208	712.31
393.433	667.31
393.658	695.31
393.882	659.31
394.107	693.31
394.331	677.31
394.556	670.31
394.78	680.31
395.005	675.31
395.229	682.31
395.454	702.31
395.678	701.31
395.903	708.31
396.127	704.31
396.352	679.31
396.576	664.31
396.801	666.31
397.025	671.31
397.249	699.31
397.474	705.31
397.698	730.31
397.922	710.31
398.147	710.31
398.371	724.31
398.595	737.31
398.82	749.31
399.044	813.31
399.268	908.31
399.492	1044.31
399.717	1215.31
399.941	1255.31
400.165	1083.31
400.389	940.31
400.613	858.31
400.837	851.31
401.062	836.31
401.286	796.31
401.51	781.31
401.734	769.31
401.958	778.31
402.182	817.31
402.406	825.31
402.63	814.31
402.854	850.31
403.078	858.31
403.302	915.31
403.526	919.31
403.75	951.31
403.974	935.31
404.198	950.31
404.422	968.31
404.645	937.31
404.869	935.31
405.093	909.31
405.317	883.31
405.541	911.31
405.765	904.31
405.988	866.31
406.212	866.31
406.436	870.31
406.66	902.31
406.883	905.31
407.107	973.31
407.331	1010.31
407.555	1031.31
407.778	1037.31
408.002	1004.31
408.226	1005.31
408.449	958.31
408.673	903.31
408.896	963.31
409.12	896.31
409.344	932.31
409.567	921.31
409.791	932.31
410.014	942.31
410.238	916.31
410.461	900.31
410.685	873.31
410.908	863.31
411.132	851.31
411.355	822.31
411.578	833.31
411.802	829.31
412.025	837.31
412.249	834.31
412.472	853.31
412.695	807.31
412.919	813.31
413.142	805.31
413.365	789.31
413.589	802.31
413.812	802.31
414.035	787.31
414.258	798.31
414.482	807.31
414.705	822.31
414.928	827.31
415.151	802.31
415.374	824.31
415.597	807.31
415.821	800.31
416.044	783.31
416.267	792.31
416.49	790.31
416.713	753.31
416.936	789.31
417.159	796.31
417.382	791.31
417.605	781.31
417.828	783.31
418.051	795.31
418.274	820.31
418.497	811.31
418.72	846.31
418.943	814.31
419.166	870.31
419.389	899.31
419.611	915.31
419.834	873.31
420.057	841.31
420.28	819.31
420.503	807.31
420.726	790.31
420.948	824.31
421.171	776.31
421.394	792.31
421.617	790.31
421.839	774.31
422.062	779.31
422.285	774.31
422.507	828.31
422.73	821.31
422.953	812.31
423.175	823.31
423.398	846.31
423.621	855.31
423.843	882.31
424.066	853.31
424.288	861.31
424.511	866.31
424.733	844.31
424.956	837.31
425.178	829.31
425.401	812.31
425.623	821.31
425.846	773.31
426.068	767.31
426.291	763.31
426.513	762.31
426.735	773.31
426.958	739.31
427.18	721.31
427.402	721.31
427.625	736.31
427.847	726.31
428.069	713.31
428.292	729.31
428.514	700.31
428.736	723.31
428.958	706.31
429.181	691.31
429.403	703.31
429.625	709.31
429.847	716.31
430.069	694.31
430.292	719.31
430.514	695.31
430.736	703.31
430.958	679.31
431.18	695.31
431.402	694.31
431.624	709.31
431.846	718.31
432.068	725.31
432.29	740.31
432.512	708.31
432.734	730.31
432.956	707.31
433.178	706.31
433.4	690.31
433.622	728.31
433.844	726.31
434.066	707.31
434.287	726.31
434.509	770.31
434.731	791.31
434.953	808.31
435.175	805.31
435.397	842.31
435.618	800.31
435.84	763.31
436.062	730.31
436.284	722.31
436.505	710.31
436.727	751.31
436.949	733.31
437.17	726.31
437.392	730.31
437.614	688.31
437.835	682.31
438.057	719.31
438.278	714.31
438.5	691.31
438.721	690.31
438.943	701.31
439.165	708.31
439.386	701.31
439.608	715.31
439.829	721.31
440.05	708.31
440.272	741.31
440.493	747.31
440.715	719.31
440.936	753.31
441.158	763.31
441.379	781.31
441.6	837.31
441.822	815.31
442.043	826.31
442.264	820.31
442.486	814.31
442.707	833.31
442.928	798.31
443.149	819.31
443.371	817.31
443.592	805.31
443.813	828.31
444.034	804.31
444.255	862.31
444.476	893.31
444.698	952.31
444.919	1014.31
445.14	1077.31
445.361	941.31
445.582	835.31
445.803	779.31
446.024	782.31
446.245	782.31
446.466	750.31
446.687	725.31
446.908	728.31
447.129	700.31
447.35	671.31
447.571	686.31
447.792	700.31
448.013	668.31
448.234	674.31
448.455	718.31
448.675	647.31
448.896	661.31
449.117	669.31
449.338	676.31
449.559	647.31
449.779	658.31
450	669.31
450.221	669.31
450.442	666.31
450.662	683.31
450.883	677.31
451.104	697.31
451.324	700.31
451.545	694.31
451.766	685.31
451.986	692.31
452.207	684.31
452.428	676.31
452.648	694.31
452.869	671.31
453.089	646.31
453.31	675.31
453.53	644.31
453.751	631.31
453.971	678.31
454.192	654.31
454.412	646.31
454.633	630.31
454.853	641.31
455.073	626.31
455.294	631.31
455.514	628.31
455.734	630.31
455.955	621.31
456.175	600.31
456.395	629.31
456.616	630.31
456.836	616.31
457.056	632.31
457.276	615.31
457.497	610.31
457.717	614.31
457.937	636.31
458.157	620.31
458.377	646.31
458.598	658.31
458.818	656.31
459.038	670.31
459.258	703.31
459.478	703.31
459.698	751.31
459.918	747.31
460.138	790.31
460.358	851.31
460.578	837.31
460.798	846.31
461.018	868.31
461.238	835.31
461.458	843.31
461.678	822.31
461.898	833.31
462.118	864.31
462.338	931.31
462.558	945.31
462.777	975.31
462.997	1074.31
463.217	1177.31
463.437	1207.31
463.657	1060.31
463.876	1039.31
464.096	987.31
464.316	990.31
464.536	1040.31
464.755	980.31
464.975	945.31
465.195	897.31
465.414	824.31
465.634	751.31
465.854	786.31
466.073	758.31
466.293	734.31
466.512	719.31
466.732	723.31
466.951	705.31
467.171	698.31
467.391	701.31
467.61	701.31
467.829	720.31
468.049	681.31
468.268	682.31
468.488	674.31
468.707	676.31
468.927	650.31
469.146	667.31
469.365	664.31
469.585	678.31
469.804	698.31
470.023	699.31
470.243	714.31
470.462	724.31
470.681	711.31
470.901	740.31
471.12	697.31
471.339	699.31
471.558	689.31
471.777	663.31
471.997	657.31
472.216	686.31
472.435	648.31
472.654	658.31
472.873	663.31
473.092	658.31
473.311	659.31
473.53	626.31
473.749	644.31
473.968	630.31
474.187	627.31
474.406	619.31
474.625	630.31
474.844	647.31
475.063	636.31
475.282	671.31
475.501	670.31
475.72	660.31
475.939	666.31
476.158	664.31
476.377	692.31
476.596	661.31
476.814	681.31
477.033	683.31
477.252	690.31
477.471	680.31
477.69	742.31
477.908	743.31
478.127	773.31
478.346	781.31
478.564	786.31
478.783	779.31
479.002	809.31
479.22	825.31
479.439	804.31
479.658	804.31
479.876	809.31
480.095	805.31
480.313	830.31
480.532	881.31
480.751	888.31
480.969	837.31
481.188	815.31
481.406	770.31
481.624	773.31
481.843	742.31
482.061	717.31
482.28	735.31
482.498	739.31
482.717	709.31
482.935	724.31
483.153	709.31
483.372	750.31
483.59	718.31
483.808	746.31
484.027	717.31
484.245	753.31
484.463	739.31
484.681	748.31
484.9	733.31
485.118	752.31
485.336	755.31
485.554	774.31
485.772	778.31
485.99	780.31
486.209	798.31
486.427	814.31
486.645	775.31
486.863	792.31
487.081	798.31
487.299	772.31
487.517	767.31
487.735	758.31
487.953	795.31
488.171	782.31
488.389	771.31
488.607	763.31
488.825	769.31
489.043	762.31
489.261	757.31
489.479	787.31
489.696	771.31
489.914	782.31
490.132	769.31
490.35	779.31
490.568	771.31
490.786	804.31
491.003	791.31
491.221	776.31
491.439	821.31
491.657	791.31
491.874	773.31
492.092	795.31
492.31	803.31
492.527	783.31
492.745	797.31
492.963	822.31
493.18	807.31
493.398	807.31
493.615	812.31
493.833	808.31
494.05	830.31
494.268	812.31
494.485	842.31
494.703	808.31
494.92	839.31
495.138	801.31
495.355	830.31
495.573	803.31
495.79	798.31
496.008	828.31
496.225	822.31
496.442	822.31
496.66	859.31
496.877	882.31
497.094	883.31
497.312	887.31
497.529	905.31
497.746	925.31
497.963	955.31
498.181	1003.31
498.398	1042.31
498.615	1083.31
498.832	1177.31
499.049	1219.31
499.267	1354.31
499.484	1493.31
499.701	1687.31
499.918	1860.31
500.135	2159.31
500.352	2481.31
500.569	2668.31
500.786	2559.31
501.003	2398.31
501.22	2127.31
