Data from Ni(NO3)2Standard.Agarose3%.GreenCap.LampEnergy5.5.E.O_HRD10591_14-40-08-188.txt Node
Date: Mon Jul 22 14:40:08 EDT 2019
User: cochatt
Spectrometer: HR+D1059
Trigger mode: 1
Integration Time (sec): 1.000000E-1
Scans to average: 1
Electric dark correction enabled: true
Nonlinearity correction enabled: false
Boxcar width: 0
XAxis mode: Wavelengths
Number of Pixels in Spectrum: 2048
>>>>>Begin Spectral Data<<<<<
223.165	-18.62
223.4	-18.62
223.635	-18.62
223.869	-27.62
224.104	-7.62
224.338	-13.62
224.573	-35.62
224.808	-14.62
225.042	1.38
225.277	-1.62
225.511	3.38
225.746	7.38
225.98	6.38
226.215	-8.62
226.449	32.38
226.683	21.38
226.918	20.38
227.152	35.38
227.387	34.38
227.621	39.38
227.856	40.38
228.09	47.38
228.324	39.38
228.559	81.38
228.793	59.38
229.027	66.38
229.262	66.38
229.496	70.38
229.73	55.38
229.964	73.38
230.199	61.38
230.433	53.38
230.667	60.38
230.901	59.38
231.136	76.38
231.37	71.38
231.604	73.38
231.838	72.38
232.072	83.38
232.306	83.38
232.541	87.38
232.775	81.38
233.009	89.38
233.243	69.38
233.477	70.38
233.711	76.38
233.945	88.38
234.179	89.38
234.413	83.38
234.647	60.38
234.881	63.38
235.115	72.38
235.349	75.38
235.583	86.38
235.817	65.38
236.051	69.38
236.285	96.38
236.519	89.38
236.753	78.38
236.987	85.38
237.221	79.38
237.455	66.38
237.689	72.38
237.922	75.38
238.156	74.38
238.39	60.38
238.624	81.38
238.858	81.38
239.091	80.38
239.325	79.38
239.559	74.38
239.793	73.38
240.027	79.38
240.26	81.38
240.494	84.38
240.728	61.38
240.961	58.38
241.195	81.38
241.429	88.38
241.662	87.38
241.896	81.38
242.13	69.38
242.363	75.38
242.597	66.38
242.83	88.38
243.064	88.38
243.298	86.38
243.531	79.38
243.765	63.38
243.998	84.38
244.232	85.38
244.465	79.38
244.699	79.38
244.932	72.38
245.166	66.38
245.399	70.38
245.633	69.38
245.866	73.38
246.099	67.38
246.333	87.38
246.566	83.38
246.8	78.38
247.033	69.38
247.266	81.38
247.5	73.38
247.733	85.38
247.966	87.38
248.2	78.38
248.433	87.38
248.666	70.38
248.899	80.38
249.133	82.38
249.366	88.38
249.599	77.38
249.832	79.38
250.066	78.38
250.299	75.38
250.532	93.38
250.765	70.38
250.998	84.38
251.231	67.38
251.465	94.38
251.698	69.38
251.931	69.38
252.164	71.38
252.397	73.38
252.63	77.38
252.863	77.38
253.096	78.38
253.329	81.38
253.562	72.38
253.795	87.38
254.028	83.38
254.261	82.38
254.494	85.38
254.727	82.38
254.96	96.38
255.193	82.38
255.426	73.38
255.659	80.38
255.892	89.38
256.124	73.38
256.357	83.38
256.59	90.38
256.823	86.38
257.056	75.38
257.289	74.38
257.521	79.38
257.754	80.38
257.987	79.38
258.22	74.38
258.452	80.38
258.685	85.38
258.918	81.38
259.151	83.38
259.383	77.38
259.616	77.38
259.849	73.38
260.081	67.38
260.314	83.38
260.547	73.38
260.779	91.38
261.012	83.38
261.244	75.38
261.477	75.38
261.71	61.38
261.942	80.38
262.175	95.38
262.407	80.38
262.64	64.38
262.872	81.38
263.105	85.38
263.337	86.38
263.57	82.38
263.802	81.38
264.035	83.38
264.267	74.38
264.499	87.38
264.732	70.38
264.964	85.38
265.197	76.38
265.429	94.38
265.661	66.38
265.894	82.38
266.126	77.38
266.358	84.38
266.591	73.38
266.823	79.38
267.055	68.38
267.287	95.38
267.52	90.38
267.752	79.38
267.984	67.38
268.216	79.38
268.448	81.38
268.681	86.38
268.913	86.38
269.145	96.38
269.377	100.38
269.609	87.38
269.841	82.38
270.073	69.38
270.306	86.38
270.538	79.38
270.77	87.38
271.002	66.38
271.234	82.38
271.466	84.38
271.698	95.38
271.93	69.38
272.162	75.38
272.394	92.38
272.626	94.38
272.858	84.38
273.09	86.38
273.322	83.38
273.553	70.38
273.785	72.38
274.017	73.38
274.249	83.38
274.481	91.38
274.713	68.38
274.945	89.38
275.176	80.38
275.408	65.38
275.64	74.38
275.872	86.38
276.104	75.38
276.335	75.38
276.567	82.38
276.799	75.38
277.031	84.38
277.262	92.38
277.494	78.38
277.726	81.38
277.957	81.38
278.189	68.38
278.421	81.38
278.652	71.38
278.884	73.38
279.115	83.38
279.347	90.38
279.579	86.38
279.81	82.38
280.042	76.38
280.273	75.38
280.505	78.38
280.736	72.38
280.968	85.38
281.199	77.38
281.431	85.38
281.662	79.38
281.894	90.38
282.125	80.38
282.356	84.38
282.588	99.38
282.819	86.38
283.051	91.38
283.282	89.38
283.513	91.38
283.745	85.38
283.976	78.38
284.207	86.38
284.439	82.38
284.67	88.38
284.901	84.38
285.132	79.38
285.364	77.38
285.595	93.38
285.826	83.38
286.057	75.38
286.288	80.38
286.52	79.38
286.751	89.38
286.982	91.38
287.213	82.38
287.444	87.38
287.675	81.38
287.906	85.38
288.138	94.38
288.369	75.38
288.6	73.38
288.831	72.38
289.062	103.38
289.293	86.38
289.524	76.38
289.755	75.38
289.986	85.38
290.217	89.38
290.448	70.38
290.679	76.38
290.91	93.38
291.141	83.38
291.371	90.38
291.602	87.38
291.833	74.38
292.064	70.38
292.295	75.38
292.526	83.38
292.757	71.38
292.987	76.38
293.218	79.38
293.449	92.38
293.68	82.38
293.91	83.38
294.141	75.38
294.372	70.38
294.603	90.38
294.833	89.38
295.064	90.38
295.295	97.38
295.525	84.38
295.756	88.38
295.987	94.38
296.217	83.38
296.448	74.38
296.679	86.38
296.909	82.38
297.14	87.38
297.37	88.38
297.601	79.38
297.831	75.38
298.062	82.38
298.292	76.38
298.523	82.38
298.753	82.38
298.984	86.38
299.214	82.38
299.445	92.38
299.675	90.38
299.905	85.38
300.136	78.38
300.366	81.38
300.597	75.38
300.827	81.38
301.057	71.38
301.288	74.38
301.518	79.38
301.748	69.38
301.979	80.38
302.209	89.38
302.439	97.38
302.669	82.38
302.9	77.38
303.13	72.38
303.36	90.38
303.59	98.38
303.82	80.38
304.051	79.38
304.281	82.38
304.511	90.38
304.741	86.38
304.971	72.38
305.201	70.38
305.431	82.38
305.661	105.38
305.891	79.38
306.121	73.38
306.352	86.38
306.582	95.38
306.812	86.38
307.042	76.38
307.272	82.38
307.502	88.38
307.731	93.38
307.961	85.38
308.191	71.38
308.421	93.38
308.651	94.38
308.881	86.38
309.111	82.38
309.341	79.38
309.571	93.38
309.8	95.38
310.03	88.38
310.26	71.38
310.49	90.38
310.72	73.38
310.949	90.38
311.179	82.38
311.409	80.38
311.639	82.38
311.868	95.38
312.098	79.38
312.328	79.38
312.557	77.38
312.787	82.38
313.017	90.38
313.246	77.38
313.476	75.38
313.706	76.38
313.935	86.38
314.165	98.38
314.394	89.38
314.624	85.38
314.853	88.38
315.083	86.38
315.312	86.38
315.542	88.38
315.771	86.38
316.001	86.38
316.23	79.38
316.46	84.38
316.689	87.38
316.919	82.38
317.148	85.38
317.377	75.38
317.607	75.38
317.836	95.38
318.065	85.38
318.295	85.38
318.524	97.38
318.753	84.38
318.983	85.38
319.212	79.38
319.441	86.38
319.67	75.38
319.9	83.38
320.129	79.38
320.358	86.38
320.587	89.38
320.816	89.38
321.046	83.38
321.275	94.38
321.504	65.38
321.733	86.38
321.962	92.38
322.191	93.38
322.42	87.38
322.649	75.38
322.878	86.38
323.108	104.38
323.337	63.38
323.566	85.38
323.795	77.38
324.024	82.38
324.253	78.38
324.482	85.38
324.71	97.38
324.939	82.38
325.168	89.38
325.397	74.38
325.626	81.38
325.855	78.38
326.084	81.38
326.313	90.38
326.542	87.38
326.77	90.38
326.999	87.38
327.228	88.38
327.457	88.38
327.686	78.38
327.914	84.38
328.143	87.38
328.372	88.38
328.6	88.38
328.829	84.38
329.058	85.38
329.287	81.38
329.515	97.38
329.744	73.38
329.972	80.38
330.201	86.38
330.43	95.38
330.658	87.38
330.887	85.38
331.115	80.38
331.344	79.38
331.572	73.38
331.801	88.38
332.03	75.38
332.258	89.38
332.486	78.38
332.715	92.38
332.943	82.38
333.172	83.38
333.4	91.38
333.629	82.38
333.857	88.38
334.085	100.38
334.314	95.38
334.542	82.38
334.771	95.38
334.999	87.38
335.227	74.38
335.455	80.38
335.684	88.38
335.912	86.38
336.14	94.38
336.369	86.38
336.597	73.38
336.825	92.38
337.053	86.38
337.281	86.38
337.51	79.38
337.738	82.38
337.966	78.38
338.194	93.38
338.422	84.38
338.65	91.38
338.878	74.38
339.106	94.38
339.334	81.38
339.562	94.38
339.79	88.38
340.018	70.38
340.246	85.38
340.474	88.38
340.702	81.38
340.93	98.38
341.158	95.38
341.386	79.38
341.614	91.38
341.842	78.38
342.07	84.38
342.298	96.38
342.526	90.38
342.754	92.38
342.981	85.38
343.209	74.38
343.437	81.38
343.665	107.38
343.893	93.38
344.12	98.38
344.348	95.38
344.576	98.38
344.804	94.38
345.031	78.38
345.259	91.38
345.487	95.38
345.714	100.38
345.942	76.38
346.17	93.38
346.397	99.38
346.625	80.38
346.853	74.38
347.08	62.38
347.308	85.38
347.535	71.38
347.763	83.38
347.99	78.38
348.218	104.38
348.445	82.38
348.673	83.38
348.9	95.38
349.128	89.38
349.355	88.38
349.583	84.38
349.81	91.38
350.037	84.38
350.265	90.38
350.492	76.38
350.72	95.38
350.947	75.38
351.174	74.38
351.402	67.38
351.629	99.38
351.856	75.38
352.083	85.38
352.311	90.38
352.538	92.38
352.765	81.38
352.992	90.38
353.22	73.38
353.447	77.38
353.674	83.38
353.901	99.38
354.128	76.38
354.355	81.38
354.583	80.38
354.81	97.38
355.037	98.38
355.264	94.38
355.491	79.38
355.718	82.38
355.945	90.38
356.172	86.38
356.399	84.38
356.626	90.38
356.853	94.38
357.08	77.38
357.307	85.38
357.534	77.38
357.761	79.38
357.988	85.38
358.215	88.38
358.441	90.38
358.668	73.38
358.895	74.38
359.122	78.38
359.349	78.38
359.576	90.38
359.802	93.38
360.029	84.38
360.256	93.38
360.483	79.38
360.709	75.38
360.936	97.38
361.163	73.38
361.39	75.38
361.616	76.38
361.843	74.38
362.07	87.38
362.296	96.38
362.523	96.38
362.749	88.38
362.976	88.38
363.203	88.38
363.429	83.38
363.656	77.38
363.882	82.38
364.109	75.38
364.335	86.38
364.562	78.38
364.788	86.38
365.015	76.38
365.241	102.38
365.468	78.38
365.694	75.38
365.92	83.38
366.147	94.38
366.373	80.38
366.599	65.38
366.826	84.38
367.052	89.38
367.278	71.38
367.505	77.38
367.731	84.38
367.957	88.38
368.184	88.38
368.41	91.38
368.636	83.38
368.862	85.38
369.089	85.38
369.315	79.38
369.541	69.38
369.767	87.38
369.993	83.38
370.219	78.38
370.445	76.38
370.672	79.38
370.898	81.38
371.124	79.38
371.35	95.38
371.576	82.38
371.802	85.38
372.028	82.38
372.254	90.38
372.48	81.38
372.706	79.38
372.932	83.38
373.158	82.38
373.384	69.38
373.61	84.38
373.835	88.38
374.061	67.38
374.287	78.38
374.513	88.38
374.739	82.38
374.965	73.38
375.191	82.38
375.416	90.38
375.642	83.38
375.868	75.38
376.094	82.38
376.319	74.38
376.545	87.38
376.771	91.38
376.997	88.38
377.222	79.38
377.448	80.38
377.674	74.38
377.899	90.38
378.125	88.38
378.35	83.38
378.576	84.38
378.802	71.38
379.027	78.38
379.253	88.38
379.478	96.38
379.704	96.38
379.929	93.38
380.155	86.38
380.38	69.38
380.606	79.38
380.831	89.38
381.057	95.38
381.282	85.38
381.507	83.38
381.733	77.38
381.958	75.38
382.184	94.38
382.409	80.38
382.634	78.38
382.86	79.38
383.085	91.38
383.31	91.38
383.535	84.38
383.761	74.38
383.986	83.38
384.211	75.38
384.436	73.38
384.662	79.38
384.887	90.38
385.112	89.38
385.337	71.38
385.562	73.38
385.787	87.38
386.013	80.38
386.238	80.38
386.463	74.38
386.688	74.38
386.913	94.38
387.138	78.38
387.363	99.38
387.588	85.38
387.813	87.38
388.038	87.38
388.263	79.38
388.488	74.38
388.713	86.38
388.938	91.38
389.163	71.38
389.387	87.38
389.612	81.38
389.837	78.38
390.062	75.38
390.287	83.38
390.512	92.38
390.736	77.38
390.961	80.38
391.186	80.38
391.411	67.38
391.636	80.38
391.86	78.38
392.085	83.38
392.31	89.38
392.534	85.38
392.759	73.38
392.984	83.38
393.208	94.38
393.433	82.38
393.658	73.38
393.882	73.38
394.107	81.38
394.331	89.38
394.556	97.38
394.78	88.38
395.005	83.38
395.229	71.38
395.454	76.38
395.678	87.38
395.903	77.38
396.127	86.38
396.352	88.38
396.576	84.38
396.801	93.38
397.025	85.38
397.249	72.38
397.474	92.38
397.698	85.38
397.922	94.38
398.147	88.38
398.371	85.38
398.595	82.38
398.82	81.38
399.044	86.38
399.268	85.38
399.492	86.38
399.717	77.38
399.941	79.38
400.165	101.38
400.389	90.38
400.613	76.38
400.837	93.38
401.062	76.38
401.286	79.38
401.51	81.38
401.734	76.38
401.958	72.38
402.182	77.38
402.406	80.38
402.63	89.38
402.854	87.38
403.078	83.38
403.302	88.38
403.526	76.38
403.75	102.38
403.974	85.38
404.198	84.38
404.422	75.38
404.645	79.38
404.869	76.38
405.093	90.38
405.317	87.38
405.541	83.38
405.765	84.38
405.988	84.38
406.212	75.38
406.436	98.38
406.66	95.38
406.883	111.38
407.107	87.38
407.331	86.38
407.555	82.38
407.778	84.38
408.002	88.38
408.226	80.38
408.449	89.38
408.673	85.38
408.896	92.38
409.12	97.38
409.344	94.38
409.567	66.38
409.791	89.38
410.014	84.38
410.238	90.38
410.461	91.38
410.685	78.38
410.908	84.38
411.132	87.38
411.355	84.38
411.578	78.38
411.802	90.38
412.025	78.38
412.249	84.38
412.472	84.38
412.695	78.38
412.919	79.38
413.142	80.38
413.365	63.38
413.589	86.38
413.812	85.38
414.035	72.38
414.258	65.38
414.482	67.38
414.705	86.38
414.928	88.38
415.151	89.38
415.374	94.38
415.597	74.38
415.821	87.38
416.044	77.38
416.267	99.38
416.49	90.38
416.713	90.38
416.936	81.38
417.159	78.38
417.382	82.38
417.605	82.38
417.828	87.38
418.051	79.38
418.274	86.38
418.497	75.38
418.72	73.38
418.943	84.38
419.166	82.38
419.389	89.38
419.611	89.38
419.834	84.38
420.057	72.38
420.28	85.38
420.503	75.38
420.726	78.38
420.948	85.38
421.171	85.38
421.394	87.38
421.617	88.38
421.839	86.38
422.062	86.38
422.285	82.38
422.507	93.38
422.73	80.38
422.953	90.38
423.175	73.38
423.398	80.38
423.621	98.38
423.843	101.38
424.066	91.38
424.288	86.38
424.511	98.38
424.733	85.38
424.956	86.38
425.178	91.38
425.401	95.38
425.623	88.38
425.846	86.38
426.068	84.38
426.291	81.38
426.513	72.38
426.735	90.38
426.958	88.38
427.18	79.38
427.402	74.38
427.625	90.38
427.847	73.38
428.069	74.38
428.292	84.38
428.514	104.38
428.736	77.38
428.958	87.38
429.181	103.38
429.403	85.38
429.625	74.38
429.847	85.38
430.069	86.38
430.292	75.38
430.514	78.38
430.736	102.38
430.958	77.38
431.18	93.38
431.402	79.38
431.624	80.38
431.846	72.38
432.068	79.38
432.29	80.38
432.512	72.38
432.734	91.38
432.956	87.38
433.178	85.38
433.4	83.38
433.622	86.38
433.844	71.38
434.066	83.38
434.287	88.38
434.509	80.38
434.731	87.38
434.953	77.38
435.175	93.38
435.397	85.38
435.618	87.38
435.84	71.38
436.062	92.38
436.284	76.38
436.505	90.38
436.727	85.38
436.949	93.38
437.17	85.38
437.392	94.38
437.614	83.38
437.835	103.38
438.057	86.38
438.278	68.38
438.5	91.38
438.721	79.38
438.943	77.38
439.165	74.38
439.386	97.38
439.608	90.38
439.829	90.38
440.05	95.38
440.272	94.38
440.493	82.38
440.715	78.38
440.936	85.38
441.158	81.38
441.379	85.38
441.6	88.38
441.822	90.38
442.043	87.38
442.264	81.38
442.486	98.38
442.707	91.38
442.928	94.38
443.149	83.38
443.371	93.38
443.592	82.38
443.813	81.38
444.034	82.38
444.255	87.38
444.476	86.38
444.698	70.38
444.919	83.38
445.14	218.38
445.361	134.38
445.582	79.38
445.803	72.38
446.024	82.38
446.245	77.38
446.466	83.38
446.687	79.38
446.908	81.38
447.129	86.38
447.35	74.38
447.571	83.38
447.792	98.38
448.013	79.38
448.234	80.38
448.455	89.38
448.675	81.38
448.896	75.38
449.117	73.38
449.338	74.38
449.559	84.38
449.779	87.38
450	86.38
450.221	78.38
450.442	78.38
450.662	91.38
450.883	75.38
451.104	93.38
451.324	79.38
451.545	74.38
451.766	70.38
451.986	70.38
452.207	97.38
452.428	88.38
452.648	79.38
452.869	79.38
453.089	73.38
453.31	81.38
453.53	78.38
453.751	87.38
453.971	85.38
454.192	72.38
454.412	70.38
454.633	67.38
454.853	83.38
455.073	72.38
455.294	83.38
455.514	87.38
455.734	73.38
455.955	100.38
456.175	77.38
456.395	80.38
456.616	85.38
456.836	89.38
457.056	90.38
457.276	79.38
457.497	82.38
457.717	75.38
457.937	82.38
458.157	91.38
458.377	71.38
458.598	83.38
458.818	86.38
459.038	85.38
459.258	83.38
459.478	82.38
459.698	77.38
459.918	99.38
460.138	83.38
460.358	95.38
460.578	94.38
460.798	90.38
461.018	86.38
461.238	79.38
461.458	102.38
461.678	96.38
461.898	97.38
462.118	92.38
462.338	94.38
462.558	82.38
462.777	87.38
462.997	83.38
463.217	85.38
463.437	86.38
463.657	80.38
463.876	93.38
464.096	84.38
464.316	100.38
464.536	84.38
464.755	92.38
464.975	94.38
465.195	78.38
465.414	83.38
465.634	80.38
465.854	89.38
466.073	83.38
466.293	103.38
466.512	92.38
466.732	81.38
466.951	85.38
467.171	88.38
467.391	92.38
467.61	68.38
467.829	70.38
468.049	82.38
468.268	91.38
468.488	88.38
468.707	88.38
468.927	85.38
469.146	70.38
469.365	95.38
469.585	88.38
469.804	84.38
470.023	86.38
470.243	84.38
470.462	89.38
470.681	82.38
470.901	97.38
471.12	81.38
471.339	88.38
471.558	81.38
471.777	81.38
471.997	93.38
472.216	91.38
472.435	75.38
472.654	72.38
472.873	95.38
473.092	81.38
473.311	99.38
473.53	86.38
473.749	88.38
473.968	74.38
474.187	90.38
474.406	78.38
474.625	98.38
474.844	84.38
475.063	89.38
475.282	94.38
475.501	77.38
475.72	99.38
475.939	100.38
476.158	86.38
476.377	88.38
476.596	84.38
476.814	71.38
477.033	88.38
477.252	90.38
477.471	94.38
477.69	83.38
477.908	82.38
478.127	85.38
478.346	73.38
478.564	89.38
478.783	86.38
479.002	92.38
479.22	80.38
479.439	107.38
479.658	83.38
479.876	103.38
480.095	90.38
480.313	78.38
480.532	86.38
480.751	87.38
480.969	90.38
481.188	95.38
481.406	91.38
481.624	96.38
481.843	83.38
482.061	88.38
482.28	99.38
482.498	102.38
482.717	90.38
482.935	89.38
483.153	92.38
483.372	91.38
483.59	77.38
483.808	106.38
484.027	91.38
484.245	82.38
484.463	80.38
484.681	99.38
484.9	90.38
485.118	91.38
485.336	82.38
485.554	87.38
485.772	89.38
485.99	94.38
486.209	97.38
486.427	93.38
486.645	100.38
486.863	95.38
487.081	102.38
487.299	96.38
487.517	109.38
487.735	91.38
487.953	101.38
488.171	105.38
488.389	87.38
488.607	80.38
488.825	82.38
489.043	80.38
489.261	89.38
489.479	94.38
489.696	86.38
489.914	93.38
490.132	91.38
490.35	89.38
490.568	92.38
490.786	92.38
491.003	94.38
491.221	112.38
491.439	96.38
491.657	96.38
491.874	90.38
492.092	91.38
492.31	93.38
492.527	111.38
492.745	85.38
492.963	99.38
493.18	98.38
493.398	93.38
493.615	73.38
493.833	88.38
494.05	86.38
494.268	98.38
494.485	90.38
494.703	98.38
494.92	95.38
495.138	96.38
495.355	83.38
495.573	96.38
495.79	94.38
496.008	88.38
496.225	83.38
496.442	85.38
496.66	85.38
496.877	84.38
497.094	112.38
497.312	86.38
497.529	94.38
497.746	103.38
497.963	101.38
498.181	82.38
498.398	104.38
498.615	103.38
498.832	107.38
499.049	105.38
499.267	94.38
499.484	95.38
499.701	93.38
499.918	93.38
500.135	114.38
500.352	114.38
500.569	108.38
500.786	106.38
501.003	113.38
501.22	106.38
501.437	95.38
501.654	107.38
501.871	109.38
502.088	80.38
502.305	91.38
502.522	91.38
502.739	88.38
502.956	99.38
503.172	101.38
503.389	110.38
503.606	99.38
503.823	97.38
504.04	90.38
504.256	88.38
504.473	105.38
504.69	97.38
504.907	94.38
505.123	93.38
505.34	96.38
505.557	97.38
505.773	89.38
505.99	84.38
506.207	93.38
506.423	75.38
506.64	84.38
506.856	92.38
507.073	91.38
507.289	91.38
507.506	91.38
507.722	93.38
507.939	94.38
508.155	93.38
508.372	91.38
508.588	97.38
508.805	100.38
509.021	77.38
509.238	82.38
509.454	84.38
509.67	93.38
509.887	90.38
510.103	105.38
510.319	92.38
510.536	81.38
510.752	90.38
510.968	90.38
511.184	82.38
511.401	86.38
511.617	93.38
511.833	90.38
512.049	100.38
512.265	90.38
512.481	82.38
512.698	80.38
512.914	76.38
513.13	82.38
513.346	80.38
513.562	97.38
513.778	103.38
513.994	86.38
514.21	93.38
514.426	85.38
514.642	85.38
514.858	89.38
515.074	80.38
515.29	85.38
515.506	87.38
515.721	94.38
515.937	97.38
516.153	87.38
516.369	97.38
516.585	90.38
516.801	89.38
517.016	80.38
517.232	97.38
517.448	101.38
517.664	83.38
517.879	106.38
518.095	106.38
518.311	93.38
518.527	90.38
518.742	86.38
