Data from Ni(NO3)2@0.125M.TitratingCurve.Agarose3%dH2O.NegLispCup.LampEnergy10.LIBS07252019_HRD10591_18-11-13-568.txt Node
Date: Thu Jul 25 18:11:13 EDT 2019
User: cochatt
Spectrometer: HR+D1059
Trigger mode: 1
Integration Time (sec): 1.000000E-1
Scans to average: 1
Electric dark correction enabled: true
Nonlinearity correction enabled: false
Boxcar width: 0
XAxis mode: Wavelengths
Number of Pixels in Spectrum: 2048
>>>>>Begin Spectral Data<<<<<
223.165	-18.56
223.4	-18.56
223.635	-18.56
223.869	-15.56
224.104	-20.56
224.338	-15.56
224.573	-10.56
224.808	-10.56
225.042	-13.56
225.277	-0.56
225.511	-0.56
225.746	0.44
225.98	11.44
226.215	15.44
226.449	9.44
226.683	30.44
226.918	16.44
227.152	22.44
227.387	19.44
227.621	31.44
227.856	46.44
228.09	41.44
228.324	55.44
228.559	55.44
228.793	86.44
229.027	112.44
229.262	128.44
229.496	139.44
229.73	137.44
229.964	132.44
230.199	145.44
230.433	147.44
230.667	159.44
230.901	148.44
231.136	143.44
231.37	148.44
231.604	165.44
231.838	169.44
232.072	157.44
232.306	167.44
232.541	169.44
232.775	181.44
233.009	162.44
233.243	161.44
233.477	167.44
233.711	165.44
233.945	185.44
234.179	168.44
234.413	168.44
234.647	184.44
234.881	154.44
235.115	179.44
235.349	159.44
235.583	178.44
235.817	158.44
236.051	183.44
236.285	175.44
236.519	192.44
236.753	190.44
236.987	181.44
237.221	178.44
237.455	186.44
237.689	187.44
237.922	184.44
238.156	200.44
238.39	184.44
238.624	202.44
238.858	197.44
239.091	206.44
239.325	191.44
239.559	211.44
239.793	190.44
240.027	223.44
240.26	222.44
240.494	214.44
240.728	198.44
240.961	211.44
241.195	209.44
241.429	207.44
241.662	241.44
241.896	225.44
242.13	225.44
242.363	238.44
242.597	247.44
242.83	231.44
243.064	229.44
243.298	242.44
243.531	233.44
243.765	247.44
243.998	263.44
244.232	259.44
244.465	257.44
244.699	262.44
244.932	243.44
245.166	241.44
245.399	248.44
245.633	245.44
245.866	251.44
246.099	274.44
246.333	261.44
246.566	271.44
246.8	258.44
247.033	265.44
247.266	265.44
247.5	268.44
247.733	253.44
247.966	278.44
248.2	286.44
248.433	276.44
248.666	298.44
248.899	275.44
249.133	263.44
249.366	304.44
249.599	282.44
249.832	299.44
250.066	292.44
250.299	310.44
250.532	289.44
250.765	315.44
250.998	313.44
251.231	286.44
251.465	321.44
251.698	310.44
251.931	325.44
252.164	309.44
252.397	325.44
252.63	350.44
252.863	332.44
253.096	319.44
253.329	315.44
253.562	319.44
253.795	324.44
254.028	334.44
254.261	323.44
254.494	347.44
254.727	335.44
254.96	327.44
255.193	353.44
255.426	350.44
255.659	351.44
255.892	341.44
256.124	347.44
256.357	338.44
256.59	341.44
256.823	349.44
257.056	345.44
257.289	361.44
257.521	361.44
257.754	358.44
257.987	354.44
258.22	356.44
258.452	358.44
258.685	373.44
258.918	356.44
259.151	358.44
259.383	377.44
259.616	358.44
259.849	395.44
260.081	369.44
260.314	385.44
260.547	368.44
260.779	397.44
261.012	394.44
261.244	388.44
261.477	387.44
261.71	401.44
261.942	381.44
262.175	381.44
262.407	392.44
262.64	417.44
262.872	413.44
263.105	393.44
263.337	397.44
263.57	391.44
263.802	399.44
264.035	407.44
264.267	429.44
264.499	411.44
264.732	432.44
264.964	425.44
265.197	431.44
265.429	419.44
265.661	418.44
265.894	437.44
266.126	418.44
266.358	431.44
266.591	431.44
266.823	458.44
267.055	438.44
267.287	435.44
267.52	436.44
267.752	448.44
267.984	436.44
268.216	442.44
268.448	439.44
268.681	434.44
268.913	447.44
269.145	441.44
269.377	477.44
269.609	476.44
269.841	467.44
270.073	474.44
270.306	458.44
270.538	446.44
270.77	468.44
271.002	457.44
271.234	463.44
271.466	470.44
271.698	462.44
271.93	445.44
272.162	463.44
272.394	481.44
272.626	486.44
272.858	496.44
273.09	475.44
273.322	482.44
273.553	507.44
273.785	491.44
274.017	507.44
274.249	499.44
274.481	518.44
274.713	490.44
274.945	520.44
275.176	523.44
275.408	518.44
275.64	512.44
275.872	502.44
276.104	519.44
276.335	519.44
276.567	514.44
276.799	509.44
277.031	494.44
277.262	523.44
277.494	545.44
277.726	506.44
277.957	500.44
278.189	531.44
278.421	523.44
278.652	533.44
278.884	513.44
279.115	550.44
279.347	541.44
279.579	549.44
279.81	545.44
280.042	556.44
280.273	541.44
280.505	545.44
280.736	566.44
280.968	564.44
281.199	562.44
281.431	584.44
281.662	585.44
281.894	572.44
282.125	573.44
282.356	583.44
282.588	608.44
282.819	595.44
283.051	583.44
283.282	580.44
283.513	588.44
283.745	561.44
283.976	582.44
284.207	590.44
284.439	588.44
284.67	599.44
284.901	597.44
285.132	607.44
285.364	639.44
285.595	633.44
285.826	592.44
286.057	621.44
286.288	624.44
286.52	596.44
286.751	613.44
286.982	642.44
287.213	640.44
287.444	620.44
287.675	627.44
287.906	615.44
288.138	634.44
288.369	629.44
288.6	632.44
288.831	621.44
289.062	644.44
289.293	643.44
289.524	657.44
289.755	663.44
289.986	646.44
290.217	637.44
290.448	631.44
290.679	649.44
290.91	659.44
291.141	634.44
291.371	660.44
291.602	632.44
291.833	650.44
292.064	644.44
292.295	665.44
292.526	629.44
292.757	658.44
292.987	628.44
293.218	649.44
293.449	666.44
293.68	637.44
293.91	636.44
294.141	646.44
294.372	639.44
294.603	648.44
294.833	647.44
295.064	654.44
295.295	665.44
295.525	661.44
295.756	686.44
295.987	661.44
296.217	665.44
296.448	669.44
296.679	691.44
296.909	708.44
297.14	681.44
297.37	707.44
297.601	690.44
297.831	704.44
298.062	712.44
298.292	718.44
298.523	729.44
298.753	735.44
298.984	724.44
299.214	691.44
299.445	696.44
299.675	699.44
299.905	696.44
300.136	723.44
300.366	706.44
300.597	730.44
300.827	713.44
301.057	752.44
301.288	763.44
301.518	772.44
301.748	748.44
301.979	753.44
302.209	775.44
302.439	763.44
302.669	757.44
302.9	750.44
303.13	719.44
303.36	727.44
303.59	733.44
303.82	727.44
304.051	745.44
304.281	741.44
304.511	733.44
304.741	742.44
304.971	737.44
305.201	770.44
305.431	727.44
305.661	733.44
305.891	730.44
306.121	754.44
306.352	742.44
306.582	729.44
306.812	736.44
307.042	735.44
307.272	731.44
307.502	723.44
307.731	728.44
307.961	723.44
308.191	702.44
308.421	699.44
308.651	723.44
308.881	678.44
309.111	737.44
309.341	716.44
309.571	723.44
309.8	759.44
310.03	740.44
310.26	741.44
310.49	742.44
310.72	793.44
310.949	742.44
311.179	721.44
311.409	725.44
311.639	747.44
311.868	733.44
312.098	739.44
312.328	742.44
312.557	778.44
312.787	767.44
313.017	763.44
313.246	794.44
313.476	779.44
313.706	793.44
313.935	784.44
314.165	785.44
314.394	775.44
314.624	774.44
314.853	778.44
315.083	800.44
315.312	787.44
315.542	756.44
315.771	789.44
316.001	801.44
316.23	793.44
316.46	782.44
316.689	769.44
316.919	771.44
317.148	785.44
317.377	753.44
317.607	749.44
317.836	752.44
318.065	751.44
318.295	770.44
318.524	767.44
318.753	770.44
318.983	765.44
319.212	760.44
319.441	753.44
319.67	746.44
319.9	779.44
320.129	793.44
320.358	756.44
320.587	763.44
320.816	791.44
321.046	780.44
321.275	779.44
321.504	792.44
321.733	793.44
321.962	791.44
322.191	784.44
322.42	809.44
322.649	794.44
322.878	810.44
323.108	785.44
323.337	807.44
323.566	784.44
323.795	833.44
324.024	802.44
324.253	810.44
324.482	818.44
324.71	840.44
324.939	822.44
325.168	820.44
325.397	819.44
325.626	818.44
325.855	823.44
326.084	848.44
326.313	859.44
326.542	861.44
326.77	860.44
326.999	834.44
327.228	821.44
327.457	859.44
327.686	855.44
327.914	868.44
328.143	867.44
328.372	869.44
328.6	861.44
328.829	846.44
329.058	858.44
329.287	842.44
329.515	867.44
329.744	846.44
329.972	852.44
330.201	880.44
330.43	887.44
330.658	858.44
330.887	868.44
331.115	913.44
331.344	930.44
331.572	936.44
331.801	935.44
332.03	939.44
332.258	964.44
332.486	997.44
332.715	1045.44
332.943	1094.44
333.172	1142.44
333.4	1185.44
333.629	1221.44
333.857	1212.44
334.085	1204.44
334.314	1161.44
334.542	1144.44
334.771	1122.44
334.999	1096.44
335.227	1112.44
335.455	1103.44
335.684	1091.44
335.912	1053.44
336.14	1035.44
336.369	1034.44
336.597	1043.44
336.825	1038.44
337.053	1016.44
337.281	1027.44
337.51	1001.44
337.738	1002.44
337.966	987.44
338.194	966.44
338.422	965.44
338.65	949.44
338.878	962.44
339.106	948.44
339.334	976.44
339.562	913.44
339.79	888.44
340.018	920.44
340.246	905.44
340.474	890.44
340.702	896.44
340.93	917.44
341.158	913.44
341.386	905.44
341.614	929.44
341.842	913.44
342.07	887.44
342.298	883.44
342.526	926.44
342.754	912.44
342.981	907.44
343.209	895.44
343.437	975.44
343.665	1025.44
343.893	1067.44
344.12	1137.44
344.348	1108.44
344.576	1028.44
344.804	982.44
345.031	967.44
345.259	942.44
345.487	924.44
345.714	924.44
345.942	876.44
346.17	887.44
346.397	882.44
346.625	877.44
346.853	875.44
347.08	838.44
347.308	887.44
347.535	887.44
347.763	885.44
347.99	895.44
348.218	888.44
348.445	870.44
348.673	869.44
348.9	838.44
349.128	841.44
349.355	894.44
349.583	877.44
349.81	867.44
350.037	861.44
350.265	868.44
350.492	847.44
350.72	813.44
350.947	842.44
351.174	834.44
351.402	860.44
351.629	840.44
351.856	837.44
352.083	838.44
352.311	845.44
352.538	828.44
352.765	820.44
352.992	832.44
353.22	809.44
353.447	841.44
353.674	842.44
353.901	846.44
354.128	853.44
354.355	847.44
354.583	839.44
354.81	848.44
355.037	809.44
355.264	840.44
355.491	852.44
355.718	839.44
355.945	843.44
356.172	838.44
356.399	845.44
356.626	861.44
356.853	870.44
357.08	856.44
357.307	840.44
357.534	852.44
357.761	858.44
357.988	859.44
358.215	825.44
358.441	850.44
358.668	835.44
358.895	828.44
359.122	850.44
359.349	844.44
359.576	867.44
359.802	861.44
360.029	829.44
360.256	820.44
360.483	848.44
360.709	832.44
360.936	845.44
361.163	821.44
361.39	840.44
361.616	851.44
361.843	848.44
362.07	848.44
362.296	831.44
362.523	829.44
362.749	838.44
362.976	825.44
363.203	832.44
363.429	822.44
363.656	842.44
363.882	848.44
364.109	828.44
364.335	858.44
364.562	829.44
364.788	825.44
365.015	819.44
365.241	820.44
365.468	844.44
365.694	854.44
365.92	809.44
366.147	856.44
366.373	832.44
366.599	833.44
366.826	831.44
367.052	842.44
367.278	852.44
367.505	825.44
367.731	829.44
367.957	856.44
368.184	850.44
368.41	858.44
368.636	857.44
368.862	863.44
369.089	848.44
369.315	881.44
369.541	863.44
369.767	870.44
369.993	880.44
370.219	867.44
370.445	871.44
370.672	884.44
370.898	899.44
371.124	917.44
371.35	903.44
371.576	925.44
371.802	948.44
372.028	892.44
372.254	886.44
372.48	951.44
372.706	961.44
372.932	978.44
373.158	950.44
373.384	928.44
373.61	919.44
373.835	893.44
374.061	889.44
374.287	928.44
374.513	935.44
374.739	980.44
374.965	992.44
375.191	1005.44
375.416	1028.44
375.642	996.44
375.868	939.44
376.094	937.44
376.319	929.44
376.545	931.44
376.771	948.44
376.997	909.44
377.222	935.44
377.448	922.44
377.674	927.44
377.899	922.44
378.125	872.44
378.35	905.44
378.576	904.44
378.802	898.44
379.027	907.44
379.253	924.44
379.478	889.44
379.704	885.44
379.929	912.44
380.155	893.44
380.38	886.44
380.606	918.44
380.831	878.44
381.057	919.44
381.282	885.44
381.507	919.44
381.733	914.44
381.958	919.44
382.184	930.44
382.409	943.44
382.634	951.44
382.86	947.44
383.085	964.44
383.31	1011.44
383.535	1023.44
383.761	1055.44
383.986	1022.44
384.211	1081.44
384.436	1104.44
384.662	1102.44
384.887	1105.44
385.112	1096.44
385.337	1121.44
385.562	1123.44
385.787	1139.44
386.013	1134.44
386.238	1131.44
386.463	1121.44
386.688	1139.44
386.913	1118.44
387.138	1078.44
387.363	1073.44
387.588	1082.44
387.813	1078.44
388.038	1078.44
388.263	1110.44
388.488	1107.44
388.713	1124.44
388.938	1096.44
389.163	1070.44
389.387	1083.44
389.612	1056.44
389.837	1059.44
390.062	1088.44
390.287	1060.44
390.512	1089.44
390.736	1115.44
390.961	1125.44
391.186	1142.44
391.411	1156.44
391.636	1185.44
391.86	1218.44
392.085	1261.44
392.31	1236.44
392.534	1235.44
392.759	1201.44
392.984	1164.44
393.208	1141.44
393.433	1163.44
393.658	1169.44
393.882	1192.44
394.107	1183.44
394.331	1200.44
394.556	1187.44
394.78	1213.44
395.005	1183.44
395.229	1177.44
395.454	1221.44
395.678	1232.44
395.903	1259.44
396.127	1227.44
396.352	1158.44
396.576	1179.44
396.801	1159.44
397.025	1191.44
397.249	1185.44
397.474	1240.44
397.698	1255.44
397.922	1263.44
398.147	1228.44
398.371	1277.44
398.595	1291.44
398.82	1335.44
399.044	1449.44
399.268	1618.44
399.492	1943.44
399.717	2186.44
399.941	2171.44
400.165	1897.44
400.389	1658.44
400.613	1561.44
400.837	1471.44
401.062	1443.44
401.286	1407.44
401.51	1396.44
401.734	1371.44
401.958	1437.44
402.182	1441.44
402.406	1445.44
402.63	1445.44
402.854	1482.44
403.078	1510.44
403.302	1552.44
403.526	1624.44
403.75	1623.44
403.974	1661.44
404.198	1692.44
404.422	1689.44
404.645	1621.44
404.869	1642.44
405.093	1602.44
405.317	1564.44
405.541	1537.44
405.765	1550.44
405.988	1510.44
406.212	1528.44
406.436	1494.44
406.66	1555.44
406.883	1606.44
407.107	1679.44
407.331	1773.44
407.555	1819.44
407.778	1813.44
408.002	1789.44
408.226	1727.44
408.449	1667.44
408.673	1617.44
408.896	1574.44
409.12	1557.44
409.344	1591.44
409.567	1600.44
409.791	1566.44
410.014	1574.44
410.238	1559.44
410.461	1567.44
410.685	1553.44
410.908	1498.44
411.132	1507.44
411.355	1470.44
411.578	1451.44
411.802	1450.44
412.025	1426.44
412.249	1482.44
412.472	1467.44
412.695	1427.44
412.919	1355.44
413.142	1401.44
413.365	1395.44
413.589	1403.44
413.812	1373.44
414.035	1366.44
414.258	1375.44
414.482	1399.44
414.705	1417.44
414.928	1401.44
415.151	1419.44
415.374	1389.44
415.597	1419.44
415.821	1377.44
416.044	1370.44
416.267	1343.44
416.49	1333.44
416.713	1332.44
416.936	1361.44
417.159	1360.44
417.382	1353.44
417.605	1339.44
417.828	1380.44
418.051	1389.44
418.274	1384.44
418.497	1409.44
418.72	1425.44
418.943	1411.44
419.166	1492.44
419.389	1546.44
419.611	1566.44
419.834	1502.44
420.057	1425.44
420.28	1393.44
420.503	1374.44
420.726	1331.44
420.948	1345.44
421.171	1371.44
421.394	1375.44
421.617	1356.44
421.839	1385.44
422.062	1382.44
422.285	1369.44
422.507	1403.44
422.73	1409.44
422.953	1434.44
423.175	1462.44
423.398	1452.44
423.621	1450.44
423.843	1489.44
424.066	1488.44
424.288	1492.44
424.511	1434.44
424.733	1428.44
424.956	1402.44
425.178	1401.44
425.401	1361.44
425.623	1385.44
425.846	1341.44
426.068	1360.44
426.291	1305.44
426.513	1286.44
426.735	1262.44
426.958	1298.44
427.18	1242.44
427.402	1249.44
427.625	1241.44
427.847	1199.44
428.069	1217.44
428.292	1197.44
428.514	1180.44
428.736	1209.44
428.958	1238.44
429.181	1161.44
429.403	1163.44
429.625	1176.44
429.847	1170.44
430.069	1180.44
430.292	1194.44
430.514	1176.44
430.736	1197.44
430.958	1174.44
431.18	1191.44
431.402	1205.44
431.624	1193.44
431.846	1217.44
432.068	1239.44
432.29	1229.44
432.512	1219.44
432.734	1264.44
432.956	1175.44
433.178	1189.44
433.4	1198.44
433.622	1231.44
433.844	1252.44
434.066	1225.44
434.287	1289.44
434.509	1295.44
434.731	1323.44
434.953	1353.44
435.175	1364.44
435.397	1344.44
435.618	1299.44
435.84	1250.44
436.062	1229.44
436.284	1222.44
436.505	1199.44
436.727	1208.44
436.949	1213.44
437.17	1228.44
437.392	1172.44
437.614	1183.44
437.835	1169.44
438.057	1168.44
438.278	1162.44
438.5	1151.44
438.721	1158.44
438.943	1139.44
439.165	1183.44
439.386	1175.44
439.608	1206.44
439.829	1211.44
440.05	1202.44
440.272	1176.44
440.493	1219.44
440.715	1223.44
440.936	1259.44
441.158	1261.44
441.379	1327.44
441.6	1364.44
441.822	1413.44
442.043	1379.44
442.264	1347.44
442.486	1341.44
442.707	1335.44
442.928	1367.44
443.149	1338.44
443.371	1351.44
443.592	1401.44
443.813	1360.44
444.034	1378.44
444.255	1430.44
444.476	1523.44
444.698	1606.44
444.919	1684.44
445.14	1697.44
445.361	1551.44
445.582	1391.44
445.803	1317.44
446.024	1279.44
446.245	1292.44
446.466	1243.44
446.687	1197.44
446.908	1222.44
447.129	1199.44
447.35	1158.44
447.571	1171.44
447.792	1150.44
448.013	1141.44
448.234	1112.44
448.455	1118.44
448.675	1099.44
448.896	1095.44
449.117	1114.44
449.338	1089.44
449.559	1082.44
449.779	1109.44
450	1062.44
450.221	1111.44
450.442	1121.44
450.662	1082.44
450.883	1111.44
451.104	1134.44
451.324	1140.44
451.545	1174.44
451.766	1161.44
451.986	1106.44
452.207	1119.44
452.428	1137.44
452.648	1085.44
452.869	1096.44
453.089	1053.44
453.31	1094.44
453.53	1057.44
453.751	1057.44
453.971	1035.44
454.192	1030.44
454.412	1035.44
454.633	1062.44
454.853	994.44
455.073	1035.44
455.294	1055.44
455.514	1051.44
455.734	1018.44
455.955	1029.44
456.175	1023.44
456.395	1023.44
456.616	1017.44
456.836	1027.44
457.056	1031.44
457.276	1011.44
457.497	1051.44
457.717	1040.44
457.937	1064.44
458.157	1054.44
458.377	1036.44
458.598	1099.44
458.818	1099.44
459.038	1149.44
459.258	1169.44
459.478	1228.44
459.698	1280.44
459.918	1287.44
460.138	1352.44
460.358	1425.44
460.578	1405.44
460.798	1465.44
461.018	1480.44
461.238	1443.44
461.458	1443.44
461.678	1390.44
461.898	1425.44
462.118	1457.44
462.338	1544.44
462.558	1591.44
462.777	1632.44
462.997	1778.44
463.217	2000.44
463.437	1974.44
463.657	1802.44
463.876	1713.44
464.096	1657.44
464.316	1717.44
464.536	1716.44
464.755	1664.44
464.975	1579.44
465.195	1514.44
465.414	1413.44
465.634	1313.44
465.854	1283.44
466.073	1249.44
466.293	1213.44
466.512	1204.44
466.732	1170.44
466.951	1167.44
467.171	1155.44
467.391	1175.44
467.61	1193.44
467.829	1149.44
468.049	1157.44
468.268	1112.44
468.488	1096.44
468.707	1096.44
468.927	1086.44
469.146	1119.44
469.365	1096.44
469.585	1099.44
469.804	1150.44
470.023	1196.44
470.243	1219.44
470.462	1202.44
470.681	1216.44
470.901	1214.44
471.12	1176.44
471.339	1153.44
471.558	1145.44
471.777	1119.44
471.997	1121.44
472.216	1088.44
472.435	1100.44
472.654	1111.44
472.873	1071.44
473.092	1076.44
473.311	1034.44
473.53	1059.44
473.749	1079.44
473.968	1071.44
474.187	1036.44
474.406	1057.44
474.625	1071.44
474.844	1071.44
475.063	1070.44
475.282	1117.44
475.501	1100.44
475.72	1115.44
475.939	1075.44
476.158	1122.44
476.377	1141.44
476.596	1138.44
476.814	1151.44
477.033	1125.44
477.252	1167.44
477.471	1177.44
477.69	1229.44
477.908	1208.44
478.127	1281.44
478.346	1325.44
478.564	1296.44
478.783	1315.44
479.002	1376.44
479.22	1387.44
479.439	1341.44
479.658	1341.44
479.876	1370.44
480.095	1385.44
480.313	1457.44
480.532	1474.44
480.751	1495.44
480.969	1416.44
481.188	1341.44
481.406	1309.44
481.624	1293.44
481.843	1255.44
482.061	1290.44
482.28	1227.44
482.498	1216.44
482.717	1222.44
482.935	1246.44
483.153	1206.44
483.372	1216.44
483.59	1277.44
483.808	1248.44
484.027	1235.44
484.245	1242.44
484.463	1297.44
484.681	1294.44
484.9	1306.44
485.118	1309.44
485.336	1302.44
485.554	1301.44
485.772	1314.44
485.99	1308.44
486.209	1320.44
486.427	1333.44
486.645	1327.44
486.863	1337.44
487.081	1313.44
487.299	1327.44
487.517	1316.44
487.735	1318.44
487.953	1295.44
488.171	1314.44
488.389	1285.44
488.607	1272.44
488.825	1275.44
489.043	1263.44
489.261	1296.44
489.479	1282.44
489.696	1293.44
489.914	1311.44
490.132	1311.44
490.35	1317.44
490.568	1285.44
490.786	1297.44
491.003	1293.44
491.221	1300.44
491.439	1319.44
491.657	1309.44
491.874	1300.44
492.092	1297.44
492.31	1335.44
492.527	1315.44
492.745	1304.44
492.963	1322.44
493.18	1290.44
493.398	1327.44
493.615	1348.44
493.833	1367.44
494.05	1361.44
494.268	1384.44
