Data from Ni(NO3)2@0.0625M.TitratingCurve.Agarose3%dH2O.NegLispCup.LampEnergy10.LIBS07252019_HRD10591_18-14-44-570.txt Node
Date: Thu Jul 25 18:14:44 EDT 2019
User: cochatt
Spectrometer: HR+D1059
Trigger mode: 1
Integration Time (sec): 1.000000E-1
Scans to average: 1
Electric dark correction enabled: true
Nonlinearity correction enabled: false
Boxcar width: 0
XAxis mode: Wavelengths
Number of Pixels in Spectrum: 2048
>>>>>Begin Spectral Data<<<<<
223.165	-28.31
223.4	-28.31
223.635	-28.31
223.869	-19.31
224.104	-14.31
224.338	-0.31
224.573	-15.31
224.808	-10.31
225.042	-16.31
225.277	0.69
225.511	-8.31
225.746	5.69
225.98	1.69
226.215	10.69
226.449	21.69
226.683	17.69
226.918	22.69
227.152	31.69
227.387	35.69
227.621	19.69
227.856	38.69
228.09	36.69
228.324	41.69
228.559	50.69
228.793	57.69
229.027	97.69
229.262	101.69
229.496	103.69
229.73	103.69
229.964	120.69
230.199	112.69
230.433	121.69
230.667	120.69
230.901	136.69
231.136	139.69
231.37	136.69
231.604	139.69
231.838	120.69
232.072	141.69
232.306	144.69
232.541	129.69
232.775	136.69
233.009	148.69
233.243	138.69
233.477	129.69
233.711	149.69
233.945	154.69
234.179	148.69
234.413	137.69
234.647	140.69
234.881	133.69
235.115	145.69
235.349	156.69
235.583	157.69
235.817	137.69
236.051	151.69
236.285	149.69
236.519	159.69
236.753	152.69
236.987	136.69
237.221	169.69
237.455	149.69
237.689	149.69
237.922	161.69
238.156	148.69
238.39	159.69
238.624	165.69
238.858	169.69
239.091	163.69
239.325	177.69
239.559	177.69
239.793	170.69
240.027	156.69
240.26	175.69
240.494	172.69
240.728	165.69
240.961	159.69
241.195	175.69
241.429	177.69
241.662	190.69
241.896	181.69
242.13	189.69
242.363	172.69
242.597	175.69
242.83	186.69
243.064	191.69
243.298	170.69
243.531	181.69
243.765	196.69
243.998	192.69
244.232	189.69
244.465	197.69
244.699	205.69
244.932	203.69
245.166	203.69
245.399	204.69
245.633	205.69
245.866	217.69
246.099	200.69
246.333	196.69
246.566	215.69
246.8	209.69
247.033	214.69
247.266	232.69
247.5	227.69
247.733	226.69
247.966	216.69
248.2	240.69
248.433	235.69
248.666	239.69
248.899	205.69
249.133	228.69
249.366	243.69
249.599	241.69
249.832	243.69
250.066	242.69
250.299	219.69
250.532	253.69
250.765	239.69
250.998	232.69
251.231	243.69
251.465	245.69
251.698	244.69
251.931	253.69
252.164	244.69
252.397	271.69
252.63	273.69
252.863	249.69
253.096	269.69
253.329	269.69
253.562	266.69
253.795	256.69
254.028	261.69
254.261	280.69
254.494	264.69
254.727	254.69
254.96	257.69
255.193	278.69
255.426	257.69
255.659	264.69
255.892	279.69
256.124	284.69
256.357	281.69
256.59	268.69
256.823	271.69
257.056	270.69
257.289	281.69
257.521	281.69
257.754	277.69
257.987	301.69
258.22	294.69
258.452	294.69
258.685	284.69
258.918	280.69
259.151	291.69
259.383	298.69
259.616	301.69
259.849	312.69
260.081	299.69
260.314	314.69
260.547	311.69
260.779	299.69
261.012	312.69
261.244	313.69
261.477	327.69
261.71	303.69
261.942	302.69
262.175	307.69
262.407	298.69
262.64	309.69
262.872	305.69
263.105	318.69
263.337	323.69
263.57	322.69
263.802	352.69
264.035	320.69
264.267	315.69
264.499	339.69
264.732	320.69
264.964	325.69
265.197	315.69
265.429	325.69
265.661	308.69
265.894	330.69
266.126	333.69
266.358	331.69
266.591	337.69
266.823	343.69
267.055	336.69
267.287	327.69
267.52	340.69
267.752	348.69
267.984	341.69
268.216	359.69
268.448	353.69
268.681	337.69
268.913	346.69
269.145	373.69
269.377	367.69
269.609	364.69
269.841	339.69
270.073	331.69
270.306	343.69
270.538	352.69
270.77	369.69
271.002	354.69
271.234	367.69
271.466	359.69
271.698	352.69
271.93	378.69
272.162	374.69
272.394	356.69
272.626	373.69
272.858	369.69
273.09	373.69
273.322	364.69
273.553	389.69
273.785	369.69
274.017	375.69
274.249	397.69
274.481	372.69
274.713	381.69
274.945	398.69
275.176	378.69
275.408	396.69
275.64	397.69
275.872	396.69
276.104	410.69
276.335	404.69
276.567	400.69
276.799	403.69
277.031	401.69
277.262	392.69
277.494	392.69
277.726	391.69
277.957	404.69
278.189	419.69
278.421	417.69
278.652	408.69
278.884	416.69
279.115	400.69
279.347	421.69
279.579	408.69
279.81	407.69
280.042	414.69
280.273	404.69
280.505	441.69
280.736	411.69
280.968	416.69
281.199	437.69
281.431	435.69
281.662	431.69
281.894	442.69
282.125	428.69
282.356	431.69
282.588	447.69
282.819	415.69
283.051	444.69
283.282	449.69
283.513	450.69
283.745	449.69
283.976	458.69
284.207	436.69
284.439	456.69
284.67	445.69
284.901	458.69
285.132	456.69
285.364	458.69
285.595	465.69
285.826	484.69
286.057	466.69
286.288	466.69
286.52	486.69
286.751	487.69
286.982	475.69
287.213	450.69
287.444	483.69
287.675	462.69
287.906	475.69
288.138	461.69
288.369	470.69
288.6	469.69
288.831	471.69
289.062	496.69
289.293	490.69
289.524	483.69
289.755	490.69
289.986	503.69
290.217	479.69
290.448	500.69
290.679	504.69
290.91	491.69
291.141	497.69
291.371	486.69
291.602	492.69
291.833	495.69
292.064	530.69
292.295	487.69
292.526	519.69
292.757	515.69
292.987	482.69
293.218	496.69
293.449	485.69
293.68	495.69
293.91	492.69
294.141	507.69
294.372	511.69
294.603	529.69
294.833	518.69
295.064	535.69
295.295	515.69
295.525	505.69
295.756	493.69
295.987	495.69
296.217	524.69
296.448	523.69
296.679	537.69
296.909	541.69
297.14	530.69
297.37	541.69
297.601	532.69
297.831	535.69
298.062	527.69
298.292	564.69
298.523	567.69
298.753	582.69
298.984	560.69
299.214	567.69
299.445	528.69
299.675	520.69
299.905	543.69
300.136	543.69
300.366	546.69
300.597	528.69
300.827	564.69
301.057	600.69
301.288	575.69
301.518	579.69
301.748	550.69
301.979	601.69
302.209	567.69
302.439	534.69
302.669	570.69
302.9	577.69
303.13	583.69
303.36	580.69
303.59	543.69
303.82	548.69
304.051	555.69
304.281	548.69
304.511	557.69
304.741	550.69
304.971	554.69
305.201	546.69
305.431	555.69
305.661	544.69
305.891	547.69
306.121	551.69
306.352	539.69
306.582	532.69
306.812	567.69
307.042	559.69
307.272	565.69
307.502	523.69
307.731	539.69
307.961	540.69
308.191	538.69
308.421	522.69
308.651	563.69
308.881	551.69
309.111	547.69
309.341	539.69
309.571	555.69
309.8	533.69
310.03	561.69
310.26	566.69
310.49	546.69
310.72	552.69
310.949	542.69
311.179	544.69
311.409	551.69
311.639	553.69
311.868	544.69
312.098	571.69
312.328	577.69
312.557	577.69
312.787	553.69
313.017	584.69
313.246	562.69
313.476	585.69
313.706	583.69
313.935	603.69
314.165	607.69
314.394	566.69
314.624	593.69
314.853	581.69
315.083	577.69
315.312	572.69
315.542	573.69
315.771	554.69
316.001	582.69
316.23	576.69
316.46	589.69
316.689	584.69
316.919	562.69
317.148	592.69
317.377	572.69
317.607	561.69
317.836	547.69
318.065	559.69
318.295	593.69
318.524	547.69
318.753	564.69
318.983	573.69
319.212	563.69
319.441	570.69
319.67	573.69
319.9	560.69
320.129	564.69
320.358	567.69
320.587	561.69
320.816	575.69
321.046	572.69
321.275	574.69
321.504	567.69
321.733	571.69
321.962	573.69
322.191	559.69
322.42	611.69
322.649	568.69
322.878	574.69
323.108	588.69
323.337	569.69
323.566	573.69
323.795	608.69
324.024	582.69
324.253	597.69
324.482	579.69
324.71	586.69
324.939	600.69
325.168	611.69
325.397	620.69
325.626	604.69
325.855	597.69
326.084	626.69
326.313	645.69
326.542	648.69
326.77	630.69
326.999	627.69
327.228	616.69
327.457	631.69
327.686	616.69
327.914	633.69
328.143	633.69
328.372	607.69
328.6	633.69
328.829	633.69
329.058	631.69
329.287	608.69
329.515	652.69
329.744	617.69
329.972	653.69
330.201	657.69
330.43	620.69
330.658	639.69
330.887	645.69
331.115	654.69
331.344	665.69
331.572	666.69
331.801	680.69
332.03	684.69
332.258	697.69
332.486	718.69
332.715	782.69
332.943	778.69
333.172	797.69
333.4	836.69
333.629	847.69
333.857	871.69
334.085	843.69
334.314	825.69
334.542	817.69
334.771	812.69
334.999	808.69
335.227	788.69
335.455	768.69
335.684	765.69
335.912	755.69
336.14	749.69
336.369	746.69
336.597	753.69
336.825	781.69
337.053	747.69
337.281	749.69
337.51	713.69
337.738	720.69
337.966	703.69
338.194	700.69
338.422	689.69
338.65	683.69
338.878	645.69
339.106	673.69
339.334	654.69
339.562	664.69
339.79	653.69
340.018	679.69
340.246	669.69
340.474	664.69
340.702	652.69
340.93	671.69
341.158	647.69
341.386	675.69
341.614	648.69
341.842	635.69
342.07	654.69
342.298	631.69
342.526	649.69
342.754	666.69
342.981	658.69
343.209	655.69
343.437	695.69
343.665	743.69
343.893	812.69
344.12	843.69
344.348	794.69
344.576	732.69
344.804	710.69
345.031	711.69
345.259	689.69
345.487	672.69
345.714	672.69
345.942	680.69
346.17	649.69
346.397	643.69
346.625	635.69
346.853	671.69
347.08	649.69
347.308	650.69
347.535	640.69
347.763	659.69
347.99	651.69
348.218	669.69
348.445	648.69
348.673	653.69
348.9	664.69
349.128	648.69
349.355	615.69
349.583	633.69
349.81	628.69
350.037	621.69
350.265	639.69
350.492	613.69
350.72	637.69
350.947	623.69
351.174	635.69
351.402	620.69
351.629	599.69
351.856	592.69
352.083	616.69
352.311	611.69
352.538	598.69
352.765	609.69
352.992	588.69
353.22	625.69
353.447	608.69
353.674	612.69
353.901	600.69
354.128	597.69
354.355	643.69
354.583	620.69
354.81	619.69
355.037	635.69
355.264	640.69
355.491	632.69
355.718	608.69
355.945	626.69
356.172	633.69
356.399	609.69
356.626	632.69
356.853	608.69
357.08	635.69
357.307	637.69
357.534	616.69
357.761	611.69
357.988	602.69
358.215	596.69
358.441	622.69
358.668	594.69
358.895	634.69
359.122	611.69
359.349	593.69
359.576	632.69
359.802	611.69
360.029	593.69
360.256	627.69
360.483	633.69
360.709	619.69
360.936	617.69
361.163	629.69
361.39	612.69
361.616	610.69
361.843	618.69
362.07	621.69
362.296	611.69
362.523	581.69
362.749	616.69
362.976	612.69
363.203	613.69
363.429	589.69
363.656	591.69
363.882	596.69
364.109	598.69
364.335	608.69
364.562	599.69
364.788	625.69
365.015	611.69
365.241	610.69
365.468	582.69
365.694	614.69
365.92	617.69
366.147	608.69
366.373	633.69
366.599	606.69
366.826	612.69
367.052	632.69
367.278	617.69
367.505	602.69
367.731	603.69
367.957	616.69
368.184	641.69
368.41	638.69
368.636	641.69
368.862	644.69
369.089	660.69
369.315	619.69
369.541	617.69
369.767	637.69
369.993	653.69
370.219	659.69
370.445	672.69
370.672	649.69
370.898	641.69
371.124	668.69
371.35	657.69
371.576	698.69
371.802	668.69
372.028	682.69
372.254	680.69
372.48	677.69
372.706	688.69
372.932	690.69
373.158	701.69
373.384	680.69
373.61	665.69
373.835	664.69
374.061	670.69
374.287	673.69
374.513	675.69
374.739	718.69
374.965	723.69
375.191	762.69
375.416	791.69
375.642	722.69
375.868	717.69
376.094	702.69
376.319	676.69
376.545	672.69
376.771	670.69
376.997	677.69
377.222	680.69
377.448	686.69
377.674	677.69
377.899	681.69
378.125	665.69
378.35	656.69
378.576	658.69
378.802	654.69
379.027	661.69
379.253	686.69
379.478	647.69
379.704	655.69
379.929	676.69
380.155	667.69
380.38	671.69
380.606	678.69
380.831	669.69
381.057	665.69
381.282	661.69
381.507	661.69
381.733	667.69
381.958	664.69
382.184	671.69
382.409	671.69
382.634	700.69
382.86	713.69
383.085	694.69
383.31	734.69
383.535	731.69
383.761	759.69
383.986	751.69
384.211	741.69
384.436	776.69
384.662	802.69
384.887	830.69
385.112	819.69
385.337	816.69
385.562	794.69
385.787	821.69
386.013	821.69
386.238	796.69
386.463	875.69
386.688	822.69
386.913	823.69
387.138	812.69
387.363	796.69
387.588	797.69
387.813	794.69
388.038	789.69
388.263	795.69
388.488	787.69
388.713	792.69
388.938	809.69
389.163	771.69
389.387	780.69
389.612	781.69
389.837	778.69
390.062	751.69
390.287	789.69
390.512	785.69
390.736	790.69
390.961	805.69
391.186	825.69
391.411	836.69
391.636	850.69
391.86	907.69
392.085	910.69
392.31	910.69
392.534	884.69
392.759	820.69
392.984	847.69
393.208	873.69
393.433	880.69
393.658	854.69
393.882	851.69
394.107	864.69
394.331	876.69
394.556	853.69
394.78	875.69
395.005	878.69
395.229	868.69
395.454	907.69
395.678	915.69
395.903	900.69
396.127	887.69
396.352	869.69
396.576	870.69
396.801	870.69
397.025	871.69
397.249	879.69
397.474	876.69
397.698	915.69
397.922	897.69
398.147	852.69
398.371	921.69
398.595	937.69
398.82	979.69
399.044	1051.69
399.268	1141.69
399.492	1377.69
399.717	1602.69
399.941	1597.69
400.165	1409.69
400.389	1211.69
400.613	1130.69
400.837	1053.69
401.062	1010.69
401.286	1004.69
401.51	1002.69
401.734	1013.69
401.958	1014.69
402.182	1019.69
402.406	1035.69
402.63	1049.69
402.854	1091.69
403.078	1099.69
403.302	1150.69
403.526	1148.69
403.75	1180.69
403.974	1192.69
404.198	1213.69
404.422	1213.69
404.645	1192.69
404.869	1163.69
405.093	1177.69
405.317	1151.69
405.541	1143.69
405.765	1118.69
405.988	1091.69
406.212	1120.69
406.436	1115.69
406.66	1147.69
406.883	1145.69
407.107	1228.69
407.331	1289.69
407.555	1357.69
407.778	1348.69
408.002	1287.69
408.226	1295.69
408.449	1208.69
408.673	1182.69
408.896	1140.69
409.12	1125.69
409.344	1158.69
409.567	1153.69
409.791	1191.69
410.014	1203.69
410.238	1155.69
410.461	1143.69
410.685	1126.69
410.908	1112.69
411.132	1087.69
411.355	1077.69
411.578	1058.69
411.802	1041.69
412.025	1052.69
412.249	1084.69
412.472	1071.69
412.695	1060.69
412.919	1010.69
413.142	992.69
413.365	1000.69
413.589	1027.69
413.812	999.69
414.035	1018.69
414.258	1014.69
414.482	998.69
414.705	1022.69
414.928	1023.69
415.151	1014.69
415.374	1014.69
415.597	1010.69
415.821	998.69
416.044	1011.69
416.267	986.69
416.49	979.69
416.713	1010.69
416.936	1007.69
417.159	1013.69
417.382	1000.69
417.605	980.69
417.828	1004.69
418.051	1023.69
418.274	1013.69
418.497	986.69
418.72	1018.69
418.943	1032.69
419.166	1126.69
419.389	1173.69
419.611	1151.69
419.834	1113.69
420.057	1073.69
420.28	1028.69
420.503	984.69
420.726	1003.69
420.948	978.69
421.171	1021.69
421.394	967.69
421.617	992.69
421.839	995.69
422.062	1003.69
422.285	957.69
422.507	1018.69
422.73	1035.69
422.953	1061.69
423.175	1037.69
423.398	1086.69
423.621	1081.69
423.843	1097.69
424.066	1084.69
424.288	1079.69
424.511	1059.69
424.733	1065.69
424.956	1072.69
425.178	1037.69
425.401	1021.69
425.623	999.69
425.846	977.69
426.068	986.69
426.291	959.69
426.513	936.69
426.735	917.69
426.958	939.69
427.18	911.69
427.402	899.69
427.625	923.69
427.847	885.69
428.069	895.69
428.292	891.69
428.514	883.69
428.736	865.69
428.958	903.69
429.181	863.69
429.403	882.69
429.625	867.69
429.847	871.69
430.069	872.69
430.292	899.69
430.514	855.69
430.736	877.69
430.958	845.69
431.18	849.69
431.402	861.69
431.624	883.69
431.846	876.69
432.068	915.69
432.29	921.69
432.512	915.69
432.734	915.69
432.956	882.69
433.178	891.69
433.4	919.69
433.622	891.69
433.844	914.69
434.066	930.69
434.287	935.69
434.509	956.69
434.731	977.69
434.953	1023.69
435.175	1021.69
435.397	1008.69
435.618	969.69
435.84	917.69
436.062	920.69
436.284	898.69
436.505	886.69
436.727	907.69
436.949	877.69
437.17	889.69
437.392	891.69
437.614	871.69
437.835	845.69
438.057	864.69
438.278	865.69
438.5	827.69
438.721	873.69
438.943	868.69
439.165	866.69
439.386	882.69
439.608	899.69
439.829	893.69
440.05	898.69
440.272	899.69
440.493	895.69
440.715	947.69
440.936	950.69
441.158	954.69
441.379	978.69
441.6	991.69
441.822	1025.69
442.043	1055.69
442.264	1011.69
442.486	966.69
442.707	995.69
442.928	976.69
443.149	999.69
443.371	1028.69
443.592	985.69
443.813	1028.69
444.034	1027.69
444.255	1079.69
444.476	1135.69
444.698	1177.69
444.919	1266.69
445.14	1320.69
445.361	1177.69
445.582	1062.69
445.803	1013.69
446.024	943.69
446.245	928.69
446.466	929.69
446.687	915.69
446.908	912.69
447.129	892.69
447.35	851.69
447.571	861.69
447.792	834.69
448.013	860.69
448.234	857.69
448.455	842.69
448.675	836.69
448.896	839.69
449.117	821.69
449.338	835.69
449.559	838.69
449.779	833.69
450	833.69
450.221	861.69
450.442	857.69
450.662	825.69
450.883	838.69
451.104	879.69
451.324	869.69
451.545	841.69
451.766	853.69
451.986	836.69
452.207	835.69
452.428	850.69
452.648	857.69
452.869	800.69
453.089	822.69
453.31	815.69
453.53	803.69
453.751	819.69
453.971	815.69
454.192	814.69
454.412	778.69
454.633	803.69
454.853	812.69
455.073	800.69
455.294	803.69
455.514	791.69
455.734	795.69
455.955	749.69
456.175	782.69
456.395	783.69
456.616	754.69
456.836	764.69
457.056	775.69
457.276	755.69
457.497	787.69
457.717	777.69
457.937	755.69
458.157	796.69
458.377	793.69
458.598	821.69
458.818	833.69
459.038	857.69
459.258	922.69
459.478	915.69
459.698	928.69
459.918	949.69
460.138	1009.69
460.358	1096.69
460.578	1072.69
460.798	1115.69
461.018	1100.69
461.238	1093.69
461.458	1078.69
461.678	1063.69
461.898	1092.69
462.118	1095.69
462.338	1141.69
462.558	1171.69
462.777	1187.69
462.997	1330.69
463.217	1467.69
463.437	1533.69
463.657	1384.69
463.876	1297.69
464.096	1264.69
464.316	1258.69
464.536	1311.69
464.755	1258.69
464.975	1185.69
465.195	1169.69
465.414	1073.69
465.634	1003.69
465.854	954.69
466.073	926.69
466.293	944.69
466.512	896.69
466.732	896.69
466.951	879.69
467.171	872.69
467.391	872.69
467.61	870.69
467.829	900.69
468.049	878.69
468.268	828.69
468.488	821.69
468.707	832.69
468.927	829.69
469.146	803.69
469.365	828.69
469.585	865.69
469.804	874.69
470.023	905.69
470.243	924.69
470.462	889.69
470.681	903.69
470.901	906.69
471.12	898.69
471.339	875.69
471.558	850.69
471.777	864.69
471.997	835.69
472.216	835.69
472.435	827.69
472.654	811.69
472.873	850.69
473.092	809.69
473.311	810.69
473.53	824.69
473.749	809.69
473.968	817.69
474.187	806.69
474.406	797.69
474.625	812.69
474.844	797.69
475.063	822.69
475.282	814.69
475.501	836.69
475.72	849.69
475.939	799.69
476.158	841.69
476.377	844.69
476.596	853.69
476.814	872.69
477.033	863.69
477.252	853.69
477.471	900.69
477.69	891.69
477.908	901.69
478.127	1001.69
478.346	943.69
478.564	982.69
478.783	979.69
479.002	1017.69
479.22	1061.69
479.439	1011.69
479.658	996.69
479.876	994.69
480.095	1015.69
480.313	1076.69
480.532	1133.69
480.751	1107.69
480.969	1037.69
481.188	1000.69
481.406	988.69
481.624	972.69
481.843	964.69
482.061	926.69
482.28	907.69
482.498	898.69
482.717	941.69
482.935	893.69
483.153	922.69
483.372	911.69
483.59	922.69
483.808	922.69
484.027	894.69
484.245	923.69
484.463	915.69
484.681	936.69
484.9	965.69
485.118	941.69
485.336	951.69
485.554	963.69
485.772	991.69
485.99	985.69
486.209	960.69
486.427	991.69
486.645	975.69
486.863	972.69
487.081	988.69
487.299	983.69
487.517	972.69
487.735	972.69
487.953	998.69
488.171	1003.69
488.389	972.69
488.607	940.69
488.825	944.69
489.043	958.69
489.261	955.69
489.479	968.69
489.696	962.69
489.914	991.69
490.132	967.69
490.35	960.69
490.568	967.69
490.786	960.69
491.003	1000.69
491.221	979.69
491.439	959.69
491.657	987.69
491.874	983.69
492.092	962.69
492.31	968.69
492.527	984.69
492.745	994.69
492.963	987.69
493.18	1015.69
493.398	1018.69
493.615	1026.69
493.833	1058.69
494.05	1006.69
494.268	1025.69
494.485	1023.69
494.703	1023.69
494.92	1018.69
495.138	1001.69
495.355	998.69
495.573	1011.69
495.79	1055.69
496.008	1052.69
496.225	1048.69
496.442	1052.69
496.66	1079.69
496.877	1078.69
497.094	1100.69
497.312	1114.69
497.529	1111.69
497.746	1159.69
497.963	1182.69
498.181	1235.69
498.398	1269.69
498.615	1362.69
498.832	1451.69
499.049	1573.69
