Data from Ni(NO3)2Standard.Agarose3%.GreenCap.LampEnergy5.5.E.O_HRD10591_14-42-03-188.txt Node
Date: Mon Jul 22 14:42:03 EDT 2019
User: cochatt
Spectrometer: HR+D1059
Trigger mode: 1
Integration Time (sec): 1.000000E-1
Scans to average: 1
Electric dark correction enabled: true
Nonlinearity correction enabled: false
Boxcar width: 0
XAxis mode: Wavelengths
Number of Pixels in Spectrum: 2048
>>>>>Begin Spectral Data<<<<<
223.165	-10.5
223.4	-10.5
223.635	-10.5
223.869	-14.5
224.104	-20.5
224.338	-24.5
224.573	-17.5
224.808	-16.5
225.042	-8.5
225.277	-6.5
225.511	-14.5
225.746	-4.5
225.98	9.5
226.215	23.5
226.449	17.5
226.683	23.5
226.918	34.5
227.152	29.5
227.387	25.5
227.621	46.5
227.856	47.5
228.09	52.5
228.324	63.5
228.559	56.5
228.793	59.5
229.027	47.5
229.262	58.5
229.496	50.5
229.73	76.5
229.964	87.5
230.199	77.5
230.433	69.5
230.667	83.5
230.901	73.5
231.136	74.5
231.37	83.5
231.604	72.5
231.838	74.5
232.072	71.5
232.306	81.5
232.541	83.5
232.775	77.5
233.009	69.5
233.243	84.5
233.477	83.5
233.711	71.5
233.945	80.5
234.179	93.5
234.413	79.5
234.647	77.5
234.881	90.5
235.115	91.5
235.349	80.5
235.583	66.5
235.817	68.5
236.051	72.5
236.285	76.5
236.519	79.5
236.753	83.5
236.987	85.5
237.221	70.5
237.455	87.5
237.689	92.5
237.922	82.5
238.156	77.5
238.39	73.5
238.624	71.5
238.858	83.5
239.091	70.5
239.325	79.5
239.559	84.5
239.793	85.5
240.027	81.5
240.26	72.5
240.494	76.5
240.728	83.5
240.961	64.5
241.195	85.5
241.429	85.5
241.662	72.5
241.896	78.5
242.13	90.5
242.363	86.5
242.597	85.5
242.83	78.5
243.064	74.5
243.298	93.5
243.531	82.5
243.765	76.5
243.998	89.5
244.232	83.5
244.465	76.5
244.699	73.5
244.932	84.5
245.166	66.5
245.399	80.5
245.633	82.5
245.866	82.5
246.099	86.5
246.333	76.5
246.566	67.5
246.8	89.5
247.033	95.5
247.266	81.5
247.5	82.5
247.733	86.5
247.966	78.5
248.2	81.5
248.433	78.5
248.666	71.5
248.899	71.5
249.133	62.5
249.366	86.5
249.599	77.5
249.832	79.5
250.066	73.5
250.299	74.5
250.532	94.5
250.765	74.5
250.998	86.5
251.231	70.5
251.465	63.5
251.698	63.5
251.931	70.5
252.164	69.5
252.397	92.5
252.63	84.5
252.863	73.5
253.096	68.5
253.329	75.5
253.562	88.5
253.795	84.5
254.028	84.5
254.261	73.5
254.494	86.5
254.727	74.5
254.96	88.5
255.193	87.5
255.426	71.5
255.659	77.5
255.892	79.5
256.124	84.5
256.357	86.5
256.59	72.5
256.823	91.5
257.056	92.5
257.289	82.5
257.521	68.5
257.754	78.5
257.987	83.5
258.22	84.5
258.452	71.5
258.685	77.5
258.918	87.5
259.151	79.5
259.383	86.5
259.616	83.5
259.849	73.5
260.081	92.5
260.314	87.5
260.547	80.5
260.779	87.5
261.012	81.5
261.244	91.5
261.477	100.5
261.71	76.5
261.942	79.5
262.175	82.5
262.407	85.5
262.64	76.5
262.872	99.5
263.105	76.5
263.337	91.5
263.57	85.5
263.802	87.5
264.035	76.5
264.267	64.5
264.499	78.5
264.732	79.5
264.964	79.5
265.197	78.5
265.429	78.5
265.661	67.5
265.894	82.5
266.126	93.5
266.358	79.5
266.591	71.5
266.823	75.5
267.055	87.5
267.287	75.5
267.52	83.5
267.752	81.5
267.984	92.5
268.216	67.5
268.448	74.5
268.681	89.5
268.913	71.5
269.145	90.5
269.377	80.5
269.609	84.5
269.841	82.5
270.073	83.5
270.306	99.5
270.538	83.5
270.77	85.5
271.002	78.5
271.234	89.5
271.466	78.5
271.698	89.5
271.93	91.5
272.162	91.5
272.394	85.5
272.626	97.5
272.858	84.5
273.09	85.5
273.322	77.5
273.553	79.5
273.785	76.5
274.017	84.5
274.249	90.5
274.481	81.5
274.713	69.5
274.945	83.5
275.176	61.5
275.408	87.5
275.64	79.5
275.872	94.5
276.104	89.5
276.335	75.5
276.567	76.5
276.799	83.5
277.031	83.5
277.262	83.5
277.494	83.5
277.726	77.5
277.957	85.5
278.189	86.5
278.421	82.5
278.652	74.5
278.884	85.5
279.115	60.5
279.347	66.5
279.579	81.5
279.81	85.5
280.042	93.5
280.273	91.5
280.505	85.5
280.736	84.5
280.968	86.5
281.199	86.5
281.431	85.5
281.662	75.5
281.894	83.5
282.125	93.5
282.356	86.5
282.588	90.5
282.819	82.5
283.051	84.5
283.282	97.5
283.513	95.5
283.745	82.5
283.976	92.5
284.207	84.5
284.439	91.5
284.67	95.5
284.901	91.5
285.132	87.5
285.364	73.5
285.595	84.5
285.826	85.5
286.057	92.5
286.288	84.5
286.52	82.5
286.751	72.5
286.982	81.5
287.213	72.5
287.444	91.5
287.675	88.5
287.906	84.5
288.138	84.5
288.369	93.5
288.6	89.5
288.831	91.5
289.062	89.5
289.293	92.5
289.524	78.5
289.755	85.5
289.986	85.5
290.217	83.5
290.448	83.5
290.679	73.5
290.91	81.5
291.141	97.5
291.371	96.5
291.602	87.5
291.833	91.5
292.064	79.5
292.295	78.5
292.526	82.5
292.757	82.5
292.987	98.5
293.218	91.5
293.449	89.5
293.68	79.5
293.91	80.5
294.141	77.5
294.372	84.5
294.603	84.5
294.833	93.5
295.064	100.5
295.295	91.5
295.525	74.5
295.756	94.5
295.987	74.5
296.217	78.5
296.448	82.5
296.679	108.5
296.909	88.5
297.14	85.5
297.37	91.5
297.601	65.5
297.831	76.5
298.062	93.5
298.292	90.5
298.523	95.5
298.753	79.5
298.984	91.5
299.214	99.5
299.445	83.5
299.675	83.5
299.905	73.5
300.136	76.5
300.366	91.5
300.597	78.5
300.827	84.5
301.057	90.5
301.288	93.5
301.518	83.5
301.748	74.5
301.979	82.5
302.209	81.5
302.439	93.5
302.669	84.5
302.9	84.5
303.13	74.5
303.36	82.5
303.59	83.5
303.82	86.5
304.051	92.5
304.281	97.5
304.511	83.5
304.741	88.5
304.971	85.5
305.201	87.5
305.431	69.5
305.661	85.5
305.891	73.5
306.121	87.5
306.352	79.5
306.582	76.5
306.812	87.5
307.042	97.5
307.272	88.5
307.502	89.5
307.731	79.5
307.961	91.5
308.191	89.5
308.421	90.5
308.651	79.5
308.881	89.5
309.111	99.5
309.341	80.5
309.571	92.5
309.8	77.5
310.03	67.5
310.26	77.5
310.49	85.5
310.72	81.5
310.949	97.5
311.179	90.5
311.409	90.5
311.639	77.5
311.868	88.5
312.098	100.5
312.328	83.5
312.557	79.5
312.787	75.5
313.017	75.5
313.246	81.5
313.476	84.5
313.706	84.5
313.935	91.5
314.165	86.5
314.394	88.5
314.624	93.5
314.853	83.5
315.083	87.5
315.312	86.5
315.542	98.5
315.771	87.5
316.001	91.5
316.23	73.5
316.46	97.5
316.689	86.5
316.919	85.5
317.148	95.5
317.377	93.5
317.607	90.5
317.836	80.5
318.065	67.5
318.295	84.5
318.524	73.5
318.753	82.5
318.983	93.5
319.212	89.5
319.441	84.5
319.67	86.5
319.9	74.5
320.129	87.5
320.358	77.5
320.587	90.5
320.816	84.5
321.046	90.5
321.275	94.5
321.504	74.5
321.733	83.5
321.962	91.5
322.191	89.5
322.42	84.5
322.649	83.5
322.878	90.5
323.108	83.5
323.337	89.5
323.566	92.5
323.795	90.5
324.024	76.5
324.253	79.5
324.482	70.5
324.71	92.5
324.939	87.5
325.168	90.5
325.397	83.5
325.626	96.5
325.855	94.5
326.084	104.5
326.313	95.5
326.542	93.5
326.77	85.5
326.999	85.5
327.228	78.5
327.457	93.5
327.686	86.5
327.914	95.5
328.143	93.5
328.372	93.5
328.6	88.5
328.829	95.5
329.058	93.5
329.287	78.5
329.515	85.5
329.744	86.5
329.972	91.5
330.201	102.5
330.43	101.5
330.658	70.5
330.887	101.5
331.115	78.5
331.344	91.5
331.572	93.5
331.801	99.5
332.03	97.5
332.258	89.5
332.486	86.5
332.715	92.5
332.943	86.5
333.172	99.5
333.4	90.5
333.629	76.5
333.857	100.5
334.085	83.5
334.314	76.5
334.542	90.5
334.771	76.5
334.999	77.5
335.227	88.5
335.455	86.5
335.684	77.5
335.912	81.5
336.14	71.5
336.369	69.5
336.597	99.5
336.825	89.5
337.053	106.5
337.281	89.5
337.51	101.5
337.738	89.5
337.966	88.5
338.194	91.5
338.422	87.5
338.65	90.5
338.878	80.5
339.106	83.5
339.334	95.5
339.562	89.5
339.79	88.5
340.018	93.5
340.246	84.5
340.474	81.5
340.702	81.5
340.93	91.5
341.158	101.5
341.386	79.5
341.614	83.5
341.842	69.5
342.07	90.5
342.298	85.5
342.526	95.5
342.754	80.5
342.981	105.5
343.209	84.5
343.437	108.5
343.665	92.5
343.893	80.5
344.12	92.5
344.348	76.5
344.576	69.5
344.804	84.5
345.031	81.5
345.259	89.5
345.487	98.5
345.714	89.5
345.942	90.5
346.17	99.5
346.397	90.5
346.625	86.5
346.853	82.5
347.08	90.5
347.308	88.5
347.535	86.5
347.763	89.5
347.99	81.5
348.218	93.5
348.445	72.5
348.673	83.5
348.9	93.5
349.128	97.5
349.355	81.5
349.583	84.5
349.81	88.5
350.037	76.5
350.265	81.5
350.492	82.5
350.72	90.5
350.947	87.5
351.174	82.5
351.402	87.5
351.629	71.5
351.856	88.5
352.083	94.5
352.311	97.5
352.538	90.5
352.765	79.5
352.992	77.5
353.22	88.5
353.447	84.5
353.674	82.5
353.901	86.5
354.128	89.5
354.355	74.5
354.583	83.5
354.81	82.5
355.037	93.5
355.264	76.5
355.491	90.5
355.718	90.5
355.945	84.5
356.172	102.5
356.399	98.5
356.626	99.5
356.853	78.5
357.08	78.5
357.307	86.5
357.534	80.5
357.761	83.5
357.988	94.5
358.215	90.5
358.441	78.5
358.668	84.5
358.895	78.5
359.122	83.5
359.349	90.5
359.576	80.5
359.802	85.5
360.029	78.5
360.256	71.5
360.483	89.5
360.709	95.5
360.936	98.5
361.163	84.5
361.39	88.5
361.616	79.5
361.843	82.5
362.07	91.5
362.296	82.5
362.523	83.5
362.749	76.5
362.976	90.5
363.203	85.5
363.429	89.5
363.656	90.5
363.882	97.5
364.109	90.5
364.335	100.5
364.562	90.5
364.788	75.5
365.015	82.5
365.241	79.5
365.468	78.5
365.694	80.5
365.92	82.5
366.147	77.5
366.373	90.5
366.599	73.5
366.826	88.5
367.052	87.5
367.278	87.5
367.505	96.5
367.731	94.5
367.957	82.5
368.184	76.5
368.41	84.5
368.636	69.5
368.862	78.5
369.089	81.5
369.315	78.5
369.541	80.5
369.767	78.5
369.993	69.5
370.219	101.5
370.445	77.5
370.672	76.5
370.898	75.5
371.124	69.5
371.35	88.5
371.576	97.5
371.802	102.5
372.028	86.5
372.254	90.5
372.48	89.5
372.706	78.5
372.932	78.5
373.158	85.5
373.384	98.5
373.61	88.5
373.835	82.5
374.061	87.5
374.287	83.5
374.513	75.5
374.739	80.5
374.965	92.5
375.191	79.5
375.416	89.5
375.642	82.5
375.868	76.5
376.094	79.5
376.319	75.5
376.545	88.5
376.771	98.5
376.997	81.5
377.222	89.5
377.448	82.5
377.674	84.5
377.899	90.5
378.125	68.5
378.35	99.5
378.576	90.5
378.802	72.5
379.027	78.5
379.253	76.5
379.478	62.5
379.704	90.5
379.929	88.5
380.155	87.5
380.38	84.5
380.606	73.5
380.831	79.5
381.057	100.5
381.282	96.5
381.507	78.5
381.733	81.5
381.958	87.5
382.184	92.5
382.409	99.5
382.634	89.5
382.86	74.5
383.085	85.5
383.31	78.5
383.535	93.5
383.761	83.5
383.986	86.5
384.211	94.5
384.436	78.5
384.662	96.5
384.887	91.5
385.112	85.5
385.337	98.5
385.562	79.5
385.787	90.5
386.013	105.5
386.238	98.5
386.463	86.5
386.688	90.5
386.913	91.5
387.138	98.5
387.363	76.5
387.588	87.5
387.813	98.5
388.038	91.5
388.263	93.5
388.488	67.5
388.713	83.5
388.938	83.5
389.163	78.5
389.387	76.5
389.612	90.5
389.837	84.5
390.062	95.5
390.287	91.5
390.512	77.5
390.736	80.5
390.961	79.5
391.186	90.5
391.411	87.5
391.636	83.5
391.86	89.5
392.085	97.5
392.31	79.5
392.534	89.5
392.759	83.5
392.984	88.5
393.208	83.5
393.433	95.5
393.658	66.5
393.882	85.5
394.107	82.5
394.331	71.5
394.556	90.5
394.78	90.5
395.005	99.5
395.229	96.5
395.454	89.5
395.678	78.5
395.903	92.5
396.127	89.5
396.352	104.5
396.576	96.5
396.801	87.5
397.025	74.5
397.249	96.5
397.474	86.5
397.698	86.5
397.922	86.5
398.147	92.5
398.371	102.5
398.595	88.5
398.82	84.5
399.044	85.5
399.268	89.5
399.492	82.5
399.717	89.5
399.941	85.5
400.165	85.5
400.389	66.5
400.613	93.5
400.837	89.5
401.062	85.5
401.286	93.5
401.51	101.5
401.734	81.5
401.958	79.5
402.182	100.5
402.406	79.5
402.63	89.5
402.854	77.5
403.078	89.5
403.302	87.5
403.526	85.5
403.75	95.5
403.974	90.5
404.198	88.5
404.422	76.5
404.645	82.5
404.869	79.5
405.093	94.5
405.317	76.5
405.541	87.5
405.765	74.5
405.988	77.5
406.212	110.5
406.436	85.5
406.66	100.5
406.883	70.5
407.107	72.5
407.331	94.5
407.555	81.5
407.778	94.5
408.002	97.5
408.226	98.5
408.449	82.5
408.673	78.5
408.896	85.5
409.12	90.5
409.344	85.5
409.567	80.5
409.791	81.5
410.014	87.5
410.238	83.5
410.461	83.5
410.685	91.5
410.908	67.5
411.132	95.5
411.355	81.5
411.578	88.5
411.802	93.5
412.025	86.5
412.249	84.5
412.472	78.5
412.695	74.5
412.919	86.5
413.142	83.5
413.365	88.5
413.589	95.5
413.812	92.5
414.035	94.5
414.258	81.5
414.482	81.5
414.705	84.5
414.928	78.5
415.151	84.5
415.374	75.5
415.597	81.5
415.821	101.5
416.044	85.5
416.267	84.5
416.49	83.5
416.713	76.5
416.936	74.5
417.159	93.5
417.382	79.5
417.605	91.5
417.828	74.5
418.051	79.5
418.274	81.5
418.497	83.5
418.72	89.5
418.943	91.5
419.166	86.5
419.389	94.5
419.611	90.5
419.834	84.5
420.057	90.5
420.28	71.5
420.503	73.5
420.726	64.5
420.948	94.5
421.171	65.5
421.394	85.5
421.617	79.5
421.839	96.5
422.062	88.5
422.285	67.5
422.507	73.5
422.73	87.5
422.953	78.5
423.175	79.5
423.398	80.5
423.621	90.5
423.843	85.5
424.066	78.5
424.288	101.5
424.511	89.5
424.733	88.5
424.956	81.5
425.178	94.5
425.401	94.5
425.623	82.5
425.846	96.5
426.068	93.5
426.291	78.5
426.513	79.5
426.735	75.5
426.958	93.5
427.18	88.5
427.402	76.5
427.625	82.5
427.847	85.5
428.069	99.5
428.292	89.5
428.514	83.5
428.736	95.5
428.958	89.5
429.181	81.5
429.403	91.5
429.625	80.5
429.847	88.5
430.069	87.5
430.292	99.5
430.514	71.5
430.736	83.5
430.958	81.5
431.18	79.5
431.402	88.5
431.624	83.5
431.846	86.5
432.068	82.5
432.29	84.5
432.512	84.5
432.734	84.5
432.956	81.5
433.178	80.5
433.4	88.5
433.622	101.5
433.844	99.5
434.066	87.5
434.287	88.5
434.509	74.5
434.731	85.5
434.953	86.5
435.175	88.5
435.397	98.5
435.618	75.5
435.84	91.5
436.062	86.5
436.284	94.5
436.505	85.5
436.727	85.5
436.949	74.5
437.17	82.5
437.392	82.5
437.614	86.5
437.835	83.5
438.057	84.5
438.278	78.5
438.5	78.5
438.721	81.5
438.943	93.5
439.165	82.5
439.386	83.5
439.608	92.5
439.829	79.5
440.05	74.5
440.272	91.5
440.493	88.5
440.715	85.5
440.936	93.5
441.158	86.5
441.379	80.5
441.6	103.5
441.822	85.5
442.043	83.5
442.264	100.5
442.486	96.5
442.707	97.5
442.928	80.5
443.149	98.5
443.371	84.5
443.592	98.5
443.813	92.5
444.034	103.5
444.255	88.5
444.476	84.5
444.698	82.5
444.919	85.5
445.14	217.5
445.361	141.5
445.582	100.5
445.803	92.5
446.024	92.5
446.245	73.5
446.466	93.5
446.687	90.5
446.908	78.5
447.129	85.5
447.35	87.5
447.571	93.5
447.792	80.5
448.013	78.5
448.234	87.5
448.455	75.5
448.675	84.5
448.896	81.5
449.117	87.5
449.338	94.5
449.559	90.5
449.779	83.5
450	77.5
450.221	84.5
450.442	76.5
450.662	78.5
450.883	78.5
451.104	85.5
451.324	107.5
451.545	85.5
451.766	98.5
451.986	89.5
452.207	80.5
452.428	76.5
452.648	83.5
452.869	78.5
453.089	77.5
453.31	104.5
453.53	87.5
453.751	81.5
453.971	91.5
454.192	94.5
454.412	86.5
454.633	89.5
454.853	90.5
455.073	85.5
455.294	87.5
455.514	89.5
455.734	102.5
455.955	85.5
456.175	87.5
456.395	71.5
456.616	87.5
456.836	90.5
457.056	94.5
457.276	82.5
457.497	85.5
457.717	90.5
457.937	92.5
458.157	76.5
458.377	83.5
458.598	78.5
458.818	78.5
459.038	82.5
459.258	88.5
459.478	85.5
459.698	84.5
459.918	84.5
460.138	79.5
460.358	87.5
460.578	83.5
460.798	98.5
461.018	76.5
461.238	93.5
461.458	85.5
461.678	90.5
461.898	95.5
462.118	77.5
462.338	87.5
462.558	94.5
462.777	82.5
462.997	90.5
463.217	106.5
463.437	106.5
463.657	99.5
463.876	90.5
464.096	85.5
464.316	98.5
464.536	75.5
464.755	81.5
464.975	94.5
465.195	102.5
465.414	89.5
465.634	76.5
465.854	89.5
466.073	83.5
466.293	75.5
466.512	78.5
466.732	89.5
466.951	82.5
467.171	103.5
467.391	79.5
467.61	90.5
467.829	89.5
468.049	96.5
468.268	81.5
468.488	83.5
468.707	85.5
468.927	79.5
469.146	98.5
469.365	81.5
469.585	96.5
469.804	84.5
470.023	81.5
470.243	85.5
470.462	78.5
470.681	92.5
470.901	93.5
471.12	76.5
471.339	86.5
471.558	77.5
471.777	73.5
471.997	77.5
472.216	83.5
472.435	83.5
472.654	97.5
472.873	87.5
473.092	90.5
473.311	81.5
473.53	65.5
473.749	82.5
473.968	80.5
474.187	94.5
474.406	92.5
474.625	93.5
474.844	90.5
475.063	99.5
475.282	97.5
475.501	84.5
475.72	113.5
475.939	83.5
476.158	86.5
476.377	93.5
476.596	94.5
476.814	95.5
477.033	85.5
477.252	89.5
477.471	78.5
477.69	95.5
477.908	98.5
478.127	82.5
478.346	81.5
478.564	98.5
478.783	75.5
479.002	93.5
479.22	94.5
479.439	79.5
479.658	86.5
479.876	96.5
480.095	83.5
480.313	95.5
480.532	97.5
480.751	94.5
480.969	93.5
481.188	90.5
481.406	86.5
481.624	92.5
481.843	85.5
482.061	95.5
482.28	86.5
482.498	101.5
482.717	93.5
482.935	100.5
483.153	88.5
483.372	86.5
483.59	85.5
483.808	75.5
484.027	91.5
484.245	89.5
484.463	89.5
484.681	88.5
484.9	85.5
485.118	102.5
485.336	80.5
485.554	92.5
485.772	108.5
485.99	83.5
486.209	99.5
486.427	79.5
486.645	86.5
486.863	101.5
487.081	99.5
487.299	90.5
487.517	100.5
487.735	96.5
487.953	94.5
488.171	92.5
488.389	90.5
488.607	81.5
488.825	83.5
489.043	100.5
489.261	87.5
489.479	83.5
489.696	93.5
489.914	78.5
490.132	106.5
490.35	85.5
490.568	106.5
490.786	94.5
491.003	94.5
491.221	101.5
491.439	84.5
491.657	93.5
491.874	86.5
492.092	94.5
492.31	108.5
492.527	99.5
492.745	100.5
492.963	95.5
493.18	81.5
493.398	98.5
493.615	83.5
493.833	87.5
494.05	89.5
494.268	100.5
494.485	100.5
494.703	94.5
494.92	99.5
495.138	90.5
495.355	95.5
495.573	106.5
495.79	91.5
496.008	97.5
496.225	101.5
496.442	94.5
496.66	88.5
496.877	85.5
497.094	104.5
497.312	94.5
497.529	91.5
497.746	101.5
497.963	99.5
498.181	98.5
498.398	90.5
498.615	92.5
498.832	113.5
499.049	103.5
499.267	96.5
499.484	109.5
499.701	92.5
499.918	116.5
500.135	110.5
500.352	99.5
500.569	127.5
500.786	111.5
501.003	105.5
501.22	104.5
501.437	113.5
501.654	94.5
501.871	89.5
502.088	93.5
502.305	99.5
502.522	100.5
502.739	94.5
502.956	91.5
503.172	101.5
503.389	96.5
503.606	101.5
503.823	92.5
504.04	94.5
504.256	90.5
504.473	94.5
504.69	94.5
504.907	107.5
505.123	91.5
505.34	96.5
505.557	87.5
505.773	89.5
505.99	92.5
506.207	79.5
506.423	107.5
506.64	92.5
506.856	102.5
507.073	93.5
507.289	90.5
507.506	104.5
507.722	98.5
507.939	91.5
508.155	105.5
508.372	100.5
508.588	106.5
508.805	87.5
509.021	109.5
509.238	91.5
509.454	98.5
509.67	85.5
509.887	87.5
510.103	95.5
510.319	94.5
510.536	97.5
510.752	93.5
510.968	86.5
511.184	95.5
511.401	84.5
511.617	97.5
511.833	103.5
512.049	96.5
512.265	100.5
512.481	99.5
512.698	90.5
512.914	91.5
513.13	84.5
513.346	83.5
513.562	86.5
513.778	101.5
513.994	90.5
514.21	78.5
514.426	86.5
514.642	100.5
514.858	79.5
515.074	91.5
515.29	106.5
515.506	102.5
515.721	92.5
515.937	85.5
516.153	95.5
516.369	96.5
516.585	91.5
516.801	87.5
517.016	93.5
517.232	92.5
517.448	90.5
517.664	98.5
517.879	87.5
518.095	90.5
518.311	82.5
518.527	92.5
518.742	100.5
518.958	102.5
519.173	102.5
519.389	100.5
519.605	87.5
519.82	77.5
520.036	88.5
520.251	79.5
520.467	90.5
520.682	86.5
520.898	102.5
521.113	102.5
521.329	87.5
521.544	82.5
521.76	100.5
521.975	90.5
522.19	77.5
522.406	89.5
522.621	94.5
522.836	81.5
523.052	89.5
523.267	94.5
523.482	97.5
523.698	73.5
523.913	102.5
524.128	78.5
524.343	98.5
524.559	98.5
524.774	89.5
524.989	95.5
525.204	96.5
525.419	88.5
525.634	97.5
525.849	86.5
526.064	81.5
526.28	89.5
526.495	93.5
526.71	86.5
526.925	95.5
527.14	94.5
527.355	91.5
527.57	93.5
527.785	84.5
527.999	85.5
528.214	96.5
528.429	105.5
528.644	89.5
528.859	92.5
529.074	94.5
529.289	97.5
529.503	102.5
529.718	98.5
529.933	99.5
530.148	88.5
530.363	84.5
530.577	76.5
530.792	87.5
531.007	82.5
531.221	93.5
531.436	88.5
531.651	82.5
531.865	94.5
532.08	86.5
532.295	87.5
532.509	86.5
532.724	87.5
532.938	91.5
533.153	86.5
533.367	94.5
533.582	90.5
533.796	79.5
534.011	90.5
534.225	87.5
534.44	99.5
534.654	98.5
534.868	93.5
535.083	92.5
535.297	81.5
535.511	100.5
535.726	107.5
535.94	87.5
536.154	79.5
536.369	86.5
536.583	97.5
536.797	84.5
537.011	91.5
537.225	83.5
537.44	82.5
537.654	87.5
537.868	101.5
538.082	87.5
538.296	99.5
