Data from Ni(NO3)2@0.125M.TitratingCurve.Agarose3%dH2O.NegLispCup.LampEnergy10.LIBS07252019_HRD10591_18-08-30-567.txt Node
Date: Thu Jul 25 18:08:30 EDT 2019
User: cochatt
Spectrometer: HR+D1059
Trigger mode: 1
Integration Time (sec): 1.000000E-1
Scans to average: 1
Electric dark correction enabled: true
Nonlinearity correction enabled: false
Boxcar width: 0
XAxis mode: Wavelengths
Number of Pixels in Spectrum: 2048
>>>>>Begin Spectral Data<<<<<
223.165	-24.38
223.4	-24.38
223.635	-24.38
223.869	-11.38
224.104	-6.38
224.338	-15.38
224.573	-26.38
224.808	-19.38
225.042	-8.38
225.277	1.62
225.511	-5.38
225.746	0.62
225.98	5.62
226.215	10.62
226.449	5.62
226.683	32.62
226.918	28.62
227.152	31.62
227.387	32.62
227.621	37.62
227.856	38.62
228.09	36.62
228.324	50.62
228.559	44.62
228.793	68.62
229.027	104.62
229.262	124.62
229.496	123.62
229.73	123.62
229.964	153.62
230.199	146.62
230.433	153.62
230.667	144.62
230.901	139.62
231.136	136.62
231.37	135.62
231.604	141.62
231.838	156.62
232.072	152.62
232.306	156.62
232.541	155.62
232.775	167.62
233.009	161.62
233.243	167.62
233.477	169.62
233.711	153.62
233.945	155.62
234.179	150.62
234.413	168.62
234.647	167.62
234.881	161.62
235.115	164.62
235.349	161.62
235.583	147.62
235.817	160.62
236.051	157.62
236.285	186.62
236.519	175.62
236.753	171.62
236.987	166.62
237.221	186.62
237.455	159.62
237.689	191.62
237.922	169.62
238.156	165.62
238.39	166.62
238.624	178.62
238.858	162.62
239.091	167.62
239.325	194.62
239.559	193.62
239.793	197.62
240.027	201.62
240.26	188.62
240.494	195.62
240.728	197.62
240.961	203.62
241.195	200.62
241.429	196.62
241.662	200.62
241.896	192.62
242.13	212.62
242.363	223.62
242.597	213.62
242.83	214.62
243.064	220.62
243.298	227.62
243.531	230.62
243.765	212.62
243.998	209.62
244.232	232.62
244.465	214.62
244.699	220.62
244.932	242.62
245.166	239.62
245.399	237.62
245.633	224.62
245.866	226.62
246.099	247.62
246.333	253.62
246.566	246.62
246.8	247.62
247.033	240.62
247.266	239.62
247.5	247.62
247.733	254.62
247.966	273.62
248.2	240.62
248.433	275.62
248.666	268.62
248.899	273.62
249.133	289.62
249.366	280.62
249.599	268.62
249.832	276.62
250.066	304.62
250.299	280.62
250.532	296.62
250.765	293.62
250.998	290.62
251.231	309.62
251.465	300.62
251.698	297.62
251.931	279.62
252.164	306.62
252.397	328.62
252.63	319.62
252.863	313.62
253.096	322.62
253.329	340.62
253.562	317.62
253.795	306.62
254.028	317.62
254.261	316.62
254.494	314.62
254.727	335.62
254.96	330.62
255.193	327.62
255.426	340.62
255.659	345.62
255.892	346.62
256.124	336.62
256.357	343.62
256.59	334.62
256.823	338.62
257.056	352.62
257.289	346.62
257.521	329.62
257.754	356.62
257.987	365.62
258.22	359.62
258.452	345.62
258.685	363.62
258.918	359.62
259.151	357.62
259.383	371.62
259.616	361.62
259.849	356.62
260.081	352.62
260.314	391.62
260.547	377.62
260.779	393.62
261.012	382.62
261.244	368.62
261.477	375.62
261.71	396.62
261.942	392.62
262.175	380.62
262.407	377.62
262.64	386.62
262.872	398.62
263.105	377.62
263.337	380.62
263.57	399.62
263.802	408.62
264.035	411.62
264.267	397.62
264.499	381.62
264.732	419.62
264.964	412.62
265.197	407.62
265.429	413.62
265.661	403.62
265.894	396.62
266.126	408.62
266.358	419.62
266.591	439.62
266.823	425.62
267.055	412.62
267.287	425.62
267.52	431.62
267.752	425.62
267.984	427.62
268.216	442.62
268.448	426.62
268.681	449.62
268.913	447.62
269.145	444.62
269.377	442.62
269.609	454.62
269.841	452.62
270.073	441.62
270.306	443.62
270.538	452.62
270.77	440.62
271.002	458.62
271.234	446.62
271.466	470.62
271.698	445.62
271.93	457.62
272.162	455.62
272.394	477.62
272.626	452.62
272.858	471.62
273.09	461.62
273.322	469.62
273.553	454.62
273.785	479.62
274.017	469.62
274.249	483.62
274.481	464.62
274.713	479.62
274.945	476.62
275.176	478.62
275.408	476.62
275.64	473.62
275.872	503.62
276.104	503.62
276.335	497.62
276.567	509.62
276.799	506.62
277.031	489.62
277.262	504.62
277.494	487.62
277.726	526.62
277.957	509.62
278.189	509.62
278.421	517.62
278.652	526.62
278.884	519.62
279.115	515.62
279.347	510.62
279.579	536.62
279.81	536.62
280.042	509.62
280.273	533.62
280.505	535.62
280.736	554.62
280.968	545.62
281.199	516.62
281.431	536.62
281.662	547.62
281.894	529.62
282.125	536.62
282.356	575.62
282.588	559.62
282.819	543.62
283.051	546.62
283.282	547.62
283.513	552.62
283.745	553.62
283.976	550.62
284.207	581.62
284.439	544.62
284.67	583.62
284.901	569.62
285.132	592.62
285.364	570.62
285.595	561.62
285.826	566.62
286.057	579.62
286.288	601.62
286.52	581.62
286.751	584.62
286.982	595.62
287.213	589.62
287.444	605.62
287.675	596.62
287.906	628.62
288.138	587.62
288.369	596.62
288.6	607.62
288.831	589.62
289.062	612.62
289.293	631.62
289.524	611.62
289.755	605.62
289.986	629.62
290.217	605.62
290.448	606.62
290.679	628.62
290.91	625.62
291.141	606.62
291.371	624.62
291.602	609.62
291.833	627.62
292.064	616.62
292.295	616.62
292.526	633.62
292.757	629.62
292.987	597.62
293.218	592.62
293.449	625.62
293.68	627.62
293.91	618.62
294.141	620.62
294.372	624.62
294.603	623.62
294.833	651.62
295.064	619.62
295.295	639.62
295.525	623.62
295.756	641.62
295.987	628.62
296.217	678.62
296.448	649.62
296.679	660.62
296.909	657.62
297.14	667.62
297.37	649.62
297.601	654.62
297.831	673.62
298.062	650.62
298.292	695.62
298.523	668.62
298.753	673.62
298.984	689.62
299.214	678.62
299.445	661.62
299.675	675.62
299.905	665.62
300.136	694.62
300.366	697.62
300.597	710.62
300.827	700.62
301.057	688.62
301.288	723.62
301.518	715.62
301.748	710.62
301.979	713.62
302.209	700.62
302.439	705.62
302.669	685.62
302.9	681.62
303.13	669.62
303.36	703.62
303.59	691.62
303.82	720.62
304.051	714.62
304.281	726.62
304.511	694.62
304.741	698.62
304.971	720.62
305.201	706.62
305.431	700.62
305.661	718.62
305.891	689.62
306.121	680.62
306.352	672.62
306.582	675.62
306.812	665.62
307.042	691.62
307.272	696.62
307.502	684.62
307.731	661.62
307.961	677.62
308.191	690.62
308.421	665.62
308.651	668.62
308.881	680.62
309.111	679.62
309.341	672.62
309.571	682.62
309.8	689.62
310.03	681.62
310.26	714.62
310.49	705.62
310.72	699.62
310.949	690.62
311.179	690.62
311.409	680.62
311.639	717.62
311.868	731.62
312.098	717.62
312.328	706.62
312.557	744.62
312.787	719.62
313.017	751.62
313.246	759.62
313.476	741.62
313.706	732.62
313.935	738.62
314.165	742.62
314.394	724.62
314.624	742.62
314.853	772.62
315.083	745.62
315.312	748.62
315.542	756.62
315.771	716.62
316.001	736.62
316.23	724.62
316.46	736.62
316.689	749.62
316.919	722.62
317.148	764.62
317.377	761.62
317.607	724.62
317.836	713.62
318.065	754.62
318.295	738.62
318.524	742.62
318.753	729.62
318.983	748.62
319.212	732.62
319.441	722.62
319.67	742.62
319.9	752.62
320.129	752.62
320.358	739.62
320.587	761.62
320.816	775.62
321.046	743.62
321.275	764.62
321.504	741.62
321.733	761.62
321.962	743.62
322.191	781.62
322.42	789.62
322.649	759.62
322.878	771.62
323.108	716.62
323.337	748.62
323.566	781.62
323.795	791.62
324.024	764.62
324.253	779.62
324.482	788.62
324.71	810.62
324.939	787.62
325.168	817.62
325.397	797.62
325.626	789.62
325.855	828.62
326.084	842.62
326.313	827.62
326.542	822.62
326.77	839.62
326.999	831.62
327.228	829.62
327.457	820.62
327.686	850.62
327.914	802.62
328.143	832.62
328.372	859.62
328.6	828.62
328.829	836.62
329.058	850.62
329.287	825.62
329.515	832.62
329.744	872.62
329.972	836.62
330.201	885.62
330.43	891.62
330.658	856.62
330.887	880.62
331.115	884.62
331.344	923.62
331.572	901.62
331.801	920.62
332.03	933.62
332.258	973.62
332.486	1003.62
332.715	1031.62
332.943	1077.62
333.172	1105.62
333.4	1136.62
333.629	1203.62
333.857	1200.62
334.085	1137.62
334.314	1130.62
334.542	1107.62
334.771	1113.62
334.999	1094.62
335.227	1075.62
335.455	1083.62
335.684	1057.62
335.912	1085.62
336.14	1043.62
336.369	1037.62
336.597	997.62
336.825	1052.62
337.053	1039.62
337.281	1024.62
337.51	981.62
337.738	1005.62
337.966	973.62
338.194	949.62
338.422	951.62
338.65	975.62
338.878	928.62
339.106	930.62
339.334	920.62
339.562	921.62
339.79	910.62
340.018	904.62
340.246	901.62
340.474	886.62
340.702	868.62
340.93	882.62
341.158	913.62
341.386	906.62
341.614	923.62
341.842	909.62
342.07	875.62
342.298	895.62
342.526	876.62
342.754	892.62
342.981	921.62
343.209	913.62
343.437	971.62
343.665	1035.62
343.893	1107.62
344.12	1147.62
344.348	1067.62
344.576	1069.62
344.804	992.62
345.031	929.62
345.259	931.62
345.487	930.62
345.714	892.62
345.942	891.62
346.17	877.62
346.397	880.62
346.625	893.62
346.853	874.62
347.08	883.62
347.308	857.62
347.535	889.62
347.763	888.62
347.99	871.62
348.218	903.62
348.445	867.62
348.673	883.62
348.9	881.62
349.128	873.62
349.355	867.62
349.583	880.62
349.81	857.62
350.037	822.62
350.265	859.62
350.492	835.62
350.72	865.62
350.947	822.62
351.174	852.62
351.402	859.62
351.629	845.62
351.856	859.62
352.083	837.62
352.311	849.62
352.538	859.62
352.765	866.62
352.992	839.62
353.22	853.62
353.447	825.62
353.674	831.62
353.901	851.62
354.128	809.62
354.355	819.62
354.583	831.62
354.81	813.62
355.037	831.62
355.264	811.62
355.491	825.62
355.718	837.62
355.945	836.62
356.172	841.62
356.399	833.62
356.626	884.62
356.853	872.62
357.08	853.62
357.307	834.62
357.534	841.62
357.761	831.62
357.988	852.62
358.215	837.62
358.441	844.62
358.668	832.62
358.895	823.62
359.122	827.62
359.349	831.62
359.576	833.62
359.802	842.62
360.029	843.62
360.256	840.62
360.483	840.62
360.709	849.62
360.936	833.62
361.163	834.62
361.39	831.62
361.616	844.62
361.843	847.62
362.07	870.62
362.296	866.62
362.523	824.62
362.749	830.62
362.976	819.62
363.203	818.62
363.429	815.62
363.656	828.62
363.882	846.62
364.109	807.62
364.335	823.62
364.562	831.62
364.788	802.62
365.015	808.62
365.241	824.62
365.468	814.62
365.694	819.62
365.92	780.62
366.147	816.62
366.373	811.62
366.599	837.62
366.826	828.62
367.052	809.62
367.278	826.62
367.505	839.62
367.731	845.62
367.957	845.62
368.184	855.62
368.41	835.62
368.636	821.62
368.862	818.62
369.089	826.62
369.315	824.62
369.541	863.62
369.767	837.62
369.993	840.62
370.219	857.62
370.445	881.62
370.672	849.62
370.898	873.62
371.124	883.62
371.35	903.62
371.576	908.62
371.802	897.62
372.028	891.62
372.254	868.62
372.48	915.62
372.706	956.62
372.932	970.62
373.158	931.62
373.384	952.62
373.61	895.62
373.835	878.62
374.061	909.62
374.287	920.62
374.513	889.62
374.739	936.62
374.965	967.62
375.191	1008.62
375.416	1005.62
375.642	1004.62
375.868	970.62
376.094	916.62
376.319	917.62
376.545	895.62
376.771	882.62
376.997	916.62
377.222	909.62
377.448	897.62
377.674	899.62
377.899	902.62
378.125	913.62
378.35	881.62
378.576	872.62
378.802	878.62
379.027	889.62
379.253	889.62
379.478	886.62
379.704	894.62
379.929	880.62
380.155	873.62
380.38	901.62
380.606	876.62
380.831	885.62
381.057	892.62
381.282	890.62
381.507	874.62
381.733	908.62
381.958	911.62
382.184	899.62
382.409	927.62
382.634	967.62
382.86	927.62
383.085	950.62
383.31	972.62
383.535	979.62
383.761	995.62
383.986	1001.62
384.211	996.62
384.436	1069.62
384.662	1079.62
384.887	1079.62
385.112	1076.62
385.337	1061.62
385.562	1107.62
385.787	1071.62
386.013	1100.62
386.238	1084.62
386.463	1086.62
386.688	1085.62
386.913	1066.62
387.138	1061.62
387.363	1051.62
387.588	1059.62
387.813	1033.62
388.038	1063.62
388.263	1065.62
388.488	1088.62
388.713	1042.62
388.938	1042.62
389.163	1082.62
389.387	1029.62
389.612	1003.62
389.837	1073.62
390.062	1033.62
390.287	1042.62
390.512	1011.62
390.736	1065.62
390.961	1070.62
391.186	1107.62
391.411	1140.62
391.636	1156.62
391.86	1183.62
392.085	1265.62
392.31	1256.62
392.534	1171.62
392.759	1176.62
392.984	1141.62
393.208	1126.62
393.433	1095.62
393.658	1145.62
393.882	1150.62
394.107	1118.62
394.331	1134.62
394.556	1155.62
394.78	1151.62
395.005	1143.62
395.229	1143.62
395.454	1187.62
395.678	1220.62
395.903	1231.62
396.127	1183.62
396.352	1156.62
396.576	1113.62
396.801	1135.62
397.025	1135.62
397.249	1180.62
397.474	1206.62
397.698	1192.62
397.922	1205.62
398.147	1195.62
398.371	1228.62
398.595	1303.62
398.82	1337.62
399.044	1407.62
399.268	1558.62
399.492	1837.62
399.717	2133.62
399.941	2056.62
400.165	1841.62
400.389	1609.62
400.613	1531.62
400.837	1439.62
401.062	1377.62
401.286	1327.62
401.51	1338.62
401.734	1315.62
401.958	1354.62
402.182	1371.62
402.406	1382.62
402.63	1421.62
402.854	1484.62
403.078	1483.62
403.302	1497.62
403.526	1515.62
403.75	1568.62
403.974	1605.62
404.198	1610.62
404.422	1588.62
404.645	1579.62
404.869	1563.62
405.093	1543.62
405.317	1511.62
405.541	1527.62
405.765	1484.62
405.988	1461.62
406.212	1473.62
406.436	1495.62
406.66	1533.62
406.883	1560.62
407.107	1675.62
407.331	1721.62
407.555	1803.62
407.778	1788.62
408.002	1716.62
408.226	1672.62
408.449	1596.62
408.673	1552.62
408.896	1548.62
409.12	1550.62
409.344	1571.62
409.567	1535.62
409.791	1535.62
410.014	1576.62
410.238	1551.62
410.461	1482.62
410.685	1476.62
410.908	1480.62
411.132	1436.62
411.355	1423.62
411.578	1405.62
411.802	1405.62
412.025	1384.62
412.249	1428.62
412.472	1451.62
412.695	1362.62
412.919	1343.62
413.142	1365.62
413.365	1348.62
413.589	1380.62
413.812	1337.62
414.035	1340.62
414.258	1343.62
414.482	1343.62
414.705	1376.62
414.928	1378.62
415.151	1347.62
415.374	1380.62
415.597	1337.62
415.821	1317.62
416.044	1329.62
416.267	1303.62
416.49	1293.62
416.713	1325.62
416.936	1356.62
417.159	1331.62
417.382	1357.62
417.605	1339.62
417.828	1329.62
418.051	1375.62
418.274	1372.62
418.497	1351.62
418.72	1383.62
418.943	1414.62
419.166	1469.62
419.389	1563.62
419.611	1519.62
419.834	1433.62
420.057	1438.62
420.28	1334.62
420.503	1345.62
420.726	1307.62
420.948	1313.62
421.171	1354.62
421.394	1365.62
421.617	1355.62
421.839	1356.62
422.062	1360.62
422.285	1351.62
422.507	1377.62
422.73	1403.62
422.953	1369.62
423.175	1423.62
423.398	1447.62
423.621	1423.62
423.843	1468.62
424.066	1488.62
424.288	1451.62
424.511	1431.62
424.733	1436.62
424.956	1378.62
425.178	1377.62
425.401	1380.62
425.623	1375.62
425.846	1312.62
426.068	1321.62
426.291	1287.62
426.513	1266.62
426.735	1258.62
426.958	1287.62
427.18	1256.62
427.402	1246.62
427.625	1218.62
427.847	1195.62
428.069	1235.62
428.292	1188.62
428.514	1184.62
428.736	1187.62
428.958	1230.62
429.181	1181.62
429.403	1155.62
429.625	1171.62
429.847	1169.62
430.069	1171.62
430.292	1169.62
430.514	1171.62
430.736	1158.62
430.958	1146.62
431.18	1174.62
431.402	1164.62
431.624	1185.62
431.846	1182.62
432.068	1184.62
432.29	1234.62
432.512	1205.62
432.734	1181.62
432.956	1206.62
433.178	1211.62
433.4	1189.62
433.622	1220.62
433.844	1243.62
434.066	1228.62
434.287	1221.62
434.509	1270.62
434.731	1293.62
434.953	1366.62
435.175	1384.62
435.397	1337.62
435.618	1291.62
435.84	1245.62
436.062	1205.62
436.284	1205.62
436.505	1184.62
436.727	1243.62
436.949	1209.62
437.17	1214.62
437.392	1174.62
437.614	1184.62
437.835	1147.62
438.057	1157.62
438.278	1160.62
438.5	1142.62
438.721	1177.62
438.943	1138.62
439.165	1162.62
439.386	1177.62
439.608	1176.62
439.829	1176.62
440.05	1219.62
440.272	1239.62
440.493	1228.62
440.715	1256.62
440.936	1285.62
441.158	1281.62
441.379	1312.62
441.6	1370.62
441.822	1405.62
442.043	1374.62
442.264	1327.62
442.486	1311.62
442.707	1376.62
442.928	1358.62
443.149	1362.62
443.371	1343.62
443.592	1403.62
443.813	1394.62
444.034	1368.62
444.255	1429.62
444.476	1467.62
444.698	1611.62
444.919	1693.62
445.14	1755.62
445.361	1578.62
445.582	1395.62
445.803	1314.62
446.024	1301.62
446.245	1274.62
446.466	1250.62
446.687	1249.62
446.908	1235.62
447.129	1220.62
447.35	1218.62
447.571	1151.62
447.792	1157.62
448.013	1152.62
448.234	1144.62
448.455	1138.62
448.675	1087.62
448.896	1111.62
449.117	1067.62
449.338	1065.62
449.559	1104.62
449.779	1095.62
450	1111.62
450.221	1116.62
450.442	1146.62
450.662	1120.62
450.883	1094.62
451.104	1131.62
451.324	1124.62
451.545	1119.62
451.766	1143.62
451.986	1113.62
452.207	1109.62
452.428	1104.62
452.648	1101.62
452.869	1071.62
453.089	1077.62
453.31	1092.62
453.53	1089.62
453.751	1069.62
453.971	1092.62
454.192	1082.62
454.412	1054.62
454.633	1041.62
454.853	1047.62
455.073	1046.62
455.294	1025.62
455.514	1077.62
455.734	1036.62
455.955	1023.62
456.175	1035.62
456.395	1046.62
456.616	1048.62
456.836	1043.62
457.056	1028.62
457.276	1002.62
457.497	1024.62
457.717	1035.62
457.937	1038.62
458.157	1036.62
458.377	1059.62
458.598	1081.62
458.818	1100.62
459.038	1131.62
459.258	1156.62
459.478	1226.62
459.698	1275.62
459.918	1311.62
460.138	1393.62
460.358	1423.62
460.578	1456.62
460.798	1489.62
461.018	1455.62
461.238	1436.62
461.458	1406.62
461.678	1419.62
461.898	1435.62
462.118	1471.62
462.338	1569.62
462.558	1595.62
462.777	1679.62
462.997	1798.62
463.217	1987.62
463.437	2009.62
463.657	1816.62
463.876	1665.62
464.096	1675.62
464.316	1673.62
464.536	1698.62
464.755	1659.62
464.975	1544.62
465.195	1493.62
465.414	1385.62
465.634	1279.62
465.854	1253.62
466.073	1238.62
466.293	1235.62
466.512	1202.62
466.732	1194.62
466.951	1171.62
467.171	1173.62
467.391	1166.62
467.61	1157.62
467.829	1189.62
468.049	1179.62
468.268	1117.62
468.488	1108.62
468.707	1072.62
468.927	1124.62
469.146	1114.62
469.365	1148.62
469.585	1125.62
469.804	1129.62
470.023	1171.62
470.243	1167.62
470.462	1235.62
470.681	1227.62
470.901	1195.62
471.12	1212.62
471.339	1189.62
471.558	1162.62
471.777	1143.62
471.997	1106.62
472.216	1075.62
472.435	1128.62
472.654	1048.62
472.873	1081.62
473.092	1066.62
473.311	1052.62
473.53	1057.62
473.749	1072.62
473.968	1095.62
474.187	1094.62
474.406	1063.62
474.625	1090.62
474.844	1069.62
475.063	1090.62
475.282	1080.62
475.501	1064.62
475.72	1102.62
475.939	1122.62
476.158	1126.62
476.377	1099.62
476.596	1129.62
476.814	1121.62
477.033	1154.62
477.252	1171.62
477.471	1162.62
477.69	1238.62
477.908	1276.62
478.127	1269.62
478.346	1312.62
478.564	1334.62
478.783	1321.62
479.002	1403.62
479.22	1387.62
479.439	1378.62
479.658	1351.62
479.876	1349.62
480.095	1410.62
480.313	1435.62
480.532	1512.62
480.751	1475.62
480.969	1383.62
481.188	1373.62
481.406	1287.62
481.624	1254.62
481.843	1245.62
482.061	1233.62
482.28	1224.62
482.498	1226.62
482.717	1227.62
482.935	1220.62
483.153	1232.62
483.372	1233.62
483.59	1252.62
483.808	1269.62
484.027	1237.62
484.245	1249.62
484.463	1228.62
484.681	1281.62
484.9	1281.62
485.118	1291.62
485.336	1322.62
485.554	1298.62
485.772	1341.62
485.99	1309.62
486.209	1308.62
486.427	1315.62
486.645	1330.62
486.863	1312.62
487.081	1312.62
487.299	1298.62
487.517	1292.62
487.735	1318.62
487.953	1281.62
488.171	1272.62
488.389	1279.62
488.607	1275.62
488.825	1259.62
489.043	1254.62
489.261	1264.62
489.479	1327.62
489.696	1323.62
489.914	1316.62
490.132	1304.62
490.35	1313.62
490.568	1299.62
490.786	1305.62
491.003	1312.62
491.221	1316.62
491.439	1351.62
491.657	1339.62
491.874	1334.62
492.092	1355.62
492.31	1351.62
492.527	1325.62
492.745	1361.62
492.963	1379.62
493.18	1358.62
493.398	1379.62
493.615	1375.62
493.833	1393.62
494.05	1385.62
494.268	1393.62
