Data from Ni(NO3)2@0.25M.TitratingCurve.Agarose3%dH2O.NegLispCup.LampEnergy10.LIBS07252019_HRD10591_18-02-38-566.txt Node
Date: Thu Jul 25 18:02:38 EDT 2019
User: cochatt
Spectrometer: HR+D1059
Trigger mode: 1
Integration Time (sec): 1.000000E-1
Scans to average: 1
Electric dark correction enabled: true
Nonlinearity correction enabled: false
Boxcar width: 0
XAxis mode: Wavelengths
Number of Pixels in Spectrum: 2048
>>>>>Begin Spectral Data<<<<<
223.165	-5.81
223.4	-5.81
223.635	-5.81
223.869	-27.81
224.104	-21.81
224.338	-12.81
224.573	-14.81
224.808	-20.81
225.042	-16.81
225.277	-10.81
225.511	2.19
225.746	7.19
225.98	8.19
226.215	9.19
226.449	10.19
226.683	25.19
226.918	41.19
227.152	28.19
227.387	20.19
227.621	33.19
227.856	54.19
228.09	43.19
228.324	44.19
228.559	57.19
228.793	66.19
229.027	93.19
229.262	82.19
229.496	91.19
229.73	84.19
229.964	85.19
230.199	112.19
230.433	125.19
230.667	109.19
230.901	123.19
231.136	103.19
231.37	112.19
231.604	123.19
231.838	130.19
232.072	123.19
232.306	123.19
232.541	117.19
232.775	109.19
233.009	117.19
233.243	111.19
233.477	108.19
233.711	108.19
233.945	122.19
234.179	104.19
234.413	111.19
234.647	119.19
234.881	98.19
235.115	122.19
235.349	108.19
235.583	119.19
235.817	103.19
236.051	116.19
236.285	115.19
236.519	101.19
236.753	102.19
236.987	112.19
237.221	115.19
237.455	98.19
237.689	90.19
237.922	99.19
238.156	117.19
238.39	101.19
238.624	112.19
238.858	111.19
239.091	112.19
239.325	120.19
239.559	119.19
239.793	130.19
240.027	124.19
240.26	111.19
240.494	136.19
240.728	131.19
240.961	126.19
241.195	146.19
241.429	127.19
241.662	124.19
241.896	138.19
242.13	148.19
242.363	122.19
242.597	129.19
242.83	135.19
243.064	138.19
243.298	116.19
243.531	137.19
243.765	146.19
243.998	133.19
244.232	145.19
244.465	133.19
244.699	121.19
244.932	125.19
245.166	134.19
245.399	125.19
245.633	120.19
245.866	138.19
246.099	134.19
246.333	140.19
246.566	147.19
246.8	139.19
247.033	145.19
247.266	149.19
247.5	140.19
247.733	156.19
247.966	146.19
248.2	147.19
248.433	163.19
248.666	152.19
248.899	164.19
249.133	153.19
249.366	153.19
249.599	160.19
249.832	153.19
250.066	176.19
250.299	167.19
250.532	168.19
250.765	151.19
250.998	163.19
251.231	178.19
251.465	172.19
251.698	178.19
251.931	171.19
252.164	176.19
252.397	185.19
252.63	196.19
252.863	190.19
253.096	185.19
253.329	196.19
253.562	180.19
253.795	183.19
254.028	195.19
254.261	193.19
254.494	197.19
254.727	208.19
254.96	193.19
255.193	204.19
255.426	211.19
255.659	202.19
255.892	224.19
256.124	208.19
256.357	217.19
256.59	233.19
256.823	222.19
257.056	218.19
257.289	216.19
257.521	232.19
257.754	230.19
257.987	219.19
258.22	222.19
258.452	222.19
258.685	217.19
258.918	238.19
259.151	226.19
259.383	233.19
259.616	230.19
259.849	237.19
260.081	248.19
260.314	257.19
260.547	232.19
260.779	249.19
261.012	235.19
261.244	257.19
261.477	227.19
261.71	243.19
261.942	263.19
262.175	253.19
262.407	258.19
262.64	256.19
262.872	269.19
263.105	268.19
263.337	267.19
263.57	262.19
263.802	267.19
264.035	262.19
264.267	265.19
264.499	272.19
264.732	267.19
264.964	267.19
265.197	268.19
265.429	274.19
265.661	286.19
265.894	274.19
266.126	274.19
266.358	275.19
266.591	287.19
266.823	286.19
267.055	266.19
267.287	251.19
267.52	279.19
267.752	292.19
267.984	282.19
268.216	269.19
268.448	275.19
268.681	276.19
268.913	280.19
269.145	279.19
269.377	291.19
269.609	281.19
269.841	290.19
270.073	292.19
270.306	305.19
270.538	287.19
270.77	298.19
271.002	293.19
271.234	287.19
271.466	290.19
271.698	295.19
271.93	269.19
272.162	298.19
272.394	296.19
272.626	290.19
272.858	297.19
273.09	282.19
273.322	305.19
273.553	297.19
273.785	288.19
274.017	295.19
274.249	308.19
274.481	290.19
274.713	285.19
274.945	317.19
275.176	304.19
275.408	307.19
275.64	293.19
275.872	313.19
276.104	309.19
276.335	314.19
276.567	319.19
276.799	297.19
277.031	307.19
277.262	315.19
277.494	307.19
277.726	309.19
277.957	310.19
278.189	307.19
278.421	298.19
278.652	318.19
278.884	320.19
279.115	331.19
279.347	303.19
279.579	333.19
279.81	308.19
280.042	329.19
280.273	315.19
280.505	326.19
280.736	336.19
280.968	325.19
281.199	313.19
281.431	322.19
281.662	336.19
281.894	335.19
282.125	324.19
282.356	337.19
282.588	313.19
282.819	340.19
283.051	323.19
283.282	319.19
283.513	331.19
283.745	316.19
283.976	329.19
284.207	344.19
284.439	338.19
284.67	336.19
284.901	341.19
285.132	329.19
285.364	317.19
285.595	332.19
285.826	336.19
286.057	326.19
286.288	325.19
286.52	343.19
286.751	342.19
286.982	344.19
287.213	359.19
287.444	337.19
287.675	335.19
287.906	354.19
288.138	338.19
288.369	349.19
288.6	338.19
288.831	348.19
289.062	361.19
289.293	345.19
289.524	337.19
289.755	352.19
289.986	337.19
290.217	355.19
290.448	343.19
290.679	348.19
290.91	355.19
291.141	363.19
291.371	356.19
291.602	336.19
291.833	363.19
292.064	343.19
292.295	345.19
292.526	338.19
292.757	354.19
292.987	346.19
293.218	326.19
293.449	355.19
293.68	337.19
293.91	340.19
294.141	335.19
294.372	331.19
294.603	336.19
294.833	349.19
295.064	344.19
295.295	331.19
295.525	338.19
295.756	344.19
295.987	338.19
296.217	369.19
296.448	344.19
296.679	342.19
296.909	349.19
297.14	361.19
297.37	353.19
297.601	359.19
297.831	360.19
298.062	343.19
298.292	361.19
298.523	377.19
298.753	359.19
298.984	376.19
299.214	351.19
299.445	351.19
299.675	370.19
299.905	381.19
300.136	385.19
300.366	407.19
300.597	383.19
300.827	363.19
301.057	377.19
301.288	383.19
301.518	381.19
301.748	396.19
301.979	378.19
302.209	367.19
302.439	367.19
302.669	386.19
302.9	361.19
303.13	383.19
303.36	374.19
303.59	383.19
303.82	375.19
304.051	372.19
304.281	405.19
304.511	363.19
304.741	397.19
304.971	387.19
305.201	399.19
305.431	386.19
305.661	403.19
305.891	394.19
306.121	370.19
306.352	381.19
306.582	395.19
306.812	390.19
307.042	398.19
307.272	411.19
307.502	392.19
307.731	382.19
307.961	384.19
308.191	397.19
308.421	391.19
308.651	398.19
308.881	408.19
309.111	397.19
309.341	415.19
309.571	406.19
309.8	415.19
310.03	410.19
310.26	417.19
310.49	410.19
310.72	399.19
310.949	432.19
311.179	403.19
311.409	403.19
311.639	428.19
311.868	443.19
312.098	426.19
312.328	426.19
312.557	419.19
312.787	433.19
313.017	435.19
313.246	440.19
313.476	441.19
313.706	470.19
313.935	449.19
314.165	469.19
314.394	441.19
314.624	454.19
314.853	453.19
315.083	463.19
315.312	471.19
315.542	460.19
315.771	455.19
316.001	461.19
316.23	452.19
316.46	470.19
316.689	458.19
316.919	459.19
317.148	488.19
317.377	487.19
317.607	477.19
317.836	485.19
318.065	479.19
318.295	479.19
318.524	477.19
318.753	485.19
318.983	509.19
319.212	477.19
319.441	483.19
319.67	497.19
319.9	480.19
320.129	492.19
320.358	522.19
320.587	518.19
320.816	525.19
321.046	506.19
321.275	524.19
321.504	526.19
321.733	531.19
321.962	510.19
322.191	514.19
322.42	535.19
322.649	536.19
322.878	545.19
323.108	533.19
323.337	540.19
323.566	559.19
323.795	537.19
324.024	543.19
324.253	524.19
324.482	556.19
324.71	560.19
324.939	545.19
325.168	547.19
325.397	561.19
325.626	573.19
325.855	565.19
326.084	581.19
326.313	599.19
326.542	588.19
326.77	615.19
326.999	581.19
327.228	589.19
327.457	587.19
327.686	610.19
327.914	596.19
328.143	615.19
328.372	602.19
328.6	589.19
328.829	594.19
329.058	603.19
329.287	615.19
329.515	635.19
329.744	608.19
329.972	634.19
330.201	607.19
330.43	643.19
330.658	595.19
330.887	623.19
331.115	648.19
331.344	643.19
331.572	629.19
331.801	652.19
332.03	632.19
332.258	652.19
332.486	647.19
332.715	661.19
332.943	689.19
333.172	696.19
333.4	672.19
333.629	705.19
333.857	734.19
334.085	719.19
334.314	668.19
334.542	690.19
334.771	690.19
334.999	680.19
335.227	693.19
335.455	676.19
335.684	707.19
335.912	714.19
336.14	695.19
336.369	671.19
336.597	703.19
336.825	707.19
337.053	697.19
337.281	708.19
337.51	699.19
337.738	677.19
337.966	704.19
338.194	700.19
338.422	684.19
338.65	684.19
338.878	675.19
339.106	708.19
339.334	694.19
339.562	688.19
339.79	679.19
340.018	701.19
340.246	682.19
340.474	674.19
340.702	674.19
340.93	681.19
341.158	685.19
341.386	696.19
341.614	703.19
341.842	666.19
342.07	689.19
342.298	667.19
342.526	685.19
342.754	695.19
342.981	679.19
343.209	693.19
343.437	681.19
343.665	716.19
343.893	709.19
344.12	727.19
344.348	705.19
344.576	694.19
344.804	695.19
345.031	679.19
345.259	713.19
345.487	704.19
345.714	670.19
345.942	708.19
346.17	723.19
346.397	666.19
346.625	684.19
346.853	670.19
347.08	677.19
347.308	668.19
347.535	671.19
347.763	669.19
347.99	667.19
348.218	680.19
348.445	687.19
348.673	672.19
348.9	655.19
349.128	657.19
349.355	673.19
349.583	699.19
349.81	651.19
350.037	655.19
350.265	671.19
350.492	662.19
350.72	661.19
350.947	654.19
351.174	676.19
351.402	685.19
351.629	703.19
351.856	667.19
352.083	667.19
352.311	664.19
352.538	663.19
352.765	666.19
352.992	675.19
353.22	639.19
353.447	653.19
353.674	656.19
353.901	671.19
354.128	672.19
354.355	651.19
354.583	664.19
354.81	665.19
355.037	651.19
355.264	659.19
355.491	652.19
355.718	663.19
355.945	659.19
356.172	652.19
356.399	657.19
356.626	649.19
356.853	693.19
357.08	648.19
357.307	661.19
357.534	621.19
357.761	648.19
357.988	634.19
358.215	654.19
358.441	657.19
358.668	635.19
358.895	648.19
359.122	659.19
359.349	645.19
359.576	640.19
359.802	633.19
360.029	657.19
360.256	659.19
360.483	651.19
360.709	646.19
360.936	651.19
361.163	645.19
361.39	651.19
361.616	649.19
361.843	659.19
362.07	674.19
362.296	667.19
362.523	650.19
362.749	651.19
362.976	645.19
363.203	665.19
363.429	632.19
363.656	656.19
363.882	631.19
364.109	649.19
364.335	651.19
364.562	633.19
364.788	634.19
365.015	601.19
365.241	613.19
365.468	638.19
365.694	649.19
365.92	632.19
366.147	668.19
366.373	660.19
366.599	668.19
366.826	637.19
367.052	640.19
367.278	639.19
367.505	634.19
367.731	669.19
367.957	631.19
368.184	654.19
368.41	647.19
368.636	648.19
368.862	654.19
369.089	651.19
369.315	665.19
369.541	644.19
369.767	665.19
369.993	649.19
370.219	636.19
370.445	637.19
370.672	642.19
370.898	651.19
371.124	660.19
371.35	653.19
371.576	675.19
371.802	680.19
372.028	671.19
372.254	648.19
372.48	674.19
372.706	663.19
372.932	629.19
373.158	649.19
373.384	619.19
373.61	661.19
373.835	643.19
374.061	635.19
374.287	661.19
374.513	650.19
374.739	641.19
374.965	661.19
375.191	653.19
375.416	677.19
375.642	652.19
375.868	648.19
376.094	639.19
376.319	634.19
376.545	644.19
376.771	634.19
376.997	645.19
377.222	643.19
377.448	629.19
377.674	640.19
377.899	627.19
378.125	610.19
378.35	645.19
378.576	614.19
378.802	611.19
379.027	637.19
379.253	635.19
379.478	625.19
379.704	601.19
379.929	628.19
380.155	627.19
380.38	601.19
380.606	620.19
380.831	626.19
381.057	655.19
381.282	614.19
381.507	625.19
381.733	649.19
381.958	620.19
382.184	622.19
382.409	639.19
382.634	647.19
382.86	650.19
383.085	653.19
383.31	641.19
383.535	659.19
383.761	657.19
383.986	649.19
384.211	639.19
384.436	653.19
384.662	652.19
384.887	668.19
385.112	671.19
385.337	677.19
385.562	672.19
385.787	676.19
386.013	678.19
386.238	676.19
386.463	656.19
386.688	669.19
386.913	651.19
387.138	659.19
387.363	649.19
387.588	666.19
387.813	676.19
388.038	639.19
388.263	674.19
388.488	661.19
388.713	667.19
388.938	667.19
389.163	662.19
389.387	674.19
389.612	676.19
389.837	666.19
390.062	669.19
390.287	681.19
390.512	657.19
390.736	637.19
390.961	679.19
391.186	673.19
391.411	679.19
391.636	685.19
391.86	696.19
392.085	699.19
392.31	691.19
392.534	684.19
392.759	709.19
392.984	687.19
393.208	680.19
393.433	682.19
393.658	723.19
393.882	693.19
394.107	677.19
394.331	697.19
394.556	674.19
394.78	689.19
395.005	659.19
395.229	670.19
395.454	682.19
395.678	720.19
395.903	708.19
396.127	694.19
396.352	679.19
396.576	672.19
396.801	692.19
397.025	701.19
397.249	713.19
397.474	722.19
397.698	709.19
397.922	723.19
398.147	738.19
398.371	713.19
398.595	744.19
398.82	749.19
399.044	742.19
399.268	806.19
399.492	827.19
399.717	846.19
399.941	847.19
400.165	826.19
400.389	796.19
400.613	793.19
400.837	759.19
401.062	764.19
401.286	735.19
401.51	764.19
401.734	756.19
401.958	755.19
402.182	762.19
402.406	753.19
402.63	757.19
402.854	788.19
403.078	786.19
403.302	743.19
403.526	781.19
403.75	777.19
403.974	823.19
404.198	791.19
404.422	788.19
404.645	785.19
404.869	797.19
405.093	807.19
405.317	781.19
405.541	806.19
405.765	792.19
405.988	805.19
406.212	781.19
406.436	749.19
406.66	819.19
406.883	821.19
407.107	854.19
407.331	819.19
407.555	827.19
407.778	860.19
408.002	854.19
408.226	833.19
408.449	850.19
408.673	827.19
408.896	800.19
409.12	821.19
409.344	820.19
409.567	812.19
409.791	834.19
410.014	827.19
410.238	802.19
410.461	818.19
410.685	811.19
410.908	812.19
411.132	808.19
411.355	797.19
411.578	787.19
411.802	796.19
412.025	770.19
412.249	812.19
412.472	793.19
412.695	777.19
412.919	756.19
413.142	783.19
413.365	765.19
413.589	789.19
413.812	805.19
414.035	781.19
414.258	753.19
414.482	756.19
414.705	791.19
414.928	785.19
415.151	775.19
415.374	778.19
415.597	763.19
415.821	771.19
416.044	747.19
416.267	761.19
416.49	753.19
416.713	776.19
416.936	793.19
417.159	776.19
417.382	783.19
417.605	738.19
417.828	776.19
418.051	799.19
418.274	801.19
418.497	745.19
418.72	779.19
418.943	778.19
419.166	796.19
419.389	859.19
419.611	827.19
419.834	805.19
420.057	816.19
420.28	774.19
420.503	791.19
420.726	778.19
420.948	759.19
421.171	761.19
421.394	772.19
421.617	812.19
421.839	769.19
422.062	777.19
422.285	771.19
422.507	767.19
422.73	784.19
422.953	770.19
423.175	799.19
423.398	802.19
423.621	812.19
423.843	796.19
424.066	775.19
424.288	795.19
424.511	803.19
424.733	792.19
424.956	787.19
425.178	777.19
425.401	791.19
425.623	793.19
425.846	781.19
426.068	776.19
426.291	777.19
426.513	788.19
426.735	764.19
426.958	791.19
427.18	776.19
427.402	774.19
427.625	780.19
427.847	764.19
428.069	778.19
428.292	765.19
428.514	749.19
428.736	762.19
428.958	807.19
429.181	771.19
429.403	772.19
429.625	786.19
429.847	759.19
430.069	777.19
430.292	779.19
430.514	765.19
430.736	775.19
430.958	777.19
431.18	763.19
431.402	770.19
431.624	779.19
431.846	763.19
432.068	760.19
432.29	794.19
432.512	765.19
432.734	771.19
432.956	802.19
433.178	794.19
433.4	777.19
433.622	829.19
433.844	806.19
434.066	779.19
434.287	774.19
434.509	771.19
434.731	792.19
434.953	815.19
435.175	817.19
435.397	846.19
435.618	808.19
435.84	785.19
436.062	769.19
436.284	813.19
436.505	785.19
436.727	770.19
436.949	804.19
437.17	781.19
437.392	777.19
437.614	793.19
437.835	770.19
438.057	729.19
438.278	735.19
438.5	744.19
438.721	795.19
438.943	797.19
439.165	776.19
439.386	799.19
439.608	808.19
439.829	810.19
440.05	785.19
440.272	794.19
440.493	791.19
440.715	802.19
440.936	797.19
441.158	819.19
441.379	821.19
441.6	845.19
441.822	844.19
442.043	835.19
442.264	819.19
442.486	811.19
442.707	800.19
442.928	839.19
443.149	834.19
443.371	824.19
443.592	832.19
443.813	827.19
444.034	823.19
444.255	820.19
444.476	861.19
444.698	888.19
444.919	898.19
445.14	980.19
445.361	936.19
445.582	821.19
445.803	824.19
446.024	826.19
446.245	800.19
446.466	781.19
446.687	765.19
446.908	790.19
447.129	810.19
447.35	792.19
447.571	766.19
447.792	761.19
448.013	767.19
448.234	748.19
448.455	751.19
448.675	753.19
448.896	737.19
449.117	726.19
449.338	747.19
449.559	743.19
449.779	743.19
450	718.19
450.221	744.19
450.442	744.19
450.662	720.19
450.883	757.19
451.104	764.19
451.324	765.19
451.545	749.19
451.766	735.19
451.986	718.19
452.207	744.19
452.428	723.19
452.648	728.19
452.869	728.19
453.089	692.19
453.31	727.19
453.53	714.19
453.751	707.19
453.971	715.19
454.192	703.19
454.412	715.19
454.633	710.19
454.853	708.19
455.073	717.19
455.294	730.19
455.514	703.19
455.734	718.19
455.955	709.19
456.175	708.19
456.395	700.19
456.616	707.19
456.836	709.19
457.056	700.19
457.276	707.19
457.497	722.19
457.717	717.19
457.937	708.19
458.157	720.19
458.377	721.19
458.598	701.19
458.818	743.19
459.038	760.19
459.258	727.19
459.478	741.19
459.698	790.19
459.918	790.19
460.138	782.19
460.358	811.19
460.578	803.19
460.798	832.19
461.018	818.19
461.238	811.19
461.458	823.19
461.678	817.19
461.898	843.19
462.118	809.19
462.338	825.19
462.558	843.19
462.777	863.19
462.997	896.19
463.217	905.19
463.437	902.19
463.657	895.19
463.876	874.19
464.096	880.19
464.316	871.19
464.536	859.19
464.755	866.19
464.975	840.19
465.195	831.19
465.414	811.19
465.634	780.19
465.854	776.19
466.073	761.19
466.293	768.19
466.512	768.19
466.732	768.19
466.951	762.19
467.171	771.19
467.391	786.19
467.61	785.19
467.829	765.19
468.049	771.19
468.268	775.19
468.488	778.19
468.707	760.19
468.927	772.19
469.146	763.19
469.365	784.19
469.585	760.19
469.804	779.19
470.023	791.19
470.243	787.19
470.462	780.19
470.681	777.19
470.901	790.19
471.12	813.19
471.339	779.19
471.558	784.19
471.777	787.19
471.997	790.19
472.216	774.19
472.435	764.19
472.654	767.19
472.873	759.19
473.092	775.19
473.311	793.19
473.53	769.19
473.749	787.19
473.968	799.19
474.187	788.19
474.406	768.19
474.625	806.19
474.844	808.19
475.063	802.19
475.282	783.19
475.501	761.19
475.72	799.19
475.939	824.19
476.158	836.19
476.377	849.19
476.596	844.19
476.814	822.19
477.033	818.19
477.252	811.19
477.471	859.19
477.69	828.19
477.908	890.19
478.127	895.19
478.346	896.19
478.564	880.19
478.783	901.19
479.002	899.19
479.22	919.19
479.439	898.19
479.658	877.19
479.876	899.19
480.095	889.19
480.313	920.19
480.532	928.19
480.751	924.19
480.969	917.19
481.188	858.19
481.406	909.19
481.624	887.19
481.843	895.19
482.061	897.19
482.28	913.19
482.498	912.19
482.717	906.19
482.935	880.19
483.153	928.19
483.372	955.19
483.59	939.19
483.808	914.19
484.027	927.19
484.245	909.19
484.463	925.19
484.681	944.19
484.9	933.19
485.118	951.19
485.336	919.19
485.554	915.19
485.772	931.19
485.99	902.19
486.209	926.19
486.427	913.19
486.645	921.19
486.863	967.19
487.081	961.19
487.299	952.19
487.517	943.19
487.735	951.19
487.953	980.19
488.171	999.19
488.389	1009.19
488.607	968.19
488.825	951.19
489.043	951.19
489.261	955.19
489.479	954.19
489.696	928.19
489.914	936.19
490.132	982.19
490.35	989.19
490.568	987.19
490.786	951.19
491.003	989.19
491.221	1004.19
491.439	992.19
491.657	983.19
491.874	1003.19
492.092	1050.19
492.31	1041.19
492.527	1040.19
492.745	1006.19
492.963	1026.19
493.18	1009.19
493.398	1032.19
493.615	1026.19
493.833	1015.19
494.05	1004.19
494.268	1037.19
494.485	999.19
494.703	1004.19
494.92	1006.19
495.138	1017.19
495.355	1015.19
495.573	1027.19
495.79	1008.19
496.008	1041.19
496.225	1027.19
496.442	1018.19
496.66	1039.19
496.877	1032.19
497.094	1065.19
497.312	1068.19
497.529	1083.19
497.746	1055.19
497.963	1076.19
498.181	1089.19
498.398	1090.19
498.615	1145.19
498.832	1131.19
499.049	1193.19
499.267	1223.19
499.484	1236.19
499.701	1306.19
499.918	1360.19
500.135	1437.19
500.352	1500.19
500.569	1544.19
500.786	1536.19
501.003	1477.19
501.22	1393.19
