Data from Ni(NO3)2@0.125M.TitratingCurve.Agarose3%dH2O.NegLispCup.LampEnergy10.LIBS07252019_HRD10591_18-11-32-568.txt Node
Date: Thu Jul 25 18:11:32 EDT 2019
User: cochatt
Spectrometer: HR+D1059
Trigger mode: 1
Integration Time (sec): 1.000000E-1
Scans to average: 1
Electric dark correction enabled: true
Nonlinearity correction enabled: false
Boxcar width: 0
XAxis mode: Wavelengths
Number of Pixels in Spectrum: 2048
>>>>>Begin Spectral Data<<<<<
223.165	-8.12
223.4	-8.12
223.635	-8.12
223.869	-15.12
224.104	-20.12
224.338	-12.12
224.573	-16.12
224.808	-19.12
225.042	-15.12
225.277	-10.12
225.511	-12.12
225.746	-3.12
225.98	10.88
226.215	14.88
226.449	13.88
226.683	33.88
226.918	17.88
227.152	39.88
227.387	48.88
227.621	46.88
227.856	55.88
228.09	51.88
228.324	45.88
228.559	62.88
228.793	78.88
229.027	116.88
229.262	141.88
229.496	144.88
229.73	136.88
229.964	151.88
230.199	156.88
230.433	153.88
230.667	155.88
230.901	154.88
231.136	160.88
231.37	154.88
231.604	168.88
231.838	172.88
232.072	182.88
232.306	183.88
232.541	181.88
232.775	166.88
233.009	183.88
233.243	175.88
233.477	162.88
233.711	173.88
233.945	179.88
234.179	187.88
234.413	175.88
234.647	173.88
234.881	185.88
235.115	172.88
235.349	176.88
235.583	193.88
235.817	200.88
236.051	183.88
236.285	196.88
236.519	195.88
236.753	198.88
236.987	189.88
237.221	188.88
237.455	190.88
237.689	197.88
237.922	201.88
238.156	204.88
238.39	214.88
238.624	188.88
238.858	208.88
239.091	195.88
239.325	214.88
239.559	210.88
239.793	210.88
240.027	235.88
240.26	224.88
240.494	234.88
240.728	216.88
240.961	215.88
241.195	232.88
241.429	236.88
241.662	230.88
241.896	240.88
242.13	248.88
242.363	229.88
242.597	229.88
242.83	243.88
243.064	243.88
243.298	253.88
243.531	250.88
243.765	248.88
243.998	255.88
244.232	261.88
244.465	266.88
244.699	275.88
244.932	263.88
245.166	274.88
245.399	268.88
245.633	286.88
245.866	278.88
246.099	283.88
246.333	286.88
246.566	284.88
246.8	269.88
247.033	286.88
247.266	287.88
247.5	283.88
247.733	285.88
247.966	299.88
248.2	291.88
248.433	301.88
248.666	303.88
248.899	301.88
249.133	308.88
249.366	299.88
249.599	311.88
249.832	301.88
250.066	322.88
250.299	331.88
250.532	318.88
250.765	318.88
250.998	321.88
251.231	326.88
251.465	320.88
251.698	347.88
251.931	350.88
252.164	363.88
252.397	340.88
252.63	334.88
252.863	355.88
253.096	357.88
253.329	364.88
253.562	351.88
253.795	352.88
254.028	356.88
254.261	359.88
254.494	366.88
254.727	356.88
254.96	355.88
255.193	351.88
255.426	362.88
255.659	373.88
255.892	371.88
256.124	371.88
256.357	376.88
256.59	364.88
256.823	385.88
257.056	399.88
257.289	380.88
257.521	391.88
257.754	405.88
257.987	378.88
258.22	416.88
258.452	385.88
258.685	388.88
258.918	396.88
259.151	413.88
259.383	416.88
259.616	393.88
259.849	416.88
260.081	396.88
260.314	412.88
260.547	421.88
260.779	414.88
261.012	421.88
261.244	417.88
261.477	443.88
261.71	427.88
261.942	422.88
262.175	427.88
262.407	425.88
262.64	411.88
262.872	442.88
263.105	453.88
263.337	438.88
263.57	438.88
263.802	459.88
264.035	426.88
264.267	448.88
264.499	444.88
264.732	436.88
264.964	461.88
265.197	466.88
265.429	453.88
265.661	461.88
265.894	463.88
266.126	465.88
266.358	484.88
266.591	464.88
266.823	473.88
267.055	501.88
267.287	480.88
267.52	469.88
267.752	470.88
267.984	480.88
268.216	484.88
268.448	493.88
268.681	497.88
268.913	501.88
269.145	479.88
269.377	504.88
269.609	482.88
269.841	496.88
270.073	497.88
270.306	502.88
270.538	511.88
270.77	504.88
271.002	510.88
271.234	520.88
271.466	521.88
271.698	539.88
271.93	504.88
272.162	557.88
272.394	527.88
272.626	544.88
272.858	517.88
273.09	512.88
273.322	533.88
273.553	547.88
273.785	536.88
274.017	525.88
274.249	527.88
274.481	536.88
274.713	519.88
274.945	539.88
275.176	554.88
275.408	551.88
275.64	540.88
275.872	553.88
276.104	549.88
276.335	556.88
276.567	592.88
276.799	574.88
277.031	589.88
277.262	582.88
277.494	577.88
277.726	561.88
277.957	585.88
278.189	567.88
278.421	573.88
278.652	576.88
278.884	579.88
279.115	581.88
279.347	597.88
279.579	620.88
279.81	604.88
280.042	612.88
280.273	601.88
280.505	615.88
280.736	625.88
280.968	591.88
281.199	615.88
281.431	612.88
281.662	627.88
281.894	623.88
282.125	620.88
282.356	627.88
282.588	641.88
282.819	629.88
283.051	654.88
283.282	620.88
283.513	624.88
283.745	640.88
283.976	627.88
284.207	641.88
284.439	649.88
284.67	636.88
284.901	669.88
285.132	639.88
285.364	653.88
285.595	664.88
285.826	671.88
286.057	686.88
286.288	671.88
286.52	669.88
286.751	683.88
286.982	674.88
287.213	677.88
287.444	704.88
287.675	700.88
287.906	700.88
288.138	721.88
288.369	674.88
288.6	691.88
288.831	680.88
289.062	697.88
289.293	680.88
289.524	682.88
289.755	683.88
289.986	717.88
290.217	696.88
290.448	719.88
290.679	701.88
290.91	721.88
291.141	692.88
291.371	727.88
291.602	692.88
291.833	693.88
292.064	676.88
292.295	700.88
292.526	710.88
292.757	713.88
292.987	705.88
293.218	698.88
293.449	711.88
293.68	710.88
293.91	695.88
294.141	706.88
294.372	730.88
294.603	713.88
294.833	716.88
295.064	724.88
295.295	726.88
295.525	726.88
295.756	731.88
295.987	729.88
296.217	738.88
296.448	747.88
296.679	747.88
296.909	732.88
297.14	746.88
297.37	771.88
297.601	775.88
297.831	760.88
298.062	747.88
298.292	759.88
298.523	784.88
298.753	779.88
298.984	771.88
299.214	792.88
299.445	776.88
299.675	769.88
299.905	800.88
300.136	775.88
300.366	779.88
300.597	800.88
300.827	821.88
301.057	800.88
301.288	833.88
301.518	820.88
301.748	829.88
301.979	832.88
302.209	809.88
302.439	821.88
302.669	807.88
302.9	811.88
303.13	821.88
303.36	813.88
303.59	822.88
303.82	803.88
304.051	805.88
304.281	836.88
304.511	804.88
304.741	808.88
304.971	824.88
305.201	802.88
305.431	812.88
305.661	821.88
305.891	782.88
306.121	783.88
306.352	809.88
306.582	785.88
306.812	781.88
307.042	804.88
307.272	796.88
307.502	789.88
307.731	791.88
307.961	806.88
308.191	798.88
308.421	800.88
308.651	776.88
308.881	780.88
309.111	772.88
309.341	798.88
309.571	804.88
309.8	797.88
310.03	778.88
310.26	787.88
310.49	795.88
310.72	806.88
310.949	816.88
311.179	801.88
311.409	805.88
311.639	814.88
311.868	824.88
312.098	831.88
312.328	831.88
312.557	849.88
312.787	835.88
313.017	841.88
313.246	858.88
313.476	841.88
313.706	857.88
313.935	841.88
314.165	883.88
314.394	880.88
314.624	887.88
314.853	867.88
315.083	842.88
315.312	869.88
315.542	849.88
315.771	873.88
316.001	867.88
316.23	857.88
316.46	832.88
316.689	835.88
316.919	833.88
317.148	847.88
317.377	846.88
317.607	871.88
317.836	833.88
318.065	831.88
318.295	837.88
318.524	823.88
318.753	835.88
318.983	859.88
319.212	845.88
319.441	835.88
319.67	848.88
319.9	846.88
320.129	858.88
320.358	859.88
320.587	844.88
320.816	862.88
321.046	856.88
321.275	865.88
321.504	875.88
321.733	865.88
321.962	844.88
322.191	876.88
322.42	877.88
322.649	864.88
322.878	857.88
323.108	860.88
323.337	875.88
323.566	887.88
323.795	880.88
324.024	850.88
324.253	862.88
324.482	867.88
324.71	885.88
324.939	881.88
325.168	928.88
325.397	909.88
325.626	906.88
325.855	903.88
326.084	937.88
326.313	938.88
326.542	945.88
326.77	932.88
326.999	940.88
327.228	924.88
327.457	948.88
327.686	931.88
327.914	916.88
328.143	932.88
328.372	929.88
328.6	963.88
328.829	960.88
329.058	945.88
329.287	996.88
329.515	951.88
329.744	937.88
329.972	988.88
330.201	981.88
330.43	955.88
330.658	988.88
330.887	995.88
331.115	995.88
331.344	1013.88
331.572	1024.88
331.801	995.88
332.03	1070.88
332.258	1045.88
332.486	1107.88
332.715	1114.88
332.943	1184.88
333.172	1232.88
333.4	1271.88
333.629	1299.88
333.857	1309.88
334.085	1301.88
334.314	1255.88
334.542	1213.88
334.771	1224.88
334.999	1229.88
335.227	1179.88
335.455	1154.88
335.684	1163.88
335.912	1176.88
336.14	1134.88
336.369	1141.88
336.597	1171.88
336.825	1160.88
337.053	1125.88
337.281	1085.88
337.51	1088.88
337.738	1092.88
337.966	1058.88
338.194	1048.88
338.422	1036.88
338.65	1028.88
338.878	1017.88
339.106	1088.88
339.334	1041.88
339.562	1048.88
339.79	985.88
340.018	1006.88
340.246	972.88
340.474	1000.88
340.702	987.88
340.93	1012.88
341.158	1034.88
341.386	1023.88
341.614	1002.88
341.842	1000.88
342.07	983.88
342.298	986.88
342.526	987.88
342.754	979.88
342.981	993.88
343.209	1028.88
343.437	1104.88
343.665	1129.88
343.893	1249.88
344.12	1278.88
344.348	1196.88
344.576	1145.88
344.804	1080.88
345.031	1048.88
345.259	1036.88
345.487	1012.88
345.714	1007.88
345.942	976.88
346.17	985.88
346.397	957.88
346.625	968.88
346.853	972.88
347.08	937.88
347.308	981.88
347.535	953.88
347.763	974.88
347.99	973.88
348.218	970.88
348.445	974.88
348.673	949.88
348.9	951.88
349.128	954.88
349.355	968.88
349.583	950.88
349.81	948.88
350.037	949.88
350.265	939.88
350.492	939.88
350.72	931.88
350.947	933.88
351.174	919.88
351.402	952.88
351.629	937.88
351.856	914.88
352.083	947.88
352.311	914.88
352.538	898.88
352.765	911.88
352.992	910.88
353.22	932.88
353.447	923.88
353.674	902.88
353.901	918.88
354.128	933.88
354.355	925.88
354.583	912.88
354.81	944.88
355.037	920.88
355.264	936.88
355.491	911.88
355.718	911.88
355.945	903.88
356.172	937.88
356.399	911.88
356.626	922.88
356.853	937.88
357.08	909.88
357.307	922.88
357.534	934.88
357.761	899.88
357.988	924.88
358.215	935.88
358.441	934.88
358.668	937.88
358.895	961.88
359.122	933.88
359.349	933.88
359.576	945.88
359.802	922.88
360.029	899.88
360.256	920.88
360.483	912.88
360.709	937.88
360.936	923.88
361.163	914.88
361.39	939.88
361.616	943.88
361.843	914.88
362.07	928.88
362.296	908.88
362.523	918.88
362.749	930.88
362.976	918.88
363.203	942.88
363.429	907.88
363.656	921.88
363.882	941.88
364.109	902.88
364.335	936.88
364.562	916.88
364.788	929.88
365.015	901.88
365.241	943.88
365.468	916.88
365.694	913.88
365.92	925.88
366.147	884.88
366.373	941.88
366.599	942.88
366.826	912.88
367.052	947.88
367.278	955.88
367.505	910.88
367.731	939.88
367.957	929.88
368.184	947.88
368.41	929.88
368.636	938.88
368.862	956.88
369.089	931.88
369.315	945.88
369.541	951.88
369.767	941.88
369.993	931.88
370.219	948.88
370.445	998.88
370.672	972.88
370.898	991.88
371.124	1006.88
371.35	1014.88
371.576	990.88
371.802	978.88
372.028	993.88
372.254	1007.88
372.48	1035.88
372.706	1013.88
372.932	1041.88
373.158	1046.88
373.384	1007.88
373.61	1043.88
373.835	1011.88
374.061	1002.88
374.287	1034.88
374.513	1068.88
374.739	1052.88
374.965	1107.88
375.191	1131.88
375.416	1128.88
375.642	1076.88
375.868	1040.88
376.094	1017.88
376.319	995.88
376.545	1022.88
376.771	1027.88
376.997	1031.88
377.222	990.88
377.448	1009.88
377.674	987.88
377.899	996.88
378.125	1007.88
378.35	983.88
378.576	982.88
378.802	991.88
379.027	981.88
379.253	993.88
379.478	974.88
379.704	982.88
379.929	999.88
380.155	999.88
380.38	977.88
380.606	997.88
380.831	1011.88
381.057	964.88
381.282	1009.88
381.507	1010.88
381.733	1017.88
381.958	1032.88
382.184	1047.88
382.409	1052.88
382.634	1023.88
382.86	1081.88
383.085	1075.88
383.31	1081.88
383.535	1133.88
383.761	1135.88
383.986	1173.88
384.211	1177.88
384.436	1172.88
384.662	1212.88
384.887	1218.88
385.112	1213.88
385.337	1223.88
385.562	1232.88
385.787	1232.88
386.013	1245.88
386.238	1220.88
386.463	1223.88
386.688	1222.88
386.913	1200.88
387.138	1253.88
387.363	1213.88
387.588	1218.88
387.813	1220.88
388.038	1209.88
388.263	1196.88
388.488	1211.88
388.713	1197.88
388.938	1167.88
389.163	1209.88
389.387	1184.88
389.612	1196.88
389.837	1192.88
390.062	1181.88
390.287	1209.88
390.512	1217.88
390.736	1193.88
390.961	1219.88
391.186	1246.88
391.411	1297.88
391.636	1325.88
391.86	1383.88
392.085	1380.88
392.31	1378.88
392.534	1324.88
392.759	1309.88
392.984	1273.88
393.208	1274.88
393.433	1285.88
393.658	1307.88
393.882	1286.88
394.107	1318.88
394.331	1290.88
394.556	1289.88
394.78	1304.88
395.005	1328.88
395.229	1340.88
395.454	1375.88
395.678	1379.88
395.903	1383.88
396.127	1320.88
396.352	1285.88
396.576	1301.88
396.801	1303.88
397.025	1297.88
397.249	1335.88
397.474	1397.88
397.698	1347.88
397.922	1368.88
398.147	1369.88
398.371	1425.88
398.595	1469.88
398.82	1511.88
399.044	1597.88
399.268	1780.88
399.492	2112.88
399.717	2395.88
399.941	2395.88
400.165	2065.88
400.389	1849.88
400.613	1677.88
400.837	1625.88
401.062	1571.88
401.286	1536.88
401.51	1527.88
401.734	1526.88
401.958	1562.88
402.182	1578.88
402.406	1577.88
402.63	1616.88
402.854	1621.88
403.078	1663.88
403.302	1710.88
403.526	1719.88
403.75	1770.88
403.974	1776.88
404.198	1767.88
404.422	1820.88
404.645	1783.88
404.869	1748.88
405.093	1781.88
405.317	1699.88
405.541	1680.88
405.765	1670.88
405.988	1676.88
406.212	1669.88
406.436	1714.88
406.66	1770.88
406.883	1768.88
407.107	1862.88
407.331	1980.88
407.555	2035.88
407.778	2007.88
408.002	1969.88
408.226	1859.88
408.449	1817.88
408.673	1773.88
408.896	1736.88
409.12	1718.88
409.344	1791.88
409.567	1724.88
409.791	1764.88
410.014	1745.88
410.238	1708.88
410.461	1727.88
410.685	1701.88
410.908	1667.88
411.132	1657.88
411.355	1620.88
411.578	1596.88
411.802	1554.88
412.025	1543.88
412.249	1629.88
412.472	1613.88
412.695	1566.88
412.919	1556.88
413.142	1504.88
413.365	1539.88
413.589	1520.88
413.812	1487.88
414.035	1464.88
414.258	1499.88
414.482	1551.88
414.705	1555.88
414.928	1553.88
415.151	1559.88
415.374	1503.88
415.597	1564.88
415.821	1493.88
416.044	1469.88
416.267	1473.88
416.49	1492.88
416.713	1481.88
416.936	1510.88
417.159	1471.88
417.382	1475.88
417.605	1465.88
417.828	1484.88
418.051	1502.88
418.274	1519.88
418.497	1536.88
418.72	1558.88
418.943	1561.88
419.166	1639.88
419.389	1769.88
419.611	1682.88
419.834	1624.88
420.057	1564.88
420.28	1527.88
420.503	1505.88
420.726	1450.88
420.948	1494.88
421.171	1474.88
421.394	1521.88
421.617	1472.88
421.839	1519.88
422.062	1540.88
422.285	1515.88
422.507	1532.88
422.73	1511.88
422.953	1544.88
423.175	1581.88
423.398	1566.88
423.621	1631.88
423.843	1588.88
424.066	1623.88
424.288	1587.88
424.511	1615.88
424.733	1568.88
424.956	1547.88
425.178	1517.88
425.401	1516.88
425.623	1537.88
425.846	1450.88
426.068	1429.88
426.291	1444.88
426.513	1407.88
426.735	1385.88
426.958	1415.88
427.18	1371.88
427.402	1361.88
427.625	1390.88
427.847	1341.88
428.069	1320.88
428.292	1333.88
428.514	1319.88
428.736	1288.88
428.958	1336.88
429.181	1319.88
429.403	1323.88
429.625	1274.88
429.847	1297.88
430.069	1301.88
430.292	1287.88
430.514	1297.88
430.736	1305.88
430.958	1327.88
431.18	1318.88
431.402	1322.88
431.624	1309.88
431.846	1321.88
432.068	1366.88
432.29	1359.88
432.512	1339.88
432.734	1361.88
432.956	1314.88
433.178	1314.88
433.4	1358.88
433.622	1355.88
433.844	1363.88
434.066	1386.88
434.287	1414.88
434.509	1401.88
434.731	1468.88
434.953	1490.88
435.175	1518.88
435.397	1492.88
435.618	1432.88
435.84	1398.88
436.062	1367.88
436.284	1336.88
436.505	1319.88
436.727	1337.88
436.949	1341.88
437.17	1340.88
437.392	1342.88
437.614	1295.88
437.835	1296.88
438.057	1288.88
438.278	1267.88
438.5	1230.88
438.721	1276.88
438.943	1291.88
439.165	1285.88
439.386	1282.88
439.608	1325.88
439.829	1335.88
440.05	1309.88
440.272	1323.88
440.493	1344.88
440.715	1362.88
440.936	1367.88
441.158	1427.88
441.379	1445.88
441.6	1483.88
441.822	1534.88
442.043	1496.88
442.264	1468.88
442.486	1462.88
442.707	1480.88
442.928	1468.88
443.149	1511.88
443.371	1441.88
443.592	1497.88
443.813	1499.88
444.034	1506.88
444.255	1552.88
444.476	1615.88
444.698	1756.88
444.919	1832.88
445.14	1855.88
445.361	1657.88
445.582	1537.88
445.803	1472.88
446.024	1398.88
446.245	1380.88
446.466	1393.88
446.687	1306.88
446.908	1350.88
447.129	1325.88
447.35	1265.88
447.571	1303.88
447.792	1249.88
448.013	1233.88
448.234	1237.88
448.455	1231.88
448.675	1245.88
448.896	1205.88
449.117	1179.88
449.338	1174.88
449.559	1183.88
449.779	1175.88
450	1219.88
450.221	1188.88
450.442	1208.88
450.662	1191.88
450.883	1224.88
451.104	1206.88
451.324	1242.88
451.545	1249.88
451.766	1209.88
451.986	1196.88
452.207	1225.88
452.428	1187.88
452.648	1190.88
452.869	1196.88
453.089	1152.88
453.31	1170.88
453.53	1157.88
453.751	1162.88
453.971	1161.88
454.192	1201.88
454.412	1139.88
454.633	1155.88
454.853	1134.88
455.073	1115.88
455.294	1116.88
455.514	1110.88
455.734	1126.88
455.955	1102.88
456.175	1137.88
456.395	1097.88
456.616	1135.88
456.836	1131.88
457.056	1106.88
457.276	1104.88
457.497	1126.88
457.717	1116.88
457.937	1155.88
458.157	1151.88
458.377	1149.88
458.598	1174.88
458.818	1235.88
459.038	1268.88
459.258	1273.88
459.478	1334.88
459.698	1359.88
459.918	1442.88
460.138	1479.88
460.358	1539.88
460.578	1527.88
460.798	1592.88
461.018	1573.88
461.238	1573.88
461.458	1578.88
461.678	1527.88
461.898	1571.88
462.118	1593.88
462.338	1681.88
462.558	1720.88
462.777	1790.88
462.997	1931.88
463.217	2133.88
463.437	2149.88
463.657	1965.88
463.876	1831.88
464.096	1873.88
464.316	1853.88
464.536	1850.88
464.755	1780.88
464.975	1676.88
465.195	1640.88
465.414	1532.88
465.634	1443.88
465.854	1409.88
466.073	1357.88
466.293	1360.88
466.512	1329.88
466.732	1252.88
466.951	1287.88
467.171	1261.88
467.391	1269.88
467.61	1271.88
467.829	1255.88
468.049	1223.88
468.268	1216.88
468.488	1183.88
468.707	1198.88
468.927	1208.88
469.146	1190.88
469.365	1221.88
469.585	1196.88
469.804	1259.88
470.023	1268.88
470.243	1281.88
470.462	1326.88
470.681	1326.88
470.901	1319.88
471.12	1282.88
471.339	1248.88
471.558	1232.88
471.777	1232.88
471.997	1236.88
472.216	1199.88
472.435	1199.88
472.654	1190.88
472.873	1191.88
473.092	1189.88
473.311	1177.88
473.53	1176.88
473.749	1164.88
473.968	1181.88
474.187	1141.88
474.406	1136.88
474.625	1157.88
474.844	1168.88
475.063	1173.88
475.282	1168.88
475.501	1197.88
475.72	1195.88
475.939	1201.88
476.158	1240.88
476.377	1221.88
476.596	1207.88
476.814	1234.88
477.033	1236.88
477.252	1257.88
477.471	1307.88
477.69	1329.88
477.908	1351.88
478.127	1395.88
478.346	1465.88
478.564	1470.88
478.783	1451.88
479.002	1504.88
479.22	1508.88
479.439	1484.88
479.658	1470.88
479.876	1492.88
480.095	1492.88
480.313	1571.88
480.532	1640.88
480.751	1617.88
480.969	1573.88
481.188	1479.88
481.406	1464.88
481.624	1440.88
481.843	1392.88
482.061	1403.88
482.28	1363.88
482.498	1363.88
482.717	1376.88
482.935	1357.88
483.153	1379.88
483.372	1380.88
483.59	1367.88
483.808	1397.88
484.027	1384.88
484.245	1384.88
484.463	1410.88
484.681	1456.88
484.9	1424.88
485.118	1472.88
485.336	1437.88
485.554	1432.88
485.772	1465.88
485.99	1478.88
486.209	1456.88
486.427	1444.88
486.645	1467.88
486.863	1469.88
487.081	1454.88
487.299	1457.88
487.517	1434.88
487.735	1443.88
487.953	1451.88
488.171	1462.88
488.389	1449.88
488.607	1443.88
488.825	1422.88
489.043	1421.88
489.261	1432.88
489.479	1426.88
489.696	1438.88
489.914	1449.88
490.132	1458.88
490.35	1433.88
490.568	1426.88
490.786	1438.88
491.003	1424.88
491.221	1446.88
491.439	1409.88
491.657	1459.88
491.874	1430.88
492.092	1457.88
492.31	1405.88
492.527	1434.88
492.745	1451.88
492.963	1472.88
493.18	1468.88
493.398	1485.88
