Data from Ni(NO3)2@0.0625M.TitratingCurve.Agarose3%dH2O.NegLispCup.LampEnergy10.LIBS07252019_HRD10591_18-15-52-570.txt Node
Date: Thu Jul 25 18:15:52 EDT 2019
User: cochatt
Spectrometer: HR+D1059
Trigger mode: 1
Integration Time (sec): 1.000000E-1
Scans to average: 1
Electric dark correction enabled: true
Nonlinearity correction enabled: false
Boxcar width: 0
XAxis mode: Wavelengths
Number of Pixels in Spectrum: 2048
>>>>>Begin Spectral Data<<<<<
223.165	-10.88
223.4	-10.88
223.635	-10.88
223.869	-17.88
224.104	-18.88
224.338	-15.88
224.573	-3.88
224.808	-16.88
225.042	-0.88
225.277	-13.88
225.511	-0.88
225.746	-11.88
225.98	1.12
226.215	10.12
226.449	25.12
226.683	31.12
226.918	21.12
227.152	23.12
227.387	24.12
227.621	52.12
227.856	40.12
228.09	30.12
228.324	43.12
228.559	56.12
228.793	59.12
229.027	90.12
229.262	97.12
229.496	115.12
229.73	121.12
229.964	128.12
230.199	115.12
230.433	113.12
230.667	110.12
230.901	126.12
231.136	123.12
231.37	142.12
231.604	147.12
231.838	137.12
232.072	129.12
232.306	147.12
232.541	154.12
232.775	160.12
233.009	143.12
233.243	151.12
233.477	134.12
233.711	134.12
233.945	137.12
234.179	150.12
234.413	138.12
234.647	148.12
234.881	147.12
235.115	137.12
235.349	124.12
235.583	132.12
235.817	148.12
236.051	130.12
236.285	145.12
236.519	154.12
236.753	145.12
236.987	145.12
237.221	161.12
237.455	150.12
237.689	153.12
237.922	148.12
238.156	148.12
238.39	147.12
238.624	151.12
238.858	152.12
239.091	161.12
239.325	148.12
239.559	173.12
239.793	155.12
240.027	179.12
240.26	156.12
240.494	161.12
240.728	179.12
240.961	179.12
241.195	192.12
241.429	171.12
241.662	177.12
241.896	190.12
242.13	183.12
242.363	183.12
242.597	177.12
242.83	181.12
243.064	177.12
243.298	197.12
243.531	189.12
243.765	199.12
243.998	189.12
244.232	185.12
244.465	182.12
244.699	199.12
244.932	177.12
245.166	191.12
245.399	183.12
245.633	192.12
245.866	192.12
246.099	191.12
246.333	201.12
246.566	224.12
246.8	199.12
247.033	221.12
247.266	210.12
247.5	205.12
247.733	211.12
247.966	223.12
248.2	216.12
248.433	214.12
248.666	217.12
248.899	226.12
249.133	222.12
249.366	217.12
249.599	211.12
249.832	230.12
250.066	219.12
250.299	212.12
250.532	226.12
250.765	235.12
250.998	243.12
251.231	237.12
251.465	219.12
251.698	229.12
251.931	241.12
252.164	237.12
252.397	243.12
252.63	259.12
252.863	247.12
253.096	246.12
253.329	241.12
253.562	263.12
253.795	255.12
254.028	258.12
254.261	246.12
254.494	279.12
254.727	266.12
254.96	237.12
255.193	251.12
255.426	253.12
255.659	265.12
255.892	284.12
256.124	257.12
256.357	259.12
256.59	272.12
256.823	255.12
257.056	279.12
257.289	275.12
257.521	264.12
257.754	278.12
257.987	290.12
258.22	259.12
258.452	259.12
258.685	264.12
258.918	265.12
259.151	289.12
259.383	287.12
259.616	298.12
259.849	273.12
260.081	267.12
260.314	287.12
260.547	289.12
260.779	289.12
261.012	298.12
261.244	280.12
261.477	304.12
261.71	301.12
261.942	311.12
262.175	289.12
262.407	308.12
262.64	307.12
262.872	290.12
263.105	300.12
263.337	297.12
263.57	298.12
263.802	315.12
264.035	321.12
264.267	311.12
264.499	318.12
264.732	309.12
264.964	319.12
265.197	329.12
265.429	314.12
265.661	340.12
265.894	315.12
266.126	329.12
266.358	321.12
266.591	329.12
266.823	348.12
267.055	321.12
267.287	332.12
267.52	324.12
267.752	331.12
267.984	346.12
268.216	342.12
268.448	333.12
268.681	344.12
268.913	324.12
269.145	330.12
269.377	327.12
269.609	325.12
269.841	355.12
270.073	356.12
270.306	349.12
270.538	341.12
270.77	356.12
271.002	369.12
271.234	345.12
271.466	349.12
271.698	358.12
271.93	367.12
272.162	357.12
272.394	340.12
272.626	359.12
272.858	368.12
273.09	363.12
273.322	366.12
273.553	368.12
273.785	360.12
274.017	356.12
274.249	375.12
274.481	365.12
274.713	350.12
274.945	368.12
275.176	370.12
275.408	385.12
275.64	391.12
275.872	384.12
276.104	383.12
276.335	385.12
276.567	387.12
276.799	377.12
277.031	379.12
277.262	385.12
277.494	380.12
277.726	387.12
277.957	400.12
278.189	404.12
278.421	395.12
278.652	383.12
278.884	390.12
279.115	394.12
279.347	418.12
279.579	396.12
279.81	398.12
280.042	425.12
280.273	410.12
280.505	406.12
280.736	420.12
280.968	424.12
281.199	414.12
281.431	421.12
281.662	418.12
281.894	419.12
282.125	437.12
282.356	431.12
282.588	418.12
282.819	438.12
283.051	453.12
283.282	438.12
283.513	433.12
283.745	445.12
283.976	442.12
284.207	441.12
284.439	457.12
284.67	458.12
284.901	446.12
285.132	426.12
285.364	449.12
285.595	425.12
285.826	451.12
286.057	442.12
286.288	453.12
286.52	455.12
286.751	470.12
286.982	477.12
287.213	449.12
287.444	465.12
287.675	443.12
287.906	477.12
288.138	484.12
288.369	474.12
288.6	465.12
288.831	462.12
289.062	481.12
289.293	456.12
289.524	481.12
289.755	467.12
289.986	497.12
290.217	496.12
290.448	488.12
290.679	487.12
290.91	485.12
291.141	493.12
291.371	467.12
291.602	478.12
291.833	494.12
292.064	505.12
292.295	503.12
292.526	486.12
292.757	507.12
292.987	489.12
293.218	500.12
293.449	497.12
293.68	481.12
293.91	498.12
294.141	480.12
294.372	503.12
294.603	510.12
294.833	490.12
295.064	496.12
295.295	489.12
295.525	482.12
295.756	530.12
295.987	502.12
296.217	502.12
296.448	503.12
296.679	484.12
296.909	498.12
297.14	511.12
297.37	515.12
297.601	537.12
297.831	523.12
298.062	515.12
298.292	537.12
298.523	544.12
298.753	561.12
298.984	545.12
299.214	522.12
299.445	531.12
299.675	538.12
299.905	509.12
300.136	532.12
300.366	554.12
300.597	550.12
300.827	566.12
301.057	569.12
301.288	553.12
301.518	588.12
301.748	561.12
301.979	557.12
302.209	566.12
302.439	550.12
302.669	531.12
302.9	545.12
303.13	541.12
303.36	542.12
303.59	525.12
303.82	553.12
304.051	552.12
304.281	568.12
304.511	539.12
304.741	527.12
304.971	552.12
305.201	562.12
305.431	541.12
305.661	546.12
305.891	536.12
306.121	546.12
306.352	536.12
306.582	549.12
306.812	527.12
307.042	549.12
307.272	543.12
307.502	527.12
307.731	538.12
307.961	529.12
308.191	549.12
308.421	536.12
308.651	531.12
308.881	546.12
309.111	553.12
309.341	534.12
309.571	542.12
309.8	554.12
310.03	561.12
310.26	552.12
310.49	546.12
310.72	550.12
310.949	546.12
311.179	551.12
311.409	555.12
311.639	570.12
311.868	568.12
312.098	563.12
312.328	566.12
312.557	551.12
312.787	557.12
313.017	562.12
313.246	566.12
313.476	586.12
313.706	593.12
313.935	583.12
314.165	598.12
314.394	585.12
314.624	598.12
314.853	584.12
315.083	580.12
315.312	585.12
315.542	592.12
315.771	581.12
316.001	583.12
316.23	568.12
316.46	573.12
316.689	573.12
316.919	551.12
317.148	577.12
317.377	547.12
317.607	560.12
317.836	553.12
318.065	554.12
318.295	560.12
318.524	581.12
318.753	565.12
318.983	576.12
319.212	594.12
319.441	572.12
319.67	579.12
319.9	594.12
320.129	586.12
320.358	553.12
320.587	552.12
320.816	565.12
321.046	558.12
321.275	601.12
321.504	591.12
321.733	582.12
321.962	599.12
322.191	567.12
322.42	596.12
322.649	607.12
322.878	583.12
323.108	596.12
323.337	597.12
323.566	594.12
323.795	605.12
324.024	602.12
324.253	605.12
324.482	575.12
324.71	583.12
324.939	603.12
325.168	591.12
325.397	627.12
325.626	593.12
325.855	586.12
326.084	627.12
326.313	630.12
326.542	631.12
326.77	652.12
326.999	624.12
327.228	621.12
327.457	609.12
327.686	636.12
327.914	617.12
328.143	610.12
328.372	639.12
328.6	605.12
328.829	627.12
329.058	634.12
329.287	608.12
329.515	651.12
329.744	627.12
329.972	638.12
330.201	627.12
330.43	663.12
330.658	636.12
330.887	650.12
331.115	653.12
331.344	673.12
331.572	668.12
331.801	691.12
332.03	699.12
332.258	721.12
332.486	753.12
332.715	761.12
332.943	785.12
333.172	832.12
333.4	868.12
333.629	890.12
333.857	839.12
334.085	854.12
334.314	831.12
334.542	815.12
334.771	816.12
334.999	804.12
335.227	791.12
335.455	810.12
335.684	791.12
335.912	767.12
336.14	760.12
336.369	770.12
336.597	741.12
336.825	761.12
337.053	744.12
337.281	747.12
337.51	740.12
337.738	729.12
337.966	719.12
338.194	700.12
338.422	706.12
338.65	681.12
338.878	694.12
339.106	699.12
339.334	689.12
339.562	699.12
339.79	682.12
340.018	655.12
340.246	658.12
340.474	653.12
340.702	665.12
340.93	662.12
341.158	666.12
341.386	664.12
341.614	673.12
341.842	695.12
342.07	645.12
342.298	641.12
342.526	662.12
342.754	667.12
342.981	637.12
343.209	670.12
343.437	715.12
343.665	745.12
343.893	803.12
344.12	838.12
344.348	815.12
344.576	741.12
344.804	696.12
345.031	685.12
345.259	691.12
345.487	674.12
345.714	662.12
345.942	693.12
346.17	695.12
346.397	657.12
346.625	643.12
346.853	649.12
347.08	638.12
347.308	653.12
347.535	666.12
347.763	649.12
347.99	671.12
348.218	650.12
348.445	681.12
348.673	653.12
348.9	651.12
349.128	647.12
349.355	632.12
349.583	641.12
349.81	663.12
350.037	655.12
350.265	650.12
350.492	632.12
350.72	606.12
350.947	627.12
351.174	613.12
351.402	635.12
351.629	629.12
351.856	632.12
352.083	641.12
352.311	635.12
352.538	631.12
352.765	629.12
352.992	616.12
353.22	625.12
353.447	625.12
353.674	611.12
353.901	630.12
354.128	627.12
354.355	627.12
354.583	608.12
354.81	628.12
355.037	622.12
355.264	645.12
355.491	651.12
355.718	627.12
355.945	617.12
356.172	635.12
356.399	625.12
356.626	618.12
356.853	628.12
357.08	630.12
357.307	627.12
357.534	622.12
357.761	634.12
357.988	606.12
358.215	642.12
358.441	624.12
358.668	623.12
358.895	660.12
359.122	601.12
359.349	625.12
359.576	633.12
359.802	633.12
360.029	625.12
360.256	628.12
360.483	609.12
360.709	619.12
360.936	644.12
361.163	625.12
361.39	617.12
361.616	627.12
361.843	623.12
362.07	641.12
362.296	621.12
362.523	631.12
362.749	623.12
362.976	632.12
363.203	625.12
363.429	633.12
363.656	626.12
363.882	608.12
364.109	626.12
364.335	629.12
364.562	621.12
364.788	623.12
365.015	621.12
365.241	634.12
365.468	611.12
365.694	629.12
365.92	627.12
366.147	624.12
366.373	615.12
366.599	626.12
366.826	606.12
367.052	615.12
367.278	603.12
367.505	601.12
367.731	638.12
367.957	629.12
368.184	636.12
368.41	609.12
368.636	640.12
368.862	622.12
369.089	632.12
369.315	637.12
369.541	661.12
369.767	662.12
369.993	669.12
370.219	640.12
370.445	641.12
370.672	663.12
370.898	672.12
371.124	642.12
371.35	685.12
371.576	691.12
371.802	669.12
372.028	669.12
372.254	666.12
372.48	687.12
372.706	694.12
372.932	706.12
373.158	667.12
373.384	675.12
373.61	691.12
373.835	706.12
374.061	686.12
374.287	681.12
374.513	690.12
374.739	723.12
374.965	746.12
375.191	743.12
375.416	754.12
375.642	714.12
375.868	725.12
376.094	705.12
376.319	718.12
376.545	701.12
376.771	703.12
376.997	675.12
377.222	686.12
377.448	691.12
377.674	675.12
377.899	668.12
378.125	674.12
378.35	680.12
378.576	656.12
378.802	655.12
379.027	657.12
379.253	671.12
379.478	669.12
379.704	650.12
379.929	673.12
380.155	687.12
380.38	673.12
380.606	663.12
380.831	694.12
381.057	692.12
381.282	683.12
381.507	670.12
381.733	717.12
381.958	670.12
382.184	693.12
382.409	699.12
382.634	695.12
382.86	692.12
383.085	715.12
383.31	749.12
383.535	742.12
383.761	756.12
383.986	771.12
384.211	803.12
384.436	815.12
384.662	824.12
384.887	806.12
385.112	813.12
385.337	800.12
385.562	811.12
385.787	836.12
386.013	842.12
386.238	823.12
386.463	849.12
386.688	802.12
386.913	817.12
387.138	810.12
387.363	804.12
387.588	777.12
387.813	792.12
388.038	783.12
388.263	811.12
388.488	809.12
388.713	818.12
388.938	772.12
389.163	776.12
389.387	789.12
389.612	802.12
389.837	788.12
390.062	765.12
390.287	815.12
390.512	820.12
390.736	824.12
390.961	799.12
391.186	823.12
391.411	854.12
391.636	891.12
391.86	897.12
392.085	914.12
392.31	925.12
392.534	880.12
392.759	899.12
392.984	861.12
393.208	863.12
393.433	874.12
393.658	870.12
393.882	872.12
394.107	884.12
394.331	859.12
394.556	885.12
394.78	897.12
395.005	892.12
395.229	884.12
395.454	895.12
395.678	914.12
395.903	936.12
396.127	912.12
396.352	864.12
396.576	850.12
396.801	860.12
397.025	865.12
397.249	881.12
397.474	921.12
397.698	915.12
397.922	919.12
398.147	904.12
398.371	938.12
398.595	961.12
398.82	953.12
399.044	1046.12
399.268	1168.12
399.492	1351.12
399.717	1563.12
399.941	1567.12
400.165	1374.12
400.389	1222.12
400.613	1111.12
400.837	1027.12
401.062	1057.12
401.286	1002.12
401.51	1005.12
401.734	995.12
401.958	1021.12
402.182	1010.12
402.406	1050.12
402.63	1079.12
402.854	1079.12
403.078	1109.12
403.302	1137.12
403.526	1141.12
403.75	1173.12
403.974	1202.12
404.198	1185.12
404.422	1184.12
404.645	1195.12
404.869	1157.12
405.093	1137.12
405.317	1139.12
405.541	1136.12
405.765	1120.12
405.988	1096.12
406.212	1110.12
406.436	1119.12
406.66	1167.12
406.883	1183.12
407.107	1231.12
407.331	1273.12
407.555	1337.12
407.778	1307.12
408.002	1295.12
408.226	1274.12
408.449	1227.12
408.673	1183.12
408.896	1170.12
409.12	1182.12
409.344	1201.12
409.567	1195.12
409.791	1145.12
410.014	1167.12
410.238	1153.12
410.461	1169.12
410.685	1113.12
410.908	1129.12
411.132	1129.12
411.355	1070.12
411.578	1049.12
411.802	1064.12
412.025	1071.12
412.249	1094.12
412.472	1087.12
412.695	1042.12
412.919	999.12
413.142	993.12
413.365	1041.12
413.589	1052.12
413.812	1002.12
414.035	1024.12
414.258	1000.12
414.482	1005.12
414.705	1043.12
414.928	1058.12
415.151	1007.12
415.374	1035.12
415.597	1013.12
415.821	971.12
416.044	1012.12
416.267	1011.12
416.49	1001.12
416.713	1006.12
416.936	1006.12
417.159	993.12
417.382	1017.12
417.605	981.12
417.828	1012.12
418.051	992.12
418.274	1016.12
418.497	1013.12
418.72	1043.12
418.943	1031.12
419.166	1117.12
419.389	1172.12
419.611	1161.12
419.834	1096.12
420.057	1053.12
420.28	1018.12
420.503	1013.12
420.726	1014.12
420.948	962.12
421.171	1007.12
421.394	1009.12
421.617	981.12
421.839	1017.12
422.062	1013.12
422.285	990.12
422.507	1032.12
422.73	1029.12
422.953	1026.12
423.175	1046.12
423.398	1087.12
423.621	1090.12
423.843	1101.12
424.066	1130.12
424.288	1051.12
424.511	1064.12
424.733	1040.12
424.956	1048.12
425.178	996.12
425.401	1016.12
425.623	1037.12
425.846	995.12
426.068	971.12
426.291	963.12
426.513	967.12
426.735	938.12
426.958	922.12
427.18	921.12
427.402	921.12
427.625	905.12
427.847	904.12
428.069	904.12
428.292	890.12
428.514	890.12
428.736	890.12
428.958	887.12
429.181	870.12
429.403	873.12
429.625	868.12
429.847	861.12
430.069	875.12
430.292	872.12
430.514	845.12
430.736	890.12
430.958	875.12
431.18	903.12
431.402	878.12
431.624	867.12
431.846	916.12
432.068	923.12
432.29	898.12
432.512	894.12
432.734	878.12
432.956	876.12
433.178	919.12
433.4	899.12
433.622	900.12
433.844	911.12
434.066	922.12
434.287	898.12
434.509	914.12
434.731	964.12
434.953	1025.12
435.175	1015.12
435.397	1009.12
435.618	965.12
435.84	938.12
436.062	904.12
436.284	878.12
436.505	866.12
436.727	903.12
436.949	922.12
437.17	916.12
437.392	909.12
437.614	888.12
437.835	851.12
438.057	838.12
438.278	850.12
438.5	869.12
438.721	871.12
438.943	858.12
439.165	860.12
439.386	872.12
439.608	878.12
439.829	848.12
440.05	880.12
440.272	903.12
440.493	882.12
440.715	917.12
440.936	930.12
441.158	946.12
441.379	976.12
441.6	1021.12
441.822	1045.12
442.043	1018.12
442.264	989.12
442.486	953.12
442.707	982.12
442.928	994.12
443.149	1007.12
443.371	1003.12
443.592	1026.12
443.813	1029.12
444.034	1023.12
444.255	1041.12
444.476	1103.12
444.698	1178.12
444.919	1217.12
445.14	1266.12
445.361	1140.12
445.582	1065.12
445.803	987.12
446.024	962.12
446.245	926.12
446.466	900.12
446.687	902.12
446.908	888.12
447.129	873.12
447.35	858.12
447.571	856.12
447.792	833.12
448.013	866.12
448.234	850.12
448.455	819.12
448.675	847.12
448.896	808.12
449.117	824.12
449.338	821.12
449.559	810.12
449.779	810.12
450	786.12
450.221	815.12
450.442	833.12
450.662	796.12
450.883	858.12
451.104	859.12
451.324	838.12
451.545	828.12
451.766	847.12
451.986	833.12
452.207	838.12
452.428	824.12
452.648	826.12
452.869	795.12
453.089	823.12
453.31	845.12
453.53	808.12
453.751	814.12
453.971	801.12
454.192	802.12
454.412	805.12
454.633	785.12
454.853	754.12
455.073	791.12
455.294	771.12
455.514	783.12
455.734	775.12
455.955	786.12
456.175	769.12
456.395	742.12
456.616	758.12
456.836	789.12
457.056	772.12
457.276	757.12
457.497	775.12
457.717	747.12
457.937	794.12
458.157	785.12
458.377	779.12
458.598	812.12
458.818	824.12
459.038	830.12
459.258	896.12
459.478	914.12
459.698	940.12
459.918	977.12
460.138	1002.12
460.358	1073.12
460.578	1051.12
460.798	1091.12
461.018	1059.12
461.238	1056.12
461.458	1039.12
461.678	1051.12
461.898	1060.12
462.118	1069.12
462.338	1119.12
462.558	1130.12
462.777	1195.12
462.997	1319.12
463.217	1435.12
463.437	1498.12
463.657	1321.12
463.876	1258.12
464.096	1256.12
464.316	1263.12
464.536	1247.12
464.755	1215.12
464.975	1162.12
465.195	1106.12
465.414	1042.12
465.634	998.12
465.854	915.12
466.073	911.12
466.293	927.12
466.512	888.12
466.732	817.12
466.951	833.12
467.171	870.12
467.391	885.12
467.61	879.12
467.829	863.12
468.049	870.12
468.268	806.12
468.488	819.12
468.707	815.12
468.927	843.12
469.146	835.12
469.365	839.12
469.585	841.12
469.804	867.12
470.023	875.12
470.243	891.12
470.462	908.12
470.681	911.12
470.901	890.12
471.12	867.12
471.339	848.12
471.558	861.12
471.777	821.12
471.997	845.12
472.216	818.12
472.435	856.12
472.654	797.12
472.873	769.12
473.092	794.12
473.311	808.12
473.53	820.12
473.749	803.12
473.968	785.12
474.187	794.12
474.406	803.12
474.625	822.12
474.844	781.12
475.063	819.12
475.282	832.12
475.501	824.12
475.72	824.12
475.939	819.12
476.158	851.12
476.377	842.12
476.596	833.12
476.814	854.12
477.033	844.12
477.252	879.12
477.471	874.12
477.69	915.12
477.908	930.12
478.127	966.12
478.346	1000.12
478.564	974.12
478.783	1001.12
479.002	1018.12
479.22	1039.12
479.439	996.12
479.658	996.12
479.876	1013.12
480.095	1019.12
480.313	1072.12
480.532	1091.12
480.751	1106.12
480.969	1057.12
481.188	1016.12
481.406	987.12
481.624	980.12
481.843	921.12
482.061	928.12
482.28	906.12
482.498	928.12
482.717	925.12
482.935	967.12
483.153	920.12
483.372	910.12
483.59	914.12
483.808	935.12
484.027	944.12
484.245	932.12
484.463	962.12
484.681	965.12
484.9	971.12
485.118	979.12
485.336	957.12
485.554	984.12
485.772	971.12
485.99	975.12
486.209	1002.12
486.427	973.12
486.645	1007.12
486.863	1014.12
487.081	971.12
487.299	965.12
487.517	995.12
487.735	969.12
487.953	977.12
488.171	959.12
488.389	959.12
488.607	941.12
488.825	930.12
489.043	962.12
489.261	960.12
489.479	936.12
489.696	972.12
489.914	962.12
490.132	982.12
490.35	1019.12
490.568	982.12
490.786	961.12
491.003	970.12
491.221	980.12
491.439	963.12
491.657	964.12
491.874	978.12
492.092	978.12
492.31	980.12
492.527	980.12
492.745	986.12
492.963	962.12
493.18	985.12
493.398	1019.12
493.615	996.12
493.833	976.12
494.05	1029.12
494.268	1012.12
494.485	1017.12
494.703	999.12
494.92	1001.12
495.138	1018.12
495.355	1018.12
495.573	1027.12
495.79	1003.12
496.008	1032.12
496.225	1050.12
496.442	1034.12
496.66	1049.12
496.877	1063.12
497.094	1071.12
497.312	1107.12
497.529	1104.12
497.746	1130.12
497.963	1178.12
498.181	1201.12
498.398	1273.12
498.615	1391.12
498.832	1462.12
