Data from Ni(NO3)2@0.125M.TitratingCurve.Agarose3%dH2O.NegLispCup.LampEnergy10.LIBS07252019_HRD10591_18-09-40-568.txt Node
Date: Thu Jul 25 18:09:40 EDT 2019
User: cochatt
Spectrometer: HR+D1059
Trigger mode: 1
Integration Time (sec): 1.000000E-1
Scans to average: 1
Electric dark correction enabled: true
Nonlinearity correction enabled: false
Boxcar width: 0
XAxis mode: Wavelengths
Number of Pixels in Spectrum: 2048
>>>>>Begin Spectral Data<<<<<
223.165	-20.5
223.4	-20.5
223.635	-20.5
223.869	-5.5
224.104	-18.5
224.338	-13.5
224.573	-21.5
224.808	-18.5
225.042	0.5
225.277	4.5
225.511	-4.5
225.746	-5.5
225.98	8.5
226.215	4.5
226.449	26.5
226.683	2.5
226.918	25.5
227.152	35.5
227.387	22.5
227.621	39.5
227.856	51.5
228.09	46.5
228.324	46.5
228.559	41.5
228.793	61.5
229.027	89.5
229.262	91.5
229.496	97.5
229.73	77.5
229.964	108.5
230.199	97.5
230.433	105.5
230.667	92.5
230.901	83.5
231.136	116.5
231.37	120.5
231.604	129.5
231.838	122.5
232.072	102.5
232.306	118.5
232.541	131.5
232.775	133.5
233.009	133.5
233.243	116.5
233.477	120.5
233.711	123.5
233.945	104.5
234.179	135.5
234.413	105.5
234.647	121.5
234.881	119.5
235.115	136.5
235.349	97.5
235.583	107.5
235.817	124.5
236.051	125.5
236.285	120.5
236.519	113.5
236.753	125.5
236.987	117.5
237.221	122.5
237.455	121.5
237.689	130.5
237.922	137.5
238.156	129.5
238.39	148.5
238.624	147.5
238.858	129.5
239.091	128.5
239.325	129.5
239.559	122.5
239.793	136.5
240.027	116.5
240.26	133.5
240.494	131.5
240.728	136.5
240.961	153.5
241.195	148.5
241.429	141.5
241.662	149.5
241.896	138.5
242.13	141.5
242.363	149.5
242.597	148.5
242.83	134.5
243.064	154.5
243.298	134.5
243.531	135.5
243.765	148.5
243.998	162.5
244.232	155.5
244.465	145.5
244.699	151.5
244.932	162.5
245.166	168.5
245.399	143.5
245.633	162.5
245.866	167.5
246.099	167.5
246.333	145.5
246.566	154.5
246.8	169.5
247.033	177.5
247.266	156.5
247.5	154.5
247.733	170.5
247.966	172.5
248.2	160.5
248.433	180.5
248.666	180.5
248.899	174.5
249.133	168.5
249.366	184.5
249.599	182.5
249.832	180.5
250.066	200.5
250.299	166.5
250.532	186.5
250.765	185.5
250.998	185.5
251.231	177.5
251.465	190.5
251.698	194.5
251.931	186.5
252.164	215.5
252.397	198.5
252.63	200.5
252.863	197.5
253.096	200.5
253.329	194.5
253.562	179.5
253.795	186.5
254.028	206.5
254.261	198.5
254.494	198.5
254.727	220.5
254.96	184.5
255.193	207.5
255.426	194.5
255.659	196.5
255.892	222.5
256.124	217.5
256.357	206.5
256.59	218.5
256.823	219.5
257.056	217.5
257.289	227.5
257.521	233.5
257.754	226.5
257.987	224.5
258.22	232.5
258.452	208.5
258.685	221.5
258.918	219.5
259.151	243.5
259.383	223.5
259.616	222.5
259.849	227.5
260.081	230.5
260.314	229.5
260.547	231.5
260.779	234.5
261.012	225.5
261.244	231.5
261.477	231.5
261.71	230.5
261.942	221.5
262.175	225.5
262.407	241.5
262.64	227.5
262.872	256.5
263.105	233.5
263.337	247.5
263.57	227.5
263.802	252.5
264.035	245.5
264.267	245.5
264.499	238.5
264.732	250.5
264.964	244.5
265.197	258.5
265.429	233.5
265.661	259.5
265.894	258.5
266.126	260.5
266.358	251.5
266.591	243.5
266.823	256.5
267.055	244.5
267.287	261.5
267.52	263.5
267.752	252.5
267.984	252.5
268.216	257.5
268.448	275.5
268.681	260.5
268.913	272.5
269.145	281.5
269.377	258.5
269.609	250.5
269.841	268.5
270.073	264.5
270.306	266.5
270.538	272.5
270.77	282.5
271.002	262.5
271.234	267.5
271.466	282.5
271.698	281.5
271.93	275.5
272.162	282.5
272.394	285.5
272.626	252.5
272.858	281.5
273.09	280.5
273.322	276.5
273.553	273.5
273.785	275.5
274.017	276.5
274.249	296.5
274.481	277.5
274.713	285.5
274.945	282.5
275.176	268.5
275.408	283.5
275.64	282.5
275.872	291.5
276.104	289.5
276.335	277.5
276.567	290.5
276.799	291.5
277.031	306.5
277.262	291.5
277.494	282.5
277.726	306.5
277.957	296.5
278.189	285.5
278.421	302.5
278.652	296.5
278.884	298.5
279.115	293.5
279.347	302.5
279.579	308.5
279.81	312.5
280.042	295.5
280.273	282.5
280.505	281.5
280.736	300.5
280.968	324.5
281.199	301.5
281.431	324.5
281.662	319.5
281.894	320.5
282.125	325.5
282.356	328.5
282.588	331.5
282.819	327.5
283.051	320.5
283.282	309.5
283.513	336.5
283.745	343.5
283.976	317.5
284.207	326.5
284.439	344.5
284.67	323.5
284.901	326.5
285.132	333.5
285.364	326.5
285.595	343.5
285.826	347.5
286.057	339.5
286.288	333.5
286.52	329.5
286.751	343.5
286.982	347.5
287.213	344.5
287.444	375.5
287.675	347.5
287.906	361.5
288.138	349.5
288.369	353.5
288.6	356.5
288.831	355.5
289.062	360.5
289.293	350.5
289.524	341.5
289.755	356.5
289.986	372.5
290.217	353.5
290.448	349.5
290.679	362.5
290.91	380.5
291.141	368.5
291.371	357.5
291.602	368.5
291.833	368.5
292.064	373.5
292.295	381.5
292.526	328.5
292.757	353.5
292.987	359.5
293.218	362.5
293.449	349.5
293.68	364.5
293.91	360.5
294.141	355.5
294.372	340.5
294.603	359.5
294.833	352.5
295.064	378.5
295.295	374.5
295.525	370.5
295.756	365.5
295.987	364.5
296.217	375.5
296.448	375.5
296.679	377.5
296.909	369.5
297.14	397.5
297.37	396.5
297.601	390.5
297.831	376.5
298.062	402.5
298.292	390.5
298.523	429.5
298.753	404.5
298.984	405.5
299.214	402.5
299.445	385.5
299.675	385.5
299.905	400.5
300.136	422.5
300.366	424.5
300.597	408.5
300.827	405.5
301.057	402.5
301.288	422.5
301.518	399.5
301.748	415.5
301.979	419.5
302.209	405.5
302.439	440.5
302.669	412.5
302.9	400.5
303.13	392.5
303.36	397.5
303.59	388.5
303.82	398.5
304.051	415.5
304.281	382.5
304.511	416.5
304.741	410.5
304.971	386.5
305.201	397.5
305.431	399.5
305.661	394.5
305.891	401.5
306.121	392.5
306.352	420.5
306.582	385.5
306.812	381.5
307.042	395.5
307.272	391.5
307.502	381.5
307.731	394.5
307.961	391.5
308.191	395.5
308.421	402.5
308.651	377.5
308.881	381.5
309.111	382.5
309.341	386.5
309.571	381.5
309.8	408.5
310.03	408.5
310.26	393.5
310.49	386.5
310.72	380.5
310.949	379.5
311.179	377.5
311.409	396.5
311.639	396.5
311.868	401.5
312.098	398.5
312.328	404.5
312.557	427.5
312.787	401.5
313.017	408.5
313.246	417.5
313.476	436.5
313.706	424.5
313.935	428.5
314.165	412.5
314.394	402.5
314.624	418.5
314.853	408.5
315.083	418.5
315.312	417.5
315.542	412.5
315.771	407.5
316.001	425.5
316.23	417.5
316.46	428.5
316.689	426.5
316.919	425.5
317.148	409.5
317.377	415.5
317.607	409.5
317.836	410.5
318.065	407.5
318.295	409.5
318.524	402.5
318.753	419.5
318.983	412.5
319.212	418.5
319.441	435.5
319.67	410.5
319.9	402.5
320.129	418.5
320.358	420.5
320.587	409.5
320.816	414.5
321.046	404.5
321.275	415.5
321.504	408.5
321.733	409.5
321.962	429.5
322.191	412.5
322.42	412.5
322.649	435.5
322.878	394.5
323.108	410.5
323.337	429.5
323.566	443.5
323.795	424.5
324.024	460.5
324.253	434.5
324.482	427.5
324.71	429.5
324.939	426.5
325.168	432.5
325.397	434.5
325.626	426.5
325.855	470.5
326.084	448.5
326.313	475.5
326.542	476.5
326.77	452.5
326.999	480.5
327.228	451.5
327.457	450.5
327.686	486.5
327.914	472.5
328.143	462.5
328.372	466.5
328.6	460.5
328.829	472.5
329.058	477.5
329.287	468.5
329.515	465.5
329.744	470.5
329.972	484.5
330.201	458.5
330.43	465.5
330.658	476.5
330.887	472.5
331.115	480.5
331.344	460.5
331.572	496.5
331.801	522.5
332.03	509.5
332.258	532.5
332.486	554.5
332.715	574.5
332.943	598.5
333.172	613.5
333.4	643.5
333.629	667.5
333.857	638.5
334.085	627.5
334.314	633.5
334.542	588.5
334.771	598.5
334.999	579.5
335.227	575.5
335.455	585.5
335.684	579.5
335.912	581.5
336.14	556.5
336.369	552.5
336.597	580.5
336.825	560.5
337.053	578.5
337.281	556.5
337.51	527.5
337.738	510.5
337.966	525.5
338.194	506.5
338.422	503.5
338.65	499.5
338.878	522.5
339.106	535.5
339.334	497.5
339.562	510.5
339.79	490.5
340.018	500.5
340.246	475.5
340.474	485.5
340.702	497.5
340.93	492.5
341.158	486.5
341.386	496.5
341.614	512.5
341.842	479.5
342.07	490.5
342.298	496.5
342.526	486.5
342.754	497.5
342.981	492.5
343.209	489.5
343.437	522.5
343.665	548.5
343.893	610.5
344.12	619.5
344.348	604.5
344.576	551.5
344.804	540.5
345.031	521.5
345.259	529.5
345.487	498.5
345.714	501.5
345.942	484.5
346.17	512.5
346.397	499.5
346.625	486.5
346.853	460.5
347.08	488.5
347.308	482.5
347.535	495.5
347.763	494.5
347.99	489.5
348.218	492.5
348.445	497.5
348.673	469.5
348.9	493.5
349.128	483.5
349.355	459.5
349.583	475.5
349.81	482.5
350.037	487.5
350.265	460.5
350.492	472.5
350.72	453.5
350.947	476.5
351.174	464.5
351.402	471.5
351.629	470.5
351.856	474.5
352.083	478.5
352.311	461.5
352.538	472.5
352.765	470.5
352.992	467.5
353.22	445.5
353.447	454.5
353.674	449.5
353.901	465.5
354.128	475.5
354.355	452.5
354.583	473.5
354.81	461.5
355.037	467.5
355.264	461.5
355.491	466.5
355.718	461.5
355.945	458.5
356.172	479.5
356.399	475.5
356.626	461.5
356.853	481.5
357.08	462.5
357.307	466.5
357.534	458.5
357.761	484.5
357.988	467.5
358.215	473.5
358.441	453.5
358.668	450.5
358.895	449.5
359.122	475.5
359.349	469.5
359.576	446.5
359.802	469.5
360.029	449.5
360.256	451.5
360.483	448.5
360.709	480.5
360.936	467.5
361.163	478.5
361.39	448.5
361.616	441.5
361.843	470.5
362.07	459.5
362.296	470.5
362.523	448.5
362.749	454.5
362.976	461.5
363.203	476.5
363.429	437.5
363.656	468.5
363.882	468.5
364.109	466.5
364.335	457.5
364.562	449.5
364.788	460.5
365.015	472.5
365.241	448.5
365.468	453.5
365.694	448.5
365.92	459.5
366.147	458.5
366.373	458.5
366.599	474.5
366.826	438.5
367.052	461.5
367.278	462.5
367.505	477.5
367.731	468.5
367.957	453.5
368.184	463.5
368.41	477.5
368.636	454.5
368.862	449.5
369.089	473.5
369.315	459.5
369.541	466.5
369.767	466.5
369.993	473.5
370.219	487.5
370.445	495.5
370.672	488.5
370.898	485.5
371.124	472.5
371.35	520.5
371.576	505.5
371.802	509.5
372.028	481.5
372.254	486.5
372.48	499.5
372.706	520.5
372.932	534.5
373.158	518.5
373.384	502.5
373.61	500.5
373.835	489.5
374.061	508.5
374.287	526.5
374.513	529.5
374.739	524.5
374.965	553.5
375.191	566.5
375.416	556.5
375.642	539.5
375.868	539.5
376.094	514.5
376.319	522.5
376.545	501.5
376.771	499.5
376.997	481.5
377.222	528.5
377.448	506.5
377.674	507.5
377.899	500.5
378.125	480.5
378.35	491.5
378.576	496.5
378.802	458.5
379.027	487.5
379.253	497.5
379.478	468.5
379.704	455.5
379.929	485.5
380.155	486.5
380.38	462.5
380.606	496.5
380.831	480.5
381.057	503.5
381.282	492.5
381.507	512.5
381.733	522.5
381.958	525.5
382.184	523.5
382.409	520.5
382.634	517.5
382.86	512.5
383.085	519.5
383.31	528.5
383.535	534.5
383.761	557.5
383.986	546.5
384.211	580.5
384.436	585.5
384.662	606.5
384.887	609.5
385.112	597.5
385.337	610.5
385.562	581.5
385.787	588.5
386.013	598.5
386.238	605.5
386.463	595.5
386.688	577.5
386.913	582.5
387.138	576.5
387.363	597.5
387.588	578.5
387.813	594.5
388.038	562.5
388.263	593.5
388.488	589.5
388.713	574.5
388.938	548.5
389.163	590.5
389.387	550.5
389.612	558.5
389.837	564.5
390.062	544.5
390.287	564.5
390.512	562.5
390.736	591.5
390.961	626.5
391.186	596.5
391.411	621.5
391.636	658.5
391.86	658.5
392.085	689.5
392.31	664.5
392.534	646.5
392.759	624.5
392.984	628.5
393.208	636.5
393.433	605.5
393.658	617.5
393.882	636.5
394.107	636.5
394.331	640.5
394.556	633.5
394.78	633.5
395.005	633.5
395.229	617.5
395.454	642.5
395.678	671.5
395.903	684.5
396.127	676.5
396.352	637.5
396.576	621.5
396.801	628.5
397.025	620.5
397.249	645.5
397.474	638.5
397.698	672.5
397.922	655.5
398.147	635.5
398.371	665.5
398.595	667.5
398.82	737.5
399.044	765.5
399.268	840.5
399.492	999.5
399.717	1133.5
399.941	1141.5
400.165	983.5
400.389	877.5
400.613	808.5
400.837	728.5
401.062	732.5
401.286	744.5
401.51	749.5
401.734	727.5
401.958	739.5
402.182	726.5
402.406	734.5
402.63	777.5
402.854	787.5
403.078	813.5
403.302	841.5
403.526	844.5
403.75	896.5
403.974	886.5
404.198	879.5
404.422	881.5
404.645	847.5
404.869	862.5
405.093	861.5
405.317	850.5
405.541	822.5
405.765	803.5
405.988	796.5
406.212	806.5
406.436	822.5
406.66	818.5
406.883	853.5
407.107	908.5
407.331	937.5
407.555	973.5
407.778	942.5
408.002	917.5
408.226	926.5
408.449	896.5
408.673	854.5
408.896	854.5
409.12	845.5
409.344	845.5
409.567	839.5
409.791	885.5
410.014	859.5
410.238	865.5
410.461	835.5
410.685	837.5
410.908	821.5
411.132	801.5
411.355	786.5
411.578	781.5
411.802	784.5
412.025	782.5
412.249	766.5
412.472	768.5
412.695	744.5
412.919	737.5
413.142	733.5
413.365	728.5
413.589	764.5
413.812	745.5
414.035	722.5
414.258	717.5
414.482	758.5
414.705	772.5
414.928	747.5
415.151	781.5
415.374	749.5
415.597	741.5
415.821	723.5
416.044	745.5
416.267	718.5
416.49	698.5
416.713	744.5
416.936	724.5
417.159	750.5
417.382	731.5
417.605	733.5
417.828	746.5
418.051	740.5
418.274	716.5
418.497	746.5
418.72	744.5
418.943	769.5
419.166	797.5
419.389	870.5
419.611	844.5
419.834	809.5
420.057	788.5
420.28	762.5
420.503	733.5
420.726	733.5
420.948	748.5
421.171	748.5
421.394	755.5
421.617	717.5
421.839	741.5
422.062	745.5
422.285	740.5
422.507	728.5
422.73	749.5
422.953	788.5
423.175	811.5
423.398	792.5
423.621	791.5
423.843	809.5
424.066	816.5
424.288	816.5
424.511	808.5
424.733	782.5
424.956	760.5
425.178	768.5
425.401	744.5
425.623	758.5
425.846	706.5
426.068	704.5
426.291	695.5
426.513	730.5
426.735	730.5
426.958	716.5
427.18	698.5
427.402	681.5
427.625	694.5
427.847	695.5
428.069	680.5
428.292	683.5
428.514	659.5
428.736	678.5
428.958	672.5
429.181	647.5
429.403	662.5
429.625	645.5
429.847	659.5
430.069	648.5
430.292	644.5
430.514	608.5
430.736	640.5
430.958	649.5
431.18	669.5
431.402	658.5
431.624	674.5
431.846	643.5
432.068	671.5
432.29	688.5
432.512	660.5
432.734	688.5
432.956	678.5
433.178	679.5
433.4	674.5
433.622	672.5
433.844	698.5
434.066	681.5
434.287	714.5
434.509	737.5
434.731	741.5
434.953	778.5
435.175	778.5
435.397	776.5
435.618	705.5
435.84	679.5
436.062	688.5
436.284	678.5
436.505	653.5
436.727	681.5
436.949	683.5
437.17	688.5
437.392	664.5
437.614	669.5
437.835	660.5
438.057	634.5
438.278	662.5
438.5	686.5
438.721	643.5
438.943	670.5
439.165	644.5
439.386	680.5
439.608	714.5
439.829	719.5
440.05	686.5
440.272	688.5
440.493	680.5
440.715	679.5
440.936	708.5
441.158	742.5
441.379	754.5
441.6	802.5
441.822	814.5
442.043	774.5
442.264	756.5
442.486	749.5
442.707	756.5
442.928	747.5
443.149	777.5
443.371	753.5
443.592	781.5
443.813	781.5
444.034	768.5
444.255	806.5
444.476	843.5
444.698	896.5
444.919	934.5
445.14	966.5
445.361	881.5
445.582	795.5
445.803	752.5
446.024	732.5
446.245	725.5
446.466	729.5
446.687	695.5
446.908	716.5
447.129	668.5
447.35	654.5
447.571	646.5
447.792	682.5
448.013	644.5
448.234	653.5
448.455	615.5
448.675	656.5
448.896	645.5
449.117	627.5
449.338	604.5
449.559	636.5
449.779	639.5
450	640.5
450.221	655.5
450.442	640.5
450.662	660.5
450.883	682.5
451.104	660.5
451.324	661.5
451.545	664.5
451.766	646.5
451.986	619.5
452.207	636.5
452.428	637.5
452.648	645.5
452.869	633.5
453.089	620.5
453.31	627.5
453.53	602.5
453.751	632.5
453.971	609.5
454.192	608.5
454.412	600.5
454.633	596.5
454.853	600.5
455.073	613.5
455.294	595.5
455.514	581.5
455.734	580.5
455.955	586.5
456.175	567.5
456.395	587.5
456.616	586.5
456.836	576.5
457.056	581.5
457.276	600.5
457.497	594.5
457.717	566.5
457.937	579.5
458.157	605.5
458.377	609.5
458.598	612.5
458.818	632.5
459.038	636.5
459.258	672.5
459.478	693.5
459.698	698.5
459.918	742.5
460.138	767.5
460.358	816.5
460.578	809.5
460.798	824.5
461.018	824.5
461.238	800.5
461.458	784.5
461.678	790.5
461.898	789.5
462.118	828.5
462.338	874.5
462.558	891.5
462.777	909.5
462.997	999.5
463.217	1125.5
463.437	1118.5
463.657	1003.5
463.876	976.5
464.096	985.5
464.316	976.5
464.536	940.5
464.755	922.5
464.975	912.5
465.195	851.5
465.414	796.5
465.634	752.5
465.854	724.5
466.073	705.5
466.293	708.5
466.512	683.5
466.732	693.5
466.951	655.5
467.171	652.5
467.391	683.5
467.61	658.5
467.829	668.5
468.049	658.5
468.268	634.5
468.488	630.5
468.707	630.5
468.927	635.5
469.146	637.5
469.365	637.5
469.585	643.5
469.804	677.5
470.023	674.5
470.243	688.5
470.462	684.5
470.681	725.5
470.901	674.5
471.12	688.5
471.339	656.5
471.558	639.5
471.777	661.5
471.997	636.5
472.216	627.5
472.435	615.5
472.654	598.5
472.873	596.5
473.092	604.5
473.311	613.5
473.53	612.5
473.749	614.5
473.968	619.5
474.187	608.5
474.406	605.5
474.625	610.5
474.844	620.5
475.063	593.5
475.282	625.5
475.501	626.5
475.72	622.5
475.939	638.5
476.158	638.5
476.377	620.5
476.596	624.5
476.814	631.5
477.033	637.5
477.252	640.5
477.471	660.5
477.69	690.5
477.908	706.5
478.127	751.5
478.346	740.5
478.564	752.5
478.783	723.5
479.002	777.5
479.22	768.5
479.439	781.5
479.658	771.5
479.876	787.5
480.095	787.5
480.313	807.5
480.532	834.5
480.751	833.5
480.969	766.5
481.188	747.5
481.406	730.5
481.624	733.5
481.843	711.5
482.061	681.5
482.28	715.5
482.498	694.5
482.717	690.5
482.935	695.5
483.153	730.5
483.372	691.5
483.59	710.5
483.808	708.5
484.027	723.5
484.245	717.5
484.463	700.5
484.681	699.5
484.9	726.5
485.118	735.5
485.336	760.5
485.554	761.5
485.772	761.5
485.99	730.5
486.209	735.5
486.427	739.5
486.645	756.5
486.863	772.5
487.081	738.5
487.299	731.5
487.517	747.5
487.735	741.5
487.953	752.5
488.171	761.5
488.389	734.5
488.607	734.5
488.825	730.5
489.043	731.5
489.261	745.5
489.479	713.5
489.696	724.5
489.914	747.5
490.132	743.5
490.35	745.5
490.568	726.5
490.786	732.5
491.003	738.5
491.221	746.5
491.439	772.5
491.657	749.5
491.874	749.5
492.092	765.5
492.31	791.5
492.527	748.5
492.745	778.5
492.963	764.5
493.18	771.5
493.398	760.5
493.615	784.5
493.833	763.5
494.05	788.5
494.268	791.5
494.485	778.5
494.703	792.5
494.92	775.5
495.138	777.5
495.355	776.5
495.573	809.5
495.79	783.5
496.008	804.5
496.225	792.5
496.442	797.5
496.66	841.5
496.877	821.5
497.094	829.5
497.312	846.5
497.529	870.5
497.746	896.5
497.963	900.5
498.181	925.5
498.398	952.5
498.615	1035.5
498.832	1107.5
499.049	1178.5
499.267	1275.5
499.484	1435.5
499.701	1551.5
499.918	1762.5
500.135	2017.5
500.352	2352.5
500.569	2477.5
500.786	2431.5
501.003	2278.5
501.22	1940.5
501.437	1712.5
501.654	1480.5
501.871	1322.5
502.088	1257.5
502.305	1164.5
502.522	1088.5
502.739	1098.5
502.956	1002.5
503.172	947.5
503.389	901.5
503.606	898.5
503.823	874.5
504.04	885.5
504.256	895.5
504.473	900.5
504.69	949.5
504.907	896.5
505.123	854.5
505.34	824.5
505.557	787.5
505.773	770.5
505.99	729.5
506.207	752.5
506.423	727.5
506.64	699.5
506.856	710.5
507.073	707.5
507.289	676.5
507.506	685.5
507.722	679.5
507.939	664.5
508.155	693.5
508.372	647.5
508.588	668.5
508.805	661.5
509.021	644.5
509.238	674.5
509.454	621.5
509.67	639.5
509.887	637.5
510.103	646.5
510.319	643.5
510.536	635.5
510.752	645.5
510.968	635.5
511.184	636.5
511.401	651.5
511.617	636.5
511.833	614.5
512.049	617.5
512.265	637.5
512.481	638.5
512.698	628.5
512.914	633.5
513.13	642.5
513.346	624.5
513.562	658.5
513.778	637.5
513.994	652.5
514.21	639.5
514.426	640.5
514.642	651.5
514.858	663.5
515.074	671.5
515.29	680.5
515.506	672.5
515.721	663.5
515.937	650.5
516.153	669.5
516.369	690.5
516.585	724.5
516.801	750.5
517.016	769.5
517.232	827.5
517.448	866.5
517.664	873.5
517.879	900.5
518.095	917.5
518.311	891.5
518.527	844.5
518.742	830.5
518.958	763.5
519.173	733.5
