Data from Ni(NO3)2Standard.Agarose3%.GreenCap.LampEnergy5.5.E.O_HRD10591_14-42-29-188.txt Node
Date: Mon Jul 22 14:42:29 EDT 2019
User: cochatt
Spectrometer: HR+D1059
Trigger mode: 1
Integration Time (sec): 1.000000E-1
Scans to average: 1
Electric dark correction enabled: true
Nonlinearity correction enabled: false
Boxcar width: 0
XAxis mode: Wavelengths
Number of Pixels in Spectrum: 2048
>>>>>Begin Spectral Data<<<<<
223.165	-14.62
223.4	-14.62
223.635	-14.62
223.869	-24.62
224.104	-27.62
224.338	-17.62
224.573	-13.62
224.808	-13.62
225.042	-4.62
225.277	3.38
225.511	-8.62
225.746	-4.62
225.98	1.38
226.215	3.38
226.449	25.38
226.683	27.38
226.918	31.38
227.152	37.38
227.387	36.38
227.621	35.38
227.856	34.38
228.09	45.38
228.324	38.38
228.559	61.38
228.793	57.38
229.027	48.38
229.262	66.38
229.496	69.38
229.73	68.38
229.964	72.38
230.199	66.38
230.433	75.38
230.667	86.38
230.901	74.38
231.136	78.38
231.37	80.38
231.604	72.38
231.838	70.38
232.072	70.38
232.306	80.38
232.541	63.38
232.775	77.38
233.009	82.38
233.243	64.38
233.477	78.38
233.711	82.38
233.945	75.38
234.179	54.38
234.413	72.38
234.647	70.38
234.881	75.38
235.115	86.38
235.349	80.38
235.583	75.38
235.817	88.38
236.051	85.38
236.285	80.38
236.519	70.38
236.753	82.38
236.987	72.38
237.221	78.38
237.455	84.38
237.689	71.38
237.922	70.38
238.156	76.38
238.39	64.38
238.624	83.38
238.858	87.38
239.091	81.38
239.325	82.38
239.559	74.38
239.793	73.38
240.027	76.38
240.26	74.38
240.494	82.38
240.728	74.38
240.961	76.38
241.195	77.38
241.429	90.38
241.662	84.38
241.896	82.38
242.13	81.38
242.363	75.38
242.597	70.38
242.83	71.38
243.064	81.38
243.298	68.38
243.531	76.38
243.765	82.38
243.998	71.38
244.232	56.38
244.465	72.38
244.699	69.38
244.932	72.38
245.166	75.38
245.399	82.38
245.633	76.38
245.866	75.38
246.099	60.38
246.333	70.38
246.566	69.38
246.8	54.38
247.033	72.38
247.266	70.38
247.5	83.38
247.733	80.38
247.966	65.38
248.2	65.38
248.433	73.38
248.666	76.38
248.899	71.38
249.133	88.38
249.366	90.38
249.599	62.38
249.832	71.38
250.066	73.38
250.299	82.38
250.532	82.38
250.765	79.38
250.998	70.38
251.231	81.38
251.465	82.38
251.698	69.38
251.931	57.38
252.164	79.38
252.397	80.38
252.63	69.38
252.863	72.38
253.096	63.38
253.329	78.38
253.562	77.38
253.795	81.38
254.028	92.38
254.261	91.38
254.494	90.38
254.727	70.38
254.96	67.38
255.193	77.38
255.426	79.38
255.659	62.38
255.892	78.38
256.124	87.38
256.357	72.38
256.59	65.38
256.823	90.38
257.056	79.38
257.289	74.38
257.521	68.38
257.754	82.38
257.987	89.38
258.22	89.38
258.452	68.38
258.685	75.38
258.918	79.38
259.151	66.38
259.383	78.38
259.616	90.38
259.849	90.38
260.081	90.38
260.314	78.38
260.547	66.38
260.779	86.38
261.012	91.38
261.244	87.38
261.477	91.38
261.71	81.38
261.942	76.38
262.175	89.38
262.407	73.38
262.64	73.38
262.872	71.38
263.105	66.38
263.337	81.38
263.57	79.38
263.802	81.38
264.035	86.38
264.267	80.38
264.499	78.38
264.732	91.38
264.964	77.38
265.197	73.38
265.429	85.38
265.661	73.38
265.894	79.38
266.126	77.38
266.358	83.38
266.591	83.38
266.823	94.38
267.055	73.38
267.287	87.38
267.52	96.38
267.752	87.38
267.984	84.38
268.216	75.38
268.448	72.38
268.681	78.38
268.913	71.38
269.145	60.38
269.377	85.38
269.609	97.38
269.841	85.38
270.073	76.38
270.306	75.38
270.538	70.38
270.77	83.38
271.002	76.38
271.234	72.38
271.466	70.38
271.698	78.38
271.93	90.38
272.162	76.38
272.394	80.38
272.626	81.38
272.858	90.38
273.09	77.38
273.322	78.38
273.553	68.38
273.785	77.38
274.017	66.38
274.249	88.38
274.481	83.38
274.713	82.38
274.945	83.38
275.176	87.38
275.408	74.38
275.64	74.38
275.872	82.38
276.104	80.38
276.335	73.38
276.567	86.38
276.799	92.38
277.031	87.38
277.262	81.38
277.494	81.38
277.726	86.38
277.957	98.38
278.189	84.38
278.421	73.38
278.652	98.38
278.884	78.38
279.115	71.38
279.347	89.38
279.579	90.38
279.81	79.38
280.042	94.38
280.273	96.38
280.505	84.38
280.736	77.38
280.968	84.38
281.199	84.38
281.431	85.38
281.662	89.38
281.894	69.38
282.125	84.38
282.356	90.38
282.588	89.38
282.819	69.38
283.051	90.38
283.282	80.38
283.513	94.38
283.745	87.38
283.976	88.38
284.207	85.38
284.439	83.38
284.67	79.38
284.901	74.38
285.132	82.38
285.364	88.38
285.595	83.38
285.826	96.38
286.057	80.38
286.288	92.38
286.52	87.38
286.751	88.38
286.982	86.38
287.213	75.38
287.444	79.38
287.675	82.38
287.906	96.38
288.138	81.38
288.369	93.38
288.6	87.38
288.831	91.38
289.062	86.38
289.293	81.38
289.524	70.38
289.755	80.38
289.986	79.38
290.217	87.38
290.448	86.38
290.679	77.38
290.91	91.38
291.141	95.38
291.371	94.38
291.602	91.38
291.833	87.38
292.064	80.38
292.295	83.38
292.526	83.38
292.757	87.38
292.987	77.38
293.218	72.38
293.449	78.38
293.68	85.38
293.91	83.38
294.141	80.38
294.372	76.38
294.603	85.38
294.833	96.38
295.064	95.38
295.295	90.38
295.525	89.38
295.756	94.38
295.987	72.38
296.217	82.38
296.448	71.38
296.679	76.38
296.909	84.38
297.14	82.38
297.37	87.38
297.601	80.38
297.831	93.38
298.062	86.38
298.292	99.38
298.523	96.38
298.753	78.38
298.984	88.38
299.214	92.38
299.445	80.38
299.675	91.38
299.905	85.38
300.136	92.38
300.366	82.38
300.597	87.38
300.827	88.38
301.057	76.38
301.288	68.38
301.518	89.38
301.748	87.38
301.979	80.38
302.209	82.38
302.439	74.38
302.669	74.38
302.9	97.38
303.13	82.38
303.36	83.38
303.59	98.38
303.82	89.38
304.051	80.38
304.281	82.38
304.511	82.38
304.741	87.38
304.971	79.38
305.201	87.38
305.431	96.38
305.661	83.38
305.891	95.38
306.121	93.38
306.352	103.38
306.582	92.38
306.812	76.38
307.042	87.38
307.272	76.38
307.502	79.38
307.731	64.38
307.961	75.38
308.191	89.38
308.421	82.38
308.651	98.38
308.881	92.38
309.111	73.38
309.341	79.38
309.571	86.38
309.8	95.38
310.03	90.38
310.26	89.38
310.49	72.38
310.72	99.38
310.949	88.38
311.179	82.38
311.409	75.38
311.639	95.38
311.868	80.38
312.098	85.38
312.328	95.38
312.557	100.38
312.787	74.38
313.017	81.38
313.246	76.38
313.476	105.38
313.706	76.38
313.935	78.38
314.165	82.38
314.394	91.38
314.624	78.38
314.853	82.38
315.083	93.38
315.312	73.38
315.542	72.38
315.771	90.38
316.001	82.38
316.23	90.38
316.46	106.38
316.689	72.38
316.919	69.38
317.148	81.38
317.377	95.38
317.607	87.38
317.836	76.38
318.065	88.38
318.295	91.38
318.524	86.38
318.753	75.38
318.983	87.38
319.212	82.38
319.441	84.38
319.67	83.38
319.9	91.38
320.129	75.38
320.358	81.38
320.587	87.38
320.816	85.38
321.046	92.38
321.275	92.38
321.504	73.38
321.733	89.38
321.962	93.38
322.191	88.38
322.42	72.38
322.649	94.38
322.878	81.38
323.108	90.38
323.337	87.38
323.566	82.38
323.795	79.38
324.024	85.38
324.253	82.38
324.482	88.38
324.71	87.38
324.939	92.38
325.168	88.38
325.397	85.38
325.626	96.38
325.855	82.38
326.084	83.38
326.313	90.38
326.542	83.38
326.77	96.38
326.999	87.38
327.228	67.38
327.457	76.38
327.686	73.38
327.914	84.38
328.143	95.38
328.372	81.38
328.6	83.38
328.829	86.38
329.058	89.38
329.287	82.38
329.515	96.38
329.744	95.38
329.972	97.38
330.201	89.38
330.43	70.38
330.658	77.38
330.887	77.38
331.115	91.38
331.344	95.38
331.572	93.38
331.801	90.38
332.03	73.38
332.258	91.38
332.486	87.38
332.715	74.38
332.943	81.38
333.172	86.38
333.4	86.38
333.629	100.38
333.857	102.38
334.085	87.38
334.314	99.38
334.542	94.38
334.771	76.38
334.999	89.38
335.227	94.38
335.455	74.38
335.684	80.38
335.912	91.38
336.14	91.38
336.369	96.38
336.597	87.38
336.825	91.38
337.053	88.38
337.281	87.38
337.51	98.38
337.738	90.38
337.966	66.38
338.194	91.38
338.422	78.38
338.65	87.38
338.878	78.38
339.106	86.38
339.334	86.38
339.562	95.38
339.79	79.38
340.018	79.38
340.246	67.38
340.474	68.38
340.702	84.38
340.93	84.38
341.158	77.38
341.386	82.38
341.614	89.38
341.842	95.38
342.07	98.38
342.298	96.38
342.526	84.38
342.754	88.38
342.981	78.38
343.209	82.38
343.437	77.38
343.665	93.38
343.893	94.38
344.12	105.38
344.348	96.38
344.576	86.38
344.804	83.38
345.031	92.38
345.259	85.38
345.487	73.38
345.714	87.38
345.942	92.38
346.17	79.38
346.397	81.38
346.625	88.38
346.853	94.38
347.08	81.38
347.308	92.38
347.535	95.38
347.763	76.38
347.99	85.38
348.218	91.38
348.445	90.38
348.673	56.38
348.9	96.38
349.128	84.38
349.355	96.38
349.583	103.38
349.81	87.38
350.037	100.38
350.265	83.38
350.492	85.38
350.72	92.38
350.947	74.38
351.174	87.38
351.402	78.38
351.629	94.38
351.856	102.38
352.083	88.38
352.311	96.38
352.538	87.38
352.765	83.38
352.992	78.38
353.22	82.38
353.447	86.38
353.674	84.38
353.901	86.38
354.128	86.38
354.355	89.38
354.583	72.38
354.81	84.38
355.037	84.38
355.264	89.38
355.491	82.38
355.718	82.38
355.945	84.38
356.172	83.38
356.399	93.38
356.626	88.38
356.853	81.38
357.08	77.38
357.307	83.38
357.534	72.38
357.761	105.38
357.988	86.38
358.215	83.38
358.441	75.38
358.668	79.38
358.895	78.38
359.122	85.38
359.349	82.38
359.576	69.38
359.802	72.38
360.029	82.38
360.256	83.38
360.483	88.38
360.709	85.38
360.936	88.38
361.163	76.38
361.39	83.38
361.616	81.38
361.843	96.38
362.07	90.38
362.296	83.38
362.523	93.38
362.749	87.38
362.976	79.38
363.203	87.38
363.429	94.38
363.656	84.38
363.882	82.38
364.109	91.38
364.335	86.38
364.562	84.38
364.788	79.38
365.015	82.38
365.241	99.38
365.468	91.38
365.694	95.38
365.92	86.38
366.147	87.38
366.373	67.38
366.599	83.38
366.826	74.38
367.052	71.38
367.278	75.38
367.505	79.38
367.731	92.38
367.957	79.38
368.184	78.38
368.41	78.38
368.636	76.38
368.862	81.38
369.089	98.38
369.315	74.38
369.541	76.38
369.767	75.38
369.993	71.38
370.219	86.38
370.445	100.38
370.672	83.38
370.898	87.38
371.124	99.38
371.35	88.38
371.576	82.38
371.802	94.38
372.028	87.38
372.254	86.38
372.48	86.38
372.706	100.38
372.932	74.38
373.158	88.38
373.384	79.38
373.61	81.38
373.835	80.38
374.061	80.38
374.287	88.38
374.513	85.38
374.739	88.38
374.965	74.38
375.191	74.38
375.416	86.38
375.642	88.38
375.868	76.38
376.094	75.38
376.319	87.38
376.545	82.38
376.771	76.38
376.997	93.38
377.222	84.38
377.448	90.38
377.674	90.38
377.899	88.38
378.125	90.38
378.35	94.38
378.576	90.38
378.802	84.38
379.027	89.38
379.253	89.38
379.478	91.38
379.704	94.38
379.929	71.38
380.155	88.38
380.38	79.38
380.606	92.38
380.831	69.38
381.057	94.38
381.282	75.38
381.507	85.38
381.733	74.38
381.958	76.38
382.184	76.38
382.409	68.38
382.634	75.38
382.86	73.38
383.085	75.38
383.31	74.38
383.535	89.38
383.761	75.38
383.986	76.38
384.211	74.38
384.436	94.38
384.662	76.38
384.887	81.38
385.112	80.38
385.337	72.38
385.562	88.38
385.787	78.38
386.013	82.38
386.238	87.38
386.463	85.38
386.688	84.38
386.913	82.38
387.138	93.38
387.363	83.38
387.588	84.38
387.813	96.38
388.038	80.38
388.263	78.38
388.488	82.38
388.713	86.38
388.938	84.38
389.163	92.38
389.387	91.38
389.612	64.38
389.837	74.38
390.062	84.38
390.287	99.38
390.512	88.38
390.736	86.38
390.961	85.38
391.186	66.38
391.411	72.38
391.636	76.38
391.86	89.38
392.085	79.38
392.31	81.38
392.534	88.38
392.759	73.38
392.984	83.38
393.208	82.38
393.433	85.38
393.658	76.38
393.882	74.38
394.107	88.38
394.331	79.38
394.556	88.38
394.78	82.38
395.005	82.38
395.229	85.38
395.454	82.38
395.678	86.38
395.903	81.38
396.127	66.38
396.352	77.38
396.576	100.38
396.801	83.38
397.025	64.38
397.249	78.38
397.474	71.38
397.698	85.38
397.922	86.38
398.147	80.38
398.371	85.38
398.595	78.38
398.82	74.38
399.044	68.38
399.268	95.38
399.492	80.38
399.717	78.38
399.941	89.38
400.165	81.38
400.389	76.38
400.613	78.38
400.837	88.38
401.062	83.38
401.286	76.38
401.51	86.38
401.734	77.38
401.958	88.38
402.182	76.38
402.406	89.38
402.63	78.38
402.854	78.38
403.078	77.38
403.302	73.38
403.526	89.38
403.75	85.38
403.974	82.38
404.198	87.38
404.422	92.38
404.645	89.38
404.869	71.38
405.093	73.38
405.317	81.38
405.541	90.38
405.765	86.38
405.988	87.38
406.212	89.38
406.436	83.38
406.66	92.38
406.883	98.38
407.107	68.38
407.331	82.38
407.555	80.38
407.778	98.38
408.002	78.38
408.226	88.38
408.449	74.38
408.673	101.38
408.896	85.38
409.12	71.38
409.344	80.38
409.567	86.38
409.791	89.38
410.014	75.38
410.238	91.38
410.461	94.38
410.685	86.38
410.908	79.38
411.132	64.38
411.355	72.38
411.578	82.38
411.802	83.38
412.025	98.38
412.249	87.38
412.472	71.38
412.695	74.38
412.919	90.38
413.142	95.38
413.365	79.38
413.589	83.38
413.812	90.38
414.035	76.38
414.258	102.38
414.482	59.38
414.705	75.38
414.928	86.38
415.151	72.38
415.374	83.38
415.597	82.38
415.821	89.38
416.044	80.38
416.267	78.38
416.49	89.38
416.713	83.38
416.936	91.38
417.159	76.38
417.382	80.38
417.605	88.38
417.828	90.38
418.051	72.38
418.274	81.38
418.497	97.38
418.72	93.38
418.943	72.38
419.166	89.38
419.389	77.38
419.611	78.38
419.834	86.38
420.057	82.38
420.28	79.38
420.503	77.38
420.726	79.38
420.948	78.38
421.171	86.38
421.394	85.38
421.617	84.38
421.839	74.38
422.062	85.38
422.285	87.38
422.507	80.38
422.73	79.38
422.953	85.38
423.175	76.38
423.398	80.38
423.621	86.38
423.843	102.38
424.066	80.38
424.288	94.38
424.511	67.38
424.733	79.38
424.956	81.38
425.178	79.38
425.401	79.38
425.623	76.38
425.846	79.38
426.068	80.38
426.291	92.38
426.513	86.38
426.735	91.38
426.958	90.38
427.18	86.38
427.402	90.38
427.625	93.38
427.847	80.38
428.069	96.38
428.292	81.38
428.514	95.38
428.736	92.38
428.958	77.38
429.181	89.38
429.403	88.38
429.625	78.38
429.847	89.38
430.069	91.38
430.292	86.38
430.514	80.38
430.736	81.38
430.958	92.38
431.18	83.38
431.402	84.38
431.624	75.38
431.846	81.38
432.068	87.38
432.29	89.38
432.512	87.38
432.734	75.38
432.956	98.38
433.178	91.38
433.4	83.38
433.622	84.38
433.844	94.38
434.066	74.38
434.287	97.38
434.509	88.38
434.731	67.38
434.953	83.38
435.175	79.38
435.397	75.38
435.618	68.38
435.84	71.38
436.062	81.38
436.284	86.38
436.505	84.38
436.727	89.38
436.949	83.38
437.17	70.38
437.392	92.38
437.614	79.38
437.835	74.38
438.057	85.38
438.278	74.38
438.5	86.38
438.721	73.38
438.943	86.38
439.165	80.38
439.386	78.38
439.608	91.38
439.829	84.38
440.05	86.38
440.272	83.38
440.493	89.38
440.715	78.38
440.936	92.38
441.158	93.38
441.379	78.38
441.6	79.38
441.822	73.38
442.043	77.38
442.264	73.38
442.486	75.38
442.707	76.38
442.928	77.38
443.149	78.38
443.371	76.38
443.592	74.38
443.813	80.38
444.034	75.38
444.255	105.38
444.476	83.38
444.698	71.38
444.919	81.38
445.14	194.38
445.361	134.38
445.582	78.38
445.803	86.38
446.024	83.38
446.245	84.38
446.466	73.38
446.687	87.38
446.908	81.38
447.129	83.38
447.35	79.38
447.571	93.38
447.792	87.38
448.013	97.38
448.234	78.38
448.455	72.38
448.675	85.38
448.896	76.38
449.117	80.38
449.338	82.38
449.559	85.38
449.779	81.38
450	78.38
450.221	86.38
450.442	79.38
450.662	87.38
450.883	79.38
451.104	83.38
451.324	89.38
451.545	81.38
451.766	83.38
451.986	82.38
452.207	81.38
452.428	79.38
452.648	76.38
452.869	81.38
453.089	87.38
453.31	92.38
453.53	69.38
453.751	86.38
453.971	76.38
454.192	76.38
454.412	75.38
454.633	72.38
454.853	68.38
455.073	84.38
455.294	88.38
455.514	84.38
455.734	72.38
455.955	71.38
456.175	91.38
456.395	80.38
456.616	79.38
456.836	83.38
457.056	84.38
457.276	78.38
457.497	83.38
457.717	82.38
457.937	79.38
458.157	68.38
458.377	89.38
458.598	81.38
458.818	86.38
459.038	94.38
459.258	85.38
459.478	73.38
459.698	87.38
459.918	71.38
460.138	74.38
460.358	76.38
460.578	92.38
460.798	81.38
461.018	78.38
461.238	83.38
461.458	86.38
461.678	84.38
461.898	76.38
462.118	86.38
462.338	81.38
462.558	88.38
462.777	89.38
462.997	93.38
463.217	87.38
463.437	79.38
463.657	75.38
463.876	85.38
464.096	83.38
464.316	80.38
464.536	88.38
464.755	103.38
464.975	81.38
465.195	89.38
465.414	97.38
465.634	73.38
465.854	79.38
466.073	84.38
466.293	93.38
466.512	79.38
466.732	69.38
466.951	83.38
467.171	85.38
467.391	89.38
467.61	76.38
467.829	78.38
468.049	80.38
468.268	79.38
468.488	85.38
468.707	76.38
468.927	82.38
469.146	92.38
469.365	91.38
469.585	87.38
469.804	86.38
470.023	83.38
470.243	81.38
470.462	91.38
470.681	90.38
470.901	88.38
471.12	85.38
471.339	88.38
471.558	90.38
471.777	88.38
471.997	88.38
472.216	93.38
472.435	89.38
472.654	70.38
472.873	87.38
473.092	90.38
473.311	88.38
473.53	85.38
473.749	79.38
473.968	88.38
474.187	84.38
474.406	94.38
474.625	76.38
474.844	83.38
475.063	94.38
475.282	89.38
475.501	85.38
475.72	90.38
475.939	79.38
476.158	95.38
476.377	79.38
476.596	92.38
476.814	82.38
477.033	86.38
477.252	86.38
477.471	93.38
477.69	98.38
477.908	87.38
478.127	86.38
478.346	91.38
478.564	75.38
478.783	108.38
479.002	97.38
479.22	85.38
479.439	84.38
479.658	88.38
479.876	79.38
480.095	75.38
480.313	90.38
480.532	83.38
480.751	89.38
480.969	84.38
481.188	91.38
481.406	81.38
481.624	88.38
481.843	74.38
482.061	87.38
482.28	98.38
482.498	95.38
482.717	90.38
482.935	87.38
483.153	86.38
483.372	79.38
483.59	87.38
483.808	99.38
484.027	81.38
484.245	87.38
484.463	86.38
484.681	90.38
484.9	96.38
485.118	85.38
485.336	82.38
485.554	87.38
485.772	72.38
485.99	95.38
486.209	93.38
486.427	88.38
486.645	96.38
486.863	89.38
487.081	72.38
487.299	91.38
487.517	85.38
487.735	76.38
487.953	84.38
488.171	95.38
488.389	96.38
488.607	91.38
488.825	78.38
489.043	77.38
489.261	96.38
489.479	72.38
489.696	85.38
489.914	88.38
490.132	87.38
490.35	90.38
490.568	84.38
490.786	73.38
491.003	88.38
491.221	87.38
491.439	75.38
491.657	87.38
491.874	99.38
492.092	98.38
492.31	92.38
492.527	85.38
492.745	95.38
492.963	98.38
493.18	97.38
493.398	92.38
493.615	77.38
493.833	94.38
494.05	96.38
494.268	98.38
494.485	88.38
494.703	87.38
494.92	81.38
495.138	104.38
495.355	90.38
495.573	95.38
495.79	93.38
496.008	93.38
496.225	84.38
496.442	99.38
496.66	81.38
496.877	98.38
497.094	94.38
497.312	99.38
497.529	88.38
497.746	82.38
497.963	83.38
498.181	99.38
498.398	75.38
498.615	84.38
498.832	86.38
499.049	76.38
499.267	88.38
499.484	94.38
499.701	104.38
499.918	96.38
500.135	96.38
500.352	101.38
500.569	122.38
500.786	119.38
501.003	116.38
501.22	98.38
501.437	102.38
501.654	98.38
501.871	101.38
502.088	103.38
502.305	98.38
502.522	88.38
502.739	92.38
502.956	86.38
503.172	95.38
503.389	94.38
503.606	81.38
503.823	103.38
504.04	101.38
504.256	105.38
504.473	105.38
504.69	96.38
504.907	84.38
505.123	97.38
505.34	89.38
505.557	93.38
505.773	83.38
505.99	88.38
506.207	93.38
506.423	82.38
506.64	92.38
506.856	91.38
507.073	90.38
507.289	81.38
507.506	90.38
507.722	80.38
507.939	88.38
508.155	88.38
508.372	99.38
508.588	79.38
508.805	85.38
509.021	88.38
509.238	90.38
509.454	85.38
509.67	74.38
509.887	90.38
510.103	92.38
510.319	87.38
510.536	86.38
510.752	91.38
510.968	96.38
511.184	87.38
511.401	88.38
511.617	92.38
511.833	104.38
512.049	94.38
512.265	95.38
512.481	85.38
512.698	78.38
512.914	85.38
513.13	80.38
513.346	94.38
513.562	81.38
513.778	97.38
513.994	84.38
514.21	87.38
514.426	96.38
514.642	97.38
514.858	92.38
515.074	92.38
515.29	90.38
515.506	87.38
515.721	84.38
515.937	84.38
516.153	89.38
516.369	93.38
516.585	93.38
516.801	92.38
517.016	91.38
517.232	92.38
517.448	92.38
517.664	91.38
517.879	90.38
518.095	89.38
518.311	95.38
518.527	76.38
518.742	79.38
518.958	72.38
