Data from Ni(NO3)2@0.0625M.TitratingCurve.Agarose3%dH2O.NegLispCup.LampEnergy10.LIBS07252019_HRD10591_18-13-53-569.txt Node
Date: Thu Jul 25 18:13:53 EDT 2019
User: cochatt
Spectrometer: HR+D1059
Trigger mode: 1
Integration Time (sec): 1.000000E-1
Scans to average: 1
Electric dark correction enabled: true
Nonlinearity correction enabled: false
Boxcar width: 0
XAxis mode: Wavelengths
Number of Pixels in Spectrum: 2048
>>>>>Begin Spectral Data<<<<<
223.165	-15.25
223.4	-15.25
223.635	-15.25
223.869	-24.25
224.104	-13.25
224.338	-19.25
224.573	-23.25
224.808	-10.25
225.042	-1.25
225.277	6.75
225.511	-2.25
225.746	0.75
225.98	13.75
226.215	-5.25
226.449	10.75
226.683	27.75
226.918	19.75
227.152	34.75
227.387	35.75
227.621	41.75
227.856	34.75
228.09	51.75
228.324	46.75
228.559	51.75
228.793	65.75
229.027	105.75
229.262	94.75
229.496	101.75
229.73	114.75
229.964	109.75
230.199	126.75
230.433	121.75
230.667	126.75
230.901	116.75
231.136	125.75
231.37	132.75
231.604	141.75
231.838	142.75
232.072	137.75
232.306	134.75
232.541	146.75
232.775	143.75
233.009	141.75
233.243	130.75
233.477	153.75
233.711	143.75
233.945	148.75
234.179	142.75
234.413	137.75
234.647	142.75
234.881	153.75
235.115	147.75
235.349	145.75
235.583	144.75
235.817	143.75
236.051	176.75
236.285	159.75
236.519	152.75
236.753	154.75
236.987	157.75
237.221	138.75
237.455	148.75
237.689	154.75
237.922	153.75
238.156	162.75
238.39	161.75
238.624	145.75
238.858	161.75
239.091	170.75
239.325	176.75
239.559	160.75
239.793	162.75
240.027	171.75
240.26	168.75
240.494	180.75
240.728	190.75
240.961	168.75
241.195	180.75
241.429	182.75
241.662	166.75
241.896	176.75
242.13	190.75
242.363	189.75
242.597	171.75
242.83	177.75
243.064	185.75
243.298	196.75
243.531	188.75
243.765	211.75
243.998	221.75
244.232	203.75
244.465	198.75
244.699	202.75
244.932	208.75
245.166	212.75
245.399	214.75
245.633	213.75
245.866	210.75
246.099	222.75
246.333	217.75
246.566	208.75
246.8	227.75
247.033	222.75
247.266	217.75
247.5	221.75
247.733	209.75
247.966	227.75
248.2	222.75
248.433	226.75
248.666	240.75
248.899	219.75
249.133	214.75
249.366	249.75
249.599	224.75
249.832	238.75
250.066	234.75
250.299	237.75
250.532	244.75
250.765	267.75
250.998	243.75
251.231	265.75
251.465	239.75
251.698	262.75
251.931	250.75
252.164	259.75
252.397	262.75
252.63	267.75
252.863	272.75
253.096	267.75
253.329	253.75
253.562	275.75
253.795	274.75
254.028	284.75
254.261	255.75
254.494	272.75
254.727	282.75
254.96	252.75
255.193	274.75
255.426	275.75
255.659	293.75
255.892	282.75
256.124	268.75
256.357	288.75
256.59	288.75
256.823	279.75
257.056	286.75
257.289	276.75
257.521	292.75
257.754	287.75
257.987	279.75
258.22	293.75
258.452	303.75
258.685	295.75
258.918	286.75
259.151	298.75
259.383	298.75
259.616	295.75
259.849	288.75
260.081	300.75
260.314	309.75
260.547	306.75
260.779	297.75
261.012	328.75
261.244	313.75
261.477	297.75
261.71	313.75
261.942	318.75
262.175	316.75
262.407	336.75
262.64	316.75
262.872	325.75
263.105	324.75
263.337	324.75
263.57	329.75
263.802	320.75
264.035	330.75
264.267	322.75
264.499	329.75
264.732	332.75
264.964	338.75
265.197	358.75
265.429	332.75
265.661	335.75
265.894	345.75
266.126	368.75
266.358	339.75
266.591	336.75
266.823	367.75
267.055	324.75
267.287	354.75
267.52	369.75
267.752	364.75
267.984	366.75
268.216	360.75
268.448	354.75
268.681	357.75
268.913	376.75
269.145	364.75
269.377	376.75
269.609	352.75
269.841	372.75
270.073	370.75
270.306	377.75
270.538	370.75
270.77	373.75
271.002	370.75
271.234	378.75
271.466	379.75
271.698	394.75
271.93	373.75
272.162	386.75
272.394	376.75
272.626	360.75
272.858	380.75
273.09	380.75
273.322	387.75
273.553	392.75
273.785	398.75
274.017	393.75
274.249	406.75
274.481	390.75
274.713	395.75
274.945	404.75
275.176	406.75
275.408	408.75
275.64	419.75
275.872	423.75
276.104	400.75
276.335	423.75
276.567	421.75
276.799	416.75
277.031	434.75
277.262	424.75
277.494	425.75
277.726	420.75
277.957	419.75
278.189	417.75
278.421	428.75
278.652	418.75
278.884	442.75
279.115	424.75
279.347	419.75
279.579	438.75
279.81	438.75
280.042	440.75
280.273	415.75
280.505	433.75
280.736	442.75
280.968	430.75
281.199	463.75
281.431	464.75
281.662	447.75
281.894	433.75
282.125	463.75
282.356	472.75
282.588	451.75
282.819	442.75
283.051	458.75
283.282	468.75
283.513	455.75
283.745	458.75
283.976	489.75
284.207	476.75
284.439	473.75
284.67	489.75
284.901	481.75
285.132	489.75
285.364	475.75
285.595	481.75
285.826	475.75
286.057	494.75
286.288	481.75
286.52	489.75
286.751	484.75
286.982	504.75
287.213	502.75
287.444	516.75
287.675	498.75
287.906	500.75
288.138	500.75
288.369	500.75
288.6	510.75
288.831	494.75
289.062	491.75
289.293	520.75
289.524	515.75
289.755	516.75
289.986	528.75
290.217	512.75
290.448	515.75
290.679	534.75
290.91	517.75
291.141	526.75
291.371	489.75
291.602	512.75
291.833	510.75
292.064	510.75
292.295	506.75
292.526	515.75
292.757	516.75
292.987	521.75
293.218	524.75
293.449	536.75
293.68	528.75
293.91	529.75
294.141	536.75
294.372	508.75
294.603	529.75
294.833	519.75
295.064	520.75
295.295	513.75
295.525	537.75
295.756	539.75
295.987	561.75
296.217	560.75
296.448	558.75
296.679	555.75
296.909	537.75
297.14	559.75
297.37	556.75
297.601	557.75
297.831	560.75
298.062	572.75
298.292	582.75
298.523	568.75
298.753	606.75
298.984	559.75
299.214	549.75
299.445	588.75
299.675	590.75
299.905	580.75
300.136	572.75
300.366	571.75
300.597	567.75
300.827	606.75
301.057	611.75
301.288	620.75
301.518	596.75
301.748	588.75
301.979	602.75
302.209	625.75
302.439	622.75
302.669	611.75
302.9	617.75
303.13	597.75
303.36	588.75
303.59	588.75
303.82	585.75
304.051	601.75
304.281	583.75
304.511	571.75
304.741	615.75
304.971	599.75
305.201	599.75
305.431	575.75
305.661	585.75
305.891	574.75
306.121	584.75
306.352	600.75
306.582	604.75
306.812	594.75
307.042	574.75
307.272	607.75
307.502	623.75
307.731	614.75
307.961	601.75
308.191	581.75
308.421	585.75
308.651	578.75
308.881	574.75
309.111	598.75
309.341	564.75
309.571	578.75
309.8	580.75
310.03	600.75
310.26	585.75
310.49	571.75
310.72	603.75
310.949	588.75
311.179	588.75
311.409	593.75
311.639	573.75
311.868	600.75
312.098	594.75
312.328	611.75
312.557	617.75
312.787	631.75
313.017	606.75
313.246	611.75
313.476	592.75
313.706	632.75
313.935	626.75
314.165	656.75
314.394	628.75
314.624	621.75
314.853	626.75
315.083	636.75
315.312	625.75
315.542	618.75
315.771	626.75
316.001	636.75
316.23	637.75
316.46	620.75
316.689	640.75
316.919	608.75
317.148	615.75
317.377	619.75
317.607	635.75
317.836	630.75
318.065	634.75
318.295	631.75
318.524	646.75
318.753	622.75
318.983	608.75
319.212	606.75
319.441	611.75
319.67	616.75
319.9	616.75
320.129	626.75
320.358	617.75
320.587	624.75
320.816	624.75
321.046	628.75
321.275	636.75
321.504	627.75
321.733	632.75
321.962	640.75
322.191	648.75
322.42	599.75
322.649	624.75
322.878	625.75
323.108	619.75
323.337	629.75
323.566	640.75
323.795	615.75
324.024	633.75
324.253	634.75
324.482	635.75
324.71	660.75
324.939	625.75
325.168	651.75
325.397	636.75
325.626	643.75
325.855	659.75
326.084	707.75
326.313	697.75
326.542	698.75
326.77	706.75
326.999	680.75
327.228	683.75
327.457	687.75
327.686	686.75
327.914	699.75
328.143	695.75
328.372	684.75
328.6	704.75
328.829	683.75
329.058	675.75
329.287	701.75
329.515	699.75
329.744	681.75
329.972	729.75
330.201	707.75
330.43	723.75
330.658	704.75
330.887	731.75
331.115	716.75
331.344	731.75
331.572	752.75
331.801	747.75
332.03	771.75
332.258	801.75
332.486	797.75
332.715	827.75
332.943	875.75
333.172	911.75
333.4	924.75
333.629	954.75
333.857	955.75
334.085	957.75
334.314	908.75
334.542	899.75
334.771	900.75
334.999	866.75
335.227	855.75
335.455	850.75
335.684	862.75
335.912	852.75
336.14	830.75
336.369	835.75
336.597	850.75
336.825	827.75
337.053	821.75
337.281	817.75
337.51	772.75
337.738	815.75
337.966	793.75
338.194	798.75
338.422	751.75
338.65	736.75
338.878	734.75
339.106	730.75
339.334	738.75
339.562	743.75
339.79	743.75
340.018	711.75
340.246	740.75
340.474	708.75
340.702	719.75
340.93	729.75
341.158	706.75
341.386	722.75
341.614	719.75
341.842	720.75
342.07	715.75
342.298	709.75
342.526	714.75
342.754	715.75
342.981	705.75
343.209	742.75
343.437	786.75
343.665	833.75
343.893	879.75
344.12	914.75
344.348	866.75
344.576	832.75
344.804	778.75
345.031	746.75
345.259	716.75
345.487	733.75
345.714	724.75
345.942	719.75
346.17	711.75
346.397	703.75
346.625	709.75
346.853	684.75
347.08	709.75
347.308	711.75
347.535	702.75
347.763	698.75
347.99	681.75
348.218	694.75
348.445	696.75
348.673	711.75
348.9	704.75
349.128	684.75
349.355	704.75
349.583	684.75
349.81	679.75
350.037	697.75
350.265	708.75
350.492	685.75
350.72	691.75
350.947	655.75
351.174	646.75
351.402	675.75
351.629	692.75
351.856	671.75
352.083	665.75
352.311	674.75
352.538	664.75
352.765	675.75
352.992	647.75
353.22	674.75
353.447	666.75
353.674	660.75
353.901	634.75
354.128	667.75
354.355	674.75
354.583	669.75
354.81	666.75
355.037	683.75
355.264	670.75
355.491	703.75
355.718	688.75
355.945	670.75
356.172	664.75
356.399	677.75
356.626	705.75
356.853	696.75
357.08	644.75
357.307	659.75
357.534	690.75
357.761	662.75
357.988	718.75
358.215	687.75
358.441	673.75
358.668	662.75
358.895	666.75
359.122	703.75
359.349	666.75
359.576	704.75
359.802	662.75
360.029	664.75
360.256	689.75
360.483	686.75
360.709	672.75
360.936	688.75
361.163	679.75
361.39	677.75
361.616	675.75
361.843	671.75
362.07	696.75
362.296	693.75
362.523	671.75
362.749	643.75
362.976	682.75
363.203	666.75
363.429	674.75
363.656	686.75
363.882	660.75
364.109	637.75
364.335	655.75
364.562	682.75
364.788	674.75
365.015	678.75
365.241	655.75
365.468	646.75
365.694	671.75
365.92	683.75
366.147	671.75
366.373	675.75
366.599	681.75
366.826	663.75
367.052	705.75
367.278	670.75
367.505	659.75
367.731	680.75
367.957	668.75
368.184	655.75
368.41	700.75
368.636	669.75
368.862	703.75
369.089	703.75
369.315	690.75
369.541	651.75
369.767	703.75
369.993	671.75
370.219	698.75
370.445	719.75
370.672	709.75
370.898	717.75
371.124	732.75
371.35	759.75
371.576	736.75
371.802	743.75
372.028	713.75
372.254	740.75
372.48	727.75
372.706	772.75
372.932	796.75
373.158	743.75
373.384	755.75
373.61	711.75
373.835	729.75
374.061	742.75
374.287	726.75
374.513	736.75
374.739	779.75
374.965	815.75
375.191	834.75
375.416	831.75
375.642	782.75
375.868	795.75
376.094	766.75
376.319	746.75
376.545	735.75
376.771	750.75
376.997	716.75
377.222	763.75
377.448	722.75
377.674	744.75
377.899	742.75
378.125	753.75
378.35	740.75
378.576	739.75
378.802	714.75
379.027	708.75
379.253	739.75
379.478	738.75
379.704	712.75
379.929	728.75
380.155	742.75
380.38	730.75
380.606	720.75
380.831	741.75
381.057	740.75
381.282	736.75
381.507	729.75
381.733	757.75
381.958	752.75
382.184	758.75
382.409	771.75
382.634	776.75
382.86	807.75
383.085	794.75
383.31	790.75
383.535	819.75
383.761	810.75
383.986	833.75
384.211	871.75
384.436	865.75
384.662	883.75
384.887	884.75
385.112	881.75
385.337	891.75
385.562	897.75
385.787	894.75
386.013	920.75
386.238	881.75
386.463	920.75
386.688	896.75
386.913	898.75
387.138	887.75
387.363	865.75
387.588	880.75
387.813	863.75
388.038	862.75
388.263	887.75
388.488	894.75
388.713	891.75
388.938	866.75
389.163	828.75
389.387	875.75
389.612	870.75
389.837	882.75
390.062	840.75
390.287	849.75
390.512	868.75
390.736	874.75
390.961	885.75
391.186	897.75
391.411	965.75
391.636	975.75
391.86	1032.75
392.085	1012.75
392.31	991.75
392.534	971.75
392.759	951.75
392.984	951.75
393.208	950.75
393.433	944.75
393.658	946.75
393.882	965.75
394.107	961.75
394.331	974.75
394.556	930.75
394.78	977.75
395.005	971.75
395.229	978.75
395.454	987.75
395.678	1026.75
395.903	1007.75
396.127	991.75
396.352	982.75
396.576	940.75
396.801	937.75
397.025	970.75
397.249	999.75
397.474	977.75
397.698	1010.75
397.922	1017.75
398.147	996.75
398.371	986.75
398.595	1052.75
398.82	1104.75
399.044	1193.75
399.268	1360.75
399.492	1570.75
399.717	1781.75
399.941	1756.75
400.165	1500.75
400.389	1358.75
400.613	1224.75
400.837	1170.75
401.062	1160.75
401.286	1127.75
401.51	1122.75
401.734	1109.75
401.958	1130.75
402.182	1151.75
402.406	1155.75
402.63	1159.75
402.854	1170.75
403.078	1228.75
403.302	1239.75
403.526	1291.75
403.75	1303.75
403.974	1353.75
404.198	1336.75
404.422	1361.75
404.645	1339.75
404.869	1316.75
405.093	1280.75
405.317	1253.75
405.541	1242.75
405.765	1214.75
405.988	1242.75
406.212	1227.75
406.436	1222.75
406.66	1274.75
406.883	1294.75
407.107	1385.75
407.331	1420.75
407.555	1456.75
407.778	1451.75
408.002	1415.75
408.226	1382.75
408.449	1367.75
408.673	1283.75
408.896	1304.75
409.12	1283.75
409.344	1310.75
409.567	1288.75
409.791	1301.75
410.014	1323.75
410.238	1252.75
410.461	1255.75
410.685	1241.75
410.908	1174.75
411.132	1211.75
411.355	1154.75
411.578	1180.75
411.802	1167.75
412.025	1168.75
412.249	1199.75
412.472	1186.75
412.695	1142.75
412.919	1086.75
413.142	1125.75
413.365	1114.75
413.589	1111.75
413.812	1091.75
414.035	1089.75
414.258	1132.75
414.482	1135.75
414.705	1165.75
414.928	1131.75
415.151	1146.75
415.374	1091.75
415.597	1097.75
415.821	1127.75
416.044	1081.75
416.267	1070.75
416.49	1091.75
416.713	1059.75
416.936	1105.75
417.159	1085.75
417.382	1111.75
417.605	1110.75
417.828	1104.75
418.051	1120.75
418.274	1091.75
418.497	1126.75
418.72	1156.75
418.943	1162.75
419.166	1210.75
419.389	1270.75
419.611	1230.75
419.834	1201.75
420.057	1158.75
420.28	1131.75
420.503	1093.75
420.726	1095.75
420.948	1100.75
421.171	1099.75
421.394	1062.75
421.617	1076.75
421.839	1105.75
422.062	1138.75
422.285	1089.75
422.507	1115.75
422.73	1152.75
422.953	1144.75
423.175	1148.75
423.398	1189.75
423.621	1188.75
423.843	1214.75
424.066	1190.75
424.288	1191.75
424.511	1182.75
424.733	1185.75
424.956	1141.75
425.178	1142.75
425.401	1124.75
425.623	1119.75
425.846	1056.75
426.068	1062.75
426.291	1024.75
426.513	1057.75
426.735	1015.75
426.958	1036.75
427.18	1006.75
427.402	998.75
427.625	977.75
427.847	962.75
428.069	954.75
428.292	970.75
428.514	956.75
428.736	950.75
428.958	967.75
429.181	929.75
429.403	927.75
429.625	926.75
429.847	931.75
430.069	935.75
430.292	987.75
430.514	919.75
430.736	929.75
430.958	951.75
431.18	954.75
431.402	954.75
431.624	1006.75
431.846	972.75
432.068	995.75
432.29	1019.75
432.512	962.75
432.734	974.75
432.956	938.75
433.178	972.75
433.4	972.75
433.622	998.75
433.844	994.75
434.066	983.75
434.287	987.75
434.509	1043.75
434.731	1091.75
434.953	1104.75
435.175	1123.75
435.397	1120.75
435.618	1061.75
435.84	1006.75
436.062	996.75
436.284	954.75
436.505	944.75
436.727	976.75
436.949	998.75
437.17	970.75
437.392	948.75
437.614	948.75
437.835	936.75
438.057	926.75
438.278	933.75
438.5	959.75
438.721	938.75
438.943	933.75
439.165	945.75
439.386	938.75
439.608	958.75
439.829	971.75
440.05	968.75
440.272	989.75
440.493	980.75
440.715	994.75
440.936	1023.75
441.158	1052.75
441.379	1050.75
441.6	1137.75
441.822	1108.75
442.043	1113.75
442.264	1065.75
442.486	1063.75
442.707	1089.75
442.928	1114.75
443.149	1111.75
443.371	1093.75
443.592	1114.75
443.813	1111.75
444.034	1098.75
444.255	1150.75
444.476	1175.75
444.698	1294.75
444.919	1356.75
445.14	1388.75
445.361	1265.75
445.582	1136.75
445.803	1066.75
446.024	1047.75
446.245	1008.75
446.466	984.75
446.687	983.75
446.908	970.75
447.129	958.75
447.35	925.75
447.571	930.75
447.792	920.75
448.013	923.75
448.234	893.75
448.455	914.75
448.675	894.75
448.896	894.75
449.117	848.75
449.338	883.75
449.559	880.75
449.779	875.75
450	826.75
450.221	872.75
450.442	907.75
450.662	875.75
450.883	884.75
451.104	897.75
451.324	883.75
451.545	892.75
451.766	912.75
451.986	881.75
452.207	892.75
452.428	892.75
452.648	886.75
452.869	886.75
453.089	880.75
453.31	878.75
453.53	871.75
453.751	862.75
453.971	885.75
454.192	858.75
454.412	838.75
454.633	846.75
454.853	831.75
455.073	840.75
455.294	841.75
455.514	837.75
455.734	837.75
455.955	827.75
456.175	821.75
456.395	802.75
456.616	820.75
456.836	836.75
457.056	831.75
457.276	806.75
457.497	842.75
457.717	819.75
457.937	833.75
458.157	844.75
458.377	842.75
458.598	879.75
458.818	920.75
459.038	927.75
459.258	961.75
459.478	980.75
459.698	1012.75
459.918	1062.75
460.138	1111.75
460.358	1145.75
460.578	1151.75
460.798	1202.75
461.018	1186.75
461.238	1140.75
461.458	1160.75
461.678	1168.75
461.898	1197.75
462.118	1184.75
462.338	1246.75
462.558	1253.75
462.777	1336.75
462.997	1422.75
463.217	1613.75
463.437	1570.75
463.657	1419.75
463.876	1361.75
464.096	1342.75
464.316	1352.75
464.536	1373.75
464.755	1316.75
464.975	1258.75
465.195	1174.75
465.414	1099.75
465.634	1042.75
465.854	1011.75
466.073	1000.75
466.293	971.75
466.512	950.75
466.732	928.75
466.951	939.75
467.171	912.75
467.391	921.75
467.61	917.75
467.829	910.75
468.049	895.75
468.268	890.75
468.488	881.75
468.707	885.75
468.927	874.75
469.146	865.75
469.365	896.75
469.585	912.75
469.804	934.75
470.023	964.75
470.243	947.75
470.462	974.75
470.681	999.75
470.901	970.75
471.12	922.75
471.339	935.75
471.558	894.75
471.777	920.75
471.997	877.75
472.216	878.75
472.435	858.75
472.654	850.75
472.873	867.75
473.092	840.75
473.311	873.75
473.53	855.75
473.749	845.75
473.968	852.75
474.187	843.75
474.406	868.75
474.625	868.75
474.844	856.75
475.063	849.75
475.282	862.75
475.501	895.75
475.72	862.75
475.939	873.75
476.158	890.75
476.377	869.75
476.596	900.75
476.814	905.75
477.033	928.75
477.252	955.75
477.471	934.75
477.69	969.75
477.908	967.75
478.127	1021.75
478.346	1033.75
478.564	1042.75
478.783	1067.75
479.002	1131.75
479.22	1100.75
479.439	1060.75
479.658	1084.75
479.876	1085.75
480.095	1078.75
480.313	1160.75
480.532	1189.75
480.751	1171.75
480.969	1113.75
481.188	1032.75
481.406	1028.75
481.624	1023.75
481.843	967.75
482.061	970.75
482.28	970.75
482.498	961.75
482.717	969.75
482.935	951.75
483.153	978.75
483.372	974.75
483.59	977.75
483.808	979.75
484.027	981.75
484.245	988.75
484.463	1004.75
484.681	993.75
484.9	994.75
485.118	983.75
485.336	1019.75
485.554	1030.75
485.772	1037.75
485.99	1058.75
486.209	1010.75
486.427	1054.75
486.645	1035.75
486.863	1048.75
487.081	1024.75
487.299	1013.75
487.517	1028.75
487.735	1035.75
487.953	1001.75
488.171	1003.75
488.389	1014.75
488.607	1003.75
488.825	997.75
489.043	982.75
489.261	1032.75
489.479	1034.75
489.696	1016.75
489.914	1033.75
490.132	1020.75
490.35	1050.75
490.568	1022.75
490.786	992.75
491.003	1017.75
491.221	1034.75
491.439	1027.75
491.657	1008.75
491.874	1009.75
492.092	1007.75
492.31	1027.75
492.527	1034.75
492.745	1060.75
492.963	1062.75
493.18	1036.75
493.398	1044.75
493.615	1067.75
493.833	1080.75
494.05	1082.75
494.268	1083.75
494.485	1080.75
494.703	1092.75
494.92	1107.75
495.138	1099.75
495.355	1088.75
495.573	1103.75
495.79	1118.75
496.008	1093.75
496.225	1104.75
496.442	1110.75
496.66	1144.75
496.877	1138.75
497.094	1149.75
497.312	1183.75
497.529	1242.75
497.746	1235.75
