Data from Ni(NO3)2@0.5M.TitratingCurve.Agarose3%dH2O.NegLispCup.LampEnergy10.LIBS07252019_HRD10591_17-57-45-564.txt Node
Date: Thu Jul 25 17:57:45 EDT 2019
User: cochatt
Spectrometer: HR+D1059
Trigger mode: 1
Integration Time (sec): 1.000000E-1
Scans to average: 1
Electric dark correction enabled: true
Nonlinearity correction enabled: false
Boxcar width: 0
XAxis mode: Wavelengths
Number of Pixels in Spectrum: 2048
>>>>>Begin Spectral Data<<<<<
223.165	-9.88
223.4	-9.88
223.635	-9.88
223.869	-15.88
224.104	-15.88
224.338	-5.88
224.573	-24.88
224.808	-24.88
225.042	-19.88
225.277	-13.88
225.511	4.12
225.746	1.12
225.98	4.12
226.215	22.12
226.449	22.12
226.683	26.12
226.918	34.12
227.152	17.12
227.387	19.12
227.621	27.12
227.856	36.12
228.09	32.12
228.324	49.12
228.559	54.12
228.793	58.12
229.027	128.12
229.262	155.12
229.496	128.12
229.73	149.12
229.964	192.12
230.199	223.12
230.433	201.12
230.667	207.12
230.901	199.12
231.136	174.12
231.37	197.12
231.604	199.12
231.838	227.12
232.072	224.12
232.306	199.12
232.541	216.12
232.775	193.12
233.009	187.12
233.243	200.12
233.477	160.12
233.711	164.12
233.945	196.12
234.179	200.12
234.413	192.12
234.647	190.12
234.881	217.12
235.115	186.12
235.349	179.12
235.583	173.12
235.817	169.12
236.051	201.12
236.285	188.12
236.519	187.12
236.753	190.12
236.987	185.12
237.221	195.12
237.455	194.12
237.689	194.12
237.922	212.12
238.156	199.12
238.39	202.12
238.624	197.12
238.858	192.12
239.091	198.12
239.325	201.12
239.559	226.12
239.793	253.12
240.027	252.12
240.26	225.12
240.494	209.12
240.728	210.12
240.961	207.12
241.195	215.12
241.429	234.12
241.662	252.12
241.896	254.12
242.13	277.12
242.363	235.12
242.597	220.12
242.83	220.12
243.064	232.12
243.298	249.12
243.531	243.12
243.765	248.12
243.998	247.12
244.232	263.12
244.465	275.12
244.699	248.12
244.932	236.12
245.166	257.12
245.399	244.12
245.633	248.12
245.866	270.12
246.099	273.12
246.333	267.12
246.566	281.12
246.8	268.12
247.033	267.12
247.266	271.12
247.5	290.12
247.733	299.12
247.966	265.12
248.2	280.12
248.433	283.12
248.666	281.12
248.899	315.12
249.133	316.12
249.366	294.12
249.599	316.12
249.832	322.12
250.066	294.12
250.299	299.12
250.532	321.12
250.765	333.12
250.998	321.12
251.231	361.12
251.465	395.12
251.698	381.12
251.931	368.12
252.164	357.12
252.397	349.12
252.63	365.12
252.863	354.12
253.096	355.12
253.329	364.12
253.562	358.12
253.795	386.12
254.028	380.12
254.261	371.12
254.494	377.12
254.727	399.12
254.96	410.12
255.193	379.12
255.426	402.12
255.659	399.12
255.892	401.12
256.124	398.12
256.357	410.12
256.59	394.12
256.823	405.12
257.056	405.12
257.289	413.12
257.521	410.12
257.754	416.12
257.987	415.12
258.22	436.12
258.452	441.12
258.685	437.12
258.918	448.12
259.151	464.12
259.383	451.12
259.616	433.12
259.849	452.12
260.081	451.12
260.314	456.12
260.547	455.12
260.779	441.12
261.012	434.12
261.244	460.12
261.477	487.12
261.71	480.12
261.942	498.12
262.175	478.12
262.407	486.12
262.64	470.12
262.872	500.12
263.105	511.12
263.337	496.12
263.57	501.12
263.802	504.12
264.035	503.12
264.267	504.12
264.499	495.12
264.732	513.12
264.964	515.12
265.197	497.12
265.429	499.12
265.661	504.12
265.894	518.12
266.126	520.12
266.358	528.12
266.591	539.12
266.823	538.12
267.055	528.12
267.287	538.12
267.52	535.12
267.752	535.12
267.984	532.12
268.216	524.12
268.448	505.12
268.681	552.12
268.913	542.12
269.145	553.12
269.377	534.12
269.609	552.12
269.841	539.12
270.073	524.12
270.306	546.12
270.538	575.12
270.77	554.12
271.002	563.12
271.234	556.12
271.466	570.12
271.698	565.12
271.93	535.12
272.162	585.12
272.394	597.12
272.626	543.12
272.858	581.12
273.09	570.12
273.322	609.12
273.553	599.12
273.785	603.12
274.017	557.12
274.249	569.12
274.481	568.12
274.713	592.12
274.945	580.12
275.176	609.12
275.408	586.12
275.64	625.12
275.872	598.12
276.104	633.12
276.335	609.12
276.567	608.12
276.799	622.12
277.031	641.12
277.262	611.12
277.494	632.12
277.726	626.12
277.957	621.12
278.189	625.12
278.421	629.12
278.652	631.12
278.884	653.12
279.115	627.12
279.347	667.12
279.579	629.12
279.81	639.12
280.042	645.12
280.273	636.12
280.505	629.12
280.736	651.12
280.968	657.12
281.199	663.12
281.431	647.12
281.662	646.12
281.894	667.12
282.125	649.12
282.356	663.12
282.588	675.12
282.819	663.12
283.051	652.12
283.282	647.12
283.513	660.12
283.745	713.12
283.976	693.12
284.207	684.12
284.439	661.12
284.67	687.12
284.901	699.12
285.132	680.12
285.364	673.12
285.595	672.12
285.826	673.12
286.057	688.12
286.288	695.12
286.52	665.12
286.751	689.12
286.982	698.12
287.213	684.12
287.444	677.12
287.675	703.12
287.906	699.12
288.138	673.12
288.369	671.12
288.6	694.12
288.831	705.12
289.062	671.12
289.293	668.12
289.524	703.12
289.755	705.12
289.986	707.12
290.217	731.12
290.448	726.12
290.679	710.12
290.91	731.12
291.141	721.12
291.371	690.12
291.602	690.12
291.833	712.12
292.064	730.12
292.295	738.12
292.526	715.12
292.757	720.12
292.987	694.12
293.218	706.12
293.449	703.12
293.68	684.12
293.91	710.12
294.141	721.12
294.372	684.12
294.603	729.12
294.833	721.12
295.064	732.12
295.295	726.12
295.525	716.12
295.756	726.12
295.987	710.12
296.217	758.12
296.448	714.12
296.679	742.12
296.909	724.12
297.14	711.12
297.37	754.12
297.601	717.12
297.831	723.12
298.062	743.12
298.292	757.12
298.523	775.12
298.753	780.12
298.984	731.12
299.214	739.12
299.445	768.12
299.675	769.12
299.905	780.12
300.136	769.12
300.366	797.12
300.597	789.12
300.827	794.12
301.057	794.12
301.288	773.12
301.518	803.12
301.748	799.12
301.979	774.12
302.209	797.12
302.439	800.12
302.669	774.12
302.9	794.12
303.13	783.12
303.36	818.12
303.59	803.12
303.82	810.12
304.051	796.12
304.281	832.12
304.511	793.12
304.741	818.12
304.971	820.12
305.201	851.12
305.431	837.12
305.661	832.12
305.891	848.12
306.121	837.12
306.352	823.12
306.582	831.12
306.812	793.12
307.042	839.12
307.272	789.12
307.502	804.12
307.731	821.12
307.961	838.12
308.191	839.12
308.421	851.12
308.651	839.12
308.881	835.12
309.111	849.12
309.341	826.12
309.571	839.12
309.8	859.12
310.03	900.12
310.26	915.12
310.49	895.12
310.72	872.12
310.949	846.12
311.179	877.12
311.409	866.12
311.639	863.12
311.868	911.12
312.098	873.12
312.328	888.12
312.557	918.12
312.787	911.12
313.017	918.12
313.246	921.12
313.476	923.12
313.706	939.12
313.935	929.12
314.165	916.12
314.394	899.12
314.624	917.12
314.853	935.12
315.083	928.12
315.312	930.12
315.542	923.12
315.771	940.12
316.001	950.12
316.23	959.12
316.46	955.12
316.689	959.12
316.919	936.12
317.148	941.12
317.377	960.12
317.607	966.12
317.836	965.12
318.065	972.12
318.295	978.12
318.524	991.12
318.753	982.12
318.983	996.12
319.212	990.12
319.441	995.12
319.67	1004.12
319.9	1030.12
320.129	977.12
320.358	1017.12
320.587	986.12
320.816	1029.12
321.046	998.12
321.275	1027.12
321.504	1025.12
321.733	1031.12
321.962	1024.12
322.191	1047.12
322.42	1047.12
322.649	1063.12
322.878	1040.12
323.108	1043.12
323.337	1084.12
323.566	1053.12
323.795	1055.12
324.024	1072.12
324.253	1071.12
324.482	1081.12
324.71	1096.12
324.939	1113.12
325.168	1101.12
325.397	1089.12
325.626	1100.12
325.855	1068.12
326.084	1120.12
326.313	1144.12
326.542	1121.12
326.77	1118.12
326.999	1106.12
327.228	1111.12
327.457	1130.12
327.686	1128.12
327.914	1129.12
328.143	1127.12
328.372	1148.12
328.6	1135.12
328.829	1132.12
329.058	1155.12
329.287	1151.12
329.515	1131.12
329.744	1135.12
329.972	1137.12
330.201	1133.12
330.43	1158.12
330.658	1161.12
330.887	1152.12
331.115	1163.12
331.344	1206.12
331.572	1169.12
331.801	1193.12
332.03	1188.12
332.258	1192.12
332.486	1183.12
332.715	1188.12
332.943	1203.12
333.172	1184.12
333.4	1227.12
333.629	1223.12
333.857	1238.12
334.085	1202.12
334.314	1217.12
334.542	1221.12
334.771	1233.12
334.999	1235.12
335.227	1219.12
335.455	1241.12
335.684	1217.12
335.912	1204.12
336.14	1234.12
336.369	1241.12
336.597	1275.12
336.825	1263.12
337.053	1298.12
337.281	1285.12
337.51	1253.12
337.738	1289.12
337.966	1232.12
338.194	1272.12
338.422	1265.12
338.65	1227.12
338.878	1236.12
339.106	1232.12
339.334	1249.12
339.562	1245.12
339.79	1235.12
340.018	1243.12
340.246	1226.12
340.474	1233.12
340.702	1251.12
340.93	1241.12
341.158	1254.12
341.386	1258.12
341.614	1312.12
341.842	1269.12
342.07	1225.12
342.298	1231.12
342.526	1264.12
342.754	1245.12
342.981	1223.12
343.209	1221.12
343.437	1259.12
343.665	1270.12
343.893	1287.12
344.12	1233.12
344.348	1241.12
344.576	1232.12
344.804	1301.12
345.031	1240.12
345.259	1250.12
345.487	1224.12
345.714	1245.12
345.942	1244.12
346.17	1306.12
346.397	1240.12
346.625	1201.12
346.853	1187.12
347.08	1210.12
347.308	1208.12
347.535	1257.12
347.763	1233.12
347.99	1200.12
348.218	1183.12
348.445	1231.12
348.673	1194.12
348.9	1207.12
349.128	1214.12
349.355	1253.12
349.583	1250.12
349.81	1193.12
350.037	1215.12
350.265	1171.12
350.492	1188.12
350.72	1201.12
350.947	1197.12
351.174	1217.12
351.402	1226.12
351.629	1268.12
351.856	1250.12
352.083	1250.12
352.311	1216.12
352.538	1256.12
352.765	1268.12
352.992	1151.12
353.22	1185.12
353.447	1168.12
353.674	1198.12
353.901	1154.12
354.128	1207.12
354.355	1157.12
354.583	1165.12
354.81	1170.12
355.037	1201.12
355.264	1207.12
355.491	1133.12
355.718	1169.12
355.945	1175.12
356.172	1188.12
356.399	1199.12
356.626	1234.12
356.853	1213.12
357.08	1189.12
357.307	1204.12
357.534	1223.12
357.761	1171.12
357.988	1187.12
358.215	1183.12
358.441	1178.12
358.668	1183.12
358.895	1170.12
359.122	1215.12
359.349	1144.12
359.576	1175.12
359.802	1158.12
360.029	1211.12
360.256	1204.12
360.483	1190.12
360.709	1166.12
360.936	1191.12
361.163	1184.12
361.39	1217.12
361.616	1208.12
361.843	1219.12
362.07	1276.12
362.296	1237.12
362.523	1165.12
362.749	1201.12
362.976	1189.12
363.203	1171.12
363.429	1168.12
363.656	1166.12
363.882	1190.12
364.109	1161.12
364.335	1177.12
364.562	1191.12
364.788	1181.12
365.015	1203.12
365.241	1183.12
365.468	1190.12
365.694	1195.12
365.92	1184.12
366.147	1187.12
366.373	1191.12
366.599	1193.12
366.826	1185.12
367.052	1194.12
367.278	1191.12
367.505	1240.12
367.731	1176.12
367.957	1179.12
368.184	1195.12
368.41	1186.12
368.636	1195.12
368.862	1189.12
369.089	1223.12
369.315	1208.12
369.541	1188.12
369.767	1194.12
369.993	1222.12
370.219	1168.12
370.445	1207.12
370.672	1211.12
370.898	1204.12
371.124	1203.12
371.35	1227.12
371.576	1203.12
371.802	1213.12
372.028	1227.12
372.254	1203.12
372.48	1224.12
372.706	1199.12
372.932	1215.12
373.158	1212.12
373.384	1237.12
373.61	1219.12
373.835	1244.12
374.061	1232.12
374.287	1194.12
374.513	1233.12
374.739	1223.12
374.965	1255.12
375.191	1228.12
375.416	1215.12
375.642	1203.12
375.868	1241.12
376.094	1188.12
376.319	1188.12
376.545	1212.12
376.771	1189.12
376.997	1184.12
377.222	1181.12
377.448	1180.12
377.674	1194.12
377.899	1168.12
378.125	1191.12
378.35	1185.12
378.576	1222.12
378.802	1191.12
379.027	1185.12
379.253	1201.12
379.478	1195.12
379.704	1181.12
379.929	1190.12
380.155	1155.12
380.38	1173.12
380.606	1164.12
380.831	1167.12
381.057	1192.12
381.282	1165.12
381.507	1167.12
381.733	1172.12
381.958	1175.12
382.184	1155.12
382.409	1196.12
382.634	1213.12
382.86	1197.12
383.085	1202.12
383.31	1188.12
383.535	1207.12
383.761	1188.12
383.986	1194.12
384.211	1233.12
384.436	1196.12
384.662	1212.12
384.887	1224.12
385.112	1224.12
385.337	1228.12
385.562	1247.12
385.787	1214.12
386.013	1254.12
386.238	1251.12
386.463	1222.12
386.688	1243.12
386.913	1240.12
387.138	1235.12
387.363	1247.12
387.588	1243.12
387.813	1257.12
388.038	1230.12
388.263	1220.12
388.488	1228.12
388.713	1219.12
388.938	1237.12
389.163	1250.12
389.387	1240.12
389.612	1215.12
389.837	1265.12
390.062	1219.12
390.287	1244.12
390.512	1239.12
390.736	1235.12
390.961	1231.12
391.186	1224.12
391.411	1215.12
391.636	1250.12
391.86	1259.12
392.085	1247.12
392.31	1248.12
392.534	1236.12
392.759	1289.12
392.984	1192.12
393.208	1256.12
393.433	1248.12
393.658	1251.12
393.882	1206.12
394.107	1275.12
394.331	1241.12
394.556	1213.12
394.78	1276.12
395.005	1252.12
395.229	1303.12
395.454	1267.12
395.678	1280.12
395.903	1281.12
396.127	1288.12
396.352	1268.12
396.576	1265.12
396.801	1293.12
397.025	1285.12
397.249	1313.12
397.474	1267.12
397.698	1292.12
397.922	1293.12
398.147	1283.12
398.371	1319.12
398.595	1297.12
398.82	1348.12
399.044	1322.12
399.268	1331.12
399.492	1333.12
399.717	1337.12
399.941	1367.12
400.165	1367.12
400.389	1397.12
400.613	1383.12
400.837	1355.12
401.062	1338.12
401.286	1316.12
401.51	1325.12
401.734	1301.12
401.958	1315.12
402.182	1316.12
402.406	1335.12
402.63	1369.12
402.854	1331.12
403.078	1330.12
403.302	1350.12
403.526	1381.12
403.75	1321.12
403.974	1340.12
404.198	1365.12
404.422	1329.12
404.645	1329.12
404.869	1351.12
405.093	1371.12
405.317	1335.12
405.541	1339.12
405.765	1335.12
405.988	1356.12
406.212	1379.12
406.436	1361.12
406.66	1388.12
406.883	1371.12
407.107	1376.12
407.331	1420.12
407.555	1441.12
407.778	1437.12
408.002	1395.12
408.226	1388.12
408.449	1422.12
408.673	1394.12
408.896	1388.12
409.12	1424.12
409.344	1452.12
409.567	1391.12
409.791	1410.12
410.014	1371.12
410.238	1391.12
410.461	1395.12
410.685	1378.12
410.908	1356.12
411.132	1383.12
411.355	1347.12
411.578	1395.12
411.802	1338.12
412.025	1370.12
412.249	1364.12
412.472	1377.12
412.695	1335.12
412.919	1338.12
413.142	1343.12
413.365	1372.12
413.589	1343.12
413.812	1345.12
414.035	1347.12
414.258	1319.12
414.482	1316.12
414.705	1338.12
414.928	1347.12
415.151	1332.12
415.374	1315.12
415.597	1321.12
415.821	1314.12
416.044	1296.12
416.267	1296.12
416.49	1334.12
416.713	1276.12
416.936	1286.12
417.159	1293.12
417.382	1265.12
417.605	1251.12
417.828	1285.12
418.051	1296.12
418.274	1291.12
418.497	1290.12
418.72	1311.12
418.943	1270.12
419.166	1324.12
419.389	1416.12
419.611	1381.12
419.834	1325.12
420.057	1327.12
420.28	1325.12
420.503	1258.12
420.726	1239.12
420.948	1263.12
421.171	1279.12
421.394	1293.12
421.617	1267.12
421.839	1315.12
422.062	1307.12
422.285	1258.12
422.507	1299.12
422.73	1307.12
422.953	1291.12
423.175	1277.12
423.398	1288.12
423.621	1288.12
423.843	1294.12
424.066	1306.12
424.288	1265.12
424.511	1291.12
424.733	1302.12
424.956	1279.12
425.178	1291.12
425.401	1297.12
425.623	1331.12
425.846	1256.12
426.068	1277.12
426.291	1285.12
426.513	1299.12
426.735	1266.12
426.958	1312.12
427.18	1233.12
427.402	1299.12
427.625	1287.12
427.847	1273.12
428.069	1292.12
428.292	1289.12
428.514	1295.12
428.736	1293.12
428.958	1303.12
429.181	1287.12
429.403	1315.12
429.625	1309.12
429.847	1293.12
430.069	1291.12
430.292	1300.12
430.514	1260.12
430.736	1276.12
430.958	1306.12
431.18	1293.12
431.402	1290.12
431.624	1264.12
431.846	1274.12
432.068	1231.12
432.29	1308.12
432.512	1279.12
432.734	1327.12
432.956	1278.12
433.178	1322.12
433.4	1350.12
433.622	1370.12
433.844	1347.12
434.066	1355.12
434.287	1303.12
434.509	1328.12
434.731	1311.12
434.953	1305.12
435.175	1311.12
435.397	1352.12
435.618	1331.12
435.84	1313.12
436.062	1300.12
436.284	1299.12
436.505	1272.12
436.727	1280.12
436.949	1304.12
437.17	1298.12
437.392	1278.12
437.614	1291.12
437.835	1257.12
438.057	1277.12
438.278	1272.12
438.5	1285.12
438.721	1299.12
438.943	1293.12
439.165	1280.12
439.386	1269.12
439.608	1308.12
439.829	1307.12
440.05	1277.12
440.272	1302.12
440.493	1318.12
440.715	1337.12
440.936	1292.12
441.158	1299.12
441.379	1303.12
441.6	1341.12
441.822	1329.12
442.043	1322.12
442.264	1340.12
442.486	1290.12
442.707	1303.12
442.928	1306.12
443.149	1322.12
443.371	1357.12
443.592	1405.12
443.813	1383.12
444.034	1335.12
444.255	1342.12
444.476	1313.12
444.698	1327.12
444.919	1345.12
445.14	1474.12
445.361	1421.12
445.582	1341.12
445.803	1283.12
446.024	1293.12
446.245	1283.12
446.466	1282.12
446.687	1241.12
446.908	1315.12
447.129	1246.12
447.35	1254.12
447.571	1244.12
447.792	1228.12
448.013	1249.12
448.234	1203.12
448.455	1239.12
448.675	1184.12
448.896	1194.12
449.117	1205.12
449.338	1211.12
449.559	1203.12
449.779	1169.12
450	1201.12
450.221	1211.12
450.442	1233.12
450.662	1219.12
450.883	1203.12
451.104	1256.12
451.324	1234.12
451.545	1224.12
451.766	1180.12
451.986	1179.12
452.207	1204.12
452.428	1188.12
452.648	1189.12
452.869	1212.12
453.089	1218.12
453.31	1207.12
453.53	1186.12
453.751	1169.12
453.971	1161.12
454.192	1188.12
454.412	1228.12
454.633	1204.12
454.853	1179.12
455.073	1176.12
455.294	1180.12
455.514	1180.12
455.734	1181.12
455.955	1211.12
456.175	1191.12
456.395	1164.12
456.616	1164.12
456.836	1143.12
457.056	1155.12
457.276	1179.12
457.497	1206.12
457.717	1213.12
457.937	1232.12
458.157	1209.12
458.377	1172.12
458.598	1172.12
458.818	1173.12
459.038	1243.12
459.258	1238.12
459.478	1294.12
459.698	1358.12
459.918	1347.12
460.138	1310.12
460.358	1279.12
460.578	1323.12
460.798	1357.12
461.018	1339.12
461.238	1315.12
461.458	1280.12
461.678	1281.12
461.898	1289.12
462.118	1283.12
462.338	1300.12
462.558	1306.12
462.777	1350.12
462.997	1402.12
463.217	1399.12
463.437	1434.12
463.657	1394.12
463.876	1365.12
464.096	1341.12
464.316	1288.12
464.536	1353.12
464.755	1295.12
464.975	1284.12
465.195	1322.12
465.414	1289.12
465.634	1237.12
465.854	1268.12
466.073	1258.12
466.293	1268.12
466.512	1243.12
466.732	1237.12
466.951	1261.12
467.171	1232.12
467.391	1247.12
467.61	1244.12
467.829	1239.12
468.049	1268.12
468.268	1246.12
468.488	1221.12
468.707	1227.12
468.927	1233.12
469.146	1259.12
469.365	1251.12
469.585	1244.12
469.804	1257.12
470.023	1273.12
470.243	1243.12
470.462	1263.12
470.681	1256.12
470.901	1267.12
471.12	1257.12
471.339	1256.12
471.558	1244.12
471.777	1245.12
471.997	1248.12
472.216	1272.12
472.435	1234.12
472.654	1267.12
472.873	1261.12
473.092	1240.12
473.311	1284.12
473.53	1279.12
473.749	1280.12
473.968	1319.12
474.187	1286.12
474.406	1256.12
474.625	1283.12
474.844	1313.12
475.063	1299.12
475.282	1329.12
475.501	1324.12
475.72	1328.12
475.939	1305.12
476.158	1319.12
476.377	1335.12
476.596	1333.12
476.814	1324.12
477.033	1333.12
477.252	1354.12
477.471	1363.12
477.69	1392.12
477.908	1378.12
478.127	1407.12
478.346	1401.12
478.564	1432.12
478.783	1454.12
479.002	1516.12
479.22	1551.12
479.439	1474.12
479.658	1475.12
479.876	1431.12
480.095	1472.12
480.313	1487.12
480.532	1449.12
480.751	1483.12
480.969	1457.12
481.188	1496.12
481.406	1449.12
481.624	1447.12
481.843	1494.12
482.061	1470.12
482.28	1469.12
482.498	1493.12
482.717	1484.12
482.935	1535.12
483.153	1550.12
483.372	1580.12
483.59	1629.12
483.808	1578.12
484.027	1525.12
484.245	1487.12
484.463	1507.12
484.681	1513.12
484.9	1550.12
485.118	1522.12
485.336	1533.12
485.554	1536.12
485.772	1548.12
485.99	1528.12
486.209	1530.12
486.427	1552.12
486.645	1523.12
486.863	1540.12
487.081	1516.12
487.299	1556.12
487.517	1579.12
487.735	1585.12
487.953	1610.12
488.171	1588.12
488.389	1623.12
488.607	1562.12
488.825	1563.12
489.043	1559.12
489.261	1541.12
489.479	1529.12
489.696	1537.12
489.914	1553.12
490.132	1524.12
490.35	1553.12
490.568	1568.12
490.786	1575.12
491.003	1610.12
491.221	1586.12
