Data from Ni(NO3)2Standard.Agarose3%.GreenCap.LampEnergy5.5.E.O_HRD10591_14-40-59-188.txt Node
Date: Mon Jul 22 14:40:59 EDT 2019
User: cochatt
Spectrometer: HR+D1059
Trigger mode: 1
Integration Time (sec): 1.000000E-1
Scans to average: 1
Electric dark correction enabled: true
Nonlinearity correction enabled: false
Boxcar width: 0
XAxis mode: Wavelengths
Number of Pixels in Spectrum: 2048
>>>>>Begin Spectral Data<<<<<
223.165	-17.25
223.4	-17.25
223.635	-17.25
223.869	-23.25
224.104	-18.25
224.338	-3.25
224.573	-14.25
224.808	-7.25
225.042	-14.25
225.277	-8.25
225.511	0.75
225.746	5.75
225.98	3.75
226.215	11.75
226.449	14.75
226.683	17.75
226.918	23.75
227.152	27.75
227.387	45.75
227.621	24.75
227.856	50.75
228.09	49.75
228.324	63.75
228.559	57.75
228.793	71.75
229.027	66.75
229.262	56.75
229.496	61.75
229.73	77.75
229.964	84.75
230.199	51.75
230.433	63.75
230.667	75.75
230.901	64.75
231.136	73.75
231.37	71.75
231.604	90.75
231.838	77.75
232.072	76.75
232.306	72.75
232.541	75.75
232.775	77.75
233.009	75.75
233.243	75.75
233.477	84.75
233.711	89.75
233.945	83.75
234.179	86.75
234.413	83.75
234.647	95.75
234.881	80.75
235.115	83.75
235.349	77.75
235.583	87.75
235.817	82.75
236.051	85.75
236.285	80.75
236.519	77.75
236.753	73.75
236.987	77.75
237.221	69.75
237.455	85.75
237.689	65.75
237.922	79.75
238.156	78.75
238.39	69.75
238.624	79.75
238.858	62.75
239.091	64.75
239.325	77.75
239.559	77.75
239.793	72.75
240.027	74.75
240.26	84.75
240.494	77.75
240.728	79.75
240.961	65.75
241.195	82.75
241.429	83.75
241.662	77.75
241.896	74.75
242.13	85.75
242.363	70.75
242.597	68.75
242.83	92.75
243.064	78.75
243.298	83.75
243.531	76.75
243.765	79.75
243.998	80.75
244.232	78.75
244.465	84.75
244.699	67.75
244.932	87.75
245.166	77.75
245.399	87.75
245.633	85.75
245.866	78.75
246.099	69.75
246.333	71.75
246.566	59.75
246.8	75.75
247.033	68.75
247.266	75.75
247.5	69.75
247.733	69.75
247.966	82.75
248.2	85.75
248.433	84.75
248.666	89.75
248.899	72.75
249.133	94.75
249.366	96.75
249.599	92.75
249.832	69.75
250.066	70.75
250.299	75.75
250.532	93.75
250.765	75.75
250.998	65.75
251.231	80.75
251.465	79.75
251.698	75.75
251.931	81.75
252.164	85.75
252.397	78.75
252.63	81.75
252.863	79.75
253.096	72.75
253.329	72.75
253.562	86.75
253.795	80.75
254.028	99.75
254.261	80.75
254.494	78.75
254.727	83.75
254.96	78.75
255.193	85.75
255.426	81.75
255.659	75.75
255.892	81.75
256.124	76.75
256.357	80.75
256.59	83.75
256.823	73.75
257.056	73.75
257.289	86.75
257.521	78.75
257.754	93.75
257.987	82.75
258.22	74.75
258.452	81.75
258.685	98.75
258.918	79.75
259.151	73.75
259.383	77.75
259.616	87.75
259.849	98.75
260.081	83.75
260.314	86.75
260.547	86.75
260.779	89.75
261.012	81.75
261.244	82.75
261.477	89.75
261.71	74.75
261.942	78.75
262.175	79.75
262.407	63.75
262.64	92.75
262.872	74.75
263.105	82.75
263.337	83.75
263.57	82.75
263.802	78.75
264.035	83.75
264.267	83.75
264.499	76.75
264.732	74.75
264.964	89.75
265.197	76.75
265.429	74.75
265.661	75.75
265.894	77.75
266.126	91.75
266.358	81.75
266.591	79.75
266.823	76.75
267.055	85.75
267.287	77.75
267.52	77.75
267.752	96.75
267.984	88.75
268.216	84.75
268.448	95.75
268.681	100.75
268.913	88.75
269.145	73.75
269.377	79.75
269.609	91.75
269.841	87.75
270.073	74.75
270.306	94.75
270.538	84.75
270.77	96.75
271.002	84.75
271.234	104.75
271.466	90.75
271.698	77.75
271.93	75.75
272.162	97.75
272.394	91.75
272.626	93.75
272.858	84.75
273.09	81.75
273.322	97.75
273.553	90.75
273.785	86.75
274.017	85.75
274.249	92.75
274.481	95.75
274.713	105.75
274.945	97.75
275.176	66.75
275.408	106.75
275.64	87.75
275.872	85.75
276.104	83.75
276.335	90.75
276.567	79.75
276.799	76.75
277.031	74.75
277.262	82.75
277.494	87.75
277.726	93.75
277.957	94.75
278.189	82.75
278.421	90.75
278.652	83.75
278.884	92.75
279.115	59.75
279.347	73.75
279.579	98.75
279.81	81.75
280.042	74.75
280.273	87.75
280.505	85.75
280.736	78.75
280.968	80.75
281.199	91.75
281.431	60.75
281.662	78.75
281.894	89.75
282.125	86.75
282.356	94.75
282.588	83.75
282.819	85.75
283.051	86.75
283.282	86.75
283.513	79.75
283.745	87.75
283.976	85.75
284.207	84.75
284.439	86.75
284.67	97.75
284.901	93.75
285.132	85.75
285.364	86.75
285.595	85.75
285.826	86.75
286.057	81.75
286.288	86.75
286.52	88.75
286.751	68.75
286.982	86.75
287.213	71.75
287.444	83.75
287.675	79.75
287.906	79.75
288.138	93.75
288.369	86.75
288.6	91.75
288.831	89.75
289.062	89.75
289.293	79.75
289.524	90.75
289.755	90.75
289.986	78.75
290.217	97.75
290.448	82.75
290.679	87.75
290.91	89.75
291.141	82.75
291.371	91.75
291.602	83.75
291.833	92.75
292.064	87.75
292.295	90.75
292.526	85.75
292.757	87.75
292.987	79.75
293.218	88.75
293.449	81.75
293.68	84.75
293.91	94.75
294.141	82.75
294.372	95.75
294.603	67.75
294.833	87.75
295.064	86.75
295.295	77.75
295.525	88.75
295.756	95.75
295.987	83.75
296.217	73.75
296.448	71.75
296.679	99.75
296.909	84.75
297.14	77.75
297.37	102.75
297.601	80.75
297.831	80.75
298.062	83.75
298.292	91.75
298.523	84.75
298.753	89.75
298.984	78.75
299.214	89.75
299.445	97.75
299.675	83.75
299.905	94.75
300.136	99.75
300.366	87.75
300.597	92.75
300.827	86.75
301.057	88.75
301.288	77.75
301.518	98.75
301.748	80.75
301.979	92.75
302.209	85.75
302.439	78.75
302.669	91.75
302.9	90.75
303.13	87.75
303.36	84.75
303.59	73.75
303.82	93.75
304.051	87.75
304.281	84.75
304.511	89.75
304.741	91.75
304.971	98.75
305.201	82.75
305.431	90.75
305.661	81.75
305.891	95.75
306.121	91.75
306.352	97.75
306.582	92.75
306.812	76.75
307.042	85.75
307.272	78.75
307.502	86.75
307.731	72.75
307.961	95.75
308.191	91.75
308.421	102.75
308.651	79.75
308.881	85.75
309.111	101.75
309.341	86.75
309.571	83.75
309.8	88.75
310.03	88.75
310.26	90.75
310.49	96.75
310.72	96.75
310.949	93.75
311.179	88.75
311.409	82.75
311.639	81.75
311.868	83.75
312.098	83.75
312.328	74.75
312.557	96.75
312.787	78.75
313.017	91.75
313.246	87.75
313.476	92.75
313.706	106.75
313.935	79.75
314.165	95.75
314.394	85.75
314.624	83.75
314.853	80.75
315.083	82.75
315.312	89.75
315.542	79.75
315.771	109.75
316.001	89.75
316.23	94.75
316.46	81.75
316.689	79.75
316.919	91.75
317.148	103.75
317.377	94.75
317.607	80.75
317.836	90.75
318.065	73.75
318.295	77.75
318.524	78.75
318.753	83.75
318.983	94.75
319.212	99.75
319.441	79.75
319.67	90.75
319.9	105.75
320.129	93.75
320.358	79.75
320.587	80.75
320.816	78.75
321.046	80.75
321.275	102.75
321.504	69.75
321.733	85.75
321.962	98.75
322.191	74.75
322.42	69.75
322.649	78.75
322.878	86.75
323.108	98.75
323.337	90.75
323.566	83.75
323.795	94.75
324.024	77.75
324.253	78.75
324.482	86.75
324.71	77.75
324.939	102.75
325.168	93.75
325.397	89.75
325.626	90.75
325.855	83.75
326.084	89.75
326.313	76.75
326.542	98.75
326.77	97.75
326.999	74.75
327.228	79.75
327.457	79.75
327.686	77.75
327.914	105.75
328.143	97.75
328.372	92.75
328.6	77.75
328.829	90.75
329.058	86.75
329.287	80.75
329.515	79.75
329.744	91.75
329.972	82.75
330.201	98.75
330.43	102.75
330.658	93.75
330.887	98.75
331.115	95.75
331.344	98.75
331.572	93.75
331.801	85.75
332.03	78.75
332.258	84.75
332.486	80.75
332.715	98.75
332.943	99.75
333.172	85.75
333.4	87.75
333.629	90.75
333.857	92.75
334.085	81.75
334.314	96.75
334.542	85.75
334.771	88.75
334.999	87.75
335.227	84.75
335.455	88.75
335.684	92.75
335.912	89.75
336.14	76.75
336.369	88.75
336.597	98.75
336.825	82.75
337.053	102.75
337.281	103.75
337.51	91.75
337.738	91.75
337.966	87.75
338.194	84.75
338.422	89.75
338.65	84.75
338.878	89.75
339.106	81.75
339.334	87.75
339.562	95.75
339.79	78.75
340.018	82.75
340.246	74.75
340.474	81.75
340.702	86.75
340.93	81.75
341.158	78.75
341.386	78.75
341.614	83.75
341.842	83.75
342.07	75.75
342.298	70.75
342.526	85.75
342.754	72.75
342.981	85.75
343.209	97.75
343.437	90.75
343.665	83.75
343.893	84.75
344.12	82.75
344.348	78.75
344.576	85.75
344.804	86.75
345.031	78.75
345.259	85.75
345.487	79.75
345.714	81.75
345.942	77.75
346.17	90.75
346.397	78.75
346.625	98.75
346.853	86.75
347.08	90.75
347.308	83.75
347.535	95.75
347.763	97.75
347.99	99.75
348.218	88.75
348.445	80.75
348.673	82.75
348.9	95.75
349.128	96.75
349.355	83.75
349.583	84.75
349.81	100.75
350.037	82.75
350.265	94.75
350.492	89.75
350.72	86.75
350.947	79.75
351.174	77.75
351.402	87.75
351.629	95.75
351.856	84.75
352.083	72.75
352.311	82.75
352.538	78.75
352.765	85.75
352.992	104.75
353.22	87.75
353.447	87.75
353.674	99.75
353.901	75.75
354.128	90.75
354.355	88.75
354.583	82.75
354.81	86.75
355.037	76.75
355.264	95.75
355.491	88.75
355.718	74.75
355.945	87.75
356.172	103.75
356.399	95.75
356.626	82.75
356.853	99.75
357.08	84.75
357.307	70.75
357.534	87.75
357.761	83.75
357.988	86.75
358.215	82.75
358.441	80.75
358.668	92.75
358.895	78.75
359.122	85.75
359.349	100.75
359.576	84.75
359.802	91.75
360.029	86.75
360.256	92.75
360.483	82.75
360.709	89.75
360.936	87.75
361.163	91.75
361.39	90.75
361.616	95.75
361.843	83.75
362.07	95.75
362.296	89.75
362.523	99.75
362.749	83.75
362.976	83.75
363.203	74.75
363.429	99.75
363.656	87.75
363.882	83.75
364.109	90.75
364.335	80.75
364.562	92.75
364.788	92.75
365.015	100.75
365.241	99.75
365.468	85.75
365.694	87.75
365.92	94.75
366.147	95.75
366.373	97.75
366.599	89.75
366.826	86.75
367.052	75.75
367.278	78.75
367.505	78.75
367.731	88.75
367.957	77.75
368.184	93.75
368.41	82.75
368.636	95.75
368.862	90.75
369.089	84.75
369.315	77.75
369.541	104.75
369.767	85.75
369.993	79.75
370.219	85.75
370.445	94.75
370.672	79.75
370.898	82.75
371.124	68.75
371.35	98.75
371.576	88.75
371.802	87.75
372.028	97.75
372.254	95.75
372.48	79.75
372.706	86.75
372.932	93.75
373.158	83.75
373.384	89.75
373.61	93.75
373.835	98.75
374.061	94.75
374.287	86.75
374.513	85.75
374.739	96.75
374.965	102.75
375.191	90.75
375.416	88.75
375.642	101.75
375.868	97.75
376.094	81.75
376.319	93.75
376.545	56.75
376.771	86.75
376.997	69.75
377.222	85.75
377.448	97.75
377.674	77.75
377.899	89.75
378.125	92.75
378.35	89.75
378.576	84.75
378.802	79.75
379.027	85.75
379.253	86.75
379.478	93.75
379.704	85.75
379.929	92.75
380.155	85.75
380.38	102.75
380.606	77.75
380.831	76.75
381.057	97.75
381.282	79.75
381.507	95.75
381.733	100.75
381.958	90.75
382.184	87.75
382.409	92.75
382.634	85.75
382.86	87.75
383.085	92.75
383.31	74.75
383.535	62.75
383.761	85.75
383.986	76.75
384.211	82.75
384.436	79.75
384.662	81.75
384.887	91.75
385.112	82.75
385.337	78.75
385.562	79.75
385.787	87.75
386.013	92.75
386.238	87.75
386.463	73.75
386.688	74.75
386.913	74.75
387.138	90.75
387.363	91.75
387.588	83.75
387.813	84.75
388.038	83.75
388.263	82.75
388.488	84.75
388.713	82.75
388.938	78.75
389.163	85.75
389.387	94.75
389.612	98.75
389.837	80.75
390.062	84.75
390.287	74.75
390.512	105.75
390.736	85.75
390.961	84.75
391.186	91.75
391.411	89.75
391.636	90.75
391.86	94.75
392.085	99.75
392.31	93.75
392.534	83.75
392.759	85.75
392.984	81.75
393.208	82.75
393.433	77.75
393.658	101.75
393.882	91.75
394.107	90.75
394.331	81.75
394.556	88.75
394.78	92.75
395.005	98.75
395.229	95.75
395.454	76.75
395.678	82.75
395.903	89.75
396.127	109.75
396.352	94.75
396.576	81.75
396.801	84.75
397.025	87.75
397.249	79.75
397.474	96.75
397.698	86.75
397.922	86.75
398.147	88.75
398.371	86.75
398.595	90.75
398.82	90.75
399.044	85.75
399.268	92.75
399.492	92.75
399.717	85.75
399.941	84.75
400.165	87.75
400.389	90.75
400.613	77.75
400.837	88.75
401.062	76.75
401.286	105.75
401.51	97.75
401.734	87.75
401.958	94.75
402.182	77.75
402.406	84.75
402.63	94.75
402.854	86.75
403.078	83.75
403.302	85.75
403.526	98.75
403.75	98.75
403.974	76.75
404.198	95.75
404.422	84.75
404.645	87.75
404.869	85.75
405.093	90.75
405.317	85.75
405.541	87.75
405.765	99.75
405.988	99.75
406.212	88.75
406.436	83.75
406.66	84.75
406.883	95.75
407.107	86.75
407.331	94.75
407.555	90.75
407.778	85.75
408.002	93.75
408.226	79.75
408.449	90.75
408.673	92.75
408.896	89.75
409.12	79.75
409.344	103.75
409.567	87.75
409.791	86.75
410.014	83.75
410.238	96.75
410.461	100.75
410.685	85.75
410.908	91.75
411.132	93.75
411.355	78.75
411.578	90.75
411.802	78.75
412.025	90.75
412.249	90.75
412.472	85.75
412.695	84.75
412.919	96.75
413.142	79.75
413.365	103.75
413.589	105.75
413.812	87.75
414.035	81.75
414.258	90.75
414.482	81.75
414.705	77.75
414.928	76.75
415.151	94.75
415.374	90.75
415.597	92.75
415.821	93.75
416.044	79.75
416.267	95.75
416.49	86.75
416.713	82.75
416.936	79.75
417.159	93.75
417.382	92.75
417.605	90.75
417.828	99.75
418.051	86.75
418.274	87.75
418.497	82.75
418.72	89.75
418.943	92.75
419.166	82.75
419.389	94.75
419.611	84.75
419.834	76.75
420.057	78.75
420.28	93.75
420.503	79.75
420.726	91.75
420.948	71.75
421.171	90.75
421.394	81.75
421.617	104.75
421.839	91.75
422.062	89.75
422.285	78.75
422.507	82.75
422.73	93.75
422.953	83.75
423.175	92.75
423.398	80.75
423.621	86.75
423.843	82.75
424.066	89.75
424.288	93.75
424.511	99.75
424.733	97.75
424.956	93.75
425.178	83.75
425.401	94.75
425.623	93.75
425.846	89.75
426.068	79.75
426.291	83.75
426.513	81.75
426.735	93.75
426.958	88.75
427.18	87.75
427.402	98.75
427.625	73.75
427.847	84.75
428.069	91.75
428.292	93.75
428.514	88.75
428.736	87.75
428.958	96.75
429.181	91.75
429.403	84.75
429.625	95.75
429.847	109.75
430.069	73.75
430.292	82.75
430.514	78.75
430.736	89.75
430.958	96.75
431.18	81.75
431.402	93.75
431.624	86.75
431.846	71.75
432.068	94.75
432.29	79.75
432.512	84.75
432.734	78.75
432.956	78.75
433.178	79.75
433.4	76.75
433.622	93.75
433.844	87.75
434.066	87.75
434.287	90.75
434.509	86.75
434.731	73.75
434.953	81.75
435.175	86.75
435.397	89.75
435.618	86.75
435.84	75.75
436.062	79.75
436.284	93.75
436.505	101.75
436.727	99.75
436.949	91.75
437.17	82.75
437.392	90.75
437.614	83.75
437.835	72.75
438.057	87.75
438.278	91.75
438.5	76.75
438.721	98.75
438.943	94.75
439.165	92.75
439.386	94.75
439.608	87.75
439.829	88.75
440.05	100.75
440.272	89.75
440.493	88.75
440.715	96.75
440.936	96.75
441.158	78.75
441.379	86.75
441.6	84.75
441.822	87.75
442.043	88.75
442.264	86.75
442.486	85.75
442.707	78.75
442.928	91.75
443.149	93.75
443.371	91.75
443.592	93.75
443.813	90.75
444.034	77.75
444.255	98.75
444.476	77.75
444.698	101.75
444.919	103.75
445.14	217.75
445.361	158.75
445.582	88.75
445.803	89.75
446.024	84.75
446.245	85.75
446.466	88.75
446.687	93.75
446.908	83.75
447.129	100.75
447.35	93.75
447.571	84.75
447.792	91.75
448.013	85.75
448.234	98.75
448.455	83.75
448.675	92.75
448.896	97.75
449.117	78.75
449.338	95.75
449.559	78.75
449.779	91.75
450	69.75
450.221	73.75
450.442	80.75
450.662	83.75
450.883	77.75
451.104	86.75
451.324	93.75
451.545	86.75
451.766	101.75
451.986	90.75
452.207	93.75
452.428	91.75
452.648	85.75
452.869	74.75
453.089	89.75
453.31	85.75
453.53	89.75
453.751	70.75
453.971	83.75
454.192	77.75
454.412	83.75
454.633	92.75
454.853	98.75
455.073	85.75
455.294	87.75
455.514	95.75
455.734	79.75
455.955	81.75
456.175	96.75
456.395	87.75
456.616	83.75
456.836	84.75
457.056	89.75
457.276	82.75
457.497	96.75
457.717	86.75
457.937	112.75
458.157	83.75
458.377	91.75
458.598	85.75
458.818	105.75
459.038	99.75
459.258	94.75
459.478	79.75
459.698	93.75
459.918	82.75
460.138	87.75
460.358	83.75
460.578	98.75
460.798	89.75
461.018	99.75
461.238	92.75
461.458	98.75
461.678	97.75
461.898	92.75
462.118	85.75
462.338	85.75
462.558	80.75
462.777	85.75
462.997	91.75
463.217	97.75
463.437	78.75
463.657	102.75
463.876	92.75
464.096	90.75
464.316	78.75
464.536	75.75
464.755	93.75
464.975	99.75
465.195	89.75
465.414	98.75
465.634	94.75
465.854	89.75
466.073	93.75
466.293	90.75
466.512	87.75
466.732	70.75
466.951	90.75
467.171	75.75
467.391	73.75
467.61	86.75
467.829	79.75
468.049	92.75
468.268	88.75
468.488	83.75
468.707	90.75
468.927	87.75
469.146	79.75
469.365	94.75
469.585	91.75
469.804	83.75
470.023	83.75
470.243	98.75
470.462	97.75
470.681	89.75
470.901	81.75
471.12	76.75
471.339	86.75
471.558	97.75
471.777	82.75
471.997	87.75
472.216	86.75
472.435	92.75
472.654	93.75
472.873	87.75
473.092	93.75
473.311	88.75
473.53	94.75
473.749	89.75
473.968	94.75
474.187	98.75
474.406	80.75
474.625	88.75
474.844	87.75
475.063	84.75
475.282	87.75
475.501	104.75
475.72	96.75
475.939	74.75
476.158	89.75
476.377	95.75
476.596	87.75
476.814	78.75
477.033	82.75
477.252	78.75
477.471	90.75
477.69	106.75
477.908	102.75
478.127	91.75
478.346	96.75
478.564	94.75
478.783	84.75
479.002	81.75
479.22	98.75
479.439	100.75
479.658	81.75
479.876	88.75
480.095	80.75
480.313	86.75
480.532	89.75
480.751	93.75
480.969	103.75
481.188	74.75
481.406	79.75
481.624	99.75
481.843	87.75
482.061	88.75
482.28	99.75
482.498	97.75
482.717	88.75
482.935	77.75
483.153	84.75
483.372	88.75
483.59	87.75
483.808	74.75
484.027	89.75
484.245	109.75
484.463	101.75
484.681	101.75
484.9	86.75
485.118	90.75
485.336	93.75
485.554	108.75
485.772	97.75
485.99	93.75
486.209	83.75
486.427	102.75
486.645	106.75
486.863	98.75
487.081	99.75
487.299	78.75
487.517	101.75
487.735	92.75
487.953	85.75
488.171	89.75
488.389	92.75
488.607	94.75
488.825	109.75
489.043	86.75
489.261	86.75
489.479	98.75
489.696	87.75
489.914	89.75
490.132	94.75
490.35	93.75
490.568	99.75
490.786	109.75
491.003	90.75
491.221	77.75
491.439	94.75
491.657	97.75
491.874	91.75
492.092	90.75
492.31	84.75
492.527	94.75
492.745	98.75
492.963	94.75
493.18	99.75
493.398	100.75
493.615	110.75
493.833	87.75
494.05	87.75
494.268	95.75
494.485	91.75
494.703	101.75
494.92	89.75
495.138	96.75
495.355	94.75
495.573	97.75
495.79	114.75
496.008	104.75
496.225	111.75
496.442	98.75
496.66	104.75
496.877	94.75
497.094	91.75
497.312	103.75
497.529	99.75
497.746	73.75
497.963	98.75
498.181	91.75
498.398	95.75
498.615	103.75
498.832	89.75
499.049	95.75
499.267	105.75
499.484	107.75
499.701	109.75
499.918	110.75
500.135	103.75
500.352	91.75
500.569	115.75
500.786	105.75
501.003	104.75
501.22	102.75
501.437	114.75
501.654	108.75
501.871	97.75
502.088	110.75
502.305	113.75
502.522	105.75
502.739	87.75
502.956	86.75
503.172	90.75
503.389	101.75
503.606	91.75
503.823	101.75
504.04	98.75
504.256	84.75
504.473	91.75
504.69	89.75
504.907	92.75
505.123	108.75
505.34	85.75
505.557	94.75
505.773	98.75
505.99	83.75
506.207	87.75
506.423	94.75
506.64	90.75
506.856	101.75
507.073	101.75
507.289	97.75
507.506	98.75
507.722	95.75
507.939	69.75
508.155	84.75
508.372	92.75
508.588	91.75
508.805	83.75
509.021	94.75
509.238	89.75
509.454	91.75
509.67	89.75
509.887	96.75
510.103	87.75
510.319	79.75
510.536	97.75
510.752	98.75
510.968	85.75
511.184	82.75
511.401	97.75
511.617	92.75
511.833	91.75
512.049	88.75
512.265	92.75
512.481	95.75
512.698	102.75
512.914	98.75
513.13	93.75
513.346	108.75
513.562	96.75
513.778	79.75
513.994	82.75
514.21	94.75
514.426	92.75
514.642	86.75
514.858	106.75
515.074	94.75
515.29	91.75
515.506	95.75
515.721	84.75
515.937	86.75
516.153	84.75
516.369	97.75
516.585	99.75
516.801	103.75
517.016	103.75
517.232	99.75
517.448	94.75
517.664	82.75
517.879	85.75
518.095	91.75
