Data from Ni(NO3)2@0.5M.TitratingCurve.Agarose3%dH2O.NegLispCup.LampEnergy10.LIBS07252019_HRD10591_18-00-16-564.txt Node
Date: Thu Jul 25 18:00:16 EDT 2019
User: cochatt
Spectrometer: HR+D1059
Trigger mode: 1
Integration Time (sec): 1.000000E-1
Scans to average: 1
Electric dark correction enabled: true
Nonlinearity correction enabled: false
Boxcar width: 0
XAxis mode: Wavelengths
Number of Pixels in Spectrum: 2048
>>>>>Begin Spectral Data<<<<<
223.165	-7.31
223.4	-7.31
223.635	-7.31
223.869	-33.31
224.104	-18.31
224.338	-17.31
224.573	-17.31
224.808	-11.31
225.042	-12.31
225.277	-13.31
225.511	-6.31
225.746	3.69
225.98	9.69
226.215	16.69
226.449	22.69
226.683	21.69
226.918	29.69
227.152	32.69
227.387	43.69
227.621	38.69
227.856	27.69
228.09	45.69
228.324	44.69
228.559	52.69
228.793	71.69
229.027	97.69
229.262	117.69
229.496	99.69
229.73	107.69
229.964	123.69
230.199	131.69
230.433	142.69
230.667	129.69
230.901	141.69
231.136	124.69
231.37	136.69
231.604	127.69
231.838	129.69
232.072	129.69
232.306	138.69
232.541	139.69
232.775	127.69
233.009	133.69
233.243	132.69
233.477	135.69
233.711	138.69
233.945	139.69
234.179	134.69
234.413	156.69
234.647	131.69
234.881	139.69
235.115	133.69
235.349	135.69
235.583	133.69
235.817	123.69
236.051	113.69
236.285	137.69
236.519	135.69
236.753	121.69
236.987	129.69
237.221	124.69
237.455	122.69
237.689	138.69
237.922	164.69
238.156	131.69
238.39	144.69
238.624	129.69
238.858	129.69
239.091	156.69
239.325	156.69
239.559	153.69
239.793	130.69
240.027	160.69
240.26	141.69
240.494	147.69
240.728	155.69
240.961	144.69
241.195	160.69
241.429	166.69
241.662	158.69
241.896	175.69
242.13	160.69
242.363	164.69
242.597	166.69
242.83	151.69
243.064	157.69
243.298	161.69
243.531	149.69
243.765	162.69
243.998	165.69
244.232	191.69
244.465	158.69
244.699	170.69
244.932	179.69
245.166	170.69
245.399	170.69
245.633	166.69
245.866	168.69
246.099	158.69
246.333	174.69
246.566	174.69
246.8	181.69
247.033	177.69
247.266	180.69
247.5	178.69
247.733	180.69
247.966	191.69
248.2	175.69
248.433	182.69
248.666	181.69
248.899	175.69
249.133	202.69
249.366	207.69
249.599	211.69
249.832	204.69
250.066	198.69
250.299	204.69
250.532	218.69
250.765	222.69
250.998	202.69
251.231	213.69
251.465	219.69
251.698	228.69
251.931	200.69
252.164	217.69
252.397	222.69
252.63	220.69
252.863	209.69
253.096	224.69
253.329	214.69
253.562	223.69
253.795	211.69
254.028	233.69
254.261	221.69
254.494	213.69
254.727	248.69
254.96	215.69
255.193	221.69
255.426	225.69
255.659	222.69
255.892	242.69
256.124	246.69
256.357	228.69
256.59	221.69
256.823	228.69
257.056	237.69
257.289	224.69
257.521	251.69
257.754	231.69
257.987	240.69
258.22	250.69
258.452	252.69
258.685	235.69
258.918	237.69
259.151	248.69
259.383	245.69
259.616	251.69
259.849	241.69
260.081	246.69
260.314	243.69
260.547	251.69
260.779	241.69
261.012	261.69
261.244	254.69
261.477	253.69
261.71	275.69
261.942	261.69
262.175	266.69
262.407	261.69
262.64	255.69
262.872	257.69
263.105	263.69
263.337	285.69
263.57	278.69
263.802	260.69
264.035	266.69
264.267	271.69
264.499	285.69
264.732	269.69
264.964	289.69
265.197	267.69
265.429	287.69
265.661	287.69
265.894	273.69
266.126	289.69
266.358	292.69
266.591	304.69
266.823	286.69
267.055	282.69
267.287	279.69
267.52	311.69
267.752	297.69
267.984	302.69
268.216	290.69
268.448	302.69
268.681	310.69
268.913	311.69
269.145	298.69
269.377	299.69
269.609	317.69
269.841	312.69
270.073	290.69
270.306	309.69
270.538	309.69
270.77	308.69
271.002	311.69
271.234	316.69
271.466	308.69
271.698	306.69
271.93	301.69
272.162	326.69
272.394	302.69
272.626	312.69
272.858	311.69
273.09	338.69
273.322	301.69
273.553	313.69
273.785	321.69
274.017	314.69
274.249	315.69
274.481	330.69
274.713	318.69
274.945	316.69
275.176	317.69
275.408	321.69
275.64	320.69
275.872	340.69
276.104	322.69
276.335	340.69
276.567	334.69
276.799	336.69
277.031	333.69
277.262	356.69
277.494	333.69
277.726	330.69
277.957	361.69
278.189	335.69
278.421	351.69
278.652	339.69
278.884	331.69
279.115	350.69
279.347	344.69
279.579	347.69
279.81	345.69
280.042	348.69
280.273	349.69
280.505	350.69
280.736	350.69
280.968	364.69
281.199	347.69
281.431	375.69
281.662	357.69
281.894	381.69
282.125	381.69
282.356	395.69
282.588	390.69
282.819	378.69
283.051	376.69
283.282	359.69
283.513	356.69
283.745	376.69
283.976	364.69
284.207	366.69
284.439	369.69
284.67	382.69
284.901	385.69
285.132	387.69
285.364	369.69
285.595	384.69
285.826	367.69
286.057	383.69
286.288	376.69
286.52	382.69
286.751	403.69
286.982	398.69
287.213	397.69
287.444	398.69
287.675	399.69
287.906	379.69
288.138	413.69
288.369	393.69
288.6	418.69
288.831	426.69
289.062	379.69
289.293	413.69
289.524	374.69
289.755	403.69
289.986	391.69
290.217	397.69
290.448	392.69
290.679	405.69
290.91	411.69
291.141	405.69
291.371	417.69
291.602	407.69
291.833	406.69
292.064	425.69
292.295	403.69
292.526	391.69
292.757	408.69
292.987	405.69
293.218	383.69
293.449	415.69
293.68	418.69
293.91	411.69
294.141	405.69
294.372	410.69
294.603	427.69
294.833	417.69
295.064	418.69
295.295	391.69
295.525	410.69
295.756	408.69
295.987	418.69
296.217	402.69
296.448	425.69
296.679	407.69
296.909	439.69
297.14	419.69
297.37	441.69
297.601	439.69
297.831	455.69
298.062	453.69
298.292	439.69
298.523	474.69
298.753	454.69
298.984	448.69
299.214	451.69
299.445	451.69
299.675	433.69
299.905	448.69
300.136	454.69
300.366	450.69
300.597	479.69
300.827	485.69
301.057	486.69
301.288	474.69
301.518	464.69
301.748	461.69
301.979	449.69
302.209	457.69
302.439	447.69
302.669	474.69
302.9	477.69
303.13	464.69
303.36	475.69
303.59	487.69
303.82	467.69
304.051	484.69
304.281	459.69
304.511	484.69
304.741	472.69
304.971	469.69
305.201	487.69
305.431	478.69
305.661	488.69
305.891	490.69
306.121	479.69
306.352	494.69
306.582	460.69
306.812	452.69
307.042	478.69
307.272	471.69
307.502	469.69
307.731	452.69
307.961	457.69
308.191	453.69
308.421	446.69
308.651	469.69
308.881	469.69
309.111	460.69
309.341	476.69
309.571	493.69
309.8	474.69
310.03	467.69
310.26	494.69
310.49	499.69
310.72	486.69
310.949	472.69
311.179	479.69
311.409	486.69
311.639	491.69
311.868	495.69
312.098	508.69
312.328	487.69
312.557	511.69
312.787	493.69
313.017	475.69
313.246	521.69
313.476	509.69
313.706	511.69
313.935	509.69
314.165	493.69
314.394	520.69
314.624	482.69
314.853	505.69
315.083	492.69
315.312	509.69
315.542	509.69
315.771	505.69
316.001	502.69
316.23	518.69
316.46	509.69
316.689	498.69
316.919	483.69
317.148	493.69
317.377	523.69
317.607	528.69
317.836	490.69
318.065	477.69
318.295	509.69
318.524	497.69
318.753	523.69
318.983	527.69
319.212	513.69
319.441	492.69
319.67	520.69
319.9	528.69
320.129	518.69
320.358	525.69
320.587	513.69
320.816	531.69
321.046	518.69
321.275	522.69
321.504	498.69
321.733	489.69
321.962	517.69
322.191	507.69
322.42	565.69
322.649	506.69
322.878	548.69
323.108	509.69
323.337	551.69
323.566	542.69
323.795	541.69
324.024	541.69
324.253	573.69
324.482	535.69
324.71	548.69
324.939	569.69
325.168	539.69
325.397	554.69
325.626	543.69
325.855	533.69
326.084	541.69
326.313	552.69
326.542	577.69
326.77	576.69
326.999	554.69
327.228	565.69
327.457	593.69
327.686	571.69
327.914	565.69
328.143	571.69
328.372	554.69
328.6	558.69
328.829	568.69
329.058	580.69
329.287	576.69
329.515	569.69
329.744	579.69
329.972	579.69
330.201	584.69
330.43	600.69
330.658	591.69
330.887	592.69
331.115	589.69
331.344	597.69
331.572	606.69
331.801	622.69
332.03	642.69
332.258	620.69
332.486	620.69
332.715	620.69
332.943	656.69
333.172	653.69
333.4	683.69
333.629	709.69
333.857	699.69
334.085	709.69
334.314	707.69
334.542	733.69
334.771	717.69
334.999	694.69
335.227	700.69
335.455	712.69
335.684	701.69
335.912	695.69
336.14	682.69
336.369	708.69
336.597	717.69
336.825	673.69
337.053	685.69
337.281	699.69
337.51	654.69
337.738	665.69
337.966	627.69
338.194	671.69
338.422	659.69
338.65	627.69
338.878	654.69
339.106	654.69
339.334	640.69
339.562	634.69
339.79	629.69
340.018	616.69
340.246	617.69
340.474	640.69
340.702	614.69
340.93	604.69
341.158	625.69
341.386	659.69
341.614	636.69
341.842	639.69
342.07	611.69
342.298	613.69
342.526	632.69
342.754	609.69
342.981	625.69
343.209	618.69
343.437	641.69
343.665	674.69
343.893	687.69
344.12	709.69
344.348	687.69
344.576	667.69
344.804	682.69
345.031	649.69
345.259	621.69
345.487	641.69
345.714	628.69
345.942	617.69
346.17	641.69
346.397	639.69
346.625	599.69
346.853	577.69
347.08	628.69
347.308	615.69
347.535	604.69
347.763	620.69
347.99	587.69
348.218	573.69
348.445	595.69
348.673	582.69
348.9	605.69
349.128	620.69
349.355	626.69
349.583	602.69
349.81	574.69
350.037	576.69
350.265	593.69
350.492	576.69
350.72	567.69
350.947	610.69
351.174	613.69
351.402	620.69
351.629	638.69
351.856	616.69
352.083	600.69
352.311	586.69
352.538	617.69
352.765	608.69
352.992	579.69
353.22	576.69
353.447	572.69
353.674	575.69
353.901	579.69
354.128	555.69
354.355	604.69
354.583	552.69
354.81	566.69
355.037	572.69
355.264	583.69
355.491	582.69
355.718	567.69
355.945	578.69
356.172	583.69
356.399	580.69
356.626	585.69
356.853	596.69
357.08	591.69
357.307	604.69
357.534	603.69
357.761	571.69
357.988	574.69
358.215	559.69
358.441	586.69
358.668	593.69
358.895	574.69
359.122	583.69
359.349	563.69
359.576	587.69
359.802	580.69
360.029	577.69
360.256	583.69
360.483	559.69
360.709	551.69
360.936	597.69
361.163	612.69
361.39	585.69
361.616	576.69
361.843	589.69
362.07	635.69
362.296	611.69
362.523	593.69
362.749	585.69
362.976	566.69
363.203	581.69
363.429	585.69
363.656	589.69
363.882	577.69
364.109	569.69
364.335	576.69
364.562	573.69
364.788	552.69
365.015	581.69
365.241	593.69
365.468	577.69
365.694	581.69
365.92	575.69
366.147	598.69
366.373	587.69
366.599	589.69
366.826	584.69
367.052	571.69
367.278	576.69
367.505	583.69
367.731	589.69
367.957	563.69
368.184	583.69
368.41	597.69
368.636	630.69
368.862	614.69
369.089	582.69
369.315	606.69
369.541	589.69
369.767	576.69
369.993	601.69
370.219	621.69
370.445	622.69
370.672	610.69
370.898	614.69
371.124	609.69
371.35	631.69
371.576	630.69
371.802	638.69
372.028	610.69
372.254	627.69
372.48	619.69
372.706	633.69
372.932	647.69
373.158	658.69
373.384	650.69
373.61	645.69
373.835	619.69
374.061	628.69
374.287	635.69
374.513	629.69
374.739	659.69
374.965	681.69
375.191	659.69
375.416	675.69
375.642	651.69
375.868	652.69
376.094	649.69
376.319	650.69
376.545	633.69
376.771	635.69
376.997	630.69
377.222	641.69
377.448	637.69
377.674	633.69
377.899	616.69
378.125	633.69
378.35	611.69
378.576	603.69
378.802	598.69
379.027	625.69
379.253	621.69
379.478	638.69
379.704	620.69
379.929	628.69
380.155	639.69
380.38	637.69
380.606	637.69
380.831	621.69
381.057	610.69
381.282	632.69
381.507	633.69
381.733	637.69
381.958	645.69
382.184	629.69
382.409	666.69
382.634	639.69
382.86	641.69
383.085	683.69
383.31	651.69
383.535	663.69
383.761	668.69
383.986	663.69
384.211	677.69
384.436	697.69
384.662	691.69
384.887	707.69
385.112	717.69
385.337	701.69
385.562	715.69
385.787	733.69
386.013	738.69
386.238	735.69
386.463	732.69
386.688	725.69
386.913	737.69
387.138	731.69
387.363	725.69
387.588	723.69
387.813	717.69
388.038	731.69
388.263	749.69
388.488	717.69
388.713	728.69
388.938	732.69
389.163	718.69
389.387	729.69
389.612	730.69
389.837	724.69
390.062	714.69
390.287	724.69
390.512	716.69
390.736	726.69
390.961	749.69
391.186	764.69
391.411	766.69
391.636	778.69
391.86	819.69
392.085	792.69
392.31	807.69
392.534	801.69
392.759	794.69
392.984	775.69
393.208	764.69
393.433	789.69
393.658	786.69
393.882	782.69
394.107	756.69
394.331	760.69
394.556	737.69
394.78	799.69
395.005	771.69
395.229	821.69
395.454	793.69
395.678	802.69
395.903	797.69
396.127	795.69
396.352	796.69
396.576	786.69
396.801	800.69
397.025	802.69
397.249	795.69
397.474	837.69
397.698	844.69
397.922	827.69
398.147	854.69
398.371	852.69
398.595	884.69
398.82	886.69
399.044	947.69
399.268	1007.69
399.492	1064.69
399.717	1155.69
399.941	1149.69
400.165	1086.69
400.389	1061.69
400.613	973.69
400.837	950.69
401.062	955.69
401.286	951.69
401.51	915.69
401.734	907.69
401.958	909.69
402.182	894.69
402.406	898.69
402.63	882.69
402.854	916.69
403.078	898.69
403.302	922.69
403.526	940.69
403.75	963.69
403.974	953.69
404.198	961.69
404.422	947.69
404.645	964.69
404.869	951.69
405.093	953.69
405.317	929.69
405.541	971.69
405.765	941.69
405.988	957.69
406.212	954.69
406.436	973.69
406.66	1000.69
406.883	986.69
407.107	1037.69
407.331	1078.69
407.555	1076.69
407.778	1094.69
408.002	1069.69
408.226	1031.69
408.449	1037.69
408.673	1028.69
408.896	996.69
409.12	1003.69
409.344	1017.69
409.567	991.69
409.791	968.69
410.014	1022.69
410.238	982.69
410.461	957.69
410.685	949.69
410.908	941.69
411.132	977.69
411.355	928.69
411.578	950.69
411.802	925.69
412.025	939.69
412.249	926.69
412.472	945.69
412.695	894.69
412.919	905.69
413.142	931.69
413.365	921.69
413.589	932.69
413.812	927.69
414.035	905.69
414.258	926.69
414.482	906.69
414.705	903.69
414.928	911.69
415.151	906.69
415.374	895.69
415.597	903.69
415.821	874.69
416.044	870.69
416.267	873.69
416.49	847.69
416.713	864.69
416.936	887.69
417.159	874.69
417.382	854.69
417.605	876.69
417.828	878.69
418.051	849.69
418.274	882.69
418.497	878.69
418.72	872.69
418.943	910.69
419.166	939.69
419.389	995.69
419.611	964.69
419.834	931.69
420.057	910.69
420.28	887.69
420.503	860.69
420.726	881.69
420.948	863.69
421.171	879.69
421.394	878.69
421.617	889.69
421.839	845.69
422.062	901.69
422.285	868.69
422.507	876.69
422.73	873.69
422.953	892.69
423.175	868.69
423.398	899.69
423.621	890.69
423.843	877.69
424.066	891.69
424.288	901.69
424.511	898.69
424.733	874.69
424.956	867.69
425.178	860.69
425.401	884.69
425.623	881.69
425.846	861.69
426.068	828.69
426.291	843.69
426.513	857.69
426.735	845.69
426.958	859.69
427.18	822.69
427.402	804.69
427.625	843.69
427.847	800.69
428.069	802.69
428.292	821.69
428.514	807.69
428.736	806.69
428.958	808.69
429.181	802.69
429.403	796.69
429.625	800.69
429.847	781.69
430.069	783.69
430.292	799.69
430.514	781.69
430.736	809.69
430.958	812.69
431.18	830.69
431.402	812.69
431.624	791.69
431.846	810.69
432.068	823.69
432.29	846.69
432.512	815.69
432.734	824.69
432.956	817.69
433.178	819.69
433.4	847.69
433.622	856.69
433.844	833.69
434.066	839.69
434.287	868.69
434.509	869.69
434.731	876.69
434.953	870.69
435.175	893.69
435.397	903.69
435.618	854.69
435.84	832.69
436.062	814.69
436.284	814.69
436.505	828.69
436.727	833.69
436.949	805.69
437.17	802.69
437.392	823.69
437.614	797.69
437.835	794.69
438.057	797.69
438.278	775.69
438.5	790.69
438.721	794.69
438.943	822.69
439.165	803.69
439.386	803.69
439.608	797.69
439.829	787.69
440.05	803.69
440.272	818.69
440.493	827.69
440.715	813.69
440.936	839.69
441.158	846.69
441.379	867.69
441.6	881.69
441.822	888.69
442.043	909.69
442.264	873.69
442.486	859.69
442.707	862.69
442.928	860.69
443.149	863.69
443.371	873.69
443.592	889.69
443.813	903.69
444.034	881.69
444.255	915.69
444.476	935.69
444.698	959.69
444.919	1009.69
445.14	1083.69
445.361	987.69
445.582	910.69
445.803	885.69
446.024	867.69
446.245	857.69
446.466	825.69
446.687	833.69
446.908	825.69
447.129	795.69
447.35	803.69
447.571	803.69
447.792	777.69
448.013	802.69
448.234	773.69
448.455	780.69
448.675	771.69
448.896	789.69
449.117	732.69
449.338	768.69
449.559	755.69
449.779	738.69
450	742.69
450.221	715.69
450.442	748.69
450.662	734.69
450.883	758.69
451.104	749.69
451.324	748.69
451.545	769.69
451.766	728.69
451.986	729.69
452.207	730.69
452.428	741.69
452.648	742.69
452.869	713.69
453.089	741.69
453.31	756.69
453.53	739.69
453.751	697.69
453.971	693.69
454.192	748.69
454.412	718.69
454.633	740.69
454.853	704.69
455.073	735.69
455.294	699.69
455.514	713.69
455.734	695.69
455.955	713.69
456.175	704.69
456.395	693.69
456.616	697.69
456.836	716.69
457.056	691.69
457.276	698.69
457.497	724.69
457.717	722.69
457.937	707.69
458.157	703.69
458.377	714.69
458.598	712.69
458.818	744.69
459.038	734.69
459.258	775.69
459.478	823.69
459.698	839.69
459.918	866.69
460.138	897.69
460.358	921.69
460.578	923.69
460.798	936.69
461.018	945.69
461.238	927.69
461.458	914.69
461.678	897.69
461.898	935.69
462.118	939.69
462.338	998.69
462.558	1002.69
462.777	1045.69
462.997	1087.69
463.217	1093.69
463.437	1114.69
463.657	1108.69
463.876	1064.69
464.096	1060.69
464.316	1027.69
464.536	1021.69
464.755	1009.69
464.975	975.69
465.195	917.69
465.414	915.69
465.634	881.69
465.854	842.69
466.073	818.69
466.293	817.69
466.512	797.69
466.732	781.69
466.951	768.69
467.171	791.69
467.391	802.69
467.61	778.69
467.829	777.69
468.049	764.69
468.268	762.69
468.488	760.69
468.707	760.69
468.927	762.69
469.146	739.69
469.365	797.69
469.585	760.69
469.804	805.69
470.023	797.69
470.243	771.69
470.462	787.69
470.681	799.69
470.901	794.69
471.12	776.69
471.339	767.69
471.558	787.69
471.777	779.69
471.997	753.69
472.216	776.69
472.435	765.69
472.654	731.69
472.873	765.69
473.092	754.69
473.311	742.69
473.53	723.69
473.749	738.69
473.968	772.69
474.187	765.69
474.406	747.69
474.625	765.69
474.844	753.69
475.063	754.69
475.282	744.69
475.501	775.69
475.72	775.69
475.939	763.69
476.158	793.69
476.377	798.69
476.596	801.69
476.814	799.69
477.033	795.69
477.252	828.69
477.471	826.69
477.69	836.69
477.908	840.69
478.127	867.69
478.346	873.69
478.564	894.69
478.783	908.69
479.002	909.69
479.22	951.69
479.439	922.69
479.658	900.69
479.876	928.69
480.095	953.69
480.313	940.69
480.532	948.69
480.751	943.69
480.969	935.69
481.188	898.69
481.406	895.69
481.624	876.69
481.843	882.69
482.061	873.69
482.28	845.69
482.498	866.69
482.717	894.69
482.935	866.69
483.153	883.69
483.372	911.69
483.59	909.69
483.808	887.69
484.027	849.69
484.245	878.69
484.463	889.69
484.681	899.69
484.9	882.69
485.118	893.69
485.336	920.69
485.554	925.69
485.772	906.69
485.99	915.69
486.209	923.69
486.427	917.69
486.645	899.69
486.863	917.69
487.081	918.69
487.299	911.69
487.517	893.69
487.735	910.69
487.953	912.69
488.171	903.69
488.389	897.69
488.607	901.69
488.825	889.69
489.043	872.69
489.261	901.69
489.479	891.69
489.696	892.69
489.914	912.69
490.132	876.69
490.35	897.69
490.568	917.69
490.786	902.69
491.003	915.69
491.221	922.69
491.439	897.69
491.657	930.69
491.874	931.69
492.092	922.69
492.31	929.69
492.527	938.69
492.745	917.69
492.963	955.69
493.18	948.69
493.398	939.69
493.615	934.69
493.833	947.69
494.05	981.69
494.268	962.69
494.485	934.69
494.703	941.69
494.92	941.69
495.138	946.69
495.355	940.69
495.573	985.69
495.79	977.69
496.008	966.69
496.225	967.69
496.442	993.69
496.66	1025.69
496.877	1033.69
497.094	1055.69
497.312	1073.69
497.529	1049.69
497.746	1101.69
497.963	1112.69
498.181	1147.69
498.398	1178.69
498.615	1242.69
498.832	1283.69
499.049	1394.69
499.267	1457.69
499.484	1572.69
499.701	1687.69
499.918	1791.69
500.135	1918.69
500.352	2063.69
500.569	2117.69
500.786	2075.69
501.003	2020.69
