Data from Ni(NO3)2Standard.Agarose3%.GreenCap.LampEnergy5.5.E.O_HRD10591_14-42-00-188.txt Node
Date: Mon Jul 22 14:42:00 EDT 2019
User: cochatt
Spectrometer: HR+D1059
Trigger mode: 1
Integration Time (sec): 1.000000E-1
Scans to average: 1
Electric dark correction enabled: true
Nonlinearity correction enabled: false
Boxcar width: 0
XAxis mode: Wavelengths
Number of Pixels in Spectrum: 2048
>>>>>Begin Spectral Data<<<<<
223.165	-26.69
223.4	-26.69
223.635	-26.69
223.869	-17.69
224.104	-21.69
224.338	-20.69
224.573	-3.69
224.808	-8.69
225.042	-5.69
225.277	-0.69
225.511	5.31
225.746	6.31
225.98	6.31
226.215	6.31
226.449	8.31
226.683	11.31
226.918	22.31
227.152	39.31
227.387	32.31
227.621	28.31
227.856	54.31
228.09	48.31
228.324	50.31
228.559	60.31
228.793	48.31
229.027	59.31
229.262	70.31
229.496	76.31
229.73	70.31
229.964	72.31
230.199	81.31
230.433	75.31
230.667	76.31
230.901	88.31
231.136	91.31
231.37	77.31
231.604	96.31
231.838	90.31
232.072	89.31
232.306	86.31
232.541	73.31
232.775	88.31
233.009	80.31
233.243	87.31
233.477	79.31
233.711	79.31
233.945	83.31
234.179	81.31
234.413	94.31
234.647	84.31
234.881	99.31
235.115	73.31
235.349	66.31
235.583	86.31
235.817	78.31
236.051	83.31
236.285	95.31
236.519	79.31
236.753	85.31
236.987	88.31
237.221	62.31
237.455	76.31
237.689	79.31
237.922	77.31
238.156	76.31
238.39	66.31
238.624	68.31
238.858	78.31
239.091	63.31
239.325	86.31
239.559	83.31
239.793	87.31
240.027	81.31
240.26	74.31
240.494	80.31
240.728	76.31
240.961	75.31
241.195	80.31
241.429	77.31
241.662	80.31
241.896	66.31
242.13	88.31
242.363	78.31
242.597	73.31
242.83	75.31
243.064	75.31
243.298	81.31
243.531	75.31
243.765	78.31
243.998	81.31
244.232	90.31
244.465	84.31
244.699	68.31
244.932	75.31
245.166	81.31
245.399	82.31
245.633	83.31
245.866	68.31
246.099	82.31
246.333	75.31
246.566	70.31
246.8	76.31
247.033	92.31
247.266	78.31
247.5	74.31
247.733	89.31
247.966	91.31
248.2	74.31
248.433	74.31
248.666	84.31
248.899	72.31
249.133	80.31
249.366	84.31
249.599	87.31
249.832	88.31
250.066	96.31
250.299	78.31
250.532	74.31
250.765	62.31
250.998	84.31
251.231	88.31
251.465	86.31
251.698	93.31
251.931	102.31
252.164	98.31
252.397	79.31
252.63	86.31
252.863	85.31
253.096	87.31
253.329	81.31
253.562	68.31
253.795	67.31
254.028	90.31
254.261	93.31
254.494	74.31
254.727	77.31
254.96	87.31
255.193	78.31
255.426	84.31
255.659	94.31
255.892	91.31
256.124	84.31
256.357	71.31
256.59	75.31
256.823	91.31
257.056	85.31
257.289	76.31
257.521	75.31
257.754	83.31
257.987	88.31
258.22	87.31
258.452	72.31
258.685	95.31
258.918	81.31
259.151	79.31
259.383	100.31
259.616	78.31
259.849	88.31
260.081	90.31
260.314	77.31
260.547	88.31
260.779	71.31
261.012	67.31
261.244	94.31
261.477	90.31
261.71	86.31
261.942	95.31
262.175	82.31
262.407	68.31
262.64	92.31
262.872	92.31
263.105	80.31
263.337	110.31
263.57	85.31
263.802	84.31
264.035	78.31
264.267	82.31
264.499	69.31
264.732	93.31
264.964	77.31
265.197	80.31
265.429	70.31
265.661	90.31
265.894	84.31
266.126	79.31
266.358	79.31
266.591	93.31
266.823	92.31
267.055	76.31
267.287	89.31
267.52	84.31
267.752	89.31
267.984	91.31
268.216	92.31
268.448	95.31
268.681	82.31
268.913	88.31
269.145	91.31
269.377	79.31
269.609	92.31
269.841	89.31
270.073	87.31
270.306	87.31
270.538	68.31
270.77	84.31
271.002	85.31
271.234	84.31
271.466	72.31
271.698	89.31
271.93	76.31
272.162	88.31
272.394	80.31
272.626	83.31
272.858	92.31
273.09	95.31
273.322	79.31
273.553	89.31
273.785	103.31
274.017	82.31
274.249	80.31
274.481	88.31
274.713	74.31
274.945	94.31
275.176	87.31
275.408	76.31
275.64	87.31
275.872	87.31
276.104	70.31
276.335	89.31
276.567	78.31
276.799	88.31
277.031	72.31
277.262	89.31
277.494	92.31
277.726	78.31
277.957	86.31
278.189	93.31
278.421	80.31
278.652	88.31
278.884	93.31
279.115	83.31
279.347	98.31
279.579	90.31
279.81	71.31
280.042	95.31
280.273	98.31
280.505	81.31
280.736	76.31
280.968	83.31
281.199	93.31
281.431	104.31
281.662	94.31
281.894	89.31
282.125	91.31
282.356	74.31
282.588	85.31
282.819	106.31
283.051	76.31
283.282	90.31
283.513	86.31
283.745	91.31
283.976	83.31
284.207	80.31
284.439	82.31
284.67	79.31
284.901	83.31
285.132	88.31
285.364	90.31
285.595	92.31
285.826	83.31
286.057	86.31
286.288	88.31
286.52	84.31
286.751	99.31
286.982	91.31
287.213	91.31
287.444	99.31
287.675	85.31
287.906	80.31
288.138	71.31
288.369	86.31
288.6	90.31
288.831	84.31
289.062	83.31
289.293	84.31
289.524	86.31
289.755	88.31
289.986	70.31
290.217	77.31
290.448	91.31
290.679	90.31
290.91	89.31
291.141	89.31
291.371	99.31
291.602	87.31
291.833	88.31
292.064	94.31
292.295	91.31
292.526	87.31
292.757	90.31
292.987	75.31
293.218	83.31
293.449	102.31
293.68	87.31
293.91	76.31
294.141	89.31
294.372	77.31
294.603	86.31
294.833	81.31
295.064	71.31
295.295	74.31
295.525	97.31
295.756	85.31
295.987	84.31
296.217	92.31
296.448	93.31
296.679	100.31
296.909	89.31
297.14	97.31
297.37	95.31
297.601	82.31
297.831	91.31
298.062	81.31
298.292	85.31
298.523	85.31
298.753	89.31
298.984	83.31
299.214	96.31
299.445	103.31
299.675	95.31
299.905	93.31
300.136	90.31
300.366	90.31
300.597	70.31
300.827	91.31
301.057	90.31
301.288	87.31
301.518	92.31
301.748	100.31
301.979	100.31
302.209	87.31
302.439	112.31
302.669	102.31
302.9	93.31
303.13	92.31
303.36	84.31
303.59	100.31
303.82	94.31
304.051	93.31
304.281	87.31
304.511	82.31
304.741	90.31
304.971	95.31
305.201	93.31
305.431	81.31
305.661	74.31
305.891	72.31
306.121	77.31
306.352	105.31
306.582	89.31
306.812	81.31
307.042	94.31
307.272	74.31
307.502	98.31
307.731	91.31
307.961	92.31
308.191	92.31
308.421	78.31
308.651	90.31
308.881	81.31
309.111	99.31
309.341	97.31
309.571	96.31
309.8	86.31
310.03	94.31
310.26	100.31
310.49	83.31
310.72	96.31
310.949	95.31
311.179	88.31
311.409	88.31
311.639	76.31
311.868	87.31
312.098	96.31
312.328	95.31
312.557	106.31
312.787	86.31
313.017	95.31
313.246	92.31
313.476	86.31
313.706	106.31
313.935	84.31
314.165	93.31
314.394	102.31
314.624	90.31
314.853	87.31
315.083	90.31
315.312	95.31
315.542	82.31
315.771	94.31
316.001	87.31
316.23	83.31
316.46	90.31
316.689	94.31
316.919	94.31
317.148	90.31
317.377	95.31
317.607	91.31
317.836	90.31
318.065	98.31
318.295	97.31
318.524	79.31
318.753	88.31
318.983	88.31
319.212	84.31
319.441	87.31
319.67	97.31
319.9	77.31
320.129	79.31
320.358	94.31
320.587	88.31
320.816	83.31
321.046	89.31
321.275	96.31
321.504	76.31
321.733	86.31
321.962	90.31
322.191	90.31
322.42	93.31
322.649	75.31
322.878	75.31
323.108	77.31
323.337	90.31
323.566	85.31
323.795	73.31
324.024	102.31
324.253	105.31
324.482	81.31
324.71	78.31
324.939	94.31
325.168	98.31
325.397	88.31
325.626	82.31
325.855	93.31
326.084	78.31
326.313	90.31
326.542	76.31
326.77	94.31
326.999	86.31
327.228	91.31
327.457	89.31
327.686	100.31
327.914	92.31
328.143	84.31
328.372	77.31
328.6	93.31
328.829	105.31
329.058	91.31
329.287	80.31
329.515	89.31
329.744	83.31
329.972	87.31
330.201	100.31
330.43	95.31
330.658	88.31
330.887	89.31
331.115	93.31
331.344	86.31
331.572	99.31
331.801	98.31
332.03	82.31
332.258	92.31
332.486	89.31
332.715	89.31
332.943	97.31
333.172	87.31
333.4	104.31
333.629	102.31
333.857	90.31
334.085	90.31
334.314	87.31
334.542	101.31
334.771	81.31
334.999	86.31
335.227	83.31
335.455	88.31
335.684	94.31
335.912	101.31
336.14	89.31
336.369	101.31
336.597	93.31
336.825	90.31
337.053	79.31
337.281	94.31
337.51	99.31
337.738	94.31
337.966	105.31
338.194	100.31
338.422	105.31
338.65	79.31
338.878	86.31
339.106	99.31
339.334	78.31
339.562	86.31
339.79	86.31
340.018	87.31
340.246	96.31
340.474	87.31
340.702	83.31
340.93	99.31
341.158	89.31
341.386	88.31
341.614	86.31
341.842	96.31
342.07	99.31
342.298	83.31
342.526	90.31
342.754	88.31
342.981	77.31
343.209	92.31
343.437	89.31
343.665	88.31
343.893	79.31
344.12	88.31
344.348	88.31
344.576	103.31
344.804	91.31
345.031	78.31
345.259	93.31
345.487	90.31
345.714	70.31
345.942	83.31
346.17	101.31
346.397	82.31
346.625	83.31
346.853	82.31
347.08	78.31
347.308	89.31
347.535	88.31
347.763	86.31
347.99	80.31
348.218	94.31
348.445	97.31
348.673	91.31
348.9	75.31
349.128	78.31
349.355	104.31
349.583	78.31
349.81	101.31
350.037	88.31
350.265	92.31
350.492	91.31
350.72	95.31
350.947	95.31
351.174	101.31
351.402	85.31
351.629	89.31
351.856	80.31
352.083	76.31
352.311	90.31
352.538	77.31
352.765	75.31
352.992	88.31
353.22	78.31
353.447	90.31
353.674	89.31
353.901	83.31
354.128	79.31
354.355	90.31
354.583	87.31
354.81	85.31
355.037	100.31
355.264	79.31
355.491	92.31
355.718	96.31
355.945	82.31
356.172	95.31
356.399	81.31
356.626	97.31
356.853	101.31
357.08	89.31
357.307	71.31
357.534	99.31
357.761	99.31
357.988	84.31
358.215	94.31
358.441	94.31
358.668	94.31
358.895	94.31
359.122	88.31
359.349	82.31
359.576	84.31
359.802	90.31
360.029	80.31
360.256	82.31
360.483	84.31
360.709	96.31
360.936	102.31
361.163	77.31
361.39	85.31
361.616	93.31
361.843	76.31
362.07	84.31
362.296	90.31
362.523	83.31
362.749	82.31
362.976	94.31
363.203	85.31
363.429	84.31
363.656	92.31
363.882	90.31
364.109	98.31
364.335	88.31
364.562	88.31
364.788	96.31
365.015	91.31
365.241	88.31
365.468	90.31
365.694	94.31
365.92	86.31
366.147	85.31
366.373	85.31
366.599	73.31
366.826	81.31
367.052	86.31
367.278	92.31
367.505	83.31
367.731	94.31
367.957	80.31
368.184	104.31
368.41	85.31
368.636	90.31
368.862	96.31
369.089	84.31
369.315	86.31
369.541	88.31
369.767	91.31
369.993	85.31
370.219	81.31
370.445	80.31
370.672	94.31
370.898	80.31
371.124	70.31
371.35	92.31
371.576	93.31
371.802	93.31
372.028	85.31
372.254	92.31
372.48	86.31
372.706	78.31
372.932	98.31
373.158	87.31
373.384	84.31
373.61	93.31
373.835	85.31
374.061	74.31
374.287	92.31
374.513	90.31
374.739	87.31
374.965	85.31
375.191	82.31
375.416	76.31
375.642	83.31
375.868	89.31
376.094	100.31
376.319	90.31
376.545	91.31
376.771	80.31
376.997	76.31
377.222	82.31
377.448	91.31
377.674	79.31
377.899	88.31
378.125	88.31
378.35	88.31
378.576	90.31
378.802	95.31
379.027	77.31
379.253	88.31
379.478	94.31
379.704	89.31
379.929	86.31
380.155	79.31
380.38	85.31
380.606	84.31
380.831	91.31
381.057	96.31
381.282	78.31
381.507	93.31
381.733	71.31
381.958	84.31
382.184	87.31
382.409	82.31
382.634	86.31
382.86	92.31
383.085	95.31
383.31	73.31
383.535	85.31
383.761	86.31
383.986	87.31
384.211	87.31
384.436	98.31
384.662	86.31
384.887	81.31
385.112	95.31
385.337	95.31
385.562	83.31
385.787	90.31
386.013	92.31
386.238	103.31
386.463	90.31
386.688	93.31
386.913	87.31
387.138	80.31
387.363	80.31
387.588	93.31
387.813	86.31
388.038	76.31
388.263	96.31
388.488	99.31
388.713	90.31
388.938	79.31
389.163	81.31
389.387	74.31
389.612	86.31
389.837	80.31
390.062	74.31
390.287	88.31
390.512	100.31
390.736	89.31
390.961	86.31
391.186	87.31
391.411	69.31
391.636	78.31
391.86	92.31
392.085	86.31
392.31	83.31
392.534	84.31
392.759	84.31
392.984	91.31
393.208	85.31
393.433	85.31
393.658	89.31
393.882	94.31
394.107	82.31
394.331	92.31
394.556	90.31
394.78	80.31
395.005	104.31
395.229	87.31
395.454	86.31
395.678	86.31
395.903	80.31
396.127	92.31
396.352	95.31
396.576	77.31
396.801	89.31
397.025	91.31
397.249	87.31
397.474	92.31
397.698	99.31
397.922	87.31
398.147	80.31
398.371	84.31
398.595	88.31
398.82	95.31
399.044	67.31
399.268	94.31
399.492	89.31
399.717	94.31
399.941	78.31
400.165	92.31
400.389	91.31
400.613	86.31
400.837	86.31
401.062	80.31
401.286	91.31
401.51	80.31
401.734	98.31
401.958	95.31
402.182	79.31
402.406	88.31
402.63	76.31
402.854	86.31
403.078	84.31
403.302	86.31
403.526	96.31
403.75	98.31
403.974	84.31
404.198	94.31
404.422	103.31
404.645	87.31
404.869	90.31
405.093	92.31
405.317	78.31
405.541	82.31
405.765	96.31
405.988	102.31
406.212	91.31
406.436	83.31
406.66	92.31
406.883	92.31
407.107	80.31
407.331	76.31
407.555	83.31
407.778	92.31
408.002	81.31
408.226	87.31
408.449	84.31
408.673	101.31
408.896	92.31
409.12	88.31
409.344	106.31
409.567	98.31
409.791	77.31
410.014	91.31
410.238	97.31
410.461	79.31
410.685	86.31
410.908	84.31
411.132	85.31
411.355	80.31
411.578	92.31
411.802	78.31
412.025	85.31
412.249	89.31
412.472	98.31
412.695	107.31
412.919	85.31
413.142	89.31
413.365	90.31
413.589	84.31
413.812	94.31
414.035	73.31
414.258	88.31
414.482	90.31
414.705	86.31
414.928	86.31
415.151	82.31
415.374	90.31
415.597	94.31
415.821	91.31
416.044	85.31
416.267	83.31
416.49	98.31
416.713	90.31
416.936	78.31
417.159	87.31
417.382	95.31
417.605	85.31
417.828	82.31
418.051	92.31
418.274	88.31
418.497	89.31
418.72	91.31
418.943	102.31
419.166	90.31
419.389	84.31
419.611	82.31
419.834	94.31
420.057	90.31
420.28	86.31
420.503	100.31
420.726	93.31
420.948	83.31
421.171	88.31
421.394	96.31
421.617	95.31
421.839	83.31
422.062	99.31
422.285	72.31
422.507	81.31
422.73	92.31
422.953	89.31
423.175	100.31
423.398	91.31
423.621	98.31
423.843	92.31
424.066	107.31
424.288	85.31
424.511	97.31
424.733	90.31
424.956	92.31
425.178	73.31
425.401	84.31
425.623	87.31
425.846	88.31
426.068	84.31
426.291	93.31
426.513	83.31
426.735	81.31
426.958	95.31
427.18	88.31
427.402	91.31
427.625	77.31
427.847	86.31
428.069	89.31
428.292	96.31
428.514	84.31
428.736	91.31
428.958	80.31
429.181	80.31
429.403	78.31
429.625	87.31
429.847	90.31
430.069	90.31
430.292	91.31
430.514	85.31
430.736	79.31
430.958	79.31
431.18	78.31
431.402	78.31
431.624	103.31
431.846	80.31
432.068	91.31
432.29	93.31
432.512	88.31
432.734	96.31
432.956	84.31
433.178	95.31
433.4	86.31
433.622	95.31
433.844	74.31
434.066	85.31
434.287	92.31
434.509	75.31
434.731	81.31
434.953	83.31
435.175	91.31
435.397	95.31
435.618	95.31
435.84	89.31
436.062	91.31
436.284	93.31
436.505	78.31
436.727	95.31
436.949	95.31
437.17	79.31
437.392	90.31
437.614	92.31
437.835	84.31
438.057	104.31
438.278	94.31
438.5	87.31
438.721	92.31
438.943	99.31
439.165	93.31
439.386	91.31
439.608	90.31
439.829	83.31
440.05	79.31
440.272	89.31
440.493	86.31
440.715	89.31
440.936	86.31
441.158	89.31
441.379	76.31
441.6	88.31
441.822	95.31
442.043	85.31
442.264	101.31
442.486	80.31
442.707	88.31
442.928	79.31
443.149	88.31
443.371	84.31
443.592	100.31
443.813	84.31
444.034	99.31
444.255	99.31
444.476	97.31
444.698	88.31
444.919	86.31
445.14	222.31
445.361	150.31
445.582	87.31
445.803	84.31
446.024	80.31
446.245	82.31
446.466	86.31
446.687	82.31
446.908	74.31
447.129	84.31
447.35	84.31
447.571	80.31
447.792	84.31
448.013	79.31
448.234	102.31
448.455	96.31
448.675	92.31
448.896	111.31
449.117	89.31
449.338	77.31
449.559	87.31
449.779	84.31
450	79.31
450.221	84.31
450.442	94.31
450.662	69.31
450.883	81.31
451.104	88.31
451.324	89.31
451.545	92.31
451.766	79.31
451.986	82.31
452.207	92.31
452.428	86.31
452.648	72.31
452.869	88.31
453.089	88.31
453.31	68.31
453.53	86.31
453.751	104.31
453.971	85.31
454.192	98.31
454.412	75.31
454.633	95.31
454.853	84.31
455.073	101.31
455.294	88.31
455.514	93.31
455.734	94.31
455.955	73.31
456.175	85.31
456.395	82.31
456.616	85.31
456.836	83.31
457.056	81.31
457.276	92.31
457.497	102.31
457.717	95.31
457.937	90.31
458.157	73.31
458.377	85.31
458.598	75.31
458.818	73.31
459.038	86.31
459.258	77.31
459.478	92.31
459.698	91.31
459.918	87.31
460.138	102.31
460.358	87.31
460.578	95.31
460.798	83.31
461.018	90.31
461.238	98.31
461.458	97.31
461.678	90.31
461.898	88.31
462.118	103.31
462.338	94.31
462.558	83.31
462.777	89.31
462.997	96.31
463.217	100.31
463.437	89.31
463.657	92.31
463.876	103.31
464.096	107.31
464.316	86.31
464.536	83.31
464.755	84.31
464.975	89.31
465.195	88.31
465.414	95.31
465.634	103.31
465.854	94.31
466.073	94.31
466.293	90.31
466.512	79.31
466.732	94.31
466.951	81.31
467.171	93.31
467.391	104.31
467.61	98.31
467.829	95.31
468.049	89.31
468.268	92.31
468.488	76.31
468.707	80.31
468.927	89.31
469.146	78.31
469.365	91.31
469.585	90.31
469.804	93.31
470.023	90.31
470.243	94.31
470.462	98.31
470.681	86.31
470.901	76.31
471.12	83.31
471.339	73.31
471.558	105.31
471.777	99.31
471.997	89.31
472.216	98.31
472.435	86.31
472.654	75.31
472.873	107.31
473.092	95.31
473.311	87.31
473.53	85.31
473.749	88.31
473.968	86.31
474.187	89.31
474.406	92.31
474.625	102.31
474.844	88.31
475.063	92.31
475.282	101.31
475.501	93.31
475.72	92.31
475.939	81.31
476.158	102.31
476.377	95.31
476.596	93.31
476.814	87.31
477.033	88.31
477.252	92.31
477.471	87.31
477.69	95.31
477.908	94.31
478.127	93.31
478.346	88.31
478.564	94.31
478.783	81.31
479.002	93.31
479.22	88.31
479.439	87.31
479.658	81.31
479.876	102.31
480.095	87.31
480.313	86.31
480.532	93.31
480.751	91.31
480.969	87.31
481.188	86.31
481.406	100.31
481.624	91.31
481.843	91.31
482.061	106.31
482.28	83.31
482.498	88.31
482.717	91.31
482.935	96.31
483.153	91.31
483.372	100.31
483.59	91.31
483.808	100.31
484.027	91.31
484.245	94.31
484.463	94.31
484.681	90.31
484.9	90.31
485.118	98.31
485.336	93.31
485.554	97.31
485.772	96.31
485.99	94.31
486.209	91.31
486.427	86.31
486.645	108.31
486.863	102.31
487.081	92.31
487.299	98.31
487.517	80.31
487.735	84.31
487.953	78.31
488.171	92.31
488.389	80.31
488.607	99.31
488.825	98.31
489.043	101.31
489.261	99.31
489.479	76.31
489.696	94.31
489.914	90.31
490.132	120.31
490.35	82.31
490.568	94.31
490.786	89.31
491.003	105.31
491.221	105.31
491.439	91.31
491.657	77.31
491.874	103.31
492.092	94.31
492.31	83.31
492.527	103.31
492.745	110.31
492.963	85.31
493.18	95.31
493.398	112.31
493.615	102.31
493.833	102.31
494.05	105.31
494.268	104.31
494.485	98.31
494.703	103.31
494.92	100.31
495.138	95.31
495.355	93.31
495.573	85.31
495.79	101.31
496.008	87.31
496.225	96.31
496.442	112.31
496.66	108.31
496.877	79.31
497.094	97.31
497.312	96.31
497.529	101.31
497.746	105.31
497.963	107.31
498.181	88.31
498.398	104.31
498.615	107.31
498.832	96.31
499.049	110.31
499.267	108.31
499.484	90.31
499.701	96.31
499.918	107.31
500.135	103.31
500.352	117.31
500.569	121.31
500.786	117.31
501.003	114.31
501.22	101.31
501.437	92.31
501.654	110.31
501.871	107.31
502.088	97.31
502.305	103.31
502.522	102.31
502.739	109.31
502.956	102.31
503.172	103.31
503.389	93.31
503.606	101.31
503.823	93.31
504.04	101.31
504.256	99.31
504.473	103.31
504.69	99.31
504.907	95.31
505.123	80.31
505.34	107.31
505.557	96.31
505.773	94.31
505.99	102.31
506.207	84.31
506.423	81.31
506.64	81.31
506.856	88.31
507.073	105.31
507.289	87.31
507.506	104.31
507.722	94.31
507.939	105.31
508.155	119.31
508.372	111.31
508.588	104.31
508.805	91.31
509.021	99.31
509.238	95.31
509.454	89.31
509.67	93.31
509.887	81.31
510.103	90.31
510.319	96.31
510.536	94.31
510.752	90.31
510.968	92.31
511.184	85.31
511.401	91.31
511.617	79.31
511.833	93.31
512.049	95.31
512.265	95.31
512.481	102.31
512.698	87.31
512.914	90.31
513.13	95.31
513.346	90.31
513.562	88.31
513.778	88.31
513.994	83.31
514.21	98.31
514.426	93.31
514.642	88.31
514.858	106.31
515.074	89.31
515.29	94.31
515.506	94.31
515.721	92.31
515.937	80.31
516.153	92.31
516.369	96.31
516.585	92.31
516.801	87.31
517.016	92.31
517.232	101.31
517.448	100.31
517.664	98.31
