Data from Ni(NO3)2@0.125M.TitratingCurve.Agarose3%dH2O.NegLispCup.LampEnergy10.LIBS07252019_HRD10591_18-09-19-567.txt Node
Date: Thu Jul 25 18:09:19 EDT 2019
User: cochatt
Spectrometer: HR+D1059
Trigger mode: 1
Integration Time (sec): 1.000000E-1
Scans to average: 1
Electric dark correction enabled: true
Nonlinearity correction enabled: false
Boxcar width: 0
XAxis mode: Wavelengths
Number of Pixels in Spectrum: 2048
>>>>>Begin Spectral Data<<<<<
223.165	-20.06
223.4	-20.06
223.635	-20.06
223.869	-9.06
224.104	-11.06
224.338	-18.06
224.573	-14.06
224.808	-21.06
225.042	-10.06
225.277	-14.06
225.511	-10.06
225.746	11.94
225.98	2.94
226.215	14.94
226.449	27.94
226.683	19.94
226.918	19.94
227.152	29.94
227.387	39.94
227.621	50.94
227.856	41.94
228.09	38.94
228.324	58.94
228.559	69.94
228.793	73.94
229.027	87.94
229.262	93.94
229.496	111.94
229.73	117.94
229.964	120.94
230.199	119.94
230.433	124.94
230.667	134.94
230.901	137.94
231.136	113.94
231.37	139.94
231.604	141.94
231.838	132.94
232.072	126.94
232.306	131.94
232.541	143.94
232.775	127.94
233.009	147.94
233.243	139.94
233.477	151.94
233.711	153.94
233.945	135.94
234.179	134.94
234.413	152.94
234.647	163.94
234.881	148.94
235.115	143.94
235.349	147.94
235.583	149.94
235.817	147.94
236.051	151.94
236.285	162.94
236.519	164.94
236.753	157.94
236.987	145.94
237.221	152.94
237.455	151.94
237.689	158.94
237.922	169.94
238.156	158.94
238.39	159.94
238.624	158.94
238.858	175.94
239.091	157.94
239.325	162.94
239.559	165.94
239.793	169.94
240.027	163.94
240.26	161.94
240.494	170.94
240.728	182.94
240.961	178.94
241.195	177.94
241.429	195.94
241.662	191.94
241.896	180.94
242.13	182.94
242.363	188.94
242.597	177.94
242.83	183.94
243.064	182.94
243.298	187.94
243.531	189.94
243.765	195.94
243.998	201.94
244.232	200.94
244.465	208.94
244.699	204.94
244.932	218.94
245.166	189.94
245.399	205.94
245.633	206.94
245.866	204.94
246.099	218.94
246.333	208.94
246.566	213.94
246.8	203.94
247.033	214.94
247.266	213.94
247.5	201.94
247.733	214.94
247.966	222.94
248.2	222.94
248.433	232.94
248.666	214.94
248.899	225.94
249.133	222.94
249.366	223.94
249.599	242.94
249.832	218.94
250.066	242.94
250.299	247.94
250.532	230.94
250.765	234.94
250.998	260.94
251.231	250.94
251.465	247.94
251.698	260.94
251.931	243.94
252.164	259.94
252.397	257.94
252.63	277.94
252.863	281.94
253.096	273.94
253.329	242.94
253.562	255.94
253.795	266.94
254.028	285.94
254.261	265.94
254.494	277.94
254.727	257.94
254.96	261.94
255.193	265.94
255.426	257.94
255.659	262.94
255.892	265.94
256.124	264.94
256.357	272.94
256.59	281.94
256.823	268.94
257.056	280.94
257.289	282.94
257.521	277.94
257.754	269.94
257.987	274.94
258.22	292.94
258.452	294.94
258.685	293.94
258.918	298.94
259.151	287.94
259.383	287.94
259.616	296.94
259.849	312.94
260.081	289.94
260.314	289.94
260.547	283.94
260.779	292.94
261.012	307.94
261.244	306.94
261.477	319.94
261.71	308.94
261.942	307.94
262.175	315.94
262.407	299.94
262.64	306.94
262.872	321.94
263.105	313.94
263.337	313.94
263.57	314.94
263.802	330.94
264.035	328.94
264.267	327.94
264.499	310.94
264.732	315.94
264.964	325.94
265.197	338.94
265.429	337.94
265.661	325.94
265.894	341.94
266.126	342.94
266.358	328.94
266.591	348.94
266.823	335.94
267.055	338.94
267.287	358.94
267.52	328.94
267.752	338.94
267.984	350.94
268.216	348.94
268.448	333.94
268.681	354.94
268.913	350.94
269.145	370.94
269.377	350.94
269.609	353.94
269.841	361.94
270.073	343.94
270.306	334.94
270.538	362.94
270.77	338.94
271.002	342.94
271.234	349.94
271.466	362.94
271.698	361.94
271.93	361.94
272.162	373.94
272.394	386.94
272.626	374.94
272.858	382.94
273.09	364.94
273.322	373.94
273.553	371.94
273.785	375.94
274.017	385.94
274.249	400.94
274.481	369.94
274.713	371.94
274.945	404.94
275.176	381.94
275.408	374.94
275.64	393.94
275.872	401.94
276.104	373.94
276.335	410.94
276.567	402.94
276.799	392.94
277.031	407.94
277.262	393.94
277.494	375.94
277.726	388.94
277.957	400.94
278.189	405.94
278.421	400.94
278.652	403.94
278.884	433.94
279.115	406.94
279.347	420.94
279.579	419.94
279.81	411.94
280.042	421.94
280.273	407.94
280.505	414.94
280.736	431.94
280.968	434.94
281.199	419.94
281.431	441.94
281.662	427.94
281.894	437.94
282.125	429.94
282.356	426.94
282.588	446.94
282.819	448.94
283.051	413.94
283.282	444.94
283.513	441.94
283.745	454.94
283.976	437.94
284.207	453.94
284.439	445.94
284.67	467.94
284.901	463.94
285.132	447.94
285.364	473.94
285.595	499.94
285.826	466.94
286.057	468.94
286.288	453.94
286.52	470.94
286.751	464.94
286.982	486.94
287.213	452.94
287.444	462.94
287.675	480.94
287.906	482.94
288.138	497.94
288.369	500.94
288.6	485.94
288.831	494.94
289.062	481.94
289.293	481.94
289.524	477.94
289.755	493.94
289.986	516.94
290.217	488.94
290.448	489.94
290.679	491.94
290.91	475.94
291.141	483.94
291.371	479.94
291.602	472.94
291.833	508.94
292.064	504.94
292.295	477.94
292.526	500.94
292.757	472.94
292.987	481.94
293.218	515.94
293.449	505.94
293.68	499.94
293.91	472.94
294.141	489.94
294.372	475.94
294.603	498.94
294.833	517.94
295.064	507.94
295.295	522.94
295.525	509.94
295.756	525.94
295.987	502.94
296.217	493.94
296.448	492.94
296.679	539.94
296.909	502.94
297.14	527.94
297.37	548.94
297.601	543.94
297.831	519.94
298.062	535.94
298.292	543.94
298.523	562.94
298.753	526.94
298.984	557.94
299.214	557.94
299.445	550.94
299.675	555.94
299.905	554.94
300.136	533.94
300.366	529.94
300.597	540.94
300.827	562.94
301.057	583.94
301.288	568.94
301.518	581.94
301.748	569.94
301.979	579.94
302.209	582.94
302.439	564.94
302.669	560.94
302.9	558.94
303.13	567.94
303.36	533.94
303.59	562.94
303.82	543.94
304.051	562.94
304.281	566.94
304.511	565.94
304.741	555.94
304.971	579.94
305.201	555.94
305.431	572.94
305.661	571.94
305.891	563.94
306.121	545.94
306.352	539.94
306.582	538.94
306.812	542.94
307.042	536.94
307.272	536.94
307.502	547.94
307.731	552.94
307.961	561.94
308.191	555.94
308.421	542.94
308.651	558.94
308.881	551.94
309.111	528.94
309.341	544.94
309.571	544.94
309.8	550.94
310.03	535.94
310.26	544.94
310.49	547.94
310.72	533.94
310.949	543.94
311.179	552.94
311.409	577.94
311.639	581.94
311.868	574.94
312.098	551.94
312.328	561.94
312.557	589.94
312.787	578.94
313.017	572.94
313.246	583.94
313.476	584.94
313.706	601.94
313.935	614.94
314.165	602.94
314.394	598.94
314.624	596.94
314.853	612.94
315.083	589.94
315.312	569.94
315.542	591.94
315.771	591.94
316.001	581.94
316.23	618.94
316.46	571.94
316.689	583.94
316.919	578.94
317.148	580.94
317.377	598.94
317.607	588.94
317.836	558.94
318.065	570.94
318.295	585.94
318.524	590.94
318.753	578.94
318.983	568.94
319.212	590.94
319.441	565.94
319.67	573.94
319.9	592.94
320.129	597.94
320.358	591.94
320.587	583.94
320.816	591.94
321.046	596.94
321.275	607.94
321.504	595.94
321.733	574.94
321.962	588.94
322.191	588.94
322.42	622.94
322.649	591.94
322.878	586.94
323.108	593.94
323.337	579.94
323.566	595.94
323.795	590.94
324.024	617.94
324.253	585.94
324.482	601.94
324.71	617.94
324.939	592.94
325.168	631.94
325.397	627.94
325.626	620.94
325.855	642.94
326.084	653.94
326.313	643.94
326.542	667.94
326.77	683.94
326.999	669.94
327.228	663.94
327.457	654.94
327.686	616.94
327.914	659.94
328.143	655.94
328.372	637.94
328.6	654.94
328.829	660.94
329.058	639.94
329.287	665.94
329.515	643.94
329.744	674.94
329.972	654.94
330.201	670.94
330.43	663.94
330.658	675.94
330.887	673.94
331.115	689.94
331.344	685.94
331.572	685.94
331.801	726.94
332.03	742.94
332.258	711.94
332.486	754.94
332.715	785.94
332.943	844.94
333.172	860.94
333.4	912.94
333.629	896.94
333.857	932.94
334.085	898.94
334.314	898.94
334.542	841.94
334.771	831.94
334.999	829.94
335.227	858.94
335.455	813.94
335.684	809.94
335.912	791.94
336.14	809.94
336.369	767.94
336.597	795.94
336.825	820.94
337.053	781.94
337.281	769.94
337.51	761.94
337.738	766.94
337.966	736.94
338.194	719.94
338.422	725.94
338.65	723.94
338.878	737.94
339.106	735.94
339.334	727.94
339.562	708.94
339.79	689.94
340.018	681.94
340.246	691.94
340.474	663.94
340.702	678.94
340.93	698.94
341.158	700.94
341.386	695.94
341.614	683.94
341.842	681.94
342.07	668.94
342.298	668.94
342.526	663.94
342.754	675.94
342.981	677.94
343.209	704.94
343.437	720.94
343.665	776.94
343.893	853.94
344.12	848.94
344.348	806.94
344.576	748.94
344.804	750.94
345.031	715.94
345.259	721.94
345.487	677.94
345.714	689.94
345.942	677.94
346.17	668.94
346.397	667.94
346.625	662.94
346.853	665.94
347.08	668.94
347.308	689.94
347.535	695.94
347.763	684.94
347.99	669.94
348.218	677.94
348.445	659.94
348.673	644.94
348.9	666.94
349.128	651.94
349.355	681.94
349.583	668.94
349.81	646.94
350.037	635.94
350.265	665.94
350.492	659.94
350.72	639.94
350.947	647.94
351.174	646.94
351.402	652.94
351.629	642.94
351.856	621.94
352.083	645.94
352.311	633.94
352.538	632.94
352.765	652.94
352.992	622.94
353.22	653.94
353.447	644.94
353.674	656.94
353.901	667.94
354.128	614.94
354.355	635.94
354.583	627.94
354.81	638.94
355.037	640.94
355.264	632.94
355.491	682.94
355.718	669.94
355.945	662.94
356.172	663.94
356.399	659.94
356.626	659.94
356.853	632.94
357.08	662.94
357.307	627.94
357.534	643.94
357.761	639.94
357.988	657.94
358.215	626.94
358.441	630.94
358.668	630.94
358.895	641.94
359.122	629.94
359.349	645.94
359.576	660.94
359.802	651.94
360.029	619.94
360.256	642.94
360.483	638.94
360.709	616.94
360.936	614.94
361.163	649.94
361.39	633.94
361.616	650.94
361.843	645.94
362.07	653.94
362.296	667.94
362.523	633.94
362.749	635.94
362.976	642.94
363.203	631.94
363.429	613.94
363.656	645.94
363.882	642.94
364.109	630.94
364.335	643.94
364.562	640.94
364.788	637.94
365.015	637.94
365.241	620.94
365.468	631.94
365.694	627.94
365.92	654.94
366.147	645.94
366.373	645.94
366.599	633.94
366.826	631.94
367.052	659.94
367.278	638.94
367.505	644.94
367.731	655.94
367.957	653.94
368.184	640.94
368.41	611.94
368.636	651.94
368.862	658.94
369.089	659.94
369.315	634.94
369.541	662.94
369.767	668.94
369.993	658.94
370.219	669.94
370.445	677.94
370.672	685.94
370.898	674.94
371.124	673.94
371.35	723.94
371.576	693.94
371.802	715.94
372.028	687.94
372.254	686.94
372.48	725.94
372.706	732.94
372.932	720.94
373.158	739.94
373.384	706.94
373.61	695.94
373.835	697.94
374.061	695.94
374.287	708.94
374.513	739.94
374.739	731.94
374.965	784.94
375.191	779.94
375.416	758.94
375.642	725.94
375.868	749.94
376.094	702.94
376.319	709.94
376.545	698.94
376.771	695.94
376.997	699.94
377.222	711.94
377.448	711.94
377.674	703.94
377.899	692.94
378.125	681.94
378.35	689.94
378.576	660.94
378.802	689.94
379.027	693.94
379.253	682.94
379.478	689.94
379.704	681.94
379.929	670.94
380.155	670.94
380.38	693.94
380.606	697.94
380.831	693.94
381.057	718.94
381.282	701.94
381.507	679.94
381.733	706.94
381.958	694.94
382.184	695.94
382.409	722.94
382.634	730.94
382.86	737.94
383.085	748.94
383.31	745.94
383.535	738.94
383.761	773.94
383.986	795.94
384.211	796.94
384.436	798.94
384.662	828.94
384.887	838.94
385.112	841.94
385.337	841.94
385.562	820.94
385.787	859.94
386.013	855.94
386.238	845.94
386.463	823.94
386.688	830.94
386.913	833.94
387.138	842.94
387.363	801.94
387.588	839.94
387.813	817.94
388.038	817.94
388.263	809.94
388.488	845.94
388.713	819.94
388.938	822.94
389.163	814.94
389.387	808.94
389.612	797.94
389.837	810.94
390.062	805.94
390.287	846.94
390.512	811.94
390.736	801.94
390.961	849.94
391.186	859.94
391.411	866.94
391.636	907.94
391.86	937.94
392.085	935.94
392.31	955.94
392.534	917.94
392.759	895.94
392.984	909.94
393.208	869.94
393.433	874.94
393.658	893.94
393.882	911.94
394.107	907.94
394.331	883.94
394.556	874.94
394.78	897.94
395.005	907.94
395.229	877.94
395.454	920.94
395.678	947.94
395.903	949.94
396.127	949.94
396.352	926.94
396.576	860.94
396.801	861.94
397.025	886.94
397.249	898.94
397.474	929.94
397.698	937.94
397.922	947.94
398.147	943.94
398.371	965.94
398.595	991.94
398.82	1037.94
399.044	1093.94
399.268	1223.94
399.492	1435.94
399.717	1666.94
399.941	1629.94
400.165	1450.94
400.389	1245.94
400.613	1137.94
400.837	1099.94
401.062	1064.94
401.286	1065.94
401.51	1012.94
401.734	1043.94
401.958	1053.94
402.182	1098.94
402.406	1100.94
402.63	1083.94
402.854	1153.94
403.078	1167.94
403.302	1173.94
403.526	1182.94
403.75	1228.94
403.974	1247.94
404.198	1267.94
404.422	1260.94
404.645	1223.94
404.869	1206.94
405.093	1180.94
405.317	1197.94
405.541	1143.94
405.765	1153.94
405.988	1152.94
406.212	1149.94
406.436	1153.94
406.66	1168.94
406.883	1194.94
407.107	1273.94
407.331	1359.94
407.555	1381.94
407.778	1384.94
408.002	1377.94
408.226	1301.94
408.449	1269.94
408.673	1226.94
408.896	1195.94
409.12	1198.94
409.344	1192.94
409.567	1225.94
409.791	1212.94
410.014	1166.94
410.238	1161.94
410.461	1167.94
410.685	1166.94
410.908	1134.94
411.132	1108.94
411.355	1084.94
411.578	1103.94
411.802	1102.94
412.025	1120.94
412.249	1149.94
412.472	1099.94
412.695	1066.94
412.919	1035.94
413.142	1053.94
413.365	1030.94
413.589	1025.94
413.812	1082.94
414.035	1045.94
414.258	1073.94
414.482	1050.94
414.705	1045.94
414.928	1058.94
415.151	1045.94
415.374	1049.94
415.597	1064.94
415.821	1037.94
416.044	1016.94
416.267	1032.94
416.49	1040.94
416.713	1045.94
416.936	1058.94
417.159	1007.94
417.382	1067.94
417.605	1020.94
417.828	1039.94
418.051	1066.94
418.274	1061.94
418.497	1073.94
418.72	1097.94
418.943	1064.94
419.166	1124.94
419.389	1206.94
419.611	1167.94
419.834	1141.94
420.057	1102.94
420.28	1045.94
420.503	1032.94
420.726	1018.94
420.948	1045.94
421.171	1046.94
421.394	1067.94
421.617	1048.94
421.839	1081.94
422.062	1055.94
422.285	1049.94
422.507	1080.94
422.73	1093.94
422.953	1066.94
423.175	1097.94
423.398	1105.94
423.621	1112.94
423.843	1142.94
424.066	1153.94
424.288	1125.94
424.511	1127.94
424.733	1100.94
424.956	1089.94
425.178	1085.94
425.401	1042.94
425.623	1046.94
425.846	1023.94
426.068	1018.94
426.291	990.94
426.513	969.94
426.735	983.94
426.958	978.94
427.18	966.94
427.402	997.94
427.625	970.94
427.847	924.94
428.069	927.94
428.292	953.94
428.514	926.94
428.736	927.94
428.958	928.94
429.181	927.94
429.403	921.94
429.625	923.94
429.847	919.94
430.069	905.94
430.292	924.94
430.514	903.94
430.736	907.94
430.958	907.94
431.18	910.94
431.402	926.94
431.624	942.94
431.846	936.94
432.068	953.94
432.29	951.94
432.512	915.94
432.734	925.94
432.956	921.94
433.178	953.94
433.4	935.94
433.622	984.94
433.844	957.94
434.066	930.94
434.287	957.94
434.509	1011.94
434.731	1036.94
434.953	1031.94
435.175	1067.94
435.397	1056.94
435.618	991.94
435.84	993.94
436.062	957.94
436.284	907.94
436.505	960.94
436.727	953.94
436.949	955.94
437.17	923.94
437.392	920.94
437.614	898.94
437.835	892.94
438.057	925.94
438.278	892.94
438.5	909.94
438.721	903.94
438.943	914.94
439.165	905.94
439.386	909.94
439.608	950.94
439.829	934.94
440.05	950.94
440.272	970.94
440.493	951.94
440.715	969.94
440.936	975.94
441.158	993.94
441.379	1020.94
441.6	1060.94
441.822	1097.94
442.043	1097.94
442.264	1054.94
442.486	1039.94
442.707	1051.94
442.928	1044.94
443.149	1021.94
443.371	1044.94
443.592	1080.94
443.813	1077.94
444.034	1093.94
444.255	1128.94
444.476	1149.94
444.698	1232.94
444.919	1303.94
445.14	1379.94
445.361	1212.94
445.582	1101.94
445.803	1046.94
446.024	1012.94
446.245	1002.94
446.466	983.94
446.687	927.94
446.908	956.94
447.129	926.94
447.35	931.94
447.571	899.94
447.792	904.94
448.013	899.94
448.234	887.94
448.455	888.94
448.675	886.94
448.896	868.94
449.117	865.94
449.338	868.94
449.559	891.94
449.779	829.94
450	851.94
450.221	879.94
450.442	855.94
450.662	887.94
450.883	861.94
451.104	917.94
451.324	892.94
451.545	894.94
451.766	896.94
451.986	897.94
452.207	870.94
452.428	846.94
452.648	852.94
452.869	870.94
453.089	862.94
453.31	835.94
453.53	854.94
453.751	835.94
453.971	841.94
454.192	822.94
454.412	820.94
454.633	795.94
454.853	811.94
455.073	796.94
455.294	817.94
455.514	790.94
455.734	789.94
455.955	776.94
456.175	795.94
456.395	777.94
456.616	775.94
456.836	809.94
457.056	810.94
457.276	793.94
457.497	803.94
457.717	779.94
457.937	798.94
458.157	814.94
458.377	802.94
458.598	845.94
458.818	849.94
459.038	897.94
459.258	921.94
459.478	945.94
459.698	973.94
459.918	982.94
460.138	1036.94
460.358	1090.94
460.578	1151.94
460.798	1155.94
461.018	1133.94
461.238	1130.94
461.458	1096.94
461.678	1098.94
461.898	1105.94
462.118	1104.94
462.338	1153.94
462.558	1229.94
462.777	1234.94
462.997	1389.94
463.217	1550.94
463.437	1555.94
463.657	1403.94
463.876	1332.94
464.096	1315.94
464.316	1301.94
464.536	1311.94
464.755	1278.94
464.975	1248.94
465.195	1129.94
465.414	1077.94
465.634	1041.94
465.854	990.94
466.073	966.94
466.293	928.94
466.512	916.94
466.732	910.94
466.951	928.94
467.171	883.94
467.391	890.94
467.61	919.94
467.829	902.94
468.049	897.94
468.268	898.94
468.488	876.94
468.707	855.94
468.927	868.94
469.146	875.94
469.365	886.94
469.585	883.94
469.804	924.94
470.023	900.94
470.243	923.94
470.462	964.94
470.681	938.94
470.901	963.94
471.12	911.94
471.339	899.94
471.558	857.94
471.777	856.94
471.997	881.94
472.216	853.94
472.435	850.94
472.654	839.94
472.873	836.94
473.092	824.94
473.311	829.94
473.53	862.94
473.749	831.94
473.968	842.94
474.187	834.94
474.406	848.94
474.625	857.94
474.844	824.94
475.063	826.94
475.282	846.94
475.501	853.94
475.72	855.94
475.939	855.94
476.158	872.94
476.377	868.94
476.596	891.94
476.814	878.94
477.033	873.94
477.252	898.94
477.471	926.94
477.69	915.94
477.908	953.94
478.127	990.94
478.346	968.94
478.564	1032.94
478.783	1037.94
479.002	1044.94
479.22	1062.94
479.439	1081.94
479.658	1045.94
479.876	1047.94
480.095	1057.94
480.313	1104.94
480.532	1135.94
480.751	1127.94
480.969	1058.94
481.188	1033.94
481.406	1005.94
481.624	980.94
481.843	963.94
482.061	951.94
482.28	971.94
482.498	943.94
482.717	946.94
482.935	935.94
483.153	931.94
483.372	955.94
483.59	955.94
483.808	963.94
484.027	956.94
484.245	956.94
484.463	989.94
484.681	961.94
484.9	972.94
485.118	974.94
485.336	994.94
485.554	991.94
485.772	980.94
485.99	991.94
486.209	1016.94
486.427	989.94
486.645	994.94
486.863	1010.94
487.081	1019.94
487.299	999.94
487.517	1006.94
487.735	996.94
487.953	1004.94
488.171	991.94
488.389	1024.94
488.607	989.94
488.825	967.94
489.043	963.94
489.261	1008.94
489.479	975.94
489.696	988.94
489.914	984.94
490.132	979.94
490.35	984.94
490.568	982.94
490.786	988.94
491.003	1016.94
491.221	1004.94
491.439	1017.94
491.657	1019.94
491.874	1022.94
492.092	1028.94
492.31	976.94
492.527	1044.94
492.745	1028.94
492.963	1038.94
493.18	1022.94
493.398	1040.94
493.615	1069.94
493.833	1079.94
494.05	1070.94
494.268	1053.94
494.485	1053.94
494.703	1055.94
494.92	1047.94
495.138	1085.94
495.355	1074.94
495.573	1053.94
495.79	1039.94
496.008	1080.94
496.225	1058.94
496.442	1055.94
496.66	1087.94
496.877	1105.94
497.094	1149.94
497.312	1139.94
497.529	1171.94
497.746	1212.94
497.963	1248.94
498.181	1292.94
498.398	1393.94
