Data from Ni(NO3)2@0.125M.TitratingCurve.Agarose3%dH2O.NegLispCup.LampEnergy10.LIBS07252019_HRD10591_18-11-19-568.txt Node
Date: Thu Jul 25 18:11:19 EDT 2019
User: cochatt
Spectrometer: HR+D1059
Trigger mode: 1
Integration Time (sec): 1.000000E-1
Scans to average: 1
Electric dark correction enabled: true
Nonlinearity correction enabled: false
Boxcar width: 0
XAxis mode: Wavelengths
Number of Pixels in Spectrum: 2048
>>>>>Begin Spectral Data<<<<<
223.165	-28.88
223.4	-28.88
223.635	-28.88
223.869	-6.88
224.104	-15.88
224.338	-12.88
224.573	-12.88
224.808	-15.88
225.042	-3.88
225.277	-16.88
225.511	-5.88
225.746	10.12
225.98	-4.88
226.215	18.12
226.449	15.12
226.683	16.12
226.918	18.12
227.152	47.12
227.387	46.12
227.621	41.12
227.856	33.12
228.09	44.12
228.324	54.12
228.559	57.12
228.793	74.12
229.027	87.12
229.262	105.12
229.496	103.12
229.73	108.12
229.964	115.12
230.199	118.12
230.433	108.12
230.667	110.12
230.901	117.12
231.136	120.12
231.37	137.12
231.604	111.12
231.838	138.12
232.072	136.12
232.306	118.12
232.541	132.12
232.775	139.12
233.009	140.12
233.243	123.12
233.477	147.12
233.711	140.12
233.945	153.12
234.179	145.12
234.413	139.12
234.647	149.12
234.881	134.12
235.115	134.12
235.349	138.12
235.583	144.12
235.817	153.12
236.051	141.12
236.285	135.12
236.519	154.12
236.753	151.12
236.987	140.12
237.221	151.12
237.455	152.12
237.689	139.12
237.922	151.12
238.156	131.12
238.39	142.12
238.624	141.12
238.858	167.12
239.091	149.12
239.325	155.12
239.559	168.12
239.793	145.12
240.027	161.12
240.26	155.12
240.494	160.12
240.728	154.12
240.961	158.12
241.195	168.12
241.429	170.12
241.662	161.12
241.896	181.12
242.13	170.12
242.363	178.12
242.597	175.12
242.83	175.12
243.064	171.12
243.298	187.12
243.531	184.12
243.765	191.12
243.998	185.12
244.232	191.12
244.465	194.12
244.699	183.12
244.932	206.12
245.166	202.12
245.399	198.12
245.633	184.12
245.866	196.12
246.099	197.12
246.333	194.12
246.566	210.12
246.8	209.12
247.033	232.12
247.266	204.12
247.5	211.12
247.733	218.12
247.966	218.12
248.2	219.12
248.433	203.12
248.666	213.12
248.899	209.12
249.133	212.12
249.366	211.12
249.599	211.12
249.832	231.12
250.066	220.12
250.299	204.12
250.532	222.12
250.765	219.12
250.998	238.12
251.231	233.12
251.465	248.12
251.698	226.12
251.931	250.12
252.164	235.12
252.397	240.12
252.63	238.12
252.863	232.12
253.096	264.12
253.329	242.12
253.562	255.12
253.795	251.12
254.028	231.12
254.261	255.12
254.494	224.12
254.727	236.12
254.96	248.12
255.193	265.12
255.426	258.12
255.659	258.12
255.892	273.12
256.124	275.12
256.357	245.12
256.59	254.12
256.823	264.12
257.056	253.12
257.289	258.12
257.521	265.12
257.754	265.12
257.987	269.12
258.22	278.12
258.452	279.12
258.685	282.12
258.918	274.12
259.151	277.12
259.383	286.12
259.616	288.12
259.849	271.12
260.081	279.12
260.314	280.12
260.547	281.12
260.779	266.12
261.012	297.12
261.244	286.12
261.477	291.12
261.71	298.12
261.942	289.12
262.175	288.12
262.407	303.12
262.64	290.12
262.872	292.12
263.105	302.12
263.337	276.12
263.57	301.12
263.802	306.12
264.035	306.12
264.267	307.12
264.499	310.12
264.732	302.12
264.964	319.12
265.197	317.12
265.429	324.12
265.661	299.12
265.894	323.12
266.126	322.12
266.358	321.12
266.591	317.12
266.823	341.12
267.055	337.12
267.287	325.12
267.52	322.12
267.752	318.12
267.984	313.12
268.216	342.12
268.448	315.12
268.681	320.12
268.913	331.12
269.145	341.12
269.377	324.12
269.609	350.12
269.841	340.12
270.073	315.12
270.306	342.12
270.538	343.12
270.77	335.12
271.002	345.12
271.234	338.12
271.466	344.12
271.698	352.12
271.93	328.12
272.162	350.12
272.394	354.12
272.626	350.12
272.858	318.12
273.09	351.12
273.322	353.12
273.553	348.12
273.785	366.12
274.017	354.12
274.249	360.12
274.481	363.12
274.713	360.12
274.945	384.12
275.176	387.12
275.408	380.12
275.64	367.12
275.872	364.12
276.104	342.12
276.335	363.12
276.567	370.12
276.799	378.12
277.031	359.12
277.262	382.12
277.494	390.12
277.726	377.12
277.957	371.12
278.189	347.12
278.421	374.12
278.652	396.12
278.884	380.12
279.115	389.12
279.347	398.12
279.579	394.12
279.81	390.12
280.042	387.12
280.273	389.12
280.505	392.12
280.736	414.12
280.968	402.12
281.199	412.12
281.431	393.12
281.662	404.12
281.894	409.12
282.125	404.12
282.356	414.12
282.588	409.12
282.819	403.12
283.051	408.12
283.282	429.12
283.513	417.12
283.745	460.12
283.976	426.12
284.207	420.12
284.439	425.12
284.67	434.12
284.901	418.12
285.132	441.12
285.364	433.12
285.595	442.12
285.826	430.12
286.057	436.12
286.288	434.12
286.52	432.12
286.751	425.12
286.982	452.12
287.213	440.12
287.444	443.12
287.675	447.12
287.906	433.12
288.138	454.12
288.369	436.12
288.6	491.12
288.831	453.12
289.062	458.12
289.293	451.12
289.524	444.12
289.755	454.12
289.986	471.12
290.217	451.12
290.448	465.12
290.679	467.12
290.91	465.12
291.141	457.12
291.371	440.12
291.602	463.12
291.833	474.12
292.064	457.12
292.295	441.12
292.526	466.12
292.757	459.12
292.987	470.12
293.218	458.12
293.449	481.12
293.68	473.12
293.91	466.12
294.141	454.12
294.372	453.12
294.603	466.12
294.833	468.12
295.064	486.12
295.295	489.12
295.525	468.12
295.756	469.12
295.987	491.12
296.217	501.12
296.448	480.12
296.679	498.12
296.909	481.12
297.14	501.12
297.37	509.12
297.601	515.12
297.831	515.12
298.062	501.12
298.292	512.12
298.523	524.12
298.753	532.12
298.984	515.12
299.214	502.12
299.445	510.12
299.675	520.12
299.905	507.12
300.136	499.12
300.366	517.12
300.597	526.12
300.827	523.12
301.057	524.12
301.288	538.12
301.518	520.12
301.748	539.12
301.979	533.12
302.209	540.12
302.439	561.12
302.669	519.12
302.9	520.12
303.13	520.12
303.36	516.12
303.59	519.12
303.82	522.12
304.051	545.12
304.281	523.12
304.511	523.12
304.741	532.12
304.971	526.12
305.201	521.12
305.431	519.12
305.661	521.12
305.891	521.12
306.121	524.12
306.352	512.12
306.582	485.12
306.812	497.12
307.042	514.12
307.272	495.12
307.502	483.12
307.731	504.12
307.961	480.12
308.191	500.12
308.421	504.12
308.651	530.12
308.881	515.12
309.111	531.12
309.341	501.12
309.571	522.12
309.8	499.12
310.03	513.12
310.26	506.12
310.49	508.12
310.72	522.12
310.949	512.12
311.179	498.12
311.409	511.12
311.639	498.12
311.868	500.12
312.098	529.12
312.328	534.12
312.557	536.12
312.787	531.12
313.017	527.12
313.246	531.12
313.476	524.12
313.706	552.12
313.935	566.12
314.165	554.12
314.394	558.12
314.624	561.12
314.853	553.12
315.083	548.12
315.312	539.12
315.542	535.12
315.771	545.12
316.001	531.12
316.23	556.12
316.46	535.12
316.689	547.12
316.919	534.12
317.148	543.12
317.377	532.12
317.607	545.12
317.836	523.12
318.065	531.12
318.295	547.12
318.524	527.12
318.753	517.12
318.983	546.12
319.212	536.12
319.441	530.12
319.67	535.12
319.9	514.12
320.129	528.12
320.358	544.12
320.587	558.12
320.816	541.12
321.046	526.12
321.275	536.12
321.504	546.12
321.733	559.12
321.962	539.12
322.191	549.12
322.42	539.12
322.649	529.12
322.878	526.12
323.108	541.12
323.337	542.12
323.566	538.12
323.795	562.12
324.024	567.12
324.253	544.12
324.482	553.12
324.71	526.12
324.939	544.12
325.168	598.12
325.397	555.12
325.626	549.12
325.855	575.12
326.084	590.12
326.313	596.12
326.542	609.12
326.77	590.12
326.999	585.12
327.228	580.12
327.457	590.12
327.686	574.12
327.914	607.12
328.143	592.12
328.372	577.12
328.6	605.12
328.829	574.12
329.058	583.12
329.287	608.12
329.515	591.12
329.744	600.12
329.972	616.12
330.201	638.12
330.43	636.12
330.658	600.12
330.887	603.12
331.115	608.12
331.344	632.12
331.572	628.12
331.801	642.12
332.03	680.12
332.258	672.12
332.486	678.12
332.715	704.12
332.943	734.12
333.172	789.12
333.4	797.12
333.629	855.12
333.857	795.12
334.085	798.12
334.314	800.12
334.542	777.12
334.771	792.12
334.999	748.12
335.227	728.12
335.455	739.12
335.684	736.12
335.912	717.12
336.14	753.12
336.369	709.12
336.597	724.12
336.825	715.12
337.053	718.12
337.281	696.12
337.51	665.12
337.738	663.12
337.966	665.12
338.194	656.12
338.422	659.12
338.65	620.12
338.878	662.12
339.106	658.12
339.334	648.12
339.562	613.12
339.79	634.12
340.018	609.12
340.246	634.12
340.474	632.12
340.702	617.12
340.93	602.12
341.158	650.12
341.386	625.12
341.614	632.12
341.842	610.12
342.07	615.12
342.298	592.12
342.526	614.12
342.754	599.12
342.981	634.12
343.209	621.12
343.437	676.12
343.665	705.12
343.893	752.12
344.12	775.12
344.348	731.12
344.576	709.12
344.804	688.12
345.031	650.12
345.259	645.12
345.487	655.12
345.714	622.12
345.942	622.12
346.17	615.12
346.397	624.12
346.625	595.12
346.853	617.12
347.08	623.12
347.308	611.12
347.535	626.12
347.763	642.12
347.99	649.12
348.218	643.12
348.445	616.12
348.673	616.12
348.9	632.12
349.128	595.12
349.355	596.12
349.583	596.12
349.81	600.12
350.037	590.12
350.265	614.12
350.492	608.12
350.72	607.12
350.947	588.12
351.174	578.12
351.402	579.12
351.629	574.12
351.856	564.12
352.083	580.12
352.311	568.12
352.538	577.12
352.765	591.12
352.992	574.12
353.22	562.12
353.447	580.12
353.674	574.12
353.901	575.12
354.128	585.12
354.355	589.12
354.583	570.12
354.81	583.12
355.037	568.12
355.264	581.12
355.491	608.12
355.718	595.12
355.945	603.12
356.172	575.12
356.399	592.12
356.626	576.12
356.853	591.12
357.08	596.12
357.307	582.12
357.534	580.12
357.761	592.12
357.988	586.12
358.215	577.12
358.441	577.12
358.668	581.12
358.895	580.12
359.122	573.12
359.349	578.12
359.576	593.12
359.802	606.12
360.029	592.12
360.256	578.12
360.483	593.12
360.709	591.12
360.936	580.12
361.163	571.12
361.39	574.12
361.616	600.12
361.843	573.12
362.07	571.12
362.296	571.12
362.523	585.12
362.749	584.12
362.976	555.12
363.203	568.12
363.429	564.12
363.656	571.12
363.882	574.12
364.109	579.12
364.335	589.12
364.562	583.12
364.788	567.12
365.015	580.12
365.241	589.12
365.468	565.12
365.694	592.12
365.92	576.12
366.147	559.12
366.373	576.12
366.599	582.12
366.826	564.12
367.052	571.12
367.278	567.12
367.505	562.12
367.731	570.12
367.957	567.12
368.184	550.12
368.41	577.12
368.636	567.12
368.862	586.12
369.089	576.12
369.315	582.12
369.541	592.12
369.767	610.12
369.993	600.12
370.219	600.12
370.445	633.12
370.672	640.12
370.898	609.12
371.124	634.12
371.35	643.12
371.576	628.12
371.802	652.12
372.028	645.12
372.254	618.12
372.48	630.12
372.706	634.12
372.932	663.12
373.158	650.12
373.384	626.12
373.61	658.12
373.835	644.12
374.061	617.12
374.287	607.12
374.513	656.12
374.739	670.12
374.965	694.12
375.191	695.12
375.416	714.12
375.642	662.12
375.868	692.12
376.094	665.12
376.319	637.12
376.545	624.12
376.771	614.12
376.997	622.12
377.222	631.12
377.448	657.12
377.674	638.12
377.899	647.12
378.125	640.12
378.35	604.12
378.576	635.12
378.802	628.12
379.027	607.12
379.253	624.12
379.478	604.12
379.704	629.12
379.929	626.12
380.155	645.12
380.38	627.12
380.606	634.12
380.831	615.12
381.057	632.12
381.282	639.12
381.507	635.12
381.733	636.12
381.958	649.12
382.184	650.12
382.409	674.12
382.634	667.12
382.86	663.12
383.085	668.12
383.31	707.12
383.535	714.12
383.761	740.12
383.986	724.12
384.211	739.12
384.436	729.12
384.662	767.12
384.887	782.12
385.112	752.12
385.337	785.12
385.562	773.12
385.787	782.12
386.013	792.12
386.238	774.12
386.463	783.12
386.688	806.12
386.913	755.12
387.138	741.12
387.363	777.12
387.588	768.12
387.813	737.12
388.038	734.12
388.263	743.12
388.488	730.12
388.713	772.12
388.938	756.12
389.163	749.12
389.387	728.12
389.612	710.12
389.837	729.12
390.062	724.12
390.287	763.12
390.512	740.12
390.736	743.12
390.961	756.12
391.186	734.12
391.411	807.12
391.636	807.12
391.86	838.12
392.085	872.12
392.31	854.12
392.534	854.12
392.759	818.12
392.984	805.12
393.208	816.12
393.433	801.12
393.658	809.12
393.882	829.12
394.107	834.12
394.331	845.12
394.556	830.12
394.78	834.12
395.005	806.12
395.229	818.12
395.454	833.12
395.678	861.12
395.903	864.12
396.127	824.12
396.352	803.12
396.576	787.12
396.801	798.12
397.025	806.12
397.249	827.12
397.474	871.12
397.698	842.12
397.922	861.12
398.147	834.12
398.371	872.12
398.595	880.12
398.82	948.12
399.044	965.12
399.268	1075.12
399.492	1288.12
399.717	1500.12
399.941	1517.12
400.165	1303.12
400.389	1160.12
400.613	1052.12
400.837	997.12
401.062	962.12
401.286	936.12
401.51	929.12
401.734	963.12
401.958	959.12
402.182	961.12
402.406	984.12
402.63	1000.12
402.854	1053.12
403.078	1052.12
403.302	1070.12
403.526	1086.12
403.75	1113.12
403.974	1131.12
404.198	1132.12
404.422	1152.12
404.645	1112.12
404.869	1092.12
405.093	1096.12
405.317	1094.12
405.541	1046.12
405.765	1056.12
405.988	1029.12
406.212	1075.12
406.436	1036.12
406.66	1067.12
406.883	1086.12
407.107	1170.12
407.331	1248.12
407.555	1273.12
407.778	1247.12
408.002	1254.12
408.226	1171.12
408.449	1162.12
408.673	1128.12
408.896	1112.12
409.12	1123.12
409.344	1106.12
409.567	1077.12
409.791	1160.12
410.014	1143.12
410.238	1103.12
410.461	1106.12
410.685	1078.12
410.908	1043.12
411.132	1052.12
411.355	993.12
411.578	1026.12
411.802	1040.12
412.025	1001.12
412.249	1003.12
412.472	984.12
412.695	995.12
412.919	917.12
413.142	962.12
413.365	962.12
413.589	960.12
413.812	964.12
414.035	935.12
414.258	953.12
414.482	966.12
414.705	986.12
414.928	983.12
415.151	972.12
415.374	933.12
415.597	967.12
415.821	963.12
416.044	942.12
416.267	915.12
416.49	934.12
416.713	930.12
416.936	934.12
417.159	946.12
417.382	979.12
417.605	927.12
417.828	932.12
418.051	975.12
418.274	977.12
418.497	956.12
418.72	986.12
418.943	979.12
419.166	1056.12
419.389	1135.12
419.611	1061.12
419.834	1046.12
420.057	1017.12
420.28	984.12
420.503	980.12
420.726	931.12
420.948	944.12
421.171	935.12
421.394	956.12
421.617	932.12
421.839	960.12
422.062	967.12
422.285	931.12
422.507	994.12
422.73	1000.12
422.953	1009.12
423.175	1030.12
423.398	1033.12
423.621	1033.12
423.843	1016.12
424.066	1079.12
424.288	1049.12
424.511	1053.12
424.733	1017.12
424.956	1003.12
425.178	986.12
425.401	983.12
425.623	964.12
425.846	934.12
426.068	913.12
426.291	918.12
426.513	912.12
426.735	869.12
426.958	889.12
427.18	898.12
427.402	916.12
427.625	884.12
427.847	878.12
428.069	865.12
428.292	864.12
428.514	853.12
428.736	851.12
428.958	854.12
429.181	854.12
429.403	839.12
429.625	826.12
429.847	838.12
430.069	825.12
430.292	840.12
430.514	838.12
430.736	832.12
430.958	850.12
431.18	850.12
431.402	836.12
431.624	842.12
431.846	859.12
432.068	848.12
432.29	896.12
432.512	841.12
432.734	855.12
432.956	866.12
433.178	850.12
433.4	847.12
433.622	864.12
433.844	877.12
434.066	866.12
434.287	891.12
434.509	932.12
434.731	954.12
434.953	979.12
435.175	994.12
435.397	976.12
435.618	935.12
435.84	918.12
436.062	874.12
436.284	852.12
436.505	860.12
436.727	862.12
436.949	890.12
437.17	859.12
437.392	843.12
437.614	828.12
437.835	829.12
438.057	841.12
438.278	841.12
438.5	794.12
438.721	828.12
438.943	826.12
439.165	838.12
439.386	852.12
439.608	870.12
439.829	854.12
440.05	872.12
440.272	826.12
440.493	873.12
440.715	904.12
440.936	884.12
441.158	908.12
441.379	928.12
441.6	997.12
441.822	990.12
442.043	988.12
442.264	988.12
442.486	960.12
442.707	950.12
442.928	952.12
443.149	978.12
443.371	967.12
443.592	956.12
443.813	964.12
444.034	974.12
444.255	1018.12
444.476	1072.12
444.698	1156.12
444.919	1196.12
445.14	1214.12
445.361	1115.12
445.582	1015.12
445.803	969.12
446.024	930.12
446.245	910.12
446.466	901.12
446.687	872.12
446.908	870.12
447.129	844.12
447.35	856.12
447.571	849.12
447.792	795.12
448.013	823.12
448.234	792.12
448.455	799.12
448.675	796.12
448.896	818.12
449.117	786.12
449.338	801.12
449.559	813.12
449.779	793.12
450	788.12
450.221	802.12
450.442	809.12
450.662	807.12
450.883	834.12
451.104	834.12
451.324	828.12
451.545	864.12
451.766	825.12
451.986	796.12
452.207	809.12
452.428	818.12
452.648	806.12
452.869	804.12
453.089	807.12
453.31	817.12
453.53	786.12
453.751	778.12
453.971	780.12
454.192	789.12
454.412	750.12
454.633	753.12
454.853	755.12
455.073	747.12
455.294	747.12
455.514	722.12
455.734	735.12
455.955	740.12
456.175	750.12
456.395	734.12
456.616	727.12
456.836	729.12
457.056	735.12
457.276	728.12
457.497	724.12
457.717	740.12
457.937	745.12
458.157	766.12
458.377	770.12
458.598	770.12
458.818	793.12
459.038	824.12
459.258	852.12
459.478	887.12
459.698	904.12
459.918	932.12
460.138	968.12
460.358	1043.12
460.578	1016.12
460.798	1058.12
461.018	1046.12
461.238	1046.12
461.458	1042.12
461.678	1033.12
461.898	1058.12
462.118	1028.12
462.338	1079.12
462.558	1112.12
462.777	1145.12
462.997	1238.12
463.217	1455.12
463.437	1455.12
463.657	1315.12
463.876	1217.12
464.096	1230.12
464.316	1224.12
464.536	1247.12
464.755	1182.12
464.975	1146.12
465.195	1082.12
465.414	1015.12
465.634	938.12
465.854	933.12
466.073	875.12
466.293	858.12
466.512	871.12
466.732	843.12
466.951	861.12
467.171	847.12
467.391	834.12
467.61	870.12
467.829	834.12
468.049	811.12
468.268	800.12
468.488	791.12
468.707	789.12
468.927	759.12
469.146	788.12
469.365	795.12
469.585	809.12
469.804	826.12
470.023	824.12
470.243	870.12
470.462	873.12
470.681	882.12
470.901	909.12
471.12	854.12
471.339	833.12
471.558	828.12
471.777	837.12
471.997	805.12
472.216	806.12
472.435	781.12
472.654	768.12
472.873	784.12
473.092	752.12
473.311	784.12
473.53	772.12
473.749	767.12
473.968	771.12
474.187	774.12
474.406	762.12
474.625	777.12
474.844	786.12
475.063	756.12
475.282	768.12
475.501	769.12
475.72	803.12
475.939	761.12
476.158	779.12
476.377	795.12
476.596	780.12
476.814	824.12
477.033	830.12
477.252	830.12
477.471	855.12
477.69	882.12
477.908	897.12
478.127	914.12
478.346	923.12
478.564	939.12
478.783	937.12
479.002	979.12
479.22	993.12
479.439	987.12
479.658	936.12
479.876	972.12
480.095	996.12
480.313	1032.12
480.532	1054.12
480.751	1067.12
480.969	979.12
481.188	949.12
481.406	927.12
481.624	926.12
481.843	893.12
482.061	899.12
482.28	886.12
482.498	891.12
482.717	852.12
482.935	857.12
483.153	876.12
483.372	886.12
483.59	882.12
483.808	884.12
484.027	888.12
484.245	894.12
484.463	914.12
484.681	896.12
484.9	897.12
485.118	917.12
485.336	906.12
485.554	950.12
485.772	948.12
485.99	949.12
486.209	946.12
486.427	950.12
486.645	943.12
486.863	942.12
487.081	920.12
487.299	962.12
487.517	961.12
487.735	930.12
487.953	920.12
488.171	916.12
488.389	906.12
488.607	897.12
488.825	930.12
489.043	946.12
489.261	926.12
489.479	938.12
489.696	955.12
489.914	936.12
490.132	932.12
490.35	934.12
490.568	923.12
490.786	930.12
491.003	930.12
491.221	929.12
491.439	927.12
491.657	928.12
491.874	942.12
492.092	950.12
492.31	925.12
492.527	953.12
492.745	960.12
492.963	954.12
493.18	962.12
493.398	1003.12
493.615	986.12
493.833	980.12
494.05	986.12
494.268	994.12
494.485	1003.12
494.703	987.12
494.92	975.12
495.138	1009.12
495.355	997.12
495.573	976.12
495.79	988.12
496.008	1006.12
496.225	988.12
496.442	1010.12
496.66	1031.12
496.877	1036.12
497.094	1073.12
497.312	1050.12
497.529	1093.12
497.746	1118.12
497.963	1119.12
498.181	1218.12
498.398	1231.12
498.615	1306.12
498.832	1399.12
499.049	1504.12
499.267	1627.12
499.484	1803.12
499.701	1997.12
499.918	2228.12
