Data from Ni(NO3)2@0.125M.TitratingCurve.Agarose3%dH2O.NegLispCup.LampEnergy10.LIBS07252019_HRD10591_18-10-34-567.txt Node
Date: Thu Jul 25 18:10:34 EDT 2019
User: cochatt
Spectrometer: HR+D1059
Trigger mode: 1
Integration Time (sec): 1.000000E-1
Scans to average: 1
Electric dark correction enabled: true
Nonlinearity correction enabled: false
Boxcar width: 0
XAxis mode: Wavelengths
Number of Pixels in Spectrum: 2048
>>>>>Begin Spectral Data<<<<<
223.165	4.44
223.4	4.44
223.635	4.44
223.869	-15.56
224.104	-13.56
224.338	-1.56
224.573	-20.56
224.808	-12.56
225.042	-14.56
225.277	-17.56
225.511	-6.56
225.746	-2.56
225.98	-1.56
226.215	21.44
226.449	11.44
226.683	18.44
226.918	22.44
227.152	28.44
227.387	35.44
227.621	46.44
227.856	38.44
228.09	49.44
228.324	46.44
228.559	53.44
228.793	69.44
229.027	86.44
229.262	86.44
229.496	103.44
229.73	96.44
229.964	93.44
230.199	102.44
230.433	112.44
230.667	116.44
230.901	117.44
231.136	89.44
231.37	117.44
231.604	115.44
231.838	114.44
232.072	123.44
232.306	125.44
232.541	116.44
232.775	118.44
233.009	130.44
233.243	126.44
233.477	108.44
233.711	117.44
233.945	116.44
234.179	125.44
234.413	122.44
234.647	126.44
234.881	131.44
235.115	139.44
235.349	113.44
235.583	124.44
235.817	127.44
236.051	121.44
236.285	147.44
236.519	135.44
236.753	112.44
236.987	122.44
237.221	122.44
237.455	123.44
237.689	133.44
237.922	143.44
238.156	141.44
238.39	126.44
238.624	128.44
238.858	139.44
239.091	143.44
239.325	149.44
239.559	135.44
239.793	135.44
240.027	148.44
240.26	141.44
240.494	137.44
240.728	159.44
240.961	149.44
241.195	125.44
241.429	145.44
241.662	135.44
241.896	163.44
242.13	145.44
242.363	139.44
242.597	151.44
242.83	155.44
243.064	146.44
243.298	149.44
243.531	143.44
243.765	154.44
243.998	159.44
244.232	166.44
244.465	148.44
244.699	166.44
244.932	165.44
245.166	163.44
245.399	157.44
245.633	164.44
245.866	157.44
246.099	172.44
246.333	174.44
246.566	175.44
246.8	167.44
247.033	167.44
247.266	163.44
247.5	165.44
247.733	181.44
247.966	173.44
248.2	179.44
248.433	181.44
248.666	179.44
248.899	188.44
249.133	170.44
249.366	188.44
249.599	179.44
249.832	177.44
250.066	177.44
250.299	178.44
250.532	177.44
250.765	188.44
250.998	199.44
251.231	187.44
251.465	190.44
251.698	183.44
251.931	200.44
252.164	188.44
252.397	200.44
252.63	183.44
252.863	210.44
253.096	201.44
253.329	189.44
253.562	201.44
253.795	204.44
254.028	202.44
254.261	201.44
254.494	190.44
254.727	202.44
254.96	207.44
255.193	193.44
255.426	202.44
255.659	203.44
255.892	195.44
256.124	207.44
256.357	209.44
256.59	189.44
256.823	201.44
257.056	203.44
257.289	206.44
257.521	207.44
257.754	223.44
257.987	215.44
258.22	219.44
258.452	219.44
258.685	231.44
258.918	219.44
259.151	230.44
259.383	219.44
259.616	211.44
259.849	218.44
260.081	221.44
260.314	218.44
260.547	229.44
260.779	234.44
261.012	220.44
261.244	245.44
261.477	234.44
261.71	229.44
261.942	224.44
262.175	223.44
262.407	230.44
262.64	218.44
262.872	234.44
263.105	236.44
263.337	237.44
263.57	249.44
263.802	255.44
264.035	250.44
264.267	247.44
264.499	239.44
264.732	248.44
264.964	243.44
265.197	231.44
265.429	246.44
265.661	235.44
265.894	242.44
266.126	245.44
266.358	250.44
266.591	251.44
266.823	241.44
267.055	260.44
267.287	259.44
267.52	264.44
267.752	251.44
267.984	251.44
268.216	277.44
268.448	244.44
268.681	261.44
268.913	266.44
269.145	249.44
269.377	267.44
269.609	246.44
269.841	265.44
270.073	269.44
270.306	249.44
270.538	264.44
270.77	263.44
271.002	277.44
271.234	259.44
271.466	265.44
271.698	269.44
271.93	266.44
272.162	261.44
272.394	281.44
272.626	284.44
272.858	308.44
273.09	285.44
273.322	290.44
273.553	284.44
273.785	267.44
274.017	281.44
274.249	284.44
274.481	287.44
274.713	293.44
274.945	287.44
275.176	299.44
275.408	285.44
275.64	271.44
275.872	301.44
276.104	290.44
276.335	267.44
276.567	287.44
276.799	273.44
277.031	298.44
277.262	308.44
277.494	310.44
277.726	306.44
277.957	300.44
278.189	311.44
278.421	300.44
278.652	300.44
278.884	311.44
279.115	319.44
279.347	311.44
279.579	309.44
279.81	326.44
280.042	301.44
280.273	303.44
280.505	309.44
280.736	315.44
280.968	328.44
281.199	308.44
281.431	323.44
281.662	317.44
281.894	333.44
282.125	324.44
282.356	321.44
282.588	343.44
282.819	327.44
283.051	336.44
283.282	313.44
283.513	327.44
283.745	338.44
283.976	333.44
284.207	325.44
284.439	334.44
284.67	324.44
284.901	338.44
285.132	326.44
285.364	332.44
285.595	322.44
285.826	345.44
286.057	345.44
286.288	338.44
286.52	336.44
286.751	342.44
286.982	335.44
287.213	351.44
287.444	363.44
287.675	354.44
287.906	363.44
288.138	361.44
288.369	344.44
288.6	372.44
288.831	377.44
289.062	346.44
289.293	342.44
289.524	341.44
289.755	368.44
289.986	365.44
290.217	358.44
290.448	374.44
290.679	360.44
290.91	371.44
291.141	379.44
291.371	365.44
291.602	354.44
291.833	361.44
292.064	372.44
292.295	351.44
292.526	356.44
292.757	355.44
292.987	382.44
293.218	364.44
293.449	363.44
293.68	373.44
293.91	357.44
294.141	343.44
294.372	377.44
294.603	373.44
294.833	373.44
295.064	373.44
295.295	355.44
295.525	356.44
295.756	381.44
295.987	379.44
296.217	388.44
296.448	390.44
296.679	374.44
296.909	383.44
297.14	380.44
297.37	382.44
297.601	374.44
297.831	408.44
298.062	398.44
298.292	395.44
298.523	395.44
298.753	382.44
298.984	381.44
299.214	380.44
299.445	387.44
299.675	398.44
299.905	416.44
300.136	395.44
300.366	393.44
300.597	398.44
300.827	414.44
301.057	415.44
301.288	438.44
301.518	415.44
301.748	427.44
301.979	423.44
302.209	420.44
302.439	421.44
302.669	407.44
302.9	410.44
303.13	402.44
303.36	413.44
303.59	421.44
303.82	439.44
304.051	427.44
304.281	433.44
304.511	437.44
304.741	423.44
304.971	422.44
305.201	417.44
305.431	425.44
305.661	396.44
305.891	400.44
306.121	411.44
306.352	417.44
306.582	407.44
306.812	410.44
307.042	408.44
307.272	399.44
307.502	399.44
307.731	387.44
307.961	389.44
308.191	411.44
308.421	400.44
308.651	397.44
308.881	391.44
309.111	401.44
309.341	400.44
309.571	402.44
309.8	404.44
310.03	410.44
310.26	419.44
310.49	403.44
310.72	423.44
310.949	409.44
311.179	425.44
311.409	416.44
311.639	424.44
311.868	408.44
312.098	426.44
312.328	428.44
312.557	421.44
312.787	438.44
313.017	426.44
313.246	444.44
313.476	427.44
313.706	423.44
313.935	431.44
314.165	459.44
314.394	444.44
314.624	466.44
314.853	449.44
315.083	429.44
315.312	430.44
315.542	454.44
315.771	439.44
316.001	436.44
316.23	437.44
316.46	427.44
316.689	441.44
316.919	436.44
317.148	442.44
317.377	422.44
317.607	423.44
317.836	414.44
318.065	438.44
318.295	431.44
318.524	448.44
318.753	426.44
318.983	433.44
319.212	443.44
319.441	426.44
319.67	424.44
319.9	424.44
320.129	449.44
320.358	440.44
320.587	422.44
320.816	425.44
321.046	408.44
321.275	439.44
321.504	440.44
321.733	438.44
321.962	449.44
322.191	466.44
322.42	453.44
322.649	478.44
322.878	437.44
323.108	446.44
323.337	435.44
323.566	422.44
323.795	451.44
324.024	453.44
324.253	458.44
324.482	445.44
324.71	453.44
324.939	453.44
325.168	471.44
325.397	451.44
325.626	471.44
325.855	481.44
326.084	475.44
326.313	480.44
326.542	476.44
326.77	489.44
326.999	470.44
327.228	461.44
327.457	487.44
327.686	488.44
327.914	506.44
328.143	469.44
328.372	478.44
328.6	479.44
328.829	500.44
329.058	502.44
329.287	493.44
329.515	506.44
329.744	504.44
329.972	489.44
330.201	489.44
330.43	492.44
330.658	497.44
330.887	494.44
331.115	506.44
331.344	492.44
331.572	503.44
331.801	520.44
332.03	513.44
332.258	537.44
332.486	575.44
332.715	571.44
332.943	614.44
333.172	617.44
333.4	628.44
333.629	649.44
333.857	656.44
334.085	651.44
334.314	638.44
334.542	620.44
334.771	631.44
334.999	605.44
335.227	637.44
335.455	619.44
335.684	618.44
335.912	611.44
336.14	591.44
336.369	582.44
336.597	605.44
336.825	575.44
337.053	575.44
337.281	568.44
337.51	568.44
337.738	568.44
337.966	562.44
338.194	563.44
338.422	542.44
338.65	497.44
338.878	538.44
339.106	521.44
339.334	536.44
339.562	513.44
339.79	534.44
340.018	514.44
340.246	499.44
340.474	520.44
340.702	521.44
340.93	534.44
341.158	519.44
341.386	516.44
341.614	513.44
341.842	529.44
342.07	509.44
342.298	517.44
342.526	502.44
342.754	537.44
342.981	537.44
343.209	520.44
343.437	559.44
343.665	599.44
343.893	615.44
344.12	635.44
344.348	616.44
344.576	564.44
344.804	549.44
345.031	549.44
345.259	515.44
345.487	522.44
345.714	495.44
345.942	500.44
346.17	513.44
346.397	509.44
346.625	513.44
346.853	494.44
347.08	490.44
347.308	487.44
347.535	512.44
347.763	511.44
347.99	511.44
348.218	498.44
348.445	503.44
348.673	488.44
348.9	502.44
349.128	493.44
349.355	470.44
349.583	491.44
349.81	492.44
350.037	481.44
350.265	503.44
350.492	481.44
350.72	480.44
350.947	480.44
351.174	489.44
351.402	485.44
351.629	494.44
351.856	473.44
352.083	476.44
352.311	485.44
352.538	485.44
352.765	487.44
352.992	488.44
353.22	473.44
353.447	466.44
353.674	474.44
353.901	475.44
354.128	471.44
354.355	473.44
354.583	470.44
354.81	487.44
355.037	486.44
355.264	486.44
355.491	483.44
355.718	479.44
355.945	497.44
356.172	470.44
356.399	484.44
356.626	507.44
356.853	502.44
357.08	479.44
357.307	475.44
357.534	487.44
357.761	485.44
357.988	479.44
358.215	509.44
358.441	488.44
358.668	473.44
358.895	483.44
359.122	487.44
359.349	484.44
359.576	474.44
359.802	477.44
360.029	479.44
360.256	469.44
360.483	467.44
360.709	477.44
360.936	487.44
361.163	502.44
361.39	478.44
361.616	483.44
361.843	501.44
362.07	462.44
362.296	477.44
362.523	473.44
362.749	495.44
362.976	494.44
363.203	499.44
363.429	468.44
363.656	486.44
363.882	495.44
364.109	470.44
364.335	485.44
364.562	477.44
364.788	492.44
365.015	476.44
365.241	457.44
365.468	471.44
365.694	464.44
365.92	464.44
366.147	476.44
366.373	473.44
366.599	469.44
366.826	462.44
367.052	479.44
367.278	489.44
367.505	482.44
367.731	505.44
367.957	482.44
368.184	505.44
368.41	500.44
368.636	499.44
368.862	512.44
369.089	486.44
369.315	500.44
369.541	493.44
369.767	489.44
369.993	495.44
370.219	516.44
370.445	529.44
370.672	495.44
370.898	515.44
371.124	512.44
371.35	542.44
371.576	533.44
371.802	523.44
372.028	535.44
372.254	522.44
372.48	536.44
372.706	531.44
372.932	546.44
373.158	532.44
373.384	547.44
373.61	526.44
373.835	539.44
374.061	523.44
374.287	534.44
374.513	534.44
374.739	572.44
374.965	582.44
375.191	589.44
375.416	567.44
375.642	552.44
375.868	547.44
376.094	550.44
376.319	506.44
376.545	528.44
376.771	544.44
376.997	542.44
377.222	523.44
377.448	549.44
377.674	538.44
377.899	509.44
378.125	513.44
378.35	537.44
378.576	531.44
378.802	500.44
379.027	515.44
379.253	531.44
379.478	526.44
379.704	517.44
379.929	542.44
380.155	523.44
380.38	499.44
380.606	517.44
380.831	519.44
381.057	511.44
381.282	499.44
381.507	533.44
381.733	507.44
381.958	527.44
382.184	557.44
382.409	556.44
382.634	552.44
382.86	542.44
383.085	566.44
383.31	565.44
383.535	596.44
383.761	585.44
383.986	605.44
384.211	595.44
384.436	592.44
384.662	632.44
384.887	628.44
385.112	614.44
385.337	630.44
385.562	613.44
385.787	619.44
386.013	629.44
386.238	653.44
386.463	629.44
386.688	614.44
386.913	639.44
387.138	610.44
387.363	623.44
387.588	592.44
387.813	605.44
388.038	618.44
388.263	599.44
388.488	606.44
388.713	614.44
388.938	627.44
389.163	607.44
389.387	614.44
389.612	607.44
389.837	630.44
390.062	596.44
390.287	594.44
390.512	636.44
390.736	626.44
390.961	628.44
391.186	627.44
391.411	642.44
391.636	669.44
391.86	682.44
392.085	691.44
392.31	729.44
392.534	674.44
392.759	667.44
392.984	665.44
393.208	630.44
393.433	673.44
393.658	683.44
393.882	661.44
394.107	648.44
394.331	664.44
394.556	676.44
394.78	686.44
395.005	682.44
395.229	670.44
395.454	693.44
395.678	705.44
395.903	688.44
396.127	690.44
396.352	652.44
396.576	649.44
396.801	649.44
397.025	661.44
397.249	672.44
397.474	714.44
397.698	693.44
397.922	707.44
398.147	698.44
398.371	693.44
398.595	743.44
398.82	760.44
399.044	799.44
399.268	917.44
399.492	1060.44
399.717	1183.44
399.941	1150.44
400.165	1009.44
400.389	925.44
400.613	856.44
400.837	810.44
401.062	805.44
401.286	779.44
401.51	779.44
401.734	788.44
401.958	803.44
402.182	797.44
402.406	815.44
402.63	801.44
402.854	838.44
403.078	843.44
403.302	855.44
403.526	898.44
403.75	899.44
403.974	934.44
404.198	958.44
404.422	947.44
404.645	906.44
404.869	902.44
405.093	882.44
405.317	844.44
405.541	847.44
405.765	819.44
405.988	842.44
406.212	836.44
406.436	852.44
406.66	887.44
406.883	902.44
407.107	921.44
407.331	1013.44
407.555	987.44
407.778	994.44
408.002	1010.44
408.226	930.44
408.449	933.44
408.673	925.44
408.896	875.44
409.12	871.44
409.344	891.44
409.567	870.44
409.791	878.44
410.014	863.44
410.238	871.44
410.461	869.44
410.685	870.44
410.908	839.44
411.132	842.44
411.355	802.44
411.578	819.44
411.802	810.44
412.025	838.44
412.249	842.44
412.472	815.44
412.695	783.44
412.919	763.44
413.142	787.44
413.365	781.44
413.589	765.44
413.812	783.44
414.035	782.44
414.258	788.44
414.482	787.44
414.705	806.44
414.928	813.44
415.151	791.44
415.374	783.44
415.597	809.44
415.821	782.44
416.044	755.44
416.267	773.44
416.49	762.44
416.713	753.44
416.936	817.44
417.159	771.44
417.382	784.44
417.605	773.44
417.828	777.44
418.051	777.44
418.274	804.44
418.497	791.44
418.72	809.44
418.943	775.44
419.166	818.44
419.389	891.44
419.611	874.44
419.834	823.44
420.057	830.44
420.28	812.44
420.503	772.44
420.726	767.44
420.948	785.44
421.171	748.44
421.394	775.44
421.617	769.44
421.839	774.44
422.062	788.44
422.285	756.44
422.507	796.44
422.73	817.44
422.953	801.44
423.175	814.44
423.398	831.44
423.621	839.44
423.843	832.44
424.066	846.44
424.288	838.44
424.511	813.44
424.733	815.44
424.956	789.44
425.178	802.44
425.401	803.44
425.623	756.44
425.846	715.44
426.068	757.44
426.291	731.44
426.513	742.44
426.735	753.44
426.958	707.44
427.18	699.44
427.402	700.44
427.625	710.44
427.847	708.44
428.069	700.44
428.292	672.44
428.514	671.44
428.736	679.44
428.958	691.44
429.181	675.44
429.403	684.44
429.625	696.44
429.847	669.44
430.069	686.44
430.292	671.44
430.514	678.44
430.736	666.44
430.958	686.44
431.18	689.44
431.402	680.44
431.624	705.44
431.846	709.44
432.068	706.44
432.29	708.44
432.512	730.44
432.734	701.44
432.956	715.44
433.178	702.44
433.4	672.44
433.622	695.44
433.844	696.44
434.066	706.44
434.287	709.44
434.509	728.44
434.731	769.44
434.953	785.44
435.175	793.44
435.397	779.44
435.618	738.44
435.84	730.44
436.062	724.44
436.284	721.44
436.505	692.44
436.727	705.44
436.949	713.44
437.17	706.44
437.392	701.44
437.614	677.44
437.835	650.44
438.057	688.44
438.278	673.44
438.5	644.44
438.721	661.44
438.943	701.44
439.165	649.44
439.386	686.44
439.608	701.44
439.829	678.44
440.05	697.44
440.272	711.44
440.493	698.44
440.715	727.44
440.936	740.44
441.158	714.44
441.379	773.44
441.6	774.44
441.822	803.44
442.043	809.44
442.264	772.44
442.486	773.44
442.707	771.44
442.928	768.44
443.149	780.44
443.371	797.44
443.592	814.44
443.813	819.44
444.034	805.44
444.255	830.44
444.476	873.44
444.698	897.44
444.919	937.44
445.14	1002.44
445.361	895.44
445.582	805.44
445.803	777.44
446.024	742.44
446.245	747.44
446.466	700.44
446.687	725.44
446.908	725.44
447.129	678.44
447.35	684.44
447.571	683.44
447.792	671.44
448.013	665.44
448.234	651.44
448.455	655.44
448.675	651.44
448.896	662.44
449.117	647.44
449.338	643.44
449.559	633.44
449.779	634.44
450	622.44
450.221	641.44
450.442	657.44
450.662	633.44
450.883	664.44
451.104	671.44
451.324	690.44
451.545	665.44
451.766	674.44
451.986	654.44
452.207	635.44
452.428	607.44
452.648	623.44
452.869	644.44
453.089	623.44
453.31	648.44
453.53	665.44
453.751	613.44
453.971	629.44
454.192	623.44
454.412	618.44
454.633	613.44
454.853	594.44
455.073	614.44
455.294	599.44
455.514	594.44
455.734	605.44
455.955	627.44
456.175	606.44
456.395	597.44
456.616	590.44
456.836	598.44
457.056	592.44
457.276	619.44
457.497	611.44
457.717	589.44
457.937	590.44
458.157	627.44
458.377	630.44
458.598	628.44
458.818	628.44
459.038	667.44
459.258	673.44
459.478	696.44
459.698	745.44
459.918	763.44
460.138	746.44
460.358	831.44
460.578	844.44
460.798	824.44
461.018	829.44
461.238	829.44
461.458	808.44
461.678	805.44
461.898	825.44
462.118	827.44
462.338	867.44
462.558	904.44
462.777	933.44
462.997	1003.44
463.217	1130.44
463.437	1098.44
463.657	978.44
463.876	956.44
464.096	966.44
464.316	957.44
464.536	962.44
464.755	910.44
464.975	876.44
465.195	835.44
465.414	781.44
465.634	747.44
465.854	721.44
466.073	738.44
466.293	711.44
466.512	675.44
466.732	669.44
466.951	681.44
467.171	672.44
467.391	697.44
467.61	676.44
467.829	691.44
468.049	671.44
468.268	633.44
468.488	640.44
468.707	633.44
468.927	626.44
469.146	637.44
469.365	649.44
469.585	654.44
469.804	680.44
470.023	699.44
470.243	697.44
470.462	702.44
470.681	723.44
470.901	703.44
471.12	681.44
471.339	686.44
471.558	678.44
471.777	673.44
471.997	649.44
472.216	653.44
472.435	644.44
472.654	609.44
472.873	620.44
473.092	613.44
473.311	624.44
473.53	631.44
473.749	603.44
473.968	603.44
474.187	616.44
474.406	623.44
474.625	623.44
474.844	641.44
475.063	610.44
475.282	610.44
475.501	615.44
475.72	640.44
475.939	630.44
476.158	659.44
476.377	644.44
476.596	635.44
476.814	633.44
477.033	671.44
477.252	656.44
477.471	678.44
477.69	699.44
477.908	719.44
478.127	740.44
478.346	746.44
478.564	769.44
478.783	780.44
479.002	792.44
479.22	757.44
479.439	765.44
479.658	768.44
479.876	764.44
480.095	782.44
480.313	821.44
480.532	849.44
480.751	838.44
480.969	798.44
481.188	798.44
481.406	749.44
481.624	709.44
481.843	730.44
482.061	712.44
482.28	719.44
482.498	693.44
482.717	702.44
482.935	702.44
483.153	694.44
483.372	715.44
483.59	730.44
483.808	706.44
484.027	708.44
484.245	722.44
484.463	713.44
484.681	736.44
484.9	745.44
485.118	742.44
485.336	734.44
485.554	740.44
485.772	738.44
485.99	742.44
486.209	777.44
486.427	775.44
486.645	772.44
486.863	748.44
487.081	727.44
487.299	745.44
487.517	727.44
487.735	734.44
487.953	760.44
488.171	753.44
488.389	723.44
488.607	738.44
488.825	716.44
489.043	742.44
489.261	750.44
489.479	744.44
489.696	726.44
489.914	720.44
490.132	735.44
490.35	735.44
490.568	732.44
490.786	740.44
491.003	746.44
491.221	758.44
491.439	760.44
491.657	775.44
491.874	766.44
492.092	775.44
492.31	764.44
492.527	775.44
492.745	773.44
492.963	772.44
493.18	784.44
493.398	789.44
493.615	795.44
493.833	789.44
494.05	798.44
494.268	786.44
494.485	793.44
494.703	798.44
494.92	784.44
495.138	773.44
495.355	767.44
495.573	793.44
495.79	797.44
496.008	812.44
496.225	796.44
496.442	814.44
496.66	829.44
496.877	826.44
497.094	834.44
497.312	881.44
497.529	911.44
497.746	884.44
497.963	917.44
498.181	929.44
498.398	996.44
498.615	1033.44
498.832	1118.44
499.049	1210.44
499.267	1312.44
499.484	1421.44
499.701	1572.44
499.918	1775.44
500.135	2042.44
500.352	2332.44
500.569	2477.44
500.786	2414.44
501.003	2155.44
501.22	1947.44
501.437	1693.44
