Data from Ni(NO3)2@0.5M.TitratingCurve.Agarose3%dH2O.NegLispCup.LampEnergy10.LIBS07252019_HRD10591_17-59-52-564.txt Node
Date: Thu Jul 25 17:59:52 EDT 2019
User: cochatt
Spectrometer: HR+D1059
Trigger mode: 1
Integration Time (sec): 1.000000E-1
Scans to average: 1
Electric dark correction enabled: true
Nonlinearity correction enabled: false
Boxcar width: 0
XAxis mode: Wavelengths
Number of Pixels in Spectrum: 2048
>>>>>Begin Spectral Data<<<<<
223.165	-18.44
223.4	-18.44
223.635	-18.44
223.869	-9.44
224.104	-29.44
224.338	-23.44
224.573	-6.44
224.808	-24.44
225.042	-16.44
225.277	-9.44
225.511	7.56
225.746	-2.44
225.98	5.56
226.215	19.56
226.449	21.56
226.683	37.56
226.918	20.56
227.152	27.56
227.387	15.56
227.621	40.56
227.856	44.56
228.09	49.56
228.324	42.56
228.559	47.56
228.793	66.56
229.027	82.56
229.262	106.56
229.496	102.56
229.73	100.56
229.964	113.56
230.199	124.56
230.433	123.56
230.667	133.56
230.901	140.56
231.136	121.56
231.37	113.56
231.604	122.56
231.838	140.56
232.072	126.56
232.306	145.56
232.541	126.56
232.775	123.56
233.009	115.56
233.243	136.56
233.477	113.56
233.711	122.56
233.945	123.56
234.179	120.56
234.413	124.56
234.647	122.56
234.881	118.56
235.115	125.56
235.349	125.56
235.583	120.56
235.817	121.56
236.051	117.56
236.285	125.56
236.519	128.56
236.753	125.56
236.987	132.56
237.221	127.56
237.455	127.56
237.689	117.56
237.922	118.56
238.156	137.56
238.39	131.56
238.624	128.56
238.858	127.56
239.091	105.56
239.325	123.56
239.559	129.56
239.793	150.56
240.027	154.56
240.26	137.56
240.494	147.56
240.728	128.56
240.961	128.56
241.195	134.56
241.429	143.56
241.662	149.56
241.896	141.56
242.13	158.56
242.363	162.56
242.597	134.56
242.83	145.56
243.064	150.56
243.298	151.56
243.531	137.56
243.765	143.56
243.998	142.56
244.232	164.56
244.465	153.56
244.699	168.56
244.932	144.56
245.166	170.56
245.399	158.56
245.633	149.56
245.866	157.56
246.099	152.56
246.333	139.56
246.566	155.56
246.8	151.56
247.033	160.56
247.266	147.56
247.5	166.56
247.733	155.56
247.966	163.56
248.2	164.56
248.433	155.56
248.666	163.56
248.899	161.56
249.133	166.56
249.366	183.56
249.599	172.56
249.832	181.56
250.066	174.56
250.299	166.56
250.532	185.56
250.765	187.56
250.998	189.56
251.231	184.56
251.465	185.56
251.698	198.56
251.931	196.56
252.164	190.56
252.397	186.56
252.63	182.56
252.863	174.56
253.096	185.56
253.329	195.56
253.562	182.56
253.795	179.56
254.028	185.56
254.261	195.56
254.494	190.56
254.727	197.56
254.96	203.56
255.193	201.56
255.426	198.56
255.659	192.56
255.892	206.56
256.124	205.56
256.357	206.56
256.59	207.56
256.823	205.56
257.056	197.56
257.289	201.56
257.521	197.56
257.754	216.56
257.987	205.56
258.22	216.56
258.452	214.56
258.685	226.56
258.918	206.56
259.151	211.56
259.383	216.56
259.616	203.56
259.849	222.56
260.081	224.56
260.314	216.56
260.547	216.56
260.779	234.56
261.012	215.56
261.244	239.56
261.477	233.56
261.71	221.56
261.942	225.56
262.175	229.56
262.407	225.56
262.64	233.56
262.872	245.56
263.105	223.56
263.337	235.56
263.57	232.56
263.802	226.56
264.035	250.56
264.267	216.56
264.499	247.56
264.732	232.56
264.964	240.56
265.197	231.56
265.429	221.56
265.661	234.56
265.894	257.56
266.126	241.56
266.358	240.56
266.591	264.56
266.823	264.56
267.055	256.56
267.287	252.56
267.52	262.56
267.752	255.56
267.984	253.56
268.216	247.56
268.448	243.56
268.681	282.56
268.913	252.56
269.145	271.56
269.377	254.56
269.609	256.56
269.841	253.56
270.073	257.56
270.306	267.56
270.538	245.56
270.77	249.56
271.002	261.56
271.234	257.56
271.466	265.56
271.698	270.56
271.93	271.56
272.162	263.56
272.394	292.56
272.626	278.56
272.858	269.56
273.09	270.56
273.322	288.56
273.553	265.56
273.785	288.56
274.017	273.56
274.249	257.56
274.481	301.56
274.713	287.56
274.945	296.56
275.176	285.56
275.408	282.56
275.64	274.56
275.872	290.56
276.104	282.56
276.335	271.56
276.567	277.56
276.799	275.56
277.031	303.56
277.262	303.56
277.494	278.56
277.726	311.56
277.957	295.56
278.189	281.56
278.421	282.56
278.652	292.56
278.884	284.56
279.115	298.56
279.347	322.56
279.579	293.56
279.81	296.56
280.042	296.56
280.273	285.56
280.505	312.56
280.736	301.56
280.968	312.56
281.199	301.56
281.431	312.56
281.662	313.56
281.894	294.56
282.125	333.56
282.356	322.56
282.588	311.56
282.819	312.56
283.051	309.56
283.282	323.56
283.513	309.56
283.745	314.56
283.976	330.56
284.207	330.56
284.439	328.56
284.67	306.56
284.901	316.56
285.132	323.56
285.364	325.56
285.595	323.56
285.826	320.56
286.057	330.56
286.288	326.56
286.52	321.56
286.751	337.56
286.982	321.56
287.213	345.56
287.444	329.56
287.675	345.56
287.906	344.56
288.138	338.56
288.369	333.56
288.6	344.56
288.831	339.56
289.062	328.56
289.293	335.56
289.524	323.56
289.755	338.56
289.986	352.56
290.217	358.56
290.448	340.56
290.679	346.56
290.91	337.56
291.141	343.56
291.371	349.56
291.602	347.56
291.833	341.56
292.064	345.56
292.295	339.56
292.526	343.56
292.757	338.56
292.987	341.56
293.218	358.56
293.449	344.56
293.68	370.56
293.91	340.56
294.141	354.56
294.372	357.56
294.603	354.56
294.833	337.56
295.064	361.56
295.295	358.56
295.525	351.56
295.756	353.56
295.987	364.56
296.217	335.56
296.448	354.56
296.679	355.56
296.909	370.56
297.14	360.56
297.37	370.56
297.601	385.56
297.831	367.56
298.062	386.56
298.292	394.56
298.523	376.56
298.753	377.56
298.984	385.56
299.214	373.56
299.445	382.56
299.675	373.56
299.905	374.56
300.136	382.56
300.366	395.56
300.597	402.56
300.827	387.56
301.057	399.56
301.288	404.56
301.518	386.56
301.748	391.56
301.979	393.56
302.209	399.56
302.439	394.56
302.669	381.56
302.9	362.56
303.13	375.56
303.36	392.56
303.59	392.56
303.82	404.56
304.051	396.56
304.281	380.56
304.511	377.56
304.741	401.56
304.971	402.56
305.201	416.56
305.431	394.56
305.661	414.56
305.891	393.56
306.121	401.56
306.352	408.56
306.582	383.56
306.812	387.56
307.042	378.56
307.272	398.56
307.502	390.56
307.731	403.56
307.961	396.56
308.191	392.56
308.421	413.56
308.651	391.56
308.881	387.56
309.111	400.56
309.341	385.56
309.571	399.56
309.8	413.56
310.03	376.56
310.26	420.56
310.49	413.56
310.72	402.56
310.949	410.56
311.179	404.56
311.409	398.56
311.639	394.56
311.868	401.56
312.098	401.56
312.328	426.56
312.557	423.56
312.787	400.56
313.017	415.56
313.246	431.56
313.476	436.56
313.706	446.56
313.935	438.56
314.165	437.56
314.394	412.56
314.624	424.56
314.853	449.56
315.083	422.56
315.312	440.56
315.542	411.56
315.771	412.56
316.001	422.56
316.23	432.56
316.46	415.56
316.689	449.56
316.919	436.56
317.148	419.56
317.377	419.56
317.607	436.56
317.836	399.56
318.065	424.56
318.295	453.56
318.524	443.56
318.753	441.56
318.983	418.56
319.212	426.56
319.441	424.56
319.67	431.56
319.9	420.56
320.129	423.56
320.358	435.56
320.587	447.56
320.816	442.56
321.046	448.56
321.275	442.56
321.504	444.56
321.733	463.56
321.962	449.56
322.191	439.56
322.42	433.56
322.649	455.56
322.878	455.56
323.108	467.56
323.337	457.56
323.566	443.56
323.795	482.56
324.024	463.56
324.253	465.56
324.482	443.56
324.71	464.56
324.939	478.56
325.168	477.56
325.397	454.56
325.626	447.56
325.855	459.56
326.084	478.56
326.313	474.56
326.542	464.56
326.77	485.56
326.999	457.56
327.228	485.56
327.457	455.56
327.686	482.56
327.914	482.56
328.143	490.56
328.372	498.56
328.6	488.56
328.829	462.56
329.058	491.56
329.287	517.56
329.515	486.56
329.744	469.56
329.972	493.56
330.201	496.56
330.43	489.56
330.658	485.56
330.887	507.56
331.115	482.56
331.344	499.56
331.572	496.56
331.801	485.56
332.03	515.56
332.258	525.56
332.486	522.56
332.715	526.56
332.943	526.56
333.172	530.56
333.4	547.56
333.629	574.56
333.857	576.56
334.085	578.56
334.314	583.56
334.542	565.56
334.771	571.56
334.999	591.56
335.227	582.56
335.455	563.56
335.684	561.56
335.912	559.56
336.14	536.56
336.369	529.56
336.597	575.56
336.825	540.56
337.053	535.56
337.281	544.56
337.51	546.56
337.738	572.56
337.966	538.56
338.194	543.56
338.422	543.56
338.65	547.56
338.878	532.56
339.106	549.56
339.334	550.56
339.562	514.56
339.79	519.56
340.018	526.56
340.246	494.56
340.474	512.56
340.702	523.56
340.93	513.56
341.158	529.56
341.386	520.56
341.614	531.56
341.842	546.56
342.07	524.56
342.298	518.56
342.526	534.56
342.754	529.56
342.981	508.56
343.209	543.56
343.437	543.56
343.665	549.56
343.893	556.56
344.12	575.56
344.348	575.56
344.576	572.56
344.804	566.56
345.031	546.56
345.259	539.56
345.487	525.56
345.714	532.56
345.942	529.56
346.17	549.56
346.397	549.56
346.625	509.56
346.853	510.56
347.08	507.56
347.308	504.56
347.535	502.56
347.763	499.56
347.99	516.56
348.218	498.56
348.445	508.56
348.673	500.56
348.9	505.56
349.128	500.56
349.355	498.56
349.583	517.56
349.81	471.56
350.037	503.56
350.265	497.56
350.492	500.56
350.72	498.56
350.947	497.56
351.174	491.56
351.402	497.56
351.629	513.56
351.856	512.56
352.083	504.56
352.311	493.56
352.538	536.56
352.765	529.56
352.992	514.56
353.22	470.56
353.447	490.56
353.674	490.56
353.901	505.56
354.128	478.56
354.355	499.56
354.583	487.56
354.81	478.56
355.037	473.56
355.264	489.56
355.491	489.56
355.718	484.56
355.945	498.56
356.172	485.56
356.399	514.56
356.626	499.56
356.853	509.56
357.08	500.56
357.307	500.56
357.534	487.56
357.761	480.56
357.988	477.56
358.215	500.56
358.441	480.56
358.668	490.56
358.895	488.56
359.122	482.56
359.349	478.56
359.576	507.56
359.802	499.56
360.029	505.56
360.256	509.56
360.483	510.56
360.709	485.56
360.936	515.56
361.163	511.56
361.39	519.56
361.616	494.56
361.843	489.56
362.07	513.56
362.296	524.56
362.523	524.56
362.749	524.56
362.976	498.56
363.203	502.56
363.429	490.56
363.656	475.56
363.882	481.56
364.109	513.56
364.335	511.56
364.562	500.56
364.788	483.56
365.015	499.56
365.241	493.56
365.468	486.56
365.694	523.56
365.92	498.56
366.147	504.56
366.373	480.56
366.599	496.56
366.826	514.56
367.052	486.56
367.278	520.56
367.505	488.56
367.731	492.56
367.957	507.56
368.184	490.56
368.41	507.56
368.636	488.56
368.862	495.56
369.089	517.56
369.315	522.56
369.541	512.56
369.767	501.56
369.993	491.56
370.219	495.56
370.445	495.56
370.672	504.56
370.898	535.56
371.124	514.56
371.35	527.56
371.576	520.56
371.802	530.56
372.028	511.56
372.254	513.56
372.48	526.56
372.706	530.56
372.932	542.56
373.158	556.56
373.384	535.56
373.61	532.56
373.835	541.56
374.061	535.56
374.287	521.56
374.513	531.56
374.739	547.56
374.965	560.56
375.191	571.56
375.416	549.56
375.642	532.56
375.868	554.56
376.094	535.56
376.319	539.56
376.545	538.56
376.771	526.56
376.997	530.56
377.222	506.56
377.448	536.56
377.674	542.56
377.899	533.56
378.125	521.56
378.35	498.56
378.576	514.56
378.802	520.56
379.027	511.56
379.253	526.56
379.478	523.56
379.704	519.56
379.929	502.56
380.155	512.56
380.38	519.56
380.606	513.56
380.831	532.56
381.057	533.56
381.282	515.56
381.507	529.56
381.733	537.56
381.958	525.56
382.184	548.56
382.409	550.56
382.634	553.56
382.86	553.56
383.085	554.56
383.31	540.56
383.535	549.56
383.761	550.56
383.986	570.56
384.211	550.56
384.436	577.56
384.662	573.56
384.887	570.56
385.112	572.56
385.337	604.56
385.562	605.56
385.787	589.56
386.013	596.56
386.238	569.56
386.463	606.56
386.688	594.56
386.913	616.56
387.138	600.56
387.363	603.56
387.588	597.56
387.813	601.56
388.038	583.56
388.263	599.56
388.488	595.56
388.713	595.56
388.938	601.56
389.163	591.56
389.387	601.56
389.612	607.56
389.837	602.56
390.062	613.56
390.287	613.56
390.512	603.56
390.736	614.56
390.961	616.56
391.186	609.56
391.411	624.56
391.636	631.56
391.86	654.56
392.085	653.56
392.31	631.56
392.534	636.56
392.759	625.56
392.984	653.56
393.208	636.56
393.433	622.56
393.658	630.56
393.882	633.56
394.107	623.56
394.331	618.56
394.556	621.56
394.78	627.56
395.005	623.56
395.229	645.56
395.454	625.56
395.678	645.56
395.903	636.56
396.127	656.56
396.352	651.56
396.576	660.56
396.801	653.56
397.025	644.56
397.249	662.56
397.474	665.56
397.698	663.56
397.922	686.56
398.147	681.56
398.371	696.56
398.595	709.56
398.82	730.56
399.044	758.56
399.268	794.56
399.492	817.56
399.717	856.56
399.941	888.56
400.165	841.56
400.389	810.56
400.613	800.56
400.837	765.56
401.062	757.56
401.286	733.56
401.51	723.56
401.734	704.56
401.958	703.56
402.182	717.56
402.406	728.56
402.63	724.56
402.854	749.56
403.078	726.56
403.302	741.56
403.526	728.56
403.75	728.56
403.974	755.56
404.198	774.56
404.422	751.56
404.645	735.56
404.869	755.56
405.093	766.56
405.317	770.56
405.541	727.56
405.765	753.56
405.988	753.56
406.212	764.56
406.436	735.56
406.66	790.56
406.883	807.56
407.107	809.56
407.331	822.56
407.555	851.56
407.778	851.56
408.002	813.56
408.226	820.56
408.449	813.56
408.673	797.56
408.896	789.56
409.12	798.56
409.344	810.56
409.567	775.56
409.791	765.56
410.014	809.56
410.238	777.56
410.461	744.56
410.685	771.56
410.908	775.56
411.132	742.56
411.355	745.56
411.578	732.56
411.802	734.56
412.025	757.56
412.249	750.56
412.472	753.56
412.695	729.56
412.919	729.56
413.142	736.56
413.365	737.56
413.589	733.56
413.812	728.56
414.035	698.56
414.258	725.56
414.482	734.56
414.705	719.56
414.928	718.56
415.151	756.56
415.374	723.56
415.597	725.56
415.821	722.56
416.044	722.56
416.267	699.56
416.49	693.56
416.713	706.56
416.936	689.56
417.159	696.56
417.382	727.56
417.605	696.56
417.828	683.56
418.051	723.56
418.274	721.56
418.497	711.56
418.72	720.56
418.943	695.56
419.166	769.56
419.389	785.56
419.611	746.56
419.834	751.56
420.057	734.56
420.28	710.56
420.503	682.56
420.726	715.56
420.948	688.56
421.171	696.56
421.394	704.56
421.617	679.56
421.839	711.56
422.062	698.56
422.285	694.56
422.507	726.56
422.73	718.56
422.953	690.56
423.175	698.56
423.398	702.56
423.621	697.56
423.843	700.56
424.066	669.56
424.288	700.56
424.511	707.56
424.733	696.56
424.956	697.56
425.178	683.56
425.401	693.56
425.623	683.56
425.846	669.56
426.068	696.56
426.291	686.56
426.513	675.56
426.735	685.56
426.958	689.56
427.18	662.56
427.402	665.56
427.625	685.56
427.847	687.56
428.069	683.56
428.292	682.56
428.514	663.56
428.736	650.56
428.958	659.56
429.181	639.56
429.403	677.56
429.625	687.56
429.847	672.56
430.069	644.56
430.292	634.56
430.514	642.56
430.736	661.56
430.958	665.56
431.18	648.56
431.402	678.56
431.624	695.56
431.846	646.56
432.068	654.56
432.29	693.56
432.512	664.56
432.734	674.56
432.956	673.56
433.178	678.56
433.4	684.56
433.622	690.56
433.844	658.56
434.066	691.56
434.287	658.56
434.509	689.56
434.731	687.56
434.953	705.56
435.175	725.56
435.397	715.56
435.618	687.56
435.84	691.56
436.062	682.56
436.284	671.56
436.505	632.56
436.727	675.56
436.949	682.56
437.17	680.56
437.392	673.56
437.614	653.56
437.835	624.56
438.057	641.56
438.278	644.56
438.5	651.56
438.721	634.56
438.943	623.56
439.165	640.56
439.386	650.56
439.608	642.56
439.829	654.56
440.05	658.56
440.272	688.56
440.493	673.56
440.715	677.56
440.936	693.56
441.158	674.56
441.379	673.56
441.6	701.56
441.822	694.56
442.043	702.56
442.264	710.56
442.486	729.56
442.707	681.56
442.928	678.56
443.149	710.56
443.371	717.56
443.592	734.56
443.813	719.56
444.034	715.56
444.255	727.56
444.476	734.56
444.698	734.56
444.919	753.56
445.14	868.56
445.361	774.56
445.582	760.56
445.803	713.56
446.024	687.56
446.245	663.56
446.466	686.56
446.687	655.56
446.908	660.56
447.129	631.56
447.35	657.56
447.571	648.56
447.792	613.56
448.013	641.56
448.234	628.56
448.455	644.56
448.675	647.56
448.896	624.56
449.117	618.56
449.338	607.56
449.559	624.56
449.779	602.56
450	627.56
450.221	614.56
450.442	608.56
450.662	605.56
450.883	625.56
451.104	609.56
451.324	614.56
451.545	608.56
451.766	597.56
451.986	612.56
452.207	619.56
452.428	585.56
452.648	609.56
452.869	587.56
453.089	591.56
453.31	580.56
453.53	569.56
453.751	582.56
453.971	580.56
454.192	583.56
454.412	573.56
454.633	586.56
454.853	565.56
455.073	575.56
455.294	570.56
455.514	591.56
455.734	578.56
455.955	576.56
456.175	595.56
456.395	593.56
456.616	552.56
456.836	600.56
457.056	590.56
457.276	564.56
457.497	576.56
457.717	592.56
457.937	585.56
458.157	629.56
458.377	599.56
458.598	606.56
458.818	621.56
459.038	618.56
459.258	619.56
459.478	664.56
459.698	718.56
459.918	690.56
460.138	695.56
460.358	732.56
460.578	721.56
460.798	730.56
461.018	763.56
461.238	706.56
461.458	730.56
461.678	709.56
461.898	737.56
462.118	743.56
462.338	750.56
462.558	780.56
462.777	807.56
462.997	839.56
463.217	867.56
463.437	862.56
463.657	825.56
463.876	801.56
464.096	795.56
464.316	798.56
464.536	775.56
464.755	797.56
464.975	761.56
465.195	755.56
465.414	725.56
465.634	694.56
465.854	664.56
466.073	680.56
466.293	674.56
466.512	651.56
466.732	657.56
466.951	644.56
467.171	646.56
467.391	661.56
467.61	624.56
467.829	628.56
468.049	645.56
468.268	632.56
468.488	625.56
468.707	629.56
468.927	639.56
469.146	622.56
469.365	632.56
469.585	634.56
469.804	658.56
470.023	643.56
470.243	649.56
470.462	644.56
470.681	632.56
470.901	652.56
471.12	636.56
471.339	642.56
471.558	605.56
471.777	627.56
471.997	621.56
472.216	640.56
472.435	613.56
472.654	601.56
472.873	629.56
473.092	634.56
473.311	608.56
473.53	631.56
473.749	616.56
473.968	629.56
474.187	619.56
474.406	611.56
474.625	627.56
474.844	618.56
475.063	639.56
475.282	629.56
475.501	645.56
475.72	671.56
475.939	645.56
476.158	656.56
476.377	627.56
476.596	646.56
476.814	647.56
477.033	656.56
477.252	679.56
477.471	683.56
477.69	711.56
477.908	681.56
478.127	709.56
478.346	703.56
478.564	739.56
478.783	722.56
479.002	752.56
479.22	771.56
479.439	776.56
479.658	783.56
479.876	730.56
480.095	765.56
480.313	787.56
480.532	781.56
480.751	754.56
480.969	755.56
481.188	741.56
481.406	734.56
481.624	712.56
481.843	746.56
482.061	755.56
482.28	706.56
482.498	718.56
482.717	741.56
482.935	731.56
483.153	719.56
483.372	773.56
483.59	741.56
483.808	711.56
484.027	708.56
484.245	721.56
484.463	724.56
484.681	773.56
484.9	740.56
485.118	737.56
485.336	742.56
485.554	737.56
485.772	751.56
485.99	731.56
486.209	736.56
486.427	727.56
486.645	714.56
486.863	759.56
487.081	767.56
487.299	773.56
487.517	751.56
487.735	753.56
487.953	795.56
488.171	775.56
488.389	757.56
488.607	739.56
488.825	767.56
489.043	758.56
489.261	750.56
489.479	762.56
489.696	754.56
489.914	763.56
490.132	736.56
490.35	753.56
490.568	743.56
490.786	766.56
491.003	759.56
491.221	762.56
491.439	782.56
491.657	759.56
491.874	763.56
492.092	775.56
492.31	792.56
492.527	769.56
492.745	794.56
492.963	773.56
493.18	780.56
493.398	773.56
493.615	805.56
493.833	797.56
494.05	778.56
494.268	796.56
494.485	794.56
494.703	786.56
494.92	793.56
495.138	798.56
495.355	822.56
495.573	833.56
495.79	810.56
496.008	829.56
496.225	836.56
496.442	825.56
496.66	831.56
496.877	826.56
497.094	864.56
497.312	890.56
497.529	878.56
497.746	900.56
497.963	949.56
498.181	928.56
498.398	943.56
498.615	954.56
498.832	1033.56
499.049	1055.56
499.267	1111.56
499.484	1175.56
499.701	1238.56
499.918	1306.56
500.135	1386.56
500.352	1459.56
500.569	1445.56
500.786	1457.56
501.003	1411.56
501.22	1382.56
501.437	1259.56
