Data from Ni(NO3)2Standard.Agarose3%.GreenCap.LampEnergy5.5.E.O_HRD10591_14-41-22-188.txt Node
Date: Mon Jul 22 14:41:22 EDT 2019
User: cochatt
Spectrometer: HR+D1059
Trigger mode: 1
Integration Time (sec): 1.000000E-1
Scans to average: 1
Electric dark correction enabled: true
Nonlinearity correction enabled: false
Boxcar width: 0
XAxis mode: Wavelengths
Number of Pixels in Spectrum: 2048
>>>>>Begin Spectral Data<<<<<
223.165	-11.12
223.4	-11.12
223.635	-11.12
223.869	-22.12
224.104	-4.12
224.338	0.88
224.573	-20.12
224.808	-19.12
225.042	-12.12
225.277	-8.12
225.511	3.88
225.746	0.88
225.98	-2.12
226.215	11.88
226.449	16.88
226.683	14.88
226.918	26.88
227.152	22.88
227.387	34.88
227.621	47.88
227.856	54.88
228.09	39.88
228.324	54.88
228.559	72.88
228.793	69.88
229.027	70.88
229.262	62.88
229.496	76.88
229.73	72.88
229.964	72.88
230.199	73.88
230.433	74.88
230.667	75.88
230.901	74.88
231.136	68.88
231.37	75.88
231.604	75.88
231.838	91.88
232.072	76.88
232.306	80.88
232.541	77.88
232.775	87.88
233.009	85.88
233.243	78.88
233.477	85.88
233.711	82.88
233.945	103.88
234.179	106.88
234.413	95.88
234.647	90.88
234.881	87.88
235.115	82.88
235.349	82.88
235.583	85.88
235.817	92.88
236.051	97.88
236.285	72.88
236.519	66.88
236.753	78.88
236.987	89.88
237.221	75.88
237.455	101.88
237.689	82.88
237.922	70.88
238.156	73.88
238.39	80.88
238.624	77.88
238.858	89.88
239.091	85.88
239.325	64.88
239.559	80.88
239.793	82.88
240.027	76.88
240.26	81.88
240.494	75.88
240.728	69.88
240.961	82.88
241.195	91.88
241.429	96.88
241.662	87.88
241.896	94.88
242.13	86.88
242.363	71.88
242.597	74.88
242.83	83.88
243.064	86.88
243.298	76.88
243.531	79.88
243.765	71.88
243.998	68.88
244.232	77.88
244.465	74.88
244.699	100.88
244.932	90.88
245.166	68.88
245.399	90.88
245.633	78.88
245.866	79.88
246.099	84.88
246.333	92.88
246.566	71.88
246.8	75.88
247.033	87.88
247.266	86.88
247.5	79.88
247.733	84.88
247.966	102.88
248.2	85.88
248.433	80.88
248.666	90.88
248.899	78.88
249.133	76.88
249.366	79.88
249.599	83.88
249.832	78.88
250.066	72.88
250.299	94.88
250.532	91.88
250.765	84.88
250.998	84.88
251.231	71.88
251.465	64.88
251.698	89.88
251.931	84.88
252.164	85.88
252.397	75.88
252.63	89.88
252.863	66.88
253.096	97.88
253.329	94.88
253.562	76.88
253.795	81.88
254.028	90.88
254.261	83.88
254.494	90.88
254.727	82.88
254.96	81.88
255.193	75.88
255.426	78.88
255.659	103.88
255.892	97.88
256.124	85.88
256.357	96.88
256.59	84.88
256.823	93.88
257.056	71.88
257.289	83.88
257.521	94.88
257.754	101.88
257.987	85.88
258.22	81.88
258.452	85.88
258.685	77.88
258.918	92.88
259.151	79.88
259.383	81.88
259.616	84.88
259.849	85.88
260.081	83.88
260.314	82.88
260.547	88.88
260.779	86.88
261.012	95.88
261.244	95.88
261.477	96.88
261.71	93.88
261.942	80.88
262.175	105.88
262.407	98.88
262.64	89.88
262.872	92.88
263.105	89.88
263.337	91.88
263.57	94.88
263.802	75.88
264.035	74.88
264.267	88.88
264.499	79.88
264.732	82.88
264.964	79.88
265.197	97.88
265.429	76.88
265.661	95.88
265.894	89.88
266.126	77.88
266.358	81.88
266.591	82.88
266.823	89.88
267.055	91.88
267.287	98.88
267.52	89.88
267.752	81.88
267.984	86.88
268.216	79.88
268.448	90.88
268.681	90.88
268.913	80.88
269.145	82.88
269.377	77.88
269.609	78.88
269.841	87.88
270.073	80.88
270.306	82.88
270.538	91.88
270.77	79.88
271.002	82.88
271.234	84.88
271.466	88.88
271.698	89.88
271.93	89.88
272.162	89.88
272.394	93.88
272.626	86.88
272.858	78.88
273.09	79.88
273.322	87.88
273.553	91.88
273.785	80.88
274.017	85.88
274.249	74.88
274.481	81.88
274.713	93.88
274.945	85.88
275.176	95.88
275.408	100.88
275.64	80.88
275.872	86.88
276.104	110.88
276.335	88.88
276.567	85.88
276.799	94.88
277.031	85.88
277.262	86.88
277.494	100.88
277.726	82.88
277.957	86.88
278.189	86.88
278.421	88.88
278.652	100.88
278.884	83.88
279.115	86.88
279.347	98.88
279.579	90.88
279.81	99.88
280.042	89.88
280.273	79.88
280.505	98.88
280.736	87.88
280.968	90.88
281.199	79.88
281.431	80.88
281.662	94.88
281.894	94.88
282.125	90.88
282.356	74.88
282.588	91.88
282.819	90.88
283.051	75.88
283.282	79.88
283.513	88.88
283.745	77.88
283.976	91.88
284.207	79.88
284.439	79.88
284.67	83.88
284.901	92.88
285.132	80.88
285.364	75.88
285.595	80.88
285.826	70.88
286.057	91.88
286.288	87.88
286.52	83.88
286.751	103.88
286.982	83.88
287.213	81.88
287.444	87.88
287.675	93.88
287.906	69.88
288.138	82.88
288.369	97.88
288.6	94.88
288.831	80.88
289.062	83.88
289.293	104.88
289.524	82.88
289.755	92.88
289.986	87.88
290.217	89.88
290.448	77.88
290.679	84.88
290.91	79.88
291.141	78.88
291.371	93.88
291.602	83.88
291.833	82.88
292.064	80.88
292.295	87.88
292.526	89.88
292.757	78.88
292.987	84.88
293.218	94.88
293.449	93.88
293.68	96.88
293.91	93.88
294.141	85.88
294.372	87.88
294.603	75.88
294.833	87.88
295.064	85.88
295.295	82.88
295.525	76.88
295.756	74.88
295.987	88.88
296.217	87.88
296.448	93.88
296.679	90.88
296.909	84.88
297.14	89.88
297.37	91.88
297.601	101.88
297.831	89.88
298.062	82.88
298.292	99.88
298.523	91.88
298.753	87.88
298.984	92.88
299.214	77.88
299.445	90.88
299.675	94.88
299.905	104.88
300.136	91.88
300.366	97.88
300.597	88.88
300.827	79.88
301.057	81.88
301.288	73.88
301.518	95.88
301.748	84.88
301.979	104.88
302.209	85.88
302.439	78.88
302.669	74.88
302.9	95.88
303.13	89.88
303.36	94.88
303.59	80.88
303.82	91.88
304.051	92.88
304.281	102.88
304.511	98.88
304.741	88.88
304.971	93.88
305.201	98.88
305.431	90.88
305.661	78.88
305.891	82.88
306.121	102.88
306.352	97.88
306.582	88.88
306.812	99.88
307.042	90.88
307.272	92.88
307.502	86.88
307.731	87.88
307.961	80.88
308.191	90.88
308.421	88.88
308.651	107.88
308.881	85.88
309.111	72.88
309.341	81.88
309.571	86.88
309.8	86.88
310.03	74.88
310.26	84.88
310.49	91.88
310.72	74.88
310.949	81.88
311.179	95.88
311.409	92.88
311.639	100.88
311.868	88.88
312.098	105.88
312.328	79.88
312.557	81.88
312.787	85.88
313.017	93.88
313.246	101.88
313.476	72.88
313.706	84.88
313.935	81.88
314.165	90.88
314.394	93.88
314.624	90.88
314.853	87.88
315.083	88.88
315.312	89.88
315.542	90.88
315.771	87.88
316.001	90.88
316.23	79.88
316.46	86.88
316.689	95.88
316.919	82.88
317.148	89.88
317.377	103.88
317.607	79.88
317.836	87.88
318.065	90.88
318.295	103.88
318.524	109.88
318.753	84.88
318.983	89.88
319.212	86.88
319.441	83.88
319.67	90.88
319.9	90.88
320.129	83.88
320.358	96.88
320.587	75.88
320.816	92.88
321.046	83.88
321.275	94.88
321.504	81.88
321.733	85.88
321.962	96.88
322.191	106.88
322.42	88.88
322.649	96.88
322.878	98.88
323.108	91.88
323.337	94.88
323.566	90.88
323.795	83.88
324.024	101.88
324.253	84.88
324.482	101.88
324.71	94.88
324.939	120.88
325.168	91.88
325.397	79.88
325.626	85.88
325.855	112.88
326.084	77.88
326.313	95.88
326.542	78.88
326.77	101.88
326.999	104.88
327.228	88.88
327.457	91.88
327.686	92.88
327.914	91.88
328.143	98.88
328.372	103.88
328.6	92.88
328.829	82.88
329.058	85.88
329.287	94.88
329.515	83.88
329.744	72.88
329.972	86.88
330.201	83.88
330.43	87.88
330.658	88.88
330.887	94.88
331.115	86.88
331.344	95.88
331.572	95.88
331.801	89.88
332.03	83.88
332.258	92.88
332.486	98.88
332.715	103.88
332.943	94.88
333.172	92.88
333.4	88.88
333.629	90.88
333.857	89.88
334.085	81.88
334.314	94.88
334.542	84.88
334.771	93.88
334.999	93.88
335.227	94.88
335.455	93.88
335.684	94.88
335.912	82.88
336.14	100.88
336.369	90.88
336.597	85.88
336.825	87.88
337.053	81.88
337.281	87.88
337.51	90.88
337.738	104.88
337.966	82.88
338.194	85.88
338.422	77.88
338.65	84.88
338.878	95.88
339.106	99.88
339.334	107.88
339.562	94.88
339.79	76.88
340.018	88.88
340.246	87.88
340.474	91.88
340.702	84.88
340.93	95.88
341.158	86.88
341.386	85.88
341.614	85.88
341.842	94.88
342.07	88.88
342.298	99.88
342.526	99.88
342.754	94.88
342.981	116.88
343.209	93.88
343.437	100.88
343.665	94.88
343.893	78.88
344.12	94.88
344.348	82.88
344.576	92.88
344.804	91.88
345.031	96.88
345.259	92.88
345.487	83.88
345.714	92.88
345.942	83.88
346.17	94.88
346.397	80.88
346.625	93.88
346.853	102.88
347.08	96.88
347.308	98.88
347.535	87.88
347.763	100.88
347.99	84.88
348.218	96.88
348.445	92.88
348.673	85.88
348.9	102.88
349.128	91.88
349.355	94.88
349.583	88.88
349.81	91.88
350.037	95.88
350.265	79.88
350.492	98.88
350.72	85.88
350.947	87.88
351.174	98.88
351.402	90.88
351.629	88.88
351.856	99.88
352.083	92.88
352.311	92.88
352.538	86.88
352.765	92.88
352.992	98.88
353.22	95.88
353.447	96.88
353.674	88.88
353.901	102.88
354.128	99.88
354.355	84.88
354.583	105.88
354.81	91.88
355.037	85.88
355.264	93.88
355.491	85.88
355.718	96.88
355.945	110.88
356.172	80.88
356.399	83.88
356.626	93.88
356.853	101.88
357.08	99.88
357.307	93.88
357.534	103.88
357.761	75.88
357.988	86.88
358.215	95.88
358.441	93.88
358.668	97.88
358.895	86.88
359.122	78.88
359.349	103.88
359.576	94.88
359.802	88.88
360.029	96.88
360.256	92.88
360.483	90.88
360.709	95.88
360.936	93.88
361.163	102.88
361.39	82.88
361.616	82.88
361.843	83.88
362.07	95.88
362.296	93.88
362.523	99.88
362.749	88.88
362.976	85.88
363.203	98.88
363.429	99.88
363.656	103.88
363.882	99.88
364.109	91.88
364.335	91.88
364.562	99.88
364.788	94.88
365.015	83.88
365.241	94.88
365.468	107.88
365.694	82.88
365.92	86.88
366.147	83.88
366.373	84.88
366.599	82.88
366.826	104.88
367.052	103.88
367.278	91.88
367.505	94.88
367.731	78.88
367.957	74.88
368.184	86.88
368.41	98.88
368.636	91.88
368.862	87.88
369.089	94.88
369.315	90.88
369.541	89.88
369.767	79.88
369.993	78.88
370.219	77.88
370.445	90.88
370.672	90.88
370.898	92.88
371.124	90.88
371.35	91.88
371.576	79.88
371.802	92.88
372.028	88.88
372.254	90.88
372.48	98.88
372.706	81.88
372.932	87.88
373.158	74.88
373.384	81.88
373.61	88.88
373.835	73.88
374.061	90.88
374.287	82.88
374.513	82.88
374.739	85.88
374.965	108.88
375.191	99.88
375.416	92.88
375.642	95.88
375.868	89.88
376.094	77.88
376.319	99.88
376.545	76.88
376.771	96.88
376.997	91.88
377.222	87.88
377.448	97.88
377.674	87.88
377.899	90.88
378.125	80.88
378.35	79.88
378.576	89.88
378.802	86.88
379.027	103.88
379.253	92.88
379.478	85.88
379.704	87.88
379.929	104.88
380.155	95.88
380.38	89.88
380.606	95.88
380.831	88.88
381.057	92.88
381.282	101.88
381.507	92.88
381.733	91.88
381.958	85.88
382.184	85.88
382.409	92.88
382.634	87.88
382.86	92.88
383.085	98.88
383.31	87.88
383.535	91.88
383.761	98.88
383.986	94.88
384.211	92.88
384.436	87.88
384.662	91.88
384.887	99.88
385.112	107.88
385.337	85.88
385.562	91.88
385.787	80.88
386.013	85.88
386.238	78.88
386.463	83.88
386.688	94.88
386.913	93.88
387.138	100.88
387.363	86.88
387.588	92.88
387.813	87.88
388.038	91.88
388.263	88.88
388.488	83.88
388.713	96.88
388.938	94.88
389.163	79.88
389.387	86.88
389.612	82.88
389.837	92.88
390.062	94.88
390.287	93.88
390.512	94.88
390.736	90.88
390.961	85.88
391.186	96.88
391.411	86.88
391.636	96.88
391.86	92.88
392.085	84.88
392.31	77.88
392.534	98.88
392.759	93.88
392.984	83.88
393.208	78.88
393.433	95.88
393.658	91.88
393.882	90.88
394.107	87.88
394.331	92.88
394.556	89.88
394.78	88.88
395.005	87.88
395.229	108.88
395.454	97.88
395.678	102.88
395.903	95.88
396.127	87.88
396.352	94.88
396.576	95.88
396.801	73.88
397.025	91.88
397.249	88.88
397.474	95.88
397.698	94.88
397.922	91.88
398.147	103.88
398.371	107.88
398.595	84.88
398.82	96.88
399.044	103.88
399.268	79.88
399.492	73.88
399.717	89.88
399.941	75.88
400.165	79.88
400.389	92.88
400.613	100.88
400.837	80.88
401.062	84.88
401.286	86.88
401.51	92.88
401.734	87.88
401.958	79.88
402.182	91.88
402.406	92.88
402.63	103.88
402.854	105.88
403.078	89.88
403.302	88.88
403.526	90.88
403.75	101.88
403.974	92.88
404.198	118.88
404.422	85.88
404.645	86.88
404.869	85.88
405.093	84.88
405.317	106.88
405.541	94.88
405.765	88.88
405.988	88.88
406.212	106.88
406.436	89.88
406.66	87.88
406.883	101.88
407.107	92.88
407.331	92.88
407.555	82.88
407.778	79.88
408.002	88.88
408.226	104.88
408.449	93.88
408.673	91.88
408.896	84.88
409.12	105.88
409.344	85.88
409.567	99.88
409.791	101.88
410.014	87.88
410.238	92.88
410.461	98.88
410.685	98.88
410.908	98.88
411.132	87.88
411.355	89.88
411.578	108.88
411.802	80.88
412.025	97.88
412.249	76.88
412.472	96.88
412.695	100.88
412.919	84.88
413.142	88.88
413.365	99.88
413.589	87.88
413.812	102.88
414.035	91.88
414.258	107.88
414.482	88.88
414.705	87.88
414.928	91.88
415.151	84.88
415.374	90.88
415.597	91.88
415.821	85.88
416.044	76.88
416.267	78.88
416.49	84.88
416.713	93.88
416.936	90.88
417.159	92.88
417.382	73.88
417.605	80.88
417.828	95.88
418.051	85.88
418.274	84.88
418.497	79.88
418.72	96.88
418.943	94.88
419.166	79.88
419.389	82.88
419.611	88.88
419.834	90.88
420.057	68.88
420.28	84.88
420.503	88.88
420.726	90.88
420.948	98.88
421.171	85.88
421.394	93.88
421.617	86.88
421.839	89.88
422.062	77.88
422.285	88.88
422.507	91.88
422.73	92.88
422.953	80.88
423.175	92.88
423.398	95.88
423.621	88.88
423.843	96.88
424.066	93.88
424.288	99.88
424.511	80.88
424.733	80.88
424.956	90.88
425.178	99.88
425.401	84.88
425.623	87.88
425.846	94.88
426.068	78.88
426.291	102.88
426.513	96.88
426.735	86.88
426.958	90.88
427.18	101.88
427.402	99.88
427.625	94.88
427.847	84.88
428.069	83.88
428.292	77.88
428.514	88.88
428.736	98.88
428.958	97.88
429.181	90.88
429.403	90.88
429.625	76.88
429.847	90.88
430.069	89.88
430.292	85.88
430.514	99.88
430.736	70.88
430.958	70.88
431.18	93.88
431.402	99.88
431.624	84.88
431.846	77.88
432.068	83.88
432.29	84.88
432.512	84.88
432.734	71.88
432.956	94.88
433.178	104.88
433.4	81.88
433.622	86.88
433.844	93.88
434.066	89.88
434.287	82.88
434.509	80.88
434.731	86.88
434.953	101.88
435.175	84.88
435.397	89.88
435.618	77.88
435.84	93.88
436.062	88.88
436.284	82.88
436.505	93.88
436.727	104.88
436.949	81.88
437.17	89.88
437.392	87.88
437.614	94.88
437.835	99.88
438.057	86.88
438.278	86.88
438.5	101.88
438.721	86.88
438.943	88.88
439.165	92.88
439.386	91.88
439.608	83.88
439.829	92.88
440.05	102.88
440.272	78.88
440.493	94.88
440.715	96.88
440.936	92.88
441.158	100.88
441.379	95.88
441.6	86.88
441.822	79.88
442.043	86.88
442.264	86.88
442.486	92.88
442.707	90.88
442.928	91.88
443.149	91.88
443.371	101.88
443.592	95.88
443.813	90.88
444.034	75.88
444.255	82.88
444.476	92.88
444.698	87.88
444.919	83.88
445.14	196.88
445.361	130.88
445.582	101.88
445.803	90.88
446.024	92.88
446.245	84.88
446.466	107.88
446.687	101.88
446.908	91.88
447.129	82.88
447.35	89.88
447.571	82.88
447.792	72.88
448.013	87.88
448.234	89.88
448.455	95.88
448.675	93.88
448.896	94.88
449.117	90.88
449.338	82.88
449.559	94.88
449.779	83.88
450	96.88
450.221	89.88
450.442	75.88
450.662	81.88
450.883	80.88
451.104	85.88
451.324	80.88
451.545	91.88
451.766	90.88
451.986	88.88
452.207	96.88
452.428	93.88
452.648	94.88
452.869	85.88
453.089	81.88
453.31	89.88
453.53	82.88
453.751	91.88
453.971	88.88
454.192	88.88
454.412	77.88
454.633	81.88
454.853	85.88
455.073	70.88
455.294	79.88
455.514	92.88
455.734	80.88
455.955	85.88
456.175	94.88
456.395	76.88
456.616	78.88
456.836	83.88
457.056	96.88
457.276	94.88
457.497	76.88
457.717	70.88
457.937	98.88
458.157	86.88
458.377	82.88
458.598	96.88
458.818	100.88
459.038	83.88
459.258	89.88
459.478	92.88
459.698	95.88
459.918	95.88
460.138	78.88
460.358	77.88
460.578	96.88
460.798	96.88
461.018	91.88
461.238	90.88
461.458	92.88
461.678	93.88
461.898	91.88
462.118	92.88
462.338	94.88
462.558	88.88
462.777	93.88
462.997	91.88
463.217	85.88
463.437	97.88
463.657	85.88
463.876	95.88
464.096	86.88
464.316	88.88
464.536	100.88
464.755	91.88
464.975	81.88
465.195	94.88
465.414	99.88
465.634	97.88
465.854	100.88
466.073	85.88
466.293	88.88
466.512	88.88
466.732	83.88
466.951	90.88
467.171	79.88
467.391	88.88
467.61	93.88
467.829	82.88
468.049	76.88
468.268	79.88
468.488	78.88
468.707	104.88
468.927	83.88
469.146	84.88
469.365	109.88
469.585	97.88
469.804	96.88
470.023	96.88
470.243	86.88
470.462	83.88
470.681	90.88
470.901	103.88
471.12	106.88
471.339	75.88
471.558	92.88
471.777	87.88
471.997	90.88
472.216	94.88
472.435	97.88
472.654	94.88
472.873	89.88
473.092	87.88
473.311	88.88
473.53	97.88
473.749	88.88
473.968	97.88
474.187	76.88
474.406	94.88
474.625	82.88
474.844	91.88
475.063	73.88
475.282	68.88
475.501	92.88
475.72	101.88
475.939	100.88
476.158	96.88
476.377	92.88
476.596	81.88
476.814	89.88
477.033	95.88
477.252	81.88
477.471	87.88
477.69	95.88
477.908	96.88
478.127	93.88
478.346	98.88
478.564	103.88
478.783	100.88
479.002	101.88
479.22	99.88
479.439	90.88
479.658	97.88
479.876	96.88
480.095	86.88
480.313	101.88
480.532	98.88
480.751	103.88
480.969	98.88
481.188	83.88
481.406	81.88
481.624	106.88
481.843	80.88
482.061	94.88
482.28	91.88
482.498	106.88
482.717	78.88
482.935	88.88
483.153	74.88
483.372	84.88
483.59	91.88
483.808	88.88
484.027	87.88
484.245	95.88
484.463	105.88
484.681	107.88
484.9	99.88
485.118	93.88
485.336	92.88
485.554	99.88
485.772	96.88
485.99	92.88
486.209	90.88
486.427	96.88
486.645	77.88
486.863	84.88
487.081	82.88
487.299	99.88
487.517	90.88
487.735	93.88
487.953	104.88
488.171	94.88
488.389	92.88
488.607	102.88
488.825	92.88
489.043	103.88
489.261	97.88
489.479	96.88
489.696	93.88
489.914	86.88
490.132	99.88
490.35	111.88
490.568	90.88
490.786	102.88
491.003	100.88
491.221	105.88
491.439	106.88
491.657	106.88
491.874	91.88
492.092	96.88
492.31	103.88
492.527	94.88
492.745	93.88
492.963	94.88
493.18	92.88
493.398	106.88
493.615	118.88
493.833	94.88
494.05	78.88
494.268	91.88
494.485	83.88
494.703	106.88
494.92	87.88
495.138	100.88
495.355	102.88
495.573	101.88
495.79	93.88
496.008	95.88
496.225	97.88
496.442	103.88
496.66	108.88
496.877	101.88
497.094	111.88
497.312	96.88
497.529	111.88
497.746	102.88
497.963	92.88
498.181	99.88
498.398	98.88
498.615	87.88
498.832	101.88
499.049	97.88
499.267	112.88
499.484	107.88
499.701	106.88
499.918	112.88
500.135	111.88
500.352	112.88
500.569	115.88
500.786	122.88
501.003	123.88
501.22	113.88
501.437	119.88
501.654	103.88
501.871	106.88
502.088	109.88
502.305	98.88
502.522	89.88
502.739	102.88
502.956	90.88
503.172	98.88
503.389	110.88
503.606	108.88
503.823	85.88
504.04	101.88
504.256	97.88
504.473	85.88
504.69	106.88
504.907	87.88
505.123	92.88
505.34	98.88
505.557	93.88
505.773	102.88
505.99	100.88
506.207	97.88
506.423	96.88
506.64	86.88
506.856	94.88
507.073	99.88
507.289	105.88
507.506	93.88
507.722	85.88
507.939	89.88
508.155	91.88
508.372	97.88
508.588	100.88
508.805	94.88
509.021	89.88
509.238	100.88
509.454	99.88
509.67	77.88
509.887	92.88
510.103	95.88
510.319	86.88
510.536	98.88
510.752	95.88
510.968	83.88
511.184	77.88
511.401	87.88
511.617	99.88
511.833	83.88
512.049	89.88
512.265	99.88
512.481	84.88
512.698	85.88
512.914	97.88
513.13	94.88
513.346	103.88
513.562	104.88
513.778	98.88
513.994	97.88
514.21	80.88
514.426	94.88
514.642	90.88
514.858	102.88
515.074	94.88
515.29	85.88
515.506	86.88
515.721	109.88
515.937	96.88
516.153	101.88
516.369	100.88
516.585	95.88
516.801	101.88
517.016	86.88
517.232	88.88
