Data from Ni(NO3)2@0.0625M.TitratingCurve.Agarose3%dH2O.NegLispCup.LampEnergy10.LIBS07252019_HRD10591_18-13-52-570.txt Node
Date: Thu Jul 25 18:13:52 EDT 2019
User: cochatt
Spectrometer: HR+D1059
Trigger mode: 1
Integration Time (sec): 1.000000E-1
Scans to average: 1
Electric dark correction enabled: true
Nonlinearity correction enabled: false
Boxcar width: 0
XAxis mode: Wavelengths
Number of Pixels in Spectrum: 2048
>>>>>Begin Spectral Data<<<<<
223.165	-12.62
223.4	-12.62
223.635	-12.62
223.869	-13.62
224.104	-12.62
224.338	-26.62
224.573	-14.62
224.808	-12.62
225.042	-6.62
225.277	-4.62
225.511	8.38
225.746	0.38
225.98	-1.62
226.215	3.38
226.449	8.38
226.683	22.38
226.918	25.38
227.152	37.38
227.387	34.38
227.621	50.38
227.856	44.38
228.09	41.38
228.324	46.38
228.559	53.38
228.793	63.38
229.027	96.38
229.262	96.38
229.496	108.38
229.73	102.38
229.964	85.38
230.199	100.38
230.433	98.38
230.667	115.38
230.901	116.38
231.136	115.38
231.37	124.38
231.604	125.38
231.838	118.38
232.072	113.38
232.306	124.38
232.541	129.38
232.775	111.38
233.009	125.38
233.243	124.38
233.477	124.38
233.711	118.38
233.945	117.38
234.179	121.38
234.413	126.38
234.647	119.38
234.881	123.38
235.115	118.38
235.349	140.38
235.583	120.38
235.817	126.38
236.051	115.38
236.285	121.38
236.519	121.38
236.753	118.38
236.987	121.38
237.221	125.38
237.455	124.38
237.689	133.38
237.922	141.38
238.156	134.38
238.39	127.38
238.624	140.38
238.858	146.38
239.091	125.38
239.325	136.38
239.559	134.38
239.793	135.38
240.027	130.38
240.26	144.38
240.494	142.38
240.728	136.38
240.961	127.38
241.195	121.38
241.429	152.38
241.662	148.38
241.896	132.38
242.13	136.38
242.363	156.38
242.597	150.38
242.83	122.38
243.064	160.38
243.298	152.38
243.531	140.38
243.765	167.38
243.998	164.38
244.232	148.38
244.465	163.38
244.699	155.38
244.932	169.38
245.166	162.38
245.399	165.38
245.633	161.38
245.866	157.38
246.099	147.38
246.333	167.38
246.566	165.38
246.8	155.38
247.033	164.38
247.266	162.38
247.5	172.38
247.733	181.38
247.966	190.38
248.2	174.38
248.433	164.38
248.666	164.38
248.899	162.38
249.133	154.38
249.366	164.38
249.599	173.38
249.832	187.38
250.066	197.38
250.299	162.38
250.532	196.38
250.765	195.38
250.998	198.38
251.231	172.38
251.465	164.38
251.698	189.38
251.931	185.38
252.164	185.38
252.397	197.38
252.63	186.38
252.863	204.38
253.096	173.38
253.329	188.38
253.562	206.38
253.795	173.38
254.028	198.38
254.261	198.38
254.494	179.38
254.727	188.38
254.96	199.38
255.193	194.38
255.426	183.38
255.659	195.38
255.892	207.38
256.124	210.38
256.357	216.38
256.59	197.38
256.823	196.38
257.056	195.38
257.289	203.38
257.521	206.38
257.754	209.38
257.987	226.38
258.22	214.38
258.452	222.38
258.685	200.38
258.918	211.38
259.151	225.38
259.383	228.38
259.616	213.38
259.849	205.38
260.081	226.38
260.314	233.38
260.547	232.38
260.779	218.38
261.012	221.38
261.244	231.38
261.477	229.38
261.71	240.38
261.942	210.38
262.175	229.38
262.407	233.38
262.64	231.38
262.872	221.38
263.105	230.38
263.337	230.38
263.57	221.38
263.802	236.38
264.035	241.38
264.267	218.38
264.499	238.38
264.732	233.38
264.964	258.38
265.197	229.38
265.429	241.38
265.661	232.38
265.894	227.38
266.126	234.38
266.358	249.38
266.591	224.38
266.823	238.38
267.055	261.38
267.287	256.38
267.52	242.38
267.752	245.38
267.984	229.38
268.216	262.38
268.448	240.38
268.681	267.38
268.913	271.38
269.145	256.38
269.377	258.38
269.609	273.38
269.841	278.38
270.073	258.38
270.306	249.38
270.538	274.38
270.77	263.38
271.002	251.38
271.234	259.38
271.466	256.38
271.698	240.38
271.93	257.38
272.162	250.38
272.394	266.38
272.626	254.38
272.858	275.38
273.09	263.38
273.322	263.38
273.553	276.38
273.785	296.38
274.017	278.38
274.249	281.38
274.481	291.38
274.713	284.38
274.945	284.38
275.176	282.38
275.408	295.38
275.64	297.38
275.872	292.38
276.104	288.38
276.335	270.38
276.567	286.38
276.799	289.38
277.031	310.38
277.262	293.38
277.494	297.38
277.726	295.38
277.957	287.38
278.189	302.38
278.421	314.38
278.652	301.38
278.884	291.38
279.115	297.38
279.347	308.38
279.579	290.38
279.81	305.38
280.042	308.38
280.273	299.38
280.505	305.38
280.736	321.38
280.968	304.38
281.199	303.38
281.431	303.38
281.662	309.38
281.894	298.38
282.125	325.38
282.356	308.38
282.588	304.38
282.819	310.38
283.051	310.38
283.282	323.38
283.513	323.38
283.745	333.38
283.976	327.38
284.207	336.38
284.439	318.38
284.67	324.38
284.901	345.38
285.132	330.38
285.364	328.38
285.595	317.38
285.826	321.38
286.057	334.38
286.288	327.38
286.52	321.38
286.751	349.38
286.982	329.38
287.213	332.38
287.444	335.38
287.675	346.38
287.906	346.38
288.138	349.38
288.369	334.38
288.6	333.38
288.831	331.38
289.062	332.38
289.293	348.38
289.524	347.38
289.755	334.38
289.986	354.38
290.217	345.38
290.448	346.38
290.679	354.38
290.91	353.38
291.141	348.38
291.371	358.38
291.602	365.38
291.833	352.38
292.064	380.38
292.295	344.38
292.526	347.38
292.757	369.38
292.987	345.38
293.218	353.38
293.449	346.38
293.68	344.38
293.91	359.38
294.141	377.38
294.372	352.38
294.603	343.38
294.833	370.38
295.064	368.38
295.295	361.38
295.525	360.38
295.756	356.38
295.987	360.38
296.217	359.38
296.448	362.38
296.679	360.38
296.909	374.38
297.14	368.38
297.37	375.38
297.601	371.38
297.831	364.38
298.062	368.38
298.292	384.38
298.523	393.38
298.753	380.38
298.984	380.38
299.214	382.38
299.445	379.38
299.675	388.38
299.905	392.38
300.136	390.38
300.366	383.38
300.597	378.38
300.827	383.38
301.057	396.38
301.288	392.38
301.518	414.38
301.748	424.38
301.979	405.38
302.209	377.38
302.439	418.38
302.669	405.38
302.9	394.38
303.13	404.38
303.36	397.38
303.59	399.38
303.82	416.38
304.051	413.38
304.281	392.38
304.511	376.38
304.741	383.38
304.971	421.38
305.201	408.38
305.431	402.38
305.661	432.38
305.891	402.38
306.121	391.38
306.352	406.38
306.582	388.38
306.812	387.38
307.042	395.38
307.272	380.38
307.502	372.38
307.731	405.38
307.961	394.38
308.191	375.38
308.421	382.38
308.651	383.38
308.881	384.38
309.111	387.38
309.341	405.38
309.571	386.38
309.8	394.38
310.03	387.38
310.26	398.38
310.49	405.38
310.72	408.38
310.949	392.38
311.179	384.38
311.409	406.38
311.639	373.38
311.868	399.38
312.098	397.38
312.328	399.38
312.557	409.38
312.787	404.38
313.017	436.38
313.246	399.38
313.476	411.38
313.706	409.38
313.935	426.38
314.165	426.38
314.394	438.38
314.624	426.38
314.853	416.38
315.083	408.38
315.312	402.38
315.542	421.38
315.771	399.38
316.001	413.38
316.23	413.38
316.46	428.38
316.689	413.38
316.919	402.38
317.148	426.38
317.377	429.38
317.607	422.38
317.836	418.38
318.065	406.38
318.295	410.38
318.524	428.38
318.753	406.38
318.983	424.38
319.212	430.38
319.441	400.38
319.67	415.38
319.9	411.38
320.129	408.38
320.358	408.38
320.587	436.38
320.816	416.38
321.046	397.38
321.275	429.38
321.504	422.38
321.733	417.38
321.962	426.38
322.191	413.38
322.42	435.38
322.649	425.38
322.878	433.38
323.108	426.38
323.337	409.38
323.566	428.38
323.795	426.38
324.024	444.38
324.253	439.38
324.482	423.38
324.71	453.38
324.939	448.38
325.168	439.38
325.397	455.38
325.626	438.38
325.855	451.38
326.084	457.38
326.313	469.38
326.542	450.38
326.77	472.38
326.999	458.38
327.228	449.38
327.457	454.38
327.686	446.38
327.914	445.38
328.143	458.38
328.372	476.38
328.6	462.38
328.829	460.38
329.058	442.38
329.287	463.38
329.515	442.38
329.744	475.38
329.972	451.38
330.201	467.38
330.43	464.38
330.658	463.38
330.887	485.38
331.115	475.38
331.344	494.38
331.572	495.38
331.801	517.38
332.03	518.38
332.258	523.38
332.486	540.38
332.715	551.38
332.943	562.38
333.172	591.38
333.4	612.38
333.629	616.38
333.857	614.38
334.085	572.38
334.314	577.38
334.542	590.38
334.771	584.38
334.999	588.38
335.227	541.38
335.455	541.38
335.684	570.38
335.912	564.38
336.14	541.38
336.369	548.38
336.597	540.38
336.825	534.38
337.053	548.38
337.281	536.38
337.51	538.38
337.738	531.38
337.966	515.38
338.194	516.38
338.422	497.38
338.65	499.38
338.878	516.38
339.106	525.38
339.334	493.38
339.562	521.38
339.79	509.38
340.018	490.38
340.246	476.38
340.474	499.38
340.702	500.38
340.93	486.38
341.158	502.38
341.386	507.38
341.614	474.38
341.842	475.38
342.07	474.38
342.298	462.38
342.526	502.38
342.754	475.38
342.981	499.38
343.209	467.38
343.437	514.38
343.665	547.38
343.893	599.38
344.12	596.38
344.348	588.38
344.576	548.38
344.804	532.38
345.031	504.38
345.259	504.38
345.487	513.38
345.714	454.38
345.942	473.38
346.17	459.38
346.397	486.38
346.625	467.38
346.853	450.38
347.08	446.38
347.308	469.38
347.535	470.38
347.763	473.38
347.99	491.38
348.218	488.38
348.445	472.38
348.673	464.38
348.9	466.38
349.128	459.38
349.355	442.38
349.583	458.38
349.81	469.38
350.037	445.38
350.265	467.38
350.492	466.38
350.72	449.38
350.947	456.38
351.174	458.38
351.402	440.38
351.629	444.38
351.856	440.38
352.083	446.38
352.311	458.38
352.538	431.38
352.765	440.38
352.992	450.38
353.22	462.38
353.447	452.38
353.674	474.38
353.901	462.38
354.128	451.38
354.355	446.38
354.583	461.38
354.81	468.38
355.037	458.38
355.264	461.38
355.491	444.38
355.718	456.38
355.945	463.38
356.172	463.38
356.399	497.38
356.626	449.38
356.853	460.38
357.08	454.38
357.307	450.38
357.534	466.38
357.761	456.38
357.988	463.38
358.215	473.38
358.441	453.38
358.668	457.38
358.895	460.38
359.122	453.38
359.349	467.38
359.576	461.38
359.802	466.38
360.029	460.38
360.256	472.38
360.483	461.38
360.709	449.38
360.936	450.38
361.163	460.38
361.39	454.38
361.616	470.38
361.843	460.38
362.07	471.38
362.296	455.38
362.523	453.38
362.749	477.38
362.976	446.38
363.203	467.38
363.429	452.38
363.656	458.38
363.882	463.38
364.109	460.38
364.335	428.38
364.562	448.38
364.788	436.38
365.015	442.38
365.241	451.38
365.468	468.38
365.694	452.38
365.92	458.38
366.147	464.38
366.373	446.38
366.599	464.38
366.826	453.38
367.052	457.38
367.278	457.38
367.505	449.38
367.731	440.38
367.957	466.38
368.184	459.38
368.41	453.38
368.636	452.38
368.862	458.38
369.089	465.38
369.315	469.38
369.541	477.38
369.767	466.38
369.993	475.38
370.219	470.38
370.445	480.38
370.672	488.38
370.898	514.38
371.124	487.38
371.35	520.38
371.576	502.38
371.802	496.38
372.028	506.38
372.254	486.38
372.48	496.38
372.706	524.38
372.932	532.38
373.158	529.38
373.384	519.38
373.61	464.38
373.835	484.38
374.061	497.38
374.287	506.38
374.513	524.38
374.739	547.38
374.965	549.38
375.191	542.38
375.416	515.38
375.642	516.38
375.868	522.38
376.094	535.38
376.319	517.38
376.545	504.38
376.771	506.38
376.997	528.38
377.222	511.38
377.448	499.38
377.674	498.38
377.899	488.38
378.125	488.38
378.35	486.38
378.576	489.38
378.802	484.38
379.027	492.38
379.253	489.38
379.478	496.38
379.704	485.38
379.929	475.38
380.155	492.38
380.38	494.38
380.606	503.38
380.831	449.38
381.057	496.38
381.282	484.38
381.507	501.38
381.733	488.38
381.958	499.38
382.184	505.38
382.409	518.38
382.634	522.38
382.86	531.38
383.085	532.38
383.31	529.38
383.535	534.38
383.761	548.38
383.986	563.38
384.211	566.38
384.436	568.38
384.662	571.38
384.887	585.38
385.112	598.38
385.337	600.38
385.562	605.38
385.787	582.38
386.013	580.38
386.238	590.38
386.463	616.38
386.688	622.38
386.913	577.38
387.138	596.38
387.363	590.38
387.588	594.38
387.813	568.38
388.038	589.38
388.263	595.38
388.488	602.38
388.713	595.38
388.938	579.38
389.163	592.38
389.387	584.38
389.612	569.38
389.837	579.38
390.062	577.38
390.287	579.38
390.512	559.38
390.736	587.38
390.961	585.38
391.186	599.38
391.411	645.38
391.636	624.38
391.86	640.38
392.085	660.38
392.31	651.38
392.534	648.38
392.759	624.38
392.984	621.38
393.208	608.38
393.433	609.38
393.658	648.38
393.882	612.38
394.107	638.38
394.331	618.38
394.556	628.38
394.78	646.38
395.005	646.38
395.229	654.38
395.454	667.38
395.678	664.38
395.903	681.38
396.127	643.38
396.352	627.38
396.576	633.38
396.801	606.38
397.025	633.38
397.249	636.38
397.474	653.38
397.698	653.38
397.922	678.38
398.147	659.38
398.371	686.38
398.595	667.38
398.82	720.38
399.044	813.38
399.268	860.38
399.492	996.38
399.717	1131.38
399.941	1118.38
400.165	964.38
400.389	857.38
400.613	803.38
400.837	749.38
401.062	718.38
401.286	718.38
401.51	720.38
401.734	731.38
401.958	749.38
402.182	737.38
402.406	770.38
402.63	780.38
402.854	797.38
403.078	778.38
403.302	804.38
403.526	822.38
403.75	825.38
403.974	853.38
404.198	843.38
404.422	865.38
404.645	812.38
404.869	867.38
405.093	817.38
405.317	812.38
405.541	814.38
405.765	777.38
405.988	785.38
406.212	823.38
406.436	802.38
406.66	818.38
406.883	839.38
407.107	891.38
407.331	910.38
407.555	949.38
407.778	967.38
408.002	922.38
408.226	912.38
408.449	872.38
408.673	841.38
408.896	827.38
409.12	824.38
409.344	847.38
409.567	846.38
409.791	843.38
410.014	861.38
410.238	834.38
410.461	798.38
410.685	832.38
410.908	798.38
411.132	790.38
411.355	765.38
411.578	767.38
411.802	762.38
412.025	763.38
412.249	787.38
412.472	761.38
412.695	768.38
412.919	736.38
413.142	721.38
413.365	747.38
413.589	758.38
413.812	716.38
414.035	708.38
414.258	725.38
414.482	729.38
414.705	739.38
414.928	771.38
415.151	752.38
415.374	711.38
415.597	741.38
415.821	724.38
416.044	716.38
416.267	720.38
416.49	717.38
416.713	718.38
416.936	728.38
417.159	701.38
417.382	721.38
417.605	716.38
417.828	708.38
418.051	725.38
418.274	716.38
418.497	729.38
418.72	766.38
418.943	737.38
419.166	820.38
419.389	812.38
419.611	816.38
419.834	777.38
420.057	770.38
420.28	728.38
420.503	736.38
420.726	750.38
420.948	719.38
421.171	729.38
421.394	721.38
421.617	715.38
421.839	728.38
422.062	722.38
422.285	716.38
422.507	733.38
422.73	747.38
422.953	763.38
423.175	734.38
423.398	788.38
423.621	764.38
423.843	756.38
424.066	774.38
424.288	782.38
424.511	767.38
424.733	762.38
424.956	744.38
425.178	738.38
425.401	704.38
425.623	740.38
425.846	701.38
426.068	673.38
426.291	698.38
426.513	683.38
426.735	682.38
426.958	689.38
427.18	664.38
427.402	690.38
427.625	662.38
427.847	656.38
428.069	641.38
428.292	638.38
428.514	630.38
428.736	664.38
428.958	649.38
429.181	624.38
429.403	616.38
429.625	634.38
429.847	634.38
430.069	614.38
430.292	624.38
430.514	638.38
430.736	617.38
430.958	644.38
431.18	624.38
431.402	650.38
431.624	642.38
431.846	674.38
432.068	672.38
432.29	689.38
432.512	634.38
432.734	636.38
432.956	624.38
433.178	638.38
433.4	646.38
433.622	650.38
433.844	666.38
434.066	644.38
434.287	668.38
434.509	713.38
434.731	716.38
434.953	724.38
435.175	733.38
435.397	724.38
435.618	677.38
435.84	655.38
436.062	662.38
436.284	643.38
436.505	640.38
436.727	669.38
436.949	662.38
437.17	652.38
437.392	649.38
437.614	642.38
437.835	614.38
438.057	636.38
438.278	604.38
438.5	634.38
438.721	628.38
438.943	647.38
439.165	640.38
439.386	640.38
439.608	667.38
439.829	658.38
440.05	648.38
440.272	633.38
440.493	660.38
440.715	652.38
440.936	668.38
441.158	685.38
441.379	690.38
441.6	736.38
441.822	755.38
442.043	732.38
442.264	735.38
442.486	717.38
442.707	714.38
442.928	729.38
443.149	768.38
443.371	729.38
443.592	733.38
443.813	738.38
444.034	741.38
444.255	795.38
444.476	788.38
444.698	846.38
444.919	865.38
445.14	921.38
445.361	821.38
445.582	774.38
445.803	729.38
446.024	696.38
446.245	684.38
446.466	675.38
446.687	673.38
446.908	672.38
447.129	648.38
447.35	639.38
447.571	626.38
447.792	621.38
448.013	619.38
448.234	632.38
448.455	628.38
448.675	601.38
448.896	603.38
449.117	582.38
449.338	592.38
449.559	604.38
449.779	619.38
450	621.38
450.221	617.38
450.442	597.38
450.662	611.38
450.883	601.38
451.104	620.38
451.324	621.38
451.545	616.38
451.766	599.38
451.986	620.38
452.207	596.38
452.428	603.38
452.648	600.38
452.869	597.38
453.089	579.38
453.31	612.38
453.53	609.38
453.751	599.38
453.971	593.38
454.192	598.38
454.412	580.38
454.633	588.38
454.853	573.38
455.073	575.38
455.294	572.38
455.514	578.38
455.734	553.38
455.955	539.38
456.175	571.38
456.395	584.38
456.616	570.38
456.836	558.38
457.056	551.38
457.276	565.38
457.497	571.38
457.717	577.38
457.937	574.38
458.157	574.38
458.377	568.38
458.598	585.38
458.818	612.38
459.038	627.38
459.258	646.38
459.478	681.38
459.698	682.38
459.918	684.38
460.138	717.38
460.358	742.38
460.578	760.38
460.798	758.38
461.018	778.38
461.238	779.38
461.458	756.38
461.678	758.38
461.898	744.38
462.118	774.38
462.338	844.38
462.558	849.38
462.777	886.38
462.997	924.38
463.217	1038.38
463.437	1028.38
463.657	947.38
463.876	934.38
464.096	892.38
464.316	911.38
464.536	928.38
464.755	885.38
464.975	837.38
465.195	805.38
465.414	750.38
465.634	712.38
465.854	702.38
466.073	646.38
466.293	670.38
466.512	669.38
466.732	625.38
466.951	634.38
467.171	626.38
467.391	645.38
467.61	621.38
467.829	641.38
468.049	620.38
468.268	603.38
468.488	613.38
468.707	601.38
468.927	617.38
469.146	597.38
469.365	619.38
469.585	608.38
469.804	648.38
470.023	653.38
470.243	646.38
470.462	654.38
470.681	664.38
470.901	653.38
471.12	660.38
471.339	634.38
471.558	632.38
471.777	640.38
471.997	614.38
472.216	603.38
472.435	608.38
472.654	592.38
472.873	585.38
473.092	604.38
473.311	570.38
473.53	598.38
473.749	573.38
473.968	579.38
474.187	570.38
474.406	594.38
474.625	581.38
474.844	604.38
475.063	614.38
475.282	575.38
475.501	586.38
475.72	613.38
475.939	601.38
476.158	629.38
476.377	627.38
476.596	622.38
476.814	610.38
477.033	611.38
477.252	628.38
477.471	644.38
477.69	664.38
477.908	669.38
478.127	688.38
478.346	696.38
478.564	681.38
478.783	718.38
479.002	719.38
479.22	722.38
479.439	718.38
479.658	734.38
479.876	713.38
480.095	734.38
480.313	765.38
480.532	781.38
480.751	772.38
480.969	724.38
481.188	712.38
481.406	708.38
481.624	676.38
481.843	678.38
482.061	671.38
482.28	660.38
482.498	660.38
482.717	652.38
482.935	646.38
483.153	656.38
483.372	658.38
483.59	651.38
483.808	677.38
484.027	663.38
484.245	661.38
484.463	655.38
484.681	698.38
484.9	683.38
485.118	702.38
485.336	688.38
485.554	713.38
485.772	710.38
485.99	695.38
486.209	701.38
486.427	702.38
486.645	717.38
486.863	706.38
487.081	700.38
487.299	690.38
487.517	716.38
487.735	682.38
487.953	679.38
488.171	713.38
488.389	683.38
488.607	683.38
488.825	676.38
489.043	697.38
489.261	696.38
489.479	704.38
489.696	674.38
489.914	669.38
490.132	696.38
490.35	696.38
490.568	690.38
490.786	692.38
491.003	670.38
491.221	684.38
491.439	699.38
491.657	684.38
491.874	704.38
492.092	703.38
492.31	719.38
492.527	723.38
492.745	714.38
492.963	722.38
493.18	734.38
493.398	713.38
493.615	735.38
493.833	720.38
494.05	715.38
494.268	735.38
494.485	742.38
494.703	730.38
494.92	740.38
495.138	745.38
495.355	758.38
495.573	726.38
495.79	734.38
496.008	749.38
496.225	718.38
496.442	773.38
496.66	761.38
496.877	786.38
497.094	799.38
497.312	811.38
497.529	804.38
497.746	825.38
497.963	843.38
498.181	871.38
498.398	907.38
498.615	993.38
498.832	1038.38
499.049	1119.38
499.267	1221.38
499.484	1335.38
499.701	1470.38
499.918	1613.38
500.135	1872.38
500.352	2120.38
500.569	2244.38
500.786	2181.38
501.003	2033.38
501.22	1780.38
501.437	1581.38
