Data from Ni(NO3)2@0.0625M.TitratingCurve.Agarose3%dH2O.NegLispCup.LampEnergy10.LIBS07252019_HRD10591_18-15-23-569.txt Node
Date: Thu Jul 25 18:15:23 EDT 2019
User: cochatt
Spectrometer: HR+D1059
Trigger mode: 1
Integration Time (sec): 1.000000E-1
Scans to average: 1
Electric dark correction enabled: true
Nonlinearity correction enabled: false
Boxcar width: 0
XAxis mode: Wavelengths
Number of Pixels in Spectrum: 2048
>>>>>Begin Spectral Data<<<<<
223.165	-23.19
223.4	-23.19
223.635	-23.19
223.869	-13.19
224.104	-15.19
224.338	-20.19
224.573	-17.19
224.808	-11.19
225.042	-2.19
225.277	-3.19
225.511	-2.19
225.746	2.81
225.98	4.81
226.215	3.81
226.449	6.81
226.683	28.81
226.918	27.81
227.152	32.81
227.387	35.81
227.621	36.81
227.856	57.81
228.09	34.81
228.324	45.81
228.559	68.81
228.793	58.81
229.027	85.81
229.262	101.81
229.496	94.81
229.73	110.81
229.964	109.81
230.199	118.81
230.433	120.81
230.667	122.81
230.901	110.81
231.136	113.81
231.37	122.81
231.604	125.81
231.838	129.81
232.072	124.81
232.306	124.81
232.541	122.81
232.775	138.81
233.009	129.81
233.243	130.81
233.477	134.81
233.711	119.81
233.945	123.81
234.179	129.81
234.413	128.81
234.647	140.81
234.881	135.81
235.115	135.81
235.349	119.81
235.583	132.81
235.817	134.81
236.051	138.81
236.285	109.81
236.519	137.81
236.753	144.81
236.987	127.81
237.221	138.81
237.455	134.81
237.689	140.81
237.922	130.81
238.156	121.81
238.39	142.81
238.624	133.81
238.858	134.81
239.091	149.81
239.325	154.81
239.559	141.81
239.793	148.81
240.027	147.81
240.26	141.81
240.494	136.81
240.728	156.81
240.961	132.81
241.195	147.81
241.429	147.81
241.662	135.81
241.896	142.81
242.13	143.81
242.363	159.81
242.597	166.81
242.83	163.81
243.064	156.81
243.298	171.81
243.531	165.81
243.765	157.81
243.998	169.81
244.232	161.81
244.465	162.81
244.699	150.81
244.932	168.81
245.166	158.81
245.399	165.81
245.633	172.81
245.866	162.81
246.099	167.81
246.333	176.81
246.566	167.81
246.8	176.81
247.033	168.81
247.266	189.81
247.5	181.81
247.733	193.81
247.966	183.81
248.2	184.81
248.433	174.81
248.666	192.81
248.899	176.81
249.133	188.81
249.366	200.81
249.599	182.81
249.832	199.81
250.066	192.81
250.299	179.81
250.532	200.81
250.765	194.81
250.998	189.81
251.231	203.81
251.465	204.81
251.698	190.81
251.931	204.81
252.164	213.81
252.397	202.81
252.63	194.81
252.863	196.81
253.096	198.81
253.329	213.81
253.562	208.81
253.795	200.81
254.028	201.81
254.261	206.81
254.494	219.81
254.727	211.81
254.96	211.81
255.193	216.81
255.426	204.81
255.659	206.81
255.892	220.81
256.124	212.81
256.357	199.81
256.59	209.81
256.823	212.81
257.056	217.81
257.289	206.81
257.521	216.81
257.754	221.81
257.987	221.81
258.22	218.81
258.452	230.81
258.685	222.81
258.918	244.81
259.151	234.81
259.383	236.81
259.616	240.81
259.849	233.81
260.081	227.81
260.314	261.81
260.547	243.81
260.779	240.81
261.012	259.81
261.244	224.81
261.477	256.81
261.71	240.81
261.942	241.81
262.175	256.81
262.407	237.81
262.64	234.81
262.872	259.81
263.105	240.81
263.337	264.81
263.57	238.81
263.802	256.81
264.035	266.81
264.267	248.81
264.499	256.81
264.732	267.81
264.964	247.81
265.197	281.81
265.429	271.81
265.661	272.81
265.894	265.81
266.126	262.81
266.358	268.81
266.591	264.81
266.823	273.81
267.055	262.81
267.287	281.81
267.52	257.81
267.752	282.81
267.984	267.81
268.216	268.81
268.448	288.81
268.681	281.81
268.913	289.81
269.145	278.81
269.377	279.81
269.609	276.81
269.841	282.81
270.073	272.81
270.306	270.81
270.538	267.81
270.77	294.81
271.002	291.81
271.234	276.81
271.466	278.81
271.698	291.81
271.93	274.81
272.162	293.81
272.394	278.81
272.626	299.81
272.858	290.81
273.09	293.81
273.322	313.81
273.553	291.81
273.785	280.81
274.017	303.81
274.249	281.81
274.481	308.81
274.713	304.81
274.945	285.81
275.176	282.81
275.408	325.81
275.64	324.81
275.872	311.81
276.104	306.81
276.335	311.81
276.567	304.81
276.799	309.81
277.031	315.81
277.262	326.81
277.494	324.81
277.726	313.81
277.957	314.81
278.189	327.81
278.421	286.81
278.652	327.81
278.884	312.81
279.115	331.81
279.347	313.81
279.579	327.81
279.81	323.81
280.042	321.81
280.273	331.81
280.505	322.81
280.736	335.81
280.968	342.81
281.199	336.81
281.431	338.81
281.662	338.81
281.894	335.81
282.125	341.81
282.356	354.81
282.588	334.81
282.819	337.81
283.051	341.81
283.282	340.81
283.513	341.81
283.745	356.81
283.976	340.81
284.207	356.81
284.439	356.81
284.67	350.81
284.901	353.81
285.132	339.81
285.364	357.81
285.595	359.81
285.826	353.81
286.057	342.81
286.288	353.81
286.52	375.81
286.751	349.81
286.982	364.81
287.213	361.81
287.444	368.81
287.675	378.81
287.906	358.81
288.138	380.81
288.369	380.81
288.6	374.81
288.831	399.81
289.062	383.81
289.293	384.81
289.524	372.81
289.755	350.81
289.986	375.81
290.217	370.81
290.448	382.81
290.679	386.81
290.91	376.81
291.141	390.81
291.371	360.81
291.602	378.81
291.833	388.81
292.064	377.81
292.295	380.81
292.526	408.81
292.757	386.81
292.987	383.81
293.218	379.81
293.449	396.81
293.68	384.81
293.91	392.81
294.141	401.81
294.372	406.81
294.603	388.81
294.833	376.81
295.064	409.81
295.295	406.81
295.525	380.81
295.756	398.81
295.987	410.81
296.217	422.81
296.448	406.81
296.679	395.81
296.909	396.81
297.14	429.81
297.37	404.81
297.601	412.81
297.831	414.81
298.062	410.81
298.292	425.81
298.523	437.81
298.753	420.81
298.984	429.81
299.214	428.81
299.445	416.81
299.675	434.81
299.905	410.81
300.136	451.81
300.366	432.81
300.597	456.81
300.827	430.81
301.057	451.81
301.288	451.81
301.518	439.81
301.748	449.81
301.979	447.81
302.209	439.81
302.439	448.81
302.669	434.81
302.9	436.81
303.13	449.81
303.36	434.81
303.59	412.81
303.82	435.81
304.051	441.81
304.281	444.81
304.511	436.81
304.741	427.81
304.971	449.81
305.201	446.81
305.431	438.81
305.661	451.81
305.891	441.81
306.121	433.81
306.352	426.81
306.582	436.81
306.812	418.81
307.042	446.81
307.272	451.81
307.502	430.81
307.731	425.81
307.961	416.81
308.191	425.81
308.421	401.81
308.651	441.81
308.881	394.81
309.111	432.81
309.341	425.81
309.571	438.81
309.8	414.81
310.03	429.81
310.26	436.81
310.49	421.81
310.72	423.81
310.949	425.81
311.179	430.81
311.409	421.81
311.639	430.81
311.868	430.81
312.098	451.81
312.328	451.81
312.557	430.81
312.787	419.81
313.017	438.81
313.246	458.81
313.476	464.81
313.706	456.81
313.935	462.81
314.165	463.81
314.394	453.81
314.624	456.81
314.853	439.81
315.083	452.81
315.312	454.81
315.542	464.81
315.771	438.81
316.001	446.81
316.23	446.81
316.46	459.81
316.689	432.81
316.919	432.81
317.148	463.81
317.377	456.81
317.607	446.81
317.836	437.81
318.065	455.81
318.295	445.81
318.524	445.81
318.753	429.81
318.983	438.81
319.212	431.81
319.441	463.81
319.67	441.81
319.9	433.81
320.129	440.81
320.358	441.81
320.587	441.81
320.816	456.81
321.046	445.81
321.275	460.81
321.504	438.81
321.733	450.81
321.962	462.81
322.191	449.81
322.42	452.81
322.649	456.81
322.878	453.81
323.108	447.81
323.337	461.81
323.566	460.81
323.795	465.81
324.024	471.81
324.253	484.81
324.482	488.81
324.71	459.81
324.939	478.81
325.168	466.81
325.397	471.81
325.626	468.81
325.855	448.81
326.084	483.81
326.313	482.81
326.542	479.81
326.77	496.81
326.999	474.81
327.228	494.81
327.457	484.81
327.686	481.81
327.914	476.81
328.143	494.81
328.372	494.81
328.6	492.81
328.829	491.81
329.058	481.81
329.287	478.81
329.515	492.81
329.744	518.81
329.972	497.81
330.201	502.81
330.43	484.81
330.658	518.81
330.887	509.81
331.115	517.81
331.344	513.81
331.572	521.81
331.801	548.81
332.03	553.81
332.258	562.81
332.486	557.81
332.715	585.81
332.943	600.81
333.172	621.81
333.4	650.81
333.629	666.81
333.857	686.81
334.085	651.81
334.314	662.81
334.542	628.81
334.771	624.81
334.999	614.81
335.227	606.81
335.455	601.81
335.684	603.81
335.912	602.81
336.14	600.81
336.369	607.81
336.597	599.81
336.825	618.81
337.053	596.81
337.281	554.81
337.51	586.81
337.738	566.81
337.966	551.81
338.194	560.81
338.422	549.81
338.65	537.81
338.878	548.81
339.106	552.81
339.334	550.81
339.562	549.81
339.79	524.81
340.018	525.81
340.246	516.81
340.474	513.81
340.702	515.81
340.93	512.81
341.158	531.81
341.386	551.81
341.614	557.81
341.842	526.81
342.07	510.81
342.298	506.81
342.526	520.81
342.754	512.81
342.981	535.81
343.209	556.81
343.437	569.81
343.665	609.81
343.893	643.81
344.12	636.81
344.348	608.81
344.576	598.81
344.804	586.81
345.031	567.81
345.259	537.81
345.487	534.81
345.714	536.81
345.942	525.81
346.17	542.81
346.397	523.81
346.625	525.81
346.853	507.81
347.08	524.81
347.308	524.81
347.535	525.81
347.763	521.81
347.99	526.81
348.218	535.81
348.445	513.81
348.673	513.81
348.9	504.81
349.128	501.81
349.355	519.81
349.583	518.81
349.81	499.81
350.037	507.81
350.265	501.81
350.492	500.81
350.72	480.81
350.947	489.81
351.174	493.81
351.402	489.81
351.629	518.81
351.856	498.81
352.083	498.81
352.311	520.81
352.538	518.81
352.765	525.81
352.992	505.81
353.22	480.81
353.447	472.81
353.674	496.81
353.901	471.81
354.128	477.81
354.355	483.81
354.583	526.81
354.81	480.81
355.037	508.81
355.264	494.81
355.491	504.81
355.718	470.81
355.945	501.81
356.172	498.81
356.399	482.81
356.626	514.81
356.853	498.81
357.08	508.81
357.307	505.81
357.534	478.81
357.761	473.81
357.988	490.81
358.215	493.81
358.441	484.81
358.668	472.81
358.895	470.81
359.122	469.81
359.349	486.81
359.576	496.81
359.802	500.81
360.029	508.81
360.256	478.81
360.483	494.81
360.709	503.81
360.936	501.81
361.163	488.81
361.39	490.81
361.616	507.81
361.843	488.81
362.07	518.81
362.296	516.81
362.523	483.81
362.749	498.81
362.976	493.81
363.203	494.81
363.429	481.81
363.656	483.81
363.882	482.81
364.109	478.81
364.335	500.81
364.562	474.81
364.788	506.81
365.015	478.81
365.241	461.81
365.468	481.81
365.694	490.81
365.92	473.81
366.147	494.81
366.373	502.81
366.599	493.81
366.826	507.81
367.052	488.81
367.278	488.81
367.505	477.81
367.731	471.81
367.957	494.81
368.184	498.81
368.41	506.81
368.636	491.81
368.862	512.81
369.089	492.81
369.315	485.81
369.541	497.81
369.767	506.81
369.993	516.81
370.219	514.81
370.445	505.81
370.672	523.81
370.898	530.81
371.124	519.81
371.35	522.81
371.576	516.81
371.802	552.81
372.028	496.81
372.254	538.81
372.48	544.81
372.706	530.81
372.932	568.81
373.158	546.81
373.384	535.81
373.61	547.81
373.835	541.81
374.061	573.81
374.287	539.81
374.513	553.81
374.739	562.81
374.965	562.81
375.191	591.81
375.416	603.81
375.642	574.81
375.868	569.81
376.094	564.81
376.319	545.81
376.545	549.81
376.771	534.81
376.997	545.81
377.222	528.81
377.448	542.81
377.674	547.81
377.899	547.81
378.125	524.81
378.35	504.81
378.576	520.81
378.802	533.81
379.027	529.81
379.253	551.81
379.478	523.81
379.704	514.81
379.929	530.81
380.155	539.81
380.38	543.81
380.606	544.81
380.831	534.81
381.057	542.81
381.282	557.81
381.507	519.81
381.733	540.81
381.958	545.81
382.184	523.81
382.409	545.81
382.634	556.81
382.86	556.81
383.085	545.81
383.31	573.81
383.535	600.81
383.761	606.81
383.986	611.81
384.211	614.81
384.436	625.81
384.662	622.81
384.887	616.81
385.112	623.81
385.337	638.81
385.562	667.81
385.787	634.81
386.013	622.81
386.238	649.81
386.463	654.81
386.688	647.81
386.913	624.81
387.138	632.81
387.363	618.81
387.588	647.81
387.813	601.81
388.038	630.81
388.263	630.81
388.488	626.81
388.713	614.81
388.938	615.81
389.163	629.81
389.387	630.81
389.612	594.81
389.837	621.81
390.062	620.81
390.287	629.81
390.512	629.81
390.736	645.81
390.961	664.81
391.186	662.81
391.411	664.81
391.636	671.81
391.86	692.81
392.085	717.81
392.31	699.81
392.534	700.81
392.759	689.81
392.984	663.81
393.208	667.81
393.433	645.81
393.658	666.81
393.882	676.81
394.107	663.81
394.331	680.81
394.556	676.81
394.78	679.81
395.005	681.81
395.229	702.81
395.454	697.81
395.678	698.81
395.903	695.81
396.127	691.81
396.352	664.81
396.576	685.81
396.801	653.81
397.025	672.81
397.249	691.81
397.474	719.81
397.698	696.81
397.922	703.81
398.147	676.81
398.371	712.81
398.595	737.81
398.82	792.81
399.044	832.81
399.268	942.81
399.492	1094.81
399.717	1217.81
399.941	1201.81
400.165	1060.81
400.389	926.81
400.613	854.81
400.837	838.81
401.062	802.81
401.286	806.81
401.51	778.81
401.734	794.81
401.958	813.81
402.182	809.81
402.406	830.81
402.63	864.81
402.854	838.81
403.078	862.81
403.302	896.81
403.526	892.81
403.75	915.81
403.974	934.81
404.198	933.81
404.422	932.81
404.645	904.81
404.869	910.81
405.093	904.81
405.317	912.81
405.541	875.81
405.765	882.81
405.988	871.81
406.212	879.81
406.436	858.81
406.66	906.81
406.883	901.81
407.107	969.81
407.331	980.81
407.555	1022.81
407.778	1019.81
408.002	997.81
408.226	968.81
408.449	939.81
408.673	902.81
408.896	904.81
409.12	897.81
409.344	896.81
409.567	909.81
409.791	929.81
410.014	914.81
410.238	908.81
410.461	898.81
410.685	904.81
410.908	893.81
411.132	835.81
411.355	809.81
411.578	838.81
411.802	827.81
412.025	822.81
412.249	841.81
412.472	816.81
412.695	816.81
412.919	794.81
413.142	783.81
413.365	782.81
413.589	812.81
413.812	792.81
414.035	811.81
414.258	796.81
414.482	792.81
414.705	789.81
414.928	802.81
415.151	804.81
415.374	780.81
415.597	792.81
415.821	776.81
416.044	776.81
416.267	761.81
416.49	786.81
416.713	767.81
416.936	776.81
417.159	762.81
417.382	764.81
417.605	769.81
417.828	796.81
418.051	758.81
418.274	804.81
418.497	794.81
418.72	820.81
418.943	806.81
419.166	866.81
419.389	912.81
419.611	883.81
419.834	866.81
420.057	832.81
420.28	797.81
420.503	763.81
420.726	776.81
420.948	773.81
421.171	812.81
421.394	784.81
421.617	769.81
421.839	770.81
422.062	795.81
422.285	780.81
422.507	784.81
422.73	800.81
422.953	824.81
423.175	840.81
423.398	840.81
423.621	844.81
423.843	843.81
424.066	838.81
424.288	832.81
424.511	807.81
424.733	822.81
424.956	822.81
425.178	802.81
425.401	781.81
425.623	801.81
425.846	792.81
426.068	738.81
426.291	736.81
426.513	741.81
426.735	745.81
426.958	755.81
427.18	732.81
427.402	709.81
427.625	715.81
427.847	706.81
428.069	721.81
428.292	694.81
428.514	690.81
428.736	716.81
428.958	711.81
429.181	715.81
429.403	688.81
429.625	683.81
429.847	666.81
430.069	684.81
430.292	683.81
430.514	677.81
430.736	697.81
430.958	688.81
431.18	699.81
431.402	686.81
431.624	691.81
431.846	725.81
432.068	732.81
432.29	713.81
432.512	722.81
432.734	709.81
432.956	694.81
433.178	711.81
433.4	710.81
433.622	726.81
433.844	712.81
434.066	727.81
434.287	726.81
434.509	738.81
434.731	786.81
434.953	800.81
435.175	839.81
435.397	809.81
435.618	745.81
435.84	737.81
436.062	726.81
436.284	728.81
436.505	676.81
436.727	711.81
436.949	706.81
437.17	719.81
437.392	695.81
437.614	711.81
437.835	677.81
438.057	681.81
438.278	673.81
438.5	666.81
438.721	678.81
438.943	683.81
439.165	680.81
439.386	699.81
439.608	705.81
439.829	698.81
440.05	721.81
440.272	705.81
440.493	730.81
440.715	701.81
440.936	736.81
441.158	759.81
441.379	748.81
441.6	820.81
441.822	813.81
442.043	795.81
442.264	781.81
442.486	763.81
442.707	797.81
442.928	806.81
443.149	799.81
443.371	796.81
443.592	780.81
443.813	787.81
444.034	803.81
444.255	840.81
444.476	873.81
444.698	921.81
444.919	963.81
445.14	1064.81
445.361	935.81
445.582	831.81
445.803	792.81
446.024	772.81
446.245	744.81
446.466	716.81
446.687	724.81
446.908	733.81
447.129	708.81
447.35	694.81
447.571	674.81
447.792	663.81
448.013	654.81
448.234	672.81
448.455	662.81
448.675	655.81
448.896	682.81
449.117	642.81
449.338	627.81
449.559	666.81
449.779	638.81
450	636.81
450.221	659.81
450.442	656.81
450.662	675.81
450.883	697.81
451.104	701.81
451.324	687.81
451.545	668.81
451.766	662.81
451.986	685.81
452.207	661.81
452.428	634.81
452.648	678.81
452.869	668.81
453.089	655.81
453.31	647.81
453.53	672.81
453.751	642.81
453.971	647.81
454.192	642.81
454.412	628.81
454.633	618.81
454.853	627.81
455.073	619.81
455.294	611.81
455.514	636.81
455.734	646.81
455.955	608.81
456.175	598.81
456.395	600.81
456.616	617.81
456.836	627.81
457.056	624.81
457.276	580.81
457.497	636.81
457.717	636.81
457.937	635.81
458.157	619.81
458.377	628.81
458.598	638.81
458.818	669.81
459.038	698.81
459.258	692.81
459.478	745.81
459.698	733.81
459.918	788.81
460.138	805.81
460.358	842.81
460.578	844.81
460.798	854.81
461.018	832.81
461.238	831.81
461.458	837.81
461.678	829.81
461.898	838.81
462.118	824.81
462.338	919.81
462.558	926.81
462.777	957.81
462.997	1032.81
463.217	1154.81
463.437	1168.81
463.657	1067.81
463.876	974.81
464.096	954.81
464.316	993.81
464.536	994.81
464.755	981.81
464.975	932.81
465.195	865.81
465.414	846.81
465.634	777.81
465.854	746.81
466.073	724.81
466.293	731.81
466.512	725.81
466.732	708.81
466.951	672.81
467.171	679.81
467.391	698.81
467.61	705.81
467.829	685.81
468.049	669.81
468.268	657.81
468.488	661.81
468.707	681.81
468.927	650.81
469.146	653.81
469.365	666.81
469.585	662.81
469.804	680.81
470.023	702.81
470.243	732.81
470.462	742.81
470.681	710.81
470.901	728.81
471.12	698.81
471.339	689.81
471.558	650.81
471.777	668.81
471.997	684.81
472.216	688.81
472.435	656.81
472.654	658.81
472.873	644.81
473.092	622.81
473.311	650.81
473.53	655.81
473.749	642.81
473.968	655.81
474.187	669.81
474.406	643.81
474.625	652.81
474.844	656.81
475.063	672.81
475.282	648.81
475.501	637.81
475.72	667.81
475.939	644.81
476.158	664.81
476.377	664.81
476.596	669.81
476.814	656.81
477.033	676.81
477.252	703.81
477.471	715.81
477.69	717.81
477.908	766.81
478.127	776.81
478.346	768.81
478.564	805.81
478.783	775.81
479.002	809.81
479.22	835.81
479.439	800.81
479.658	814.81
479.876	800.81
480.095	791.81
480.313	859.81
480.532	853.81
480.751	872.81
480.969	824.81
481.188	806.81
481.406	778.81
481.624	760.81
481.843	769.81
482.061	759.81
482.28	741.81
482.498	739.81
482.717	727.81
482.935	746.81
483.153	773.81
483.372	752.81
483.59	763.81
483.808	774.81
484.027	746.81
484.245	747.81
484.463	763.81
484.681	788.81
484.9	801.81
485.118	808.81
485.336	808.81
485.554	792.81
485.772	818.81
485.99	820.81
486.209	821.81
486.427	811.81
486.645	810.81
486.863	792.81
487.081	815.81
487.299	830.81
487.517	827.81
487.735	812.81
487.953	801.81
488.171	813.81
488.389	782.81
488.607	752.81
488.825	764.81
489.043	803.81
489.261	783.81
489.479	765.81
489.696	749.81
489.914	790.81
490.132	805.81
490.35	801.81
490.568	781.81
490.786	781.81
491.003	797.81
491.221	795.81
491.439	792.81
491.657	756.81
491.874	774.81
492.092	797.81
492.31	795.81
492.527	795.81
492.745	809.81
492.963	802.81
493.18	787.81
493.398	778.81
493.615	812.81
493.833	832.81
494.05	802.81
494.268	817.81
494.485	809.81
494.703	824.81
494.92	829.81
495.138	807.81
495.355	806.81
495.573	800.81
495.79	803.81
496.008	827.81
496.225	844.81
496.442	825.81
496.66	826.81
496.877	835.81
497.094	869.81
497.312	868.81
497.529	902.81
497.746	957.81
497.963	944.81
498.181	975.81
498.398	1026.81
498.615	1086.81
498.832	1138.81
499.049	1239.81
499.267	1342.81
499.484	1461.81
499.701	1555.81
499.918	1782.81
500.135	2080.81
500.352	2363.81
500.569	2484.81
500.786	2484.81
501.003	2323.81
501.22	2034.81
