Data from Ni(NO3)2@0.0625M.TitratingCurve.Agarose3%dH2O.NegLispCup.LampEnergy10.LIBS07252019_HRD10591_18-14-18-569.txt Node
Date: Thu Jul 25 18:14:18 EDT 2019
User: cochatt
Spectrometer: HR+D1059
Trigger mode: 1
Integration Time (sec): 1.000000E-1
Scans to average: 1
Electric dark correction enabled: true
Nonlinearity correction enabled: false
Boxcar width: 0
XAxis mode: Wavelengths
Number of Pixels in Spectrum: 2048
>>>>>Begin Spectral Data<<<<<
223.165	-21.88
223.4	-21.88
223.635	-21.88
223.869	-11.88
224.104	-12.88
224.338	-9.88
224.573	-14.88
224.808	-19.88
225.042	4.12
225.277	-3.88
225.511	-8.88
225.746	-3.88
225.98	8.12
226.215	8.12
226.449	28.12
226.683	11.12
226.918	24.12
227.152	24.12
227.387	41.12
227.621	38.12
227.856	45.12
228.09	51.12
228.324	57.12
228.559	56.12
228.793	68.12
229.027	83.12
229.262	99.12
229.496	99.12
229.73	114.12
229.964	114.12
230.199	127.12
230.433	125.12
230.667	119.12
230.901	125.12
231.136	129.12
231.37	122.12
231.604	134.12
231.838	115.12
232.072	147.12
232.306	129.12
232.541	132.12
232.775	130.12
233.009	129.12
233.243	140.12
233.477	134.12
233.711	142.12
233.945	137.12
234.179	140.12
234.413	132.12
234.647	130.12
234.881	133.12
235.115	132.12
235.349	140.12
235.583	140.12
235.817	120.12
236.051	144.12
236.285	133.12
236.519	158.12
236.753	144.12
236.987	136.12
237.221	126.12
237.455	138.12
237.689	144.12
237.922	146.12
238.156	148.12
238.39	154.12
238.624	141.12
238.858	146.12
239.091	160.12
239.325	158.12
239.559	156.12
239.793	136.12
240.027	156.12
240.26	146.12
240.494	152.12
240.728	149.12
240.961	152.12
241.195	142.12
241.429	156.12
241.662	150.12
241.896	169.12
242.13	168.12
242.363	175.12
242.597	151.12
242.83	171.12
243.064	164.12
243.298	172.12
243.531	166.12
243.765	166.12
243.998	173.12
244.232	180.12
244.465	178.12
244.699	196.12
244.932	184.12
245.166	192.12
245.399	198.12
245.633	194.12
245.866	186.12
246.099	180.12
246.333	191.12
246.566	205.12
246.8	187.12
247.033	187.12
247.266	199.12
247.5	181.12
247.733	204.12
247.966	189.12
248.2	200.12
248.433	199.12
248.666	199.12
248.899	197.12
249.133	203.12
249.366	212.12
249.599	202.12
249.832	220.12
250.066	223.12
250.299	207.12
250.532	202.12
250.765	203.12
250.998	208.12
251.231	206.12
251.465	229.12
251.698	203.12
251.931	205.12
252.164	230.12
252.397	244.12
252.63	236.12
252.863	231.12
253.096	226.12
253.329	216.12
253.562	230.12
253.795	233.12
254.028	233.12
254.261	214.12
254.494	219.12
254.727	232.12
254.96	238.12
255.193	226.12
255.426	236.12
255.659	238.12
255.892	242.12
256.124	242.12
256.357	230.12
256.59	245.12
256.823	246.12
257.056	240.12
257.289	235.12
257.521	264.12
257.754	243.12
257.987	263.12
258.22	233.12
258.452	248.12
258.685	232.12
258.918	238.12
259.151	261.12
259.383	250.12
259.616	239.12
259.849	267.12
260.081	264.12
260.314	243.12
260.547	246.12
260.779	246.12
261.012	243.12
261.244	259.12
261.477	268.12
261.71	251.12
261.942	265.12
262.175	238.12
262.407	247.12
262.64	271.12
262.872	278.12
263.105	264.12
263.337	268.12
263.57	277.12
263.802	264.12
264.035	293.12
264.267	279.12
264.499	266.12
264.732	297.12
264.964	284.12
265.197	280.12
265.429	268.12
265.661	301.12
265.894	286.12
266.126	289.12
266.358	298.12
266.591	293.12
266.823	267.12
267.055	295.12
267.287	283.12
267.52	298.12
267.752	290.12
267.984	286.12
268.216	298.12
268.448	304.12
268.681	320.12
268.913	302.12
269.145	312.12
269.377	310.12
269.609	301.12
269.841	298.12
270.073	278.12
270.306	283.12
270.538	308.12
270.77	303.12
271.002	312.12
271.234	297.12
271.466	300.12
271.698	302.12
271.93	319.12
272.162	297.12
272.394	301.12
272.626	312.12
272.858	315.12
273.09	321.12
273.322	324.12
273.553	328.12
273.785	330.12
274.017	327.12
274.249	334.12
274.481	319.12
274.713	322.12
274.945	333.12
275.176	336.12
275.408	326.12
275.64	348.12
275.872	335.12
276.104	351.12
276.335	351.12
276.567	344.12
276.799	330.12
277.031	329.12
277.262	333.12
277.494	349.12
277.726	349.12
277.957	340.12
278.189	344.12
278.421	357.12
278.652	347.12
278.884	349.12
279.115	361.12
279.347	344.12
279.579	343.12
279.81	359.12
280.042	379.12
280.273	361.12
280.505	374.12
280.736	363.12
280.968	364.12
281.199	360.12
281.431	382.12
281.662	374.12
281.894	378.12
282.125	352.12
282.356	379.12
282.588	382.12
282.819	375.12
283.051	386.12
283.282	401.12
283.513	381.12
283.745	383.12
283.976	385.12
284.207	367.12
284.439	386.12
284.67	382.12
284.901	375.12
285.132	371.12
285.364	403.12
285.595	407.12
285.826	381.12
286.057	398.12
286.288	396.12
286.52	403.12
286.751	408.12
286.982	406.12
287.213	403.12
287.444	406.12
287.675	406.12
287.906	390.12
288.138	420.12
288.369	419.12
288.6	407.12
288.831	387.12
289.062	408.12
289.293	400.12
289.524	399.12
289.755	397.12
289.986	399.12
290.217	413.12
290.448	424.12
290.679	425.12
290.91	405.12
291.141	409.12
291.371	424.12
291.602	418.12
291.833	422.12
292.064	417.12
292.295	421.12
292.526	406.12
292.757	436.12
292.987	429.12
293.218	413.12
293.449	437.12
293.68	438.12
293.91	442.12
294.141	415.12
294.372	438.12
294.603	428.12
294.833	430.12
295.064	430.12
295.295	442.12
295.525	429.12
295.756	445.12
295.987	453.12
296.217	442.12
296.448	436.12
296.679	447.12
296.909	456.12
297.14	446.12
297.37	471.12
297.601	459.12
297.831	447.12
298.062	465.12
298.292	475.12
298.523	469.12
298.753	475.12
298.984	499.12
299.214	484.12
299.445	473.12
299.675	467.12
299.905	461.12
300.136	463.12
300.366	491.12
300.597	460.12
300.827	466.12
301.057	474.12
301.288	457.12
301.518	458.12
301.748	485.12
301.979	480.12
302.209	474.12
302.439	474.12
302.669	459.12
302.9	487.12
303.13	480.12
303.36	469.12
303.59	472.12
303.82	478.12
304.051	470.12
304.281	482.12
304.511	483.12
304.741	471.12
304.971	461.12
305.201	457.12
305.431	472.12
305.661	466.12
305.891	481.12
306.121	470.12
306.352	472.12
306.582	478.12
306.812	470.12
307.042	454.12
307.272	474.12
307.502	457.12
307.731	451.12
307.961	454.12
308.191	465.12
308.421	451.12
308.651	451.12
308.881	483.12
309.111	479.12
309.341	467.12
309.571	469.12
309.8	454.12
310.03	468.12
310.26	450.12
310.49	463.12
310.72	498.12
310.949	477.12
311.179	463.12
311.409	464.12
311.639	476.12
311.868	473.12
312.098	480.12
312.328	494.12
312.557	486.12
312.787	482.12
313.017	491.12
313.246	473.12
313.476	491.12
313.706	505.12
313.935	498.12
314.165	510.12
314.394	506.12
314.624	500.12
314.853	482.12
315.083	483.12
315.312	505.12
315.542	507.12
315.771	464.12
316.001	485.12
316.23	458.12
316.46	477.12
316.689	480.12
316.919	510.12
317.148	477.12
317.377	509.12
317.607	467.12
317.836	468.12
318.065	499.12
318.295	488.12
318.524	486.12
318.753	466.12
318.983	490.12
319.212	487.12
319.441	494.12
319.67	499.12
319.9	486.12
320.129	482.12
320.358	492.12
320.587	479.12
320.816	480.12
321.046	504.12
321.275	488.12
321.504	499.12
321.733	484.12
321.962	491.12
322.191	487.12
322.42	486.12
322.649	479.12
322.878	477.12
323.108	503.12
323.337	510.12
323.566	501.12
323.795	486.12
324.024	492.12
324.253	522.12
324.482	519.12
324.71	511.12
324.939	505.12
325.168	512.12
325.397	517.12
325.626	504.12
325.855	525.12
326.084	520.12
326.313	525.12
326.542	520.12
326.77	551.12
326.999	565.12
327.228	544.12
327.457	538.12
327.686	524.12
327.914	546.12
328.143	560.12
328.372	532.12
328.6	521.12
328.829	533.12
329.058	519.12
329.287	522.12
329.515	559.12
329.744	527.12
329.972	538.12
330.201	538.12
330.43	536.12
330.658	545.12
330.887	529.12
331.115	563.12
331.344	560.12
331.572	596.12
331.801	570.12
332.03	573.12
332.258	604.12
332.486	606.12
332.715	638.12
332.943	668.12
333.172	690.12
333.4	710.12
333.629	722.12
333.857	727.12
334.085	702.12
334.314	715.12
334.542	670.12
334.771	677.12
334.999	657.12
335.227	680.12
335.455	648.12
335.684	650.12
335.912	670.12
336.14	636.12
336.369	623.12
336.597	659.12
336.825	654.12
337.053	643.12
337.281	648.12
337.51	623.12
337.738	606.12
337.966	576.12
338.194	594.12
338.422	590.12
338.65	574.12
338.878	578.12
339.106	594.12
339.334	592.12
339.562	587.12
339.79	560.12
340.018	545.12
340.246	562.12
340.474	551.12
340.702	546.12
340.93	569.12
341.158	557.12
341.386	560.12
341.614	558.12
341.842	558.12
342.07	557.12
342.298	558.12
342.526	563.12
342.754	556.12
342.981	555.12
343.209	558.12
343.437	606.12
343.665	617.12
343.893	671.12
344.12	694.12
344.348	687.12
344.576	636.12
344.804	612.12
345.031	593.12
345.259	574.12
345.487	561.12
345.714	564.12
345.942	566.12
346.17	569.12
346.397	550.12
346.625	556.12
346.853	547.12
347.08	542.12
347.308	578.12
347.535	562.12
347.763	541.12
347.99	549.12
348.218	567.12
348.445	550.12
348.673	555.12
348.9	557.12
349.128	562.12
349.355	538.12
349.583	538.12
349.81	551.12
350.037	525.12
350.265	516.12
350.492	559.12
350.72	532.12
350.947	528.12
351.174	534.12
351.402	544.12
351.629	553.12
351.856	544.12
352.083	532.12
352.311	506.12
352.538	518.12
352.765	520.12
352.992	536.12
353.22	522.12
353.447	524.12
353.674	539.12
353.901	522.12
354.128	519.12
354.355	527.12
354.583	535.12
354.81	537.12
355.037	525.12
355.264	545.12
355.491	522.12
355.718	530.12
355.945	549.12
356.172	554.12
356.399	527.12
356.626	534.12
356.853	525.12
357.08	538.12
357.307	555.12
357.534	521.12
357.761	541.12
357.988	520.12
358.215	516.12
358.441	519.12
358.668	504.12
358.895	523.12
359.122	538.12
359.349	535.12
359.576	525.12
359.802	533.12
360.029	545.12
360.256	526.12
360.483	550.12
360.709	542.12
360.936	534.12
361.163	526.12
361.39	511.12
361.616	505.12
361.843	544.12
362.07	536.12
362.296	532.12
362.523	544.12
362.749	536.12
362.976	522.12
363.203	527.12
363.429	506.12
363.656	538.12
363.882	538.12
364.109	536.12
364.335	514.12
364.562	512.12
364.788	519.12
365.015	529.12
365.241	527.12
365.468	515.12
365.694	536.12
365.92	517.12
366.147	532.12
366.373	513.12
366.599	509.12
366.826	537.12
367.052	509.12
367.278	523.12
367.505	528.12
367.731	528.12
367.957	552.12
368.184	542.12
368.41	543.12
368.636	550.12
368.862	554.12
369.089	548.12
369.315	526.12
369.541	546.12
369.767	558.12
369.993	551.12
370.219	537.12
370.445	561.12
370.672	567.12
370.898	557.12
371.124	573.12
371.35	580.12
371.576	588.12
371.802	555.12
372.028	582.12
372.254	572.12
372.48	564.12
372.706	559.12
372.932	590.12
373.158	599.12
373.384	568.12
373.61	563.12
373.835	589.12
374.061	593.12
374.287	582.12
374.513	585.12
374.739	596.12
374.965	624.12
375.191	629.12
375.416	656.12
375.642	626.12
375.868	603.12
376.094	612.12
376.319	595.12
376.545	594.12
376.771	583.12
376.997	570.12
377.222	591.12
377.448	553.12
377.674	585.12
377.899	565.12
378.125	596.12
378.35	572.12
378.576	591.12
378.802	572.12
379.027	564.12
379.253	550.12
379.478	563.12
379.704	572.12
379.929	579.12
380.155	560.12
380.38	556.12
380.606	573.12
380.831	555.12
381.057	554.12
381.282	561.12
381.507	549.12
381.733	598.12
381.958	594.12
382.184	582.12
382.409	578.12
382.634	591.12
382.86	614.12
383.085	605.12
383.31	608.12
383.535	633.12
383.761	643.12
383.986	636.12
384.211	688.12
384.436	668.12
384.662	675.12
384.887	680.12
385.112	684.12
385.337	683.12
385.562	701.12
385.787	683.12
386.013	692.12
386.238	674.12
386.463	687.12
386.688	672.12
386.913	701.12
387.138	661.12
387.363	660.12
387.588	655.12
387.813	677.12
388.038	685.12
388.263	636.12
388.488	657.12
388.713	701.12
388.938	654.12
389.163	661.12
389.387	688.12
389.612	643.12
389.837	664.12
390.062	669.12
390.287	648.12
390.512	665.12
390.736	660.12
390.961	696.12
391.186	684.12
391.411	711.12
391.636	738.12
391.86	760.12
392.085	752.12
392.31	775.12
392.534	752.12
392.759	724.12
392.984	702.12
393.208	715.12
393.433	711.12
393.658	710.12
393.882	688.12
394.107	761.12
394.331	717.12
394.556	719.12
394.78	745.12
395.005	768.12
395.229	760.12
395.454	740.12
395.678	769.12
395.903	770.12
396.127	741.12
396.352	736.12
396.576	726.12
396.801	722.12
397.025	723.12
397.249	741.12
397.474	757.12
397.698	716.12
397.922	763.12
398.147	744.12
398.371	746.12
398.595	777.12
398.82	811.12
399.044	872.12
399.268	958.12
399.492	1097.12
399.717	1339.12
399.941	1289.12
400.165	1117.12
400.389	997.12
400.613	915.12
400.837	884.12
401.062	835.12
401.286	856.12
401.51	825.12
401.734	827.12
401.958	840.12
402.182	839.12
402.406	874.12
402.63	899.12
402.854	896.12
403.078	926.12
403.302	934.12
403.526	966.12
403.75	985.12
403.974	989.12
404.198	1003.12
404.422	992.12
404.645	975.12
404.869	984.12
405.093	964.12
405.317	938.12
405.541	954.12
405.765	930.12
405.988	889.12
406.212	905.12
406.436	929.12
406.66	918.12
406.883	951.12
407.107	1015.12
407.331	1066.12
407.555	1102.12
407.778	1103.12
408.002	1054.12
408.226	1028.12
408.449	1022.12
408.673	958.12
408.896	964.12
409.12	950.12
409.344	957.12
409.567	944.12
409.791	987.12
410.014	962.12
410.238	958.12
410.461	961.12
410.685	935.12
410.908	929.12
411.132	911.12
411.355	880.12
411.578	873.12
411.802	876.12
412.025	888.12
412.249	898.12
412.472	886.12
412.695	860.12
412.919	842.12
413.142	836.12
413.365	842.12
413.589	876.12
413.812	842.12
414.035	855.12
414.258	842.12
414.482	847.12
414.705	878.12
414.928	866.12
415.151	857.12
415.374	848.12
415.597	814.12
415.821	832.12
416.044	851.12
416.267	799.12
416.49	837.12
416.713	822.12
416.936	857.12
417.159	830.12
417.382	824.12
417.605	811.12
417.828	828.12
418.051	860.12
418.274	824.12
418.497	867.12
418.72	868.12
418.943	871.12
419.166	941.12
419.389	990.12
419.611	935.12
419.834	930.12
420.057	876.12
420.28	864.12
420.503	824.12
420.726	823.12
420.948	836.12
421.171	822.12
421.394	840.12
421.617	830.12
421.839	831.12
422.062	871.12
422.285	843.12
422.507	842.12
422.73	849.12
422.953	835.12
423.175	878.12
423.398	864.12
423.621	882.12
423.843	903.12
424.066	916.12
424.288	907.12
424.511	865.12
424.733	893.12
424.956	862.12
425.178	850.12
425.401	870.12
425.623	852.12
425.846	816.12
426.068	805.12
426.291	837.12
426.513	812.12
426.735	788.12
426.958	803.12
427.18	774.12
427.402	758.12
427.625	787.12
427.847	752.12
428.069	749.12
428.292	768.12
428.514	754.12
428.736	743.12
428.958	758.12
429.181	736.12
429.403	752.12
429.625	732.12
429.847	718.12
430.069	727.12
430.292	727.12
430.514	711.12
430.736	738.12
430.958	731.12
431.18	725.12
431.402	739.12
431.624	747.12
431.846	740.12
432.068	774.12
432.29	772.12
432.512	746.12
432.734	748.12
432.956	737.12
433.178	761.12
433.4	768.12
433.622	780.12
433.844	726.12
434.066	747.12
434.287	770.12
434.509	824.12
434.731	831.12
434.953	842.12
435.175	878.12
435.397	848.12
435.618	804.12
435.84	800.12
436.062	765.12
436.284	754.12
436.505	719.12
436.727	751.12
436.949	751.12
437.17	774.12
437.392	757.12
437.614	752.12
437.835	715.12
438.057	715.12
438.278	727.12
438.5	720.12
438.721	714.12
438.943	744.12
439.165	730.12
439.386	736.12
439.608	745.12
439.829	740.12
440.05	759.12
440.272	775.12
440.493	752.12
440.715	767.12
440.936	772.12
441.158	797.12
441.379	827.12
441.6	851.12
441.822	886.12
442.043	834.12
442.264	839.12
442.486	824.12
442.707	832.12
442.928	853.12
443.149	832.12
443.371	814.12
443.592	836.12
443.813	855.12
444.034	860.12
444.255	879.12
444.476	910.12
444.698	991.12
444.919	1054.12
445.14	1121.12
445.361	980.12
445.582	895.12
445.803	828.12
446.024	793.12
446.245	821.12
446.466	763.12
446.687	783.12
446.908	765.12
447.129	764.12
447.35	743.12
447.571	750.12
447.792	700.12
448.013	734.12
448.234	695.12
448.455	729.12
448.675	701.12
448.896	709.12
449.117	700.12
449.338	715.12
449.559	692.12
449.779	682.12
450	680.12
450.221	686.12
450.442	720.12
450.662	748.12
450.883	736.12
451.104	756.12
451.324	732.12
451.545	725.12
451.766	715.12
451.986	711.12
452.207	692.12
452.428	711.12
452.648	707.12
452.869	690.12
453.089	687.12
453.31	692.12
453.53	708.12
453.751	695.12
453.971	693.12
454.192	686.12
454.412	670.12
454.633	668.12
454.853	662.12
455.073	646.12
455.294	652.12
455.514	670.12
455.734	670.12
455.955	663.12
456.175	662.12
456.395	644.12
456.616	668.12
456.836	658.12
457.056	650.12
457.276	638.12
457.497	667.12
457.717	660.12
457.937	624.12
458.157	653.12
458.377	675.12
458.598	687.12
458.818	688.12
459.038	727.12
459.258	772.12
459.478	774.12
459.698	791.12
459.918	803.12
460.138	818.12
460.358	866.12
460.578	921.12
460.798	912.12
461.018	926.12
461.238	916.12
461.458	886.12
461.678	878.12
461.898	887.12
462.118	859.12
462.338	934.12
462.558	958.12
462.777	1023.12
462.997	1108.12
463.217	1235.12
463.437	1260.12
463.657	1107.12
463.876	1062.12
464.096	1065.12
464.316	1067.12
464.536	1094.12
464.755	1010.12
464.975	964.12
465.195	930.12
465.414	875.12
465.634	865.12
465.854	816.12
466.073	795.12
466.293	771.12
466.512	760.12
466.732	737.12
466.951	730.12
467.171	742.12
467.391	739.12
467.61	737.12
467.829	727.12
468.049	740.12
468.268	704.12
468.488	707.12
468.707	694.12
468.927	693.12
469.146	687.12
469.365	686.12
469.585	720.12
469.804	724.12
470.023	759.12
470.243	768.12
470.462	747.12
470.681	774.12
470.901	786.12
471.12	766.12
471.339	748.12
471.558	731.12
471.777	713.12
471.997	683.12
472.216	694.12
472.435	682.12
472.654	694.12
472.873	717.12
473.092	675.12
473.311	703.12
473.53	675.12
473.749	682.12
473.968	703.12
474.187	666.12
474.406	688.12
474.625	694.12
474.844	701.12
475.063	701.12
475.282	710.12
475.501	713.12
475.72	706.12
475.939	713.12
476.158	709.12
476.377	698.12
476.596	723.12
476.814	723.12
477.033	715.12
477.252	727.12
477.471	766.12
477.69	767.12
477.908	784.12
478.127	830.12
478.346	812.12
478.564	839.12
478.783	814.12
479.002	875.12
479.22	887.12
479.439	842.12
479.658	831.12
479.876	870.12
480.095	854.12
480.313	894.12
480.532	922.12
480.751	928.12
480.969	858.12
481.188	848.12
481.406	859.12
481.624	827.12
481.843	835.12
482.061	820.12
482.28	794.12
482.498	800.12
482.717	766.12
482.935	776.12
483.153	762.12
483.372	759.12
483.59	782.12
483.808	814.12
484.027	795.12
484.245	793.12
484.463	797.12
484.681	813.12
484.9	819.12
485.118	788.12
485.336	832.12
485.554	856.12
485.772	834.12
485.99	848.12
486.209	848.12
486.427	818.12
486.645	821.12
486.863	853.12
487.081	820.12
487.299	822.12
487.517	838.12
487.735	830.12
487.953	839.12
488.171	826.12
488.389	837.12
488.607	841.12
488.825	799.12
489.043	800.12
489.261	832.12
489.479	808.12
489.696	834.12
489.914	821.12
490.132	837.12
490.35	846.12
490.568	824.12
490.786	809.12
491.003	796.12
491.221	822.12
491.439	844.12
491.657	833.12
491.874	849.12
492.092	827.12
492.31	826.12
492.527	841.12
492.745	848.12
492.963	833.12
493.18	859.12
493.398	874.12
493.615	845.12
493.833	843.12
494.05	861.12
494.268	868.12
494.485	888.12
494.703	876.12
494.92	871.12
495.138	895.12
495.355	851.12
495.573	858.12
495.79	848.12
496.008	907.12
496.225	887.12
496.442	882.12
496.66	897.12
496.877	904.12
497.094	959.12
497.312	959.12
497.529	968.12
497.746	976.12
497.963	990.12
498.181	997.12
498.398	1085.12
498.615	1114.12
498.832	1185.12
499.049	1312.12
499.267	1406.12
499.484	1560.12
499.701	1746.12
499.918	1912.12
500.135	2179.12
500.352	2524.12
500.569	2692.12
500.786	2658.12
501.003	2406.12
