Data from Ni(NO3)2@0.5M.TitratingCurve.Agarose3%dH2O.NegLispCup.LampEnergy10.LIBS07252019_HRD10591_18-00-20-564.txt Node
Date: Thu Jul 25 18:00:20 EDT 2019
User: cochatt
Spectrometer: HR+D1059
Trigger mode: 1
Integration Time (sec): 1.000000E-1
Scans to average: 1
Electric dark correction enabled: true
Nonlinearity correction enabled: false
Boxcar width: 0
XAxis mode: Wavelengths
Number of Pixels in Spectrum: 2048
>>>>>Begin Spectral Data<<<<<
223.165	-9.88
223.4	-9.88
223.635	-9.88
223.869	-12.88
224.104	-2.88
224.338	-15.88
224.573	-8.88
224.808	-17.88
225.042	-24.88
225.277	-3.88
225.511	6.12
225.746	16.12
225.98	6.12
226.215	6.12
226.449	1.12
226.683	18.12
226.918	21.12
227.152	22.12
227.387	20.12
227.621	35.12
227.856	37.12
228.09	46.12
228.324	48.12
228.559	68.12
228.793	78.12
229.027	158.12
229.262	156.12
229.496	161.12
229.73	156.12
229.964	197.12
230.199	214.12
230.433	237.12
230.667	203.12
230.901	197.12
231.136	196.12
231.37	186.12
231.604	204.12
231.838	220.12
232.072	236.12
232.306	215.12
232.541	209.12
232.775	210.12
233.009	202.12
233.243	205.12
233.477	202.12
233.711	198.12
233.945	203.12
234.179	205.12
234.413	205.12
234.647	200.12
234.881	218.12
235.115	215.12
235.349	209.12
235.583	206.12
235.817	197.12
236.051	198.12
236.285	224.12
236.519	225.12
236.753	199.12
236.987	212.12
237.221	225.12
237.455	242.12
237.689	238.12
237.922	225.12
238.156	228.12
238.39	229.12
238.624	227.12
238.858	247.12
239.091	236.12
239.325	250.12
239.559	244.12
239.793	283.12
240.027	280.12
240.26	254.12
240.494	241.12
240.728	251.12
240.961	255.12
241.195	263.12
241.429	256.12
241.662	263.12
241.896	295.12
242.13	311.12
242.363	264.12
242.597	285.12
242.83	277.12
243.064	254.12
243.298	293.12
243.531	290.12
243.765	281.12
243.998	308.12
244.232	310.12
244.465	325.12
244.699	307.12
244.932	312.12
245.166	301.12
245.399	317.12
245.633	305.12
245.866	315.12
246.099	314.12
246.333	328.12
246.566	326.12
246.8	329.12
247.033	332.12
247.266	328.12
247.5	339.12
247.733	336.12
247.966	341.12
248.2	359.12
248.433	346.12
248.666	348.12
248.899	334.12
249.133	340.12
249.366	345.12
249.599	371.12
249.832	371.12
250.066	359.12
250.299	356.12
250.532	387.12
250.765	394.12
250.998	395.12
251.231	395.12
251.465	415.12
251.698	414.12
251.931	382.12
252.164	388.12
252.397	412.12
252.63	416.12
252.863	406.12
253.096	410.12
253.329	403.12
253.562	395.12
253.795	405.12
254.028	428.12
254.261	412.12
254.494	438.12
254.727	437.12
254.96	437.12
255.193	424.12
255.426	423.12
255.659	435.12
255.892	457.12
256.124	432.12
256.357	453.12
256.59	446.12
256.823	439.12
257.056	456.12
257.289	462.12
257.521	459.12
257.754	462.12
257.987	464.12
258.22	472.12
258.452	473.12
258.685	475.12
258.918	465.12
259.151	472.12
259.383	476.12
259.616	473.12
259.849	486.12
260.081	499.12
260.314	487.12
260.547	509.12
260.779	489.12
261.012	488.12
261.244	509.12
261.477	530.12
261.71	497.12
261.942	512.12
262.175	509.12
262.407	506.12
262.64	513.12
262.872	525.12
263.105	516.12
263.337	526.12
263.57	529.12
263.802	514.12
264.035	540.12
264.267	532.12
264.499	540.12
264.732	543.12
264.964	549.12
265.197	554.12
265.429	550.12
265.661	545.12
265.894	547.12
266.126	567.12
266.358	556.12
266.591	538.12
266.823	580.12
267.055	558.12
267.287	577.12
267.52	590.12
267.752	584.12
267.984	591.12
268.216	581.12
268.448	596.12
268.681	580.12
268.913	603.12
269.145	580.12
269.377	589.12
269.609	625.12
269.841	586.12
270.073	609.12
270.306	598.12
270.538	609.12
270.77	594.12
271.002	600.12
271.234	628.12
271.466	605.12
271.698	626.12
271.93	616.12
272.162	632.12
272.394	623.12
272.626	612.12
272.858	638.12
273.09	626.12
273.322	639.12
273.553	643.12
273.785	651.12
274.017	630.12
274.249	654.12
274.481	625.12
274.713	644.12
274.945	647.12
275.176	662.12
275.408	648.12
275.64	648.12
275.872	660.12
276.104	674.12
276.335	656.12
276.567	665.12
276.799	652.12
277.031	704.12
277.262	666.12
277.494	665.12
277.726	688.12
277.957	677.12
278.189	704.12
278.421	672.12
278.652	704.12
278.884	712.12
279.115	704.12
279.347	712.12
279.579	719.12
279.81	680.12
280.042	706.12
280.273	726.12
280.505	710.12
280.736	721.12
280.968	742.12
281.199	741.12
281.431	722.12
281.662	716.12
281.894	731.12
282.125	762.12
282.356	749.12
282.588	747.12
282.819	760.12
283.051	748.12
283.282	746.12
283.513	763.12
283.745	780.12
283.976	756.12
284.207	772.12
284.439	757.12
284.67	762.12
284.901	773.12
285.132	795.12
285.364	794.12
285.595	776.12
285.826	770.12
286.057	778.12
286.288	800.12
286.52	781.12
286.751	792.12
286.982	816.12
287.213	792.12
287.444	782.12
287.675	782.12
287.906	801.12
288.138	834.12
288.369	811.12
288.6	819.12
288.831	800.12
289.062	810.12
289.293	794.12
289.524	826.12
289.755	816.12
289.986	833.12
290.217	788.12
290.448	810.12
290.679	840.12
290.91	823.12
291.141	803.12
291.371	807.12
291.602	849.12
291.833	845.12
292.064	818.12
292.295	816.12
292.526	844.12
292.757	828.12
292.987	806.12
293.218	837.12
293.449	852.12
293.68	824.12
293.91	818.12
294.141	856.12
294.372	827.12
294.603	850.12
294.833	830.12
295.064	849.12
295.295	837.12
295.525	841.12
295.756	866.12
295.987	858.12
296.217	820.12
296.448	843.12
296.679	878.12
296.909	897.12
297.14	862.12
297.37	901.12
297.601	886.12
297.831	877.12
298.062	881.12
298.292	896.12
298.523	904.12
298.753	909.12
298.984	900.12
299.214	902.12
299.445	914.12
299.675	905.12
299.905	899.12
300.136	916.12
300.366	964.12
300.597	956.12
300.827	917.12
301.057	935.12
301.288	928.12
301.518	939.12
301.748	946.12
301.979	960.12
302.209	962.12
302.439	969.12
302.669	955.12
302.9	980.12
303.13	961.12
303.36	942.12
303.59	968.12
303.82	944.12
304.051	959.12
304.281	980.12
304.511	905.12
304.741	927.12
304.971	965.12
305.201	978.12
305.431	974.12
305.661	1032.12
305.891	1014.12
306.121	951.12
306.352	959.12
306.582	953.12
306.812	948.12
307.042	939.12
307.272	941.12
307.502	927.12
307.731	942.12
307.961	976.12
308.191	936.12
308.421	941.12
308.651	953.12
308.881	949.12
309.111	948.12
309.341	949.12
309.571	953.12
309.8	968.12
310.03	970.12
310.26	983.12
310.49	992.12
310.72	986.12
310.949	974.12
311.179	965.12
311.409	971.12
311.639	1001.12
311.868	983.12
312.098	1005.12
312.328	1001.12
312.557	1005.12
312.787	985.12
313.017	1009.12
313.246	1010.12
313.476	1038.12
313.706	1042.12
313.935	1019.12
314.165	1037.12
314.394	1014.12
314.624	1047.12
314.853	1052.12
315.083	1056.12
315.312	1010.12
315.542	1046.12
315.771	1027.12
316.001	1045.12
316.23	1012.12
316.46	1071.12
316.689	1008.12
316.919	1051.12
317.148	1049.12
317.377	1028.12
317.607	1044.12
317.836	1059.12
318.065	1068.12
318.295	1072.12
318.524	1065.12
318.753	1069.12
318.983	1053.12
319.212	1032.12
319.441	1048.12
319.67	1054.12
319.9	1052.12
320.129	1070.12
320.358	1047.12
320.587	1069.12
320.816	1092.12
321.046	1061.12
321.275	1065.12
321.504	1084.12
321.733	1102.12
321.962	1068.12
322.191	1096.12
322.42	1086.12
322.649	1091.12
322.878	1117.12
323.108	1081.12
323.337	1102.12
323.566	1120.12
323.795	1123.12
324.024	1077.12
324.253	1103.12
324.482	1106.12
324.71	1112.12
324.939	1092.12
325.168	1154.12
325.397	1132.12
325.626	1123.12
325.855	1116.12
326.084	1162.12
326.313	1147.12
326.542	1138.12
326.77	1136.12
326.999	1160.12
327.228	1129.12
327.457	1146.12
327.686	1131.12
327.914	1160.12
328.143	1181.12
328.372	1150.12
328.6	1155.12
328.829	1168.12
329.058	1175.12
329.287	1178.12
329.515	1156.12
329.744	1182.12
329.972	1207.12
330.201	1186.12
330.43	1201.12
330.658	1171.12
330.887	1212.12
331.115	1217.12
331.344	1236.12
331.572	1226.12
331.801	1254.12
332.03	1259.12
332.258	1251.12
332.486	1285.12
332.715	1306.12
332.943	1328.12
333.172	1346.12
333.4	1341.12
333.629	1374.12
333.857	1432.12
334.085	1428.12
334.314	1411.12
334.542	1404.12
334.771	1445.12
334.999	1408.12
335.227	1408.12
335.455	1407.12
335.684	1403.12
335.912	1379.12
336.14	1396.12
336.369	1386.12
336.597	1404.12
336.825	1386.12
337.053	1404.12
337.281	1384.12
337.51	1346.12
337.738	1352.12
337.966	1321.12
338.194	1336.12
338.422	1322.12
338.65	1324.12
338.878	1306.12
339.106	1290.12
339.334	1321.12
339.562	1340.12
339.79	1272.12
340.018	1273.12
340.246	1256.12
340.474	1240.12
340.702	1239.12
340.93	1251.12
341.158	1251.12
341.386	1266.12
341.614	1323.12
341.842	1285.12
342.07	1254.12
342.298	1307.12
342.526	1272.12
342.754	1244.12
342.981	1251.12
343.209	1238.12
343.437	1312.12
343.665	1371.12
343.893	1371.12
344.12	1379.12
344.348	1376.12
344.576	1395.12
344.804	1359.12
345.031	1348.12
345.259	1314.12
345.487	1293.12
345.714	1280.12
345.942	1312.12
346.17	1285.12
346.397	1218.12
346.625	1219.12
346.853	1218.12
347.08	1213.12
347.308	1178.12
347.535	1158.12
347.763	1202.12
347.99	1208.12
348.218	1195.12
348.445	1183.12
348.673	1190.12
348.9	1217.12
349.128	1210.12
349.355	1213.12
349.583	1236.12
349.81	1218.12
350.037	1166.12
350.265	1181.12
350.492	1176.12
350.72	1170.12
350.947	1195.12
351.174	1206.12
351.402	1220.12
351.629	1207.12
351.856	1232.12
352.083	1213.12
352.311	1182.12
352.538	1217.12
352.765	1262.12
352.992	1197.12
353.22	1152.12
353.447	1146.12
353.674	1156.12
353.901	1153.12
354.128	1140.12
354.355	1148.12
354.583	1150.12
354.81	1165.12
355.037	1194.12
355.264	1160.12
355.491	1144.12
355.718	1180.12
355.945	1169.12
356.172	1146.12
356.399	1165.12
356.626	1184.12
356.853	1194.12
357.08	1156.12
357.307	1167.12
357.534	1173.12
357.761	1165.12
357.988	1160.12
358.215	1192.12
358.441	1156.12
358.668	1165.12
358.895	1156.12
359.122	1162.12
359.349	1172.12
359.576	1172.12
359.802	1156.12
360.029	1194.12
360.256	1189.12
360.483	1200.12
360.709	1163.12
360.936	1178.12
361.163	1187.12
361.39	1206.12
361.616	1194.12
361.843	1193.12
362.07	1229.12
362.296	1228.12
362.523	1211.12
362.749	1190.12
362.976	1174.12
363.203	1168.12
363.429	1166.12
363.656	1167.12
363.882	1168.12
364.109	1153.12
364.335	1170.12
364.562	1171.12
364.788	1173.12
365.015	1150.12
365.241	1178.12
365.468	1193.12
365.694	1175.12
365.92	1186.12
366.147	1176.12
366.373	1189.12
366.599	1223.12
366.826	1176.12
367.052	1161.12
367.278	1200.12
367.505	1180.12
367.731	1157.12
367.957	1194.12
368.184	1176.12
368.41	1179.12
368.636	1216.12
368.862	1217.12
369.089	1207.12
369.315	1208.12
369.541	1186.12
369.767	1229.12
369.993	1242.12
370.219	1224.12
370.445	1227.12
370.672	1211.12
370.898	1226.12
371.124	1223.12
371.35	1278.12
371.576	1268.12
371.802	1250.12
372.028	1255.12
372.254	1262.12
372.48	1245.12
372.706	1261.12
372.932	1315.12
373.158	1288.12
373.384	1274.12
373.61	1277.12
373.835	1313.12
374.061	1292.12
374.287	1284.12
374.513	1285.12
374.739	1353.12
374.965	1333.12
375.191	1344.12
375.416	1365.12
375.642	1313.12
375.868	1306.12
376.094	1301.12
376.319	1304.12
376.545	1271.12
376.771	1292.12
376.997	1265.12
377.222	1270.12
377.448	1247.12
377.674	1259.12
377.899	1266.12
378.125	1251.12
378.35	1256.12
378.576	1269.12
378.802	1207.12
379.027	1255.12
379.253	1261.12
379.478	1201.12
379.704	1242.12
379.929	1224.12
380.155	1223.12
380.38	1235.12
380.606	1238.12
380.831	1258.12
381.057	1261.12
381.282	1257.12
381.507	1237.12
381.733	1282.12
381.958	1268.12
382.184	1266.12
382.409	1302.12
382.634	1313.12
382.86	1313.12
383.085	1316.12
383.31	1345.12
383.535	1336.12
383.761	1309.12
383.986	1346.12
384.211	1344.12
384.436	1342.12
384.662	1386.12
384.887	1443.12
385.112	1410.12
385.337	1403.12
385.562	1441.12
385.787	1445.12
386.013	1473.12
386.238	1468.12
386.463	1449.12
386.688	1513.12
386.913	1466.12
387.138	1498.12
387.363	1476.12
387.588	1468.12
387.813	1504.12
388.038	1465.12
388.263	1481.12
388.488	1500.12
388.713	1444.12
388.938	1433.12
389.163	1412.12
389.387	1485.12
389.612	1453.12
389.837	1489.12
390.062	1449.12
390.287	1487.12
390.512	1469.12
390.736	1469.12
390.961	1476.12
391.186	1450.12
391.411	1562.12
391.636	1536.12
391.86	1545.12
392.085	1576.12
392.31	1557.12
392.534	1564.12
392.759	1562.12
392.984	1543.12
393.208	1542.12
393.433	1527.12
393.658	1506.12
393.882	1543.12
394.107	1506.12
394.331	1549.12
394.556	1542.12
394.78	1530.12
395.005	1527.12
395.229	1561.12
395.454	1578.12
395.678	1625.12
395.903	1614.12
396.127	1612.12
396.352	1596.12
396.576	1569.12
396.801	1568.12
397.025	1542.12
397.249	1636.12
397.474	1597.12
397.698	1661.12
397.922	1699.12
398.147	1653.12
398.371	1688.12
398.595	1757.12
398.82	1784.12
399.044	1852.12
399.268	1951.12
399.492	2072.12
399.717	2153.12
399.941	2224.12
400.165	2149.12
400.389	2034.12
400.613	1939.12
400.837	1863.12
401.062	1826.12
401.286	1824.12
401.51	1795.12
401.734	1769.12
401.958	1806.12
402.182	1812.12
402.406	1766.12
402.63	1809.12
402.854	1817.12
403.078	1796.12
403.302	1840.12
403.526	1836.12
403.75	1788.12
403.974	1817.12
404.198	1837.12
404.422	1869.12
404.645	1836.12
404.869	1843.12
405.093	1837.12
405.317	1845.12
405.541	1865.12
405.765	1895.12
405.988	1871.12
406.212	1919.12
406.436	1874.12
406.66	1970.12
406.883	1960.12
407.107	2027.12
407.331	2082.12
407.555	2137.12
407.778	2132.12
408.002	2086.12
408.226	2107.12
408.449	2070.12
408.673	1987.12
408.896	1986.12
409.12	1932.12
409.344	1976.12
409.567	1966.12
409.791	1957.12
410.014	1901.12
410.238	1888.12
410.461	1901.12
410.685	1909.12
410.908	1858.12
411.132	1888.12
411.355	1849.12
411.578	1828.12
411.802	1828.12
412.025	1853.12
412.249	1901.12
412.472	1861.12
412.695	1832.12
412.919	1782.12
413.142	1773.12
413.365	1810.12
413.589	1810.12
413.812	1786.12
414.035	1777.12
414.258	1772.12
414.482	1795.12
414.705	1771.12
414.928	1799.12
415.151	1749.12
415.374	1776.12
415.597	1756.12
415.821	1739.12
416.044	1705.12
416.267	1724.12
416.49	1728.12
416.713	1700.12
416.936	1709.12
417.159	1710.12
417.382	1704.12
417.605	1685.12
417.828	1713.12
418.051	1715.12
418.274	1708.12
418.497	1673.12
418.72	1735.12
418.943	1751.12
419.166	1799.12
419.389	1956.12
419.611	1923.12
419.834	1818.12
420.057	1760.12
420.28	1729.12
420.503	1704.12
420.726	1670.12
420.948	1702.12
421.171	1707.12
421.394	1690.12
421.617	1675.12
421.839	1728.12
422.062	1724.12
422.285	1707.12
422.507	1705.12
422.73	1726.12
422.953	1684.12
423.175	1686.12
423.398	1684.12
423.621	1675.12
423.843	1716.12
424.066	1681.12
424.288	1676.12
424.511	1680.12
424.733	1669.12
424.956	1682.12
425.178	1684.12
425.401	1670.12
425.623	1656.12
425.846	1642.12
426.068	1687.12
426.291	1664.12
426.513	1656.12
426.735	1670.12
426.958	1654.12
427.18	1614.12
427.402	1638.12
427.625	1628.12
427.847	1642.12
428.069	1607.12
428.292	1642.12
428.514	1611.12
428.736	1593.12
428.958	1624.12
429.181	1566.12
429.403	1570.12
429.625	1577.12
429.847	1544.12
430.069	1578.12
430.292	1585.12
430.514	1574.12
430.736	1586.12
430.958	1574.12
431.18	1554.12
431.402	1577.12
431.624	1592.12
431.846	1560.12
432.068	1613.12
432.29	1597.12
432.512	1624.12
432.734	1598.12
432.956	1617.12
433.178	1635.12
433.4	1628.12
433.622	1642.12
433.844	1620.12
434.066	1674.12
434.287	1665.12
434.509	1703.12
434.731	1732.12
434.953	1709.12
435.175	1760.12
435.397	1718.12
435.618	1688.12
435.84	1626.12
436.062	1619.12
436.284	1611.12
436.505	1589.12
436.727	1586.12
436.949	1569.12
437.17	1597.12
437.392	1588.12
437.614	1562.12
437.835	1512.12
438.057	1551.12
438.278	1475.12
438.5	1536.12
438.721	1578.12
438.943	1537.12
439.165	1489.12
439.386	1523.12
439.608	1549.12
439.829	1554.12
440.05	1570.12
440.272	1568.12
440.493	1589.12
440.715	1590.12
440.936	1644.12
441.158	1618.12
441.379	1659.12
441.6	1705.12
441.822	1706.12
442.043	1705.12
442.264	1660.12
442.486	1625.12
442.707	1732.12
442.928	1705.12
443.149	1660.12
443.371	1658.12
443.592	1761.12
443.813	1728.12
444.034	1691.12
444.255	1733.12
444.476	1796.12
444.698	1811.12
444.919	1874.12
445.14	1885.12
445.361	1858.12
445.582	1776.12
445.803	1700.12
446.024	1648.12
446.245	1612.12
446.466	1626.12
446.687	1567.12
446.908	1575.12
447.129	1545.12
447.35	1537.12
447.571	1512.12
447.792	1472.12
448.013	1476.12
448.234	1459.12
448.455	1450.12
448.675	1453.12
448.896	1458.12
449.117	1416.12
449.338	1470.12
449.559	1443.12
449.779	1440.12
450	1403.12
450.221	1412.12
450.442	1431.12
450.662	1428.12
450.883	1461.12
451.104	1460.12
451.324	1456.12
451.545	1430.12
451.766	1437.12
451.986	1395.12
452.207	1448.12
452.428	1424.12
452.648	1411.12
452.869	1378.12
453.089	1378.12
453.31	1408.12
453.53	1380.12
453.751	1362.12
453.971	1403.12
454.192	1394.12
454.412	1361.12
454.633	1384.12
454.853	1363.12
455.073	1317.12
455.294	1361.12
455.514	1370.12
455.734	1392.12
455.955	1392.12
456.175	1432.12
456.395	1342.12
456.616	1324.12
456.836	1377.12
457.056	1382.12
457.276	1367.12
457.497	1373.12
457.717	1425.12
457.937	1410.12
458.157	1409.12
458.377	1406.12
458.598	1438.12
458.818	1467.12
459.038	1492.12
459.258	1540.12
459.478	1613.12
459.698	1684.12
459.918	1669.12
460.138	1710.12
460.358	1714.12
460.578	1752.12
460.798	1761.12
461.018	1810.12
461.238	1760.12
461.458	1776.12
461.678	1748.12
461.898	1782.12
462.118	1772.12
462.338	1884.12
462.558	1888.12
462.777	1917.12
462.997	2029.12
463.217	2126.12
463.437	2143.12
463.657	2064.12
463.876	2006.12
464.096	1986.12
464.316	1935.12
464.536	1955.12
464.755	1848.12
464.975	1851.12
465.195	1778.12
465.414	1716.12
465.634	1664.12
465.854	1631.12
466.073	1609.12
466.293	1548.12
466.512	1502.12
466.732	1522.12
466.951	1511.12
467.171	1538.12
467.391	1514.12
467.61	1511.12
467.829	1499.12
468.049	1497.12
468.268	1468.12
468.488	1452.12
468.707	1470.12
468.927	1472.12
469.146	1458.12
469.365	1508.12
469.585	1474.12
469.804	1514.12
470.023	1493.12
470.243	1491.12
470.462	1514.12
470.681	1533.12
470.901	1509.12
471.12	1511.12
471.339	1503.12
471.558	1516.12
471.777	1505.12
471.997	1479.12
472.216	1488.12
472.435	1493.12
472.654	1460.12
472.873	1428.12
473.092	1467.12
473.311	1463.12
473.53	1460.12
473.749	1472.12
473.968	1482.12
474.187	1453.12
474.406	1451.12
474.625	1464.12
474.844	1482.12
475.063	1476.12
475.282	1485.12
475.501	1529.12
475.72	1500.12
475.939	1532.12
476.158	1507.12
476.377	1555.12
476.596	1512.12
476.814	1558.12
477.033	1530.12
477.252	1586.12
477.471	1554.12
477.69	1599.12
477.908	1661.12
478.127	1710.12
478.346	1678.12
478.564	1717.12
478.783	1761.12
479.002	1783.12
479.22	1836.12
479.439	1784.12
479.658	1801.12
479.876	1794.12
480.095	1788.12
480.313	1824.12
480.532	1855.12
480.751	1875.12
480.969	1848.12
481.188	1792.12
481.406	1764.12
481.624	1760.12
481.843	1727.12
482.061	1729.12
482.28	1739.12
482.498	1760.12
482.717	1760.12
482.935	1759.12
483.153	1773.12
483.372	1766.12
483.59	1800.12
483.808	1780.12
484.027	1757.12
484.245	1746.12
484.463	1741.12
484.681	1807.12
484.9	1771.12
485.118	1791.12
485.336	1797.12
485.554	1744.12
485.772	1791.12
485.99	1784.12
486.209	1762.12
486.427	1803.12
486.645	1805.12
486.863	1783.12
487.081	1814.12
487.299	1801.12
487.517	1810.12
487.735	1863.12
487.953	1846.12
488.171	1827.12
488.389	1825.12
488.607	1782.12
488.825	1783.12
489.043	1770.12
489.261	1782.12
489.479	1782.12
489.696	1768.12
489.914	1803.12
490.132	1776.12
490.35	1793.12
490.568	1794.12
490.786	1811.12
