Data from Ni(NO3)2@0.25M.TitratingCurve.Agarose3%dH2O.NegLispCup.LampEnergy10.LIBS07252019_HRD10591_18-05-48-566.txt Node
Date: Thu Jul 25 18:05:48 EDT 2019
User: cochatt
Spectrometer: HR+D1059
Trigger mode: 1
Integration Time (sec): 1.000000E-1
Scans to average: 1
Electric dark correction enabled: true
Nonlinearity correction enabled: false
Boxcar width: 0
XAxis mode: Wavelengths
Number of Pixels in Spectrum: 2048
>>>>>Begin Spectral Data<<<<<
223.165	-18.56
223.4	-18.56
223.635	-18.56
223.869	-22.56
224.104	-12.56
224.338	-17.56
224.573	-20.56
224.808	-3.56
225.042	-6.56
225.277	-7.56
225.511	0.44
225.746	6.44
225.98	15.44
226.215	13.44
226.449	0.44
226.683	13.44
226.918	23.44
227.152	36.44
227.387	29.44
227.621	37.44
227.856	31.44
228.09	36.44
228.324	47.44
228.559	52.44
228.793	61.44
229.027	87.44
229.262	106.44
229.496	97.44
229.73	111.44
229.964	98.44
230.199	99.44
230.433	114.44
230.667	128.44
230.901	116.44
231.136	118.44
231.37	120.44
231.604	112.44
231.838	141.44
232.072	123.44
232.306	138.44
232.541	132.44
232.775	136.44
233.009	140.44
233.243	120.44
233.477	135.44
233.711	133.44
233.945	130.44
234.179	134.44
234.413	124.44
234.647	140.44
234.881	129.44
235.115	132.44
235.349	133.44
235.583	146.44
235.817	138.44
236.051	129.44
236.285	146.44
236.519	141.44
236.753	133.44
236.987	139.44
237.221	132.44
237.455	129.44
237.689	148.44
237.922	155.44
238.156	139.44
238.39	134.44
238.624	143.44
238.858	144.44
239.091	154.44
239.325	154.44
239.559	158.44
239.793	145.44
240.027	152.44
240.26	153.44
240.494	169.44
240.728	148.44
240.961	160.44
241.195	151.44
241.429	159.44
241.662	179.44
241.896	166.44
242.13	167.44
242.363	170.44
242.597	182.44
242.83	180.44
243.064	158.44
243.298	164.44
243.531	170.44
243.765	190.44
243.998	179.44
244.232	177.44
244.465	198.44
244.699	186.44
244.932	183.44
245.166	181.44
245.399	188.44
245.633	169.44
245.866	174.44
246.099	205.44
246.333	217.44
246.566	194.44
246.8	201.44
247.033	188.44
247.266	209.44
247.5	188.44
247.733	201.44
247.966	205.44
248.2	233.44
248.433	192.44
248.666	206.44
248.899	207.44
249.133	219.44
249.366	218.44
249.599	227.44
249.832	196.44
250.066	204.44
250.299	222.44
250.532	238.44
250.765	238.44
250.998	227.44
251.231	224.44
251.465	228.44
251.698	242.44
251.931	235.44
252.164	242.44
252.397	256.44
252.63	252.44
252.863	257.44
253.096	252.44
253.329	255.44
253.562	257.44
253.795	267.44
254.028	257.44
254.261	230.44
254.494	260.44
254.727	264.44
254.96	266.44
255.193	267.44
255.426	264.44
255.659	271.44
255.892	277.44
256.124	268.44
256.357	270.44
256.59	269.44
256.823	263.44
257.056	294.44
257.289	292.44
257.521	281.44
257.754	289.44
257.987	265.44
258.22	291.44
258.452	300.44
258.685	295.44
258.918	291.44
259.151	288.44
259.383	292.44
259.616	293.44
259.849	311.44
260.081	312.44
260.314	304.44
260.547	293.44
260.779	308.44
261.012	294.44
261.244	308.44
261.477	318.44
261.71	313.44
261.942	313.44
262.175	312.44
262.407	312.44
262.64	315.44
262.872	330.44
263.105	328.44
263.337	313.44
263.57	326.44
263.802	309.44
264.035	322.44
264.267	343.44
264.499	319.44
264.732	326.44
264.964	306.44
265.197	323.44
265.429	334.44
265.661	332.44
265.894	335.44
266.126	329.44
266.358	346.44
266.591	331.44
266.823	339.44
267.055	330.44
267.287	360.44
267.52	343.44
267.752	347.44
267.984	352.44
268.216	360.44
268.448	372.44
268.681	356.44
268.913	368.44
269.145	358.44
269.377	366.44
269.609	351.44
269.841	362.44
270.073	362.44
270.306	360.44
270.538	353.44
270.77	351.44
271.002	372.44
271.234	354.44
271.466	390.44
271.698	369.44
271.93	382.44
272.162	374.44
272.394	374.44
272.626	385.44
272.858	370.44
273.09	386.44
273.322	376.44
273.553	386.44
273.785	386.44
274.017	403.44
274.249	377.44
274.481	368.44
274.713	396.44
274.945	407.44
275.176	400.44
275.408	412.44
275.64	403.44
275.872	388.44
276.104	407.44
276.335	388.44
276.567	405.44
276.799	390.44
277.031	406.44
277.262	421.44
277.494	396.44
277.726	411.44
277.957	398.44
278.189	414.44
278.421	418.44
278.652	414.44
278.884	408.44
279.115	433.44
279.347	416.44
279.579	409.44
279.81	428.44
280.042	420.44
280.273	430.44
280.505	429.44
280.736	424.44
280.968	423.44
281.199	416.44
281.431	432.44
281.662	438.44
281.894	438.44
282.125	433.44
282.356	441.44
282.588	431.44
282.819	440.44
283.051	456.44
283.282	450.44
283.513	458.44
283.745	458.44
283.976	425.44
284.207	456.44
284.439	445.44
284.67	455.44
284.901	463.44
285.132	466.44
285.364	464.44
285.595	445.44
285.826	436.44
286.057	451.44
286.288	464.44
286.52	468.44
286.751	448.44
286.982	478.44
287.213	462.44
287.444	463.44
287.675	457.44
287.906	470.44
288.138	450.44
288.369	456.44
288.6	480.44
288.831	476.44
289.062	461.44
289.293	471.44
289.524	467.44
289.755	466.44
289.986	466.44
290.217	481.44
290.448	476.44
290.679	491.44
290.91	481.44
291.141	508.44
291.371	480.44
291.602	514.44
291.833	474.44
292.064	469.44
292.295	484.44
292.526	482.44
292.757	496.44
292.987	494.44
293.218	456.44
293.449	471.44
293.68	480.44
293.91	482.44
294.141	480.44
294.372	483.44
294.603	471.44
294.833	479.44
295.064	503.44
295.295	483.44
295.525	496.44
295.756	482.44
295.987	516.44
296.217	492.44
296.448	495.44
296.679	506.44
296.909	488.44
297.14	508.44
297.37	503.44
297.601	507.44
297.831	502.44
298.062	516.44
298.292	513.44
298.523	550.44
298.753	510.44
298.984	523.44
299.214	508.44
299.445	510.44
299.675	520.44
299.905	523.44
300.136	528.44
300.366	532.44
300.597	529.44
300.827	548.44
301.057	516.44
301.288	538.44
301.518	524.44
301.748	541.44
301.979	554.44
302.209	544.44
302.439	550.44
302.669	552.44
302.9	539.44
303.13	525.44
303.36	532.44
303.59	548.44
303.82	584.44
304.051	563.44
304.281	527.44
304.511	529.44
304.741	540.44
304.971	571.44
305.201	535.44
305.431	551.44
305.661	567.44
305.891	539.44
306.121	552.44
306.352	552.44
306.582	523.44
306.812	525.44
307.042	522.44
307.272	540.44
307.502	543.44
307.731	551.44
307.961	518.44
308.191	555.44
308.421	532.44
308.651	550.44
308.881	537.44
309.111	528.44
309.341	547.44
309.571	524.44
309.8	552.44
310.03	560.44
310.26	555.44
310.49	551.44
310.72	561.44
310.949	550.44
311.179	546.44
311.409	556.44
311.639	551.44
311.868	562.44
312.098	569.44
312.328	583.44
312.557	559.44
312.787	581.44
313.017	548.44
313.246	581.44
313.476	601.44
313.706	600.44
313.935	603.44
314.165	582.44
314.394	594.44
314.624	611.44
314.853	595.44
315.083	592.44
315.312	614.44
315.542	575.44
315.771	574.44
316.001	604.44
316.23	576.44
316.46	587.44
316.689	597.44
316.919	593.44
317.148	577.44
317.377	598.44
317.607	582.44
317.836	599.44
318.065	583.44
318.295	603.44
318.524	600.44
318.753	598.44
318.983	595.44
319.212	585.44
319.441	606.44
319.67	582.44
319.9	607.44
320.129	607.44
320.358	597.44
320.587	612.44
320.816	606.44
321.046	614.44
321.275	622.44
321.504	615.44
321.733	610.44
321.962	628.44
322.191	637.44
322.42	624.44
322.649	615.44
322.878	626.44
323.108	640.44
323.337	632.44
323.566	646.44
323.795	643.44
324.024	638.44
324.253	650.44
324.482	639.44
324.71	628.44
324.939	689.44
325.168	664.44
325.397	675.44
325.626	650.44
325.855	668.44
326.084	667.44
326.313	691.44
326.542	678.44
326.77	710.44
326.999	668.44
327.228	694.44
327.457	690.44
327.686	671.44
327.914	697.44
328.143	707.44
328.372	677.44
328.6	692.44
328.829	713.44
329.058	676.44
329.287	721.44
329.515	706.44
329.744	715.44
329.972	698.44
330.201	695.44
330.43	748.44
330.658	740.44
330.887	731.44
331.115	706.44
331.344	732.44
331.572	742.44
331.801	730.44
332.03	745.44
332.258	783.44
332.486	802.44
332.715	829.44
332.943	842.44
333.172	864.44
333.4	886.44
333.629	906.44
333.857	917.44
334.085	919.44
334.314	916.44
334.542	922.44
334.771	881.44
334.999	881.44
335.227	897.44
335.455	903.44
335.684	889.44
335.912	891.44
336.14	849.44
336.369	876.44
336.597	885.44
336.825	880.44
337.053	901.44
337.281	865.44
337.51	812.44
337.738	836.44
337.966	804.44
338.194	827.44
338.422	838.44
338.65	780.44
338.878	796.44
339.106	800.44
339.334	808.44
339.562	791.44
339.79	744.44
340.018	743.44
340.246	736.44
340.474	755.44
340.702	745.44
340.93	770.44
341.158	736.44
341.386	754.44
341.614	798.44
341.842	758.44
342.07	745.44
342.298	746.44
342.526	784.44
342.754	758.44
342.981	775.44
343.209	793.44
343.437	804.44
343.665	845.44
343.893	891.44
344.12	916.44
344.348	894.44
344.576	844.44
344.804	840.44
345.031	817.44
345.259	790.44
345.487	779.44
345.714	752.44
345.942	746.44
346.17	746.44
346.397	753.44
346.625	727.44
346.853	730.44
347.08	724.44
347.308	721.44
347.535	747.44
347.763	719.44
347.99	715.44
348.218	719.44
348.445	713.44
348.673	730.44
348.9	734.44
349.128	718.44
349.355	724.44
349.583	731.44
349.81	715.44
350.037	694.44
350.265	718.44
350.492	698.44
350.72	703.44
350.947	703.44
351.174	725.44
351.402	712.44
351.629	697.44
351.856	720.44
352.083	694.44
352.311	684.44
352.538	690.44
352.765	712.44
352.992	713.44
353.22	694.44
353.447	687.44
353.674	690.44
353.901	659.44
354.128	696.44
354.355	694.44
354.583	690.44
354.81	702.44
355.037	700.44
355.264	706.44
355.491	680.44
355.718	722.44
355.945	718.44
356.172	673.44
356.399	705.44
356.626	710.44
356.853	716.44
357.08	718.44
357.307	727.44
357.534	698.44
357.761	712.44
357.988	695.44
358.215	707.44
358.441	714.44
358.668	709.44
358.895	679.44
359.122	698.44
359.349	702.44
359.576	707.44
359.802	696.44
360.029	696.44
360.256	722.44
360.483	705.44
360.709	711.44
360.936	692.44
361.163	697.44
361.39	698.44
361.616	700.44
361.843	674.44
362.07	728.44
362.296	699.44
362.523	706.44
362.749	708.44
362.976	690.44
363.203	705.44
363.429	690.44
363.656	693.44
363.882	712.44
364.109	674.44
364.335	678.44
364.562	702.44
364.788	690.44
365.015	678.44
365.241	691.44
365.468	695.44
365.694	686.44
365.92	690.44
366.147	686.44
366.373	679.44
366.599	711.44
366.826	678.44
367.052	686.44
367.278	684.44
367.505	694.44
367.731	702.44
367.957	670.44
368.184	713.44
368.41	719.44
368.636	702.44
368.862	675.44
369.089	735.44
369.315	734.44
369.541	708.44
369.767	680.44
369.993	704.44
370.219	705.44
370.445	705.44
370.672	732.44
370.898	732.44
371.124	726.44
371.35	738.44
371.576	735.44
371.802	771.44
372.028	750.44
372.254	755.44
372.48	762.44
372.706	750.44
372.932	771.44
373.158	782.44
373.384	753.44
373.61	742.44
373.835	742.44
374.061	767.44
374.287	758.44
374.513	750.44
374.739	783.44
374.965	797.44
375.191	816.44
375.416	840.44
375.642	790.44
375.868	783.44
376.094	771.44
376.319	752.44
376.545	734.44
376.771	751.44
376.997	752.44
377.222	742.44
377.448	740.44
377.674	758.44
377.899	752.44
378.125	742.44
378.35	712.44
378.576	728.44
378.802	736.44
379.027	741.44
379.253	724.44
379.478	754.44
379.704	729.44
379.929	726.44
380.155	738.44
380.38	727.44
380.606	720.44
380.831	722.44
381.057	750.44
381.282	731.44
381.507	731.44
381.733	729.44
381.958	734.44
382.184	736.44
382.409	772.44
382.634	773.44
382.86	751.44
383.085	773.44
383.31	771.44
383.535	792.44
383.761	773.44
383.986	802.44
384.211	834.44
384.436	822.44
384.662	825.44
384.887	854.44
385.112	859.44
385.337	911.44
385.562	857.44
385.787	874.44
386.013	867.44
386.238	880.44
386.463	859.44
386.688	882.44
386.913	873.44
387.138	885.44
387.363	883.44
387.588	861.44
387.813	862.44
388.038	866.44
388.263	864.44
388.488	888.44
388.713	871.44
388.938	860.44
389.163	885.44
389.387	842.44
389.612	842.44
389.837	847.44
390.062	864.44
390.287	876.44
390.512	852.44
390.736	882.44
390.961	871.44
391.186	912.44
391.411	934.44
391.636	950.44
391.86	983.44
392.085	972.44
392.31	981.44
392.534	936.44
392.759	934.44
392.984	918.44
393.208	931.44
393.433	939.44
393.658	932.44
393.882	925.44
394.107	896.44
394.331	921.44
394.556	918.44
394.78	920.44
395.005	943.44
395.229	928.44
395.454	964.44
395.678	986.44
395.903	962.44
396.127	969.44
396.352	975.44
396.576	958.44
396.801	970.44
397.025	933.44
397.249	983.44
397.474	994.44
397.698	986.44
397.922	1018.44
398.147	1022.44
398.371	974.44
398.595	1062.44
398.82	1118.44
399.044	1165.44
399.268	1258.44
399.492	1409.44
399.717	1530.44
399.941	1569.44
400.165	1472.44
400.389	1352.44
400.613	1290.44
400.837	1202.44
401.062	1164.44
401.286	1176.44
401.51	1158.44
401.734	1113.44
401.958	1166.44
402.182	1126.44
402.406	1144.44
402.63	1130.44
402.854	1154.44
403.078	1171.44
403.302	1197.44
403.526	1236.44
403.75	1220.44
403.974	1226.44
404.198	1230.44
404.422	1231.44
404.645	1243.44
404.869	1208.44
405.093	1210.44
405.317	1180.44
405.541	1228.44
405.765	1206.44
405.988	1187.44
406.212	1235.44
406.436	1207.44
406.66	1273.44
406.883	1256.44
407.107	1334.44
407.331	1406.44
407.555	1402.44
407.778	1389.44
408.002	1354.44
408.226	1344.44
408.449	1362.44
408.673	1293.44
408.896	1267.44
409.12	1277.44
409.344	1276.44
409.567	1251.44
409.791	1241.44
410.014	1251.44
410.238	1232.44
410.461	1255.44
410.685	1203.44
410.908	1180.44
411.132	1177.44
411.355	1166.44
411.578	1182.44
411.802	1199.44
412.025	1170.44
412.249	1178.44
412.472	1146.44
412.695	1145.44
412.919	1136.44
413.142	1141.44
413.365	1118.44
413.589	1152.44
413.812	1121.44
414.035	1125.44
414.258	1165.44
414.482	1113.44
414.705	1123.44
414.928	1143.44
415.151	1128.44
415.374	1160.44
415.597	1115.44
415.821	1091.44
416.044	1099.44
416.267	1092.44
416.49	1100.44
416.713	1088.44
416.936	1107.44
417.159	1099.44
417.382	1099.44
417.605	1103.44
417.828	1100.44
418.051	1138.44
418.274	1145.44
418.497	1083.44
418.72	1150.44
418.943	1132.44
419.166	1202.44
419.389	1282.44
419.611	1278.44
419.834	1215.44
420.057	1203.44
420.28	1137.44
420.503	1104.44
420.726	1075.44
420.948	1121.44
421.171	1112.44
421.394	1113.44
421.617	1096.44
421.839	1134.44
422.062	1130.44
422.285	1130.44
422.507	1139.44
422.73	1118.44
422.953	1184.44
423.175	1154.44
423.398	1155.44
423.621	1143.44
423.843	1143.44
424.066	1151.44
424.288	1152.44
424.511	1170.44
424.733	1164.44
424.956	1142.44
425.178	1119.44
425.401	1112.44
425.623	1123.44
425.846	1097.44
426.068	1085.44
426.291	1079.44
426.513	1088.44
426.735	1077.44
426.958	1055.44
427.18	1048.44
427.402	1045.44
427.625	1022.44
427.847	1040.44
428.069	1035.44
428.292	1053.44
428.514	1014.44
428.736	1024.44
428.958	1061.44
429.181	1012.44
429.403	1013.44
429.625	986.44
429.847	991.44
430.069	987.44
430.292	993.44
430.514	981.44
430.736	1015.44
430.958	1024.44
431.18	1006.44
431.402	1003.44
431.624	1006.44
431.846	1025.44
432.068	1003.44
432.29	1015.44
432.512	1022.44
432.734	1035.44
432.956	1023.44
433.178	1045.44
433.4	1028.44
433.622	1048.44
433.844	1058.44
434.066	1044.44
434.287	1025.44
434.509	1078.44
434.731	1117.44
434.953	1111.44
435.175	1140.44
435.397	1095.44
435.618	1087.44
435.84	1068.44
436.062	1036.44
436.284	1002.44
436.505	1026.44
436.727	1031.44
436.949	1024.44
437.17	1019.44
437.392	1034.44
437.614	964.44
437.835	981.44
438.057	987.44
438.278	973.44
438.5	992.44
438.721	972.44
438.943	974.44
439.165	981.44
439.386	984.44
439.608	1036.44
439.829	1022.44
440.05	1017.44
440.272	1046.44
440.493	1018.44
440.715	1046.44
440.936	1092.44
441.158	1093.44
441.379	1111.44
441.6	1127.44
441.822	1147.44
442.043	1135.44
442.264	1137.44
442.486	1114.44
442.707	1131.44
442.928	1129.44
443.149	1120.44
443.371	1146.44
443.592	1144.44
443.813	1147.44
444.034	1119.44
444.255	1198.44
444.476	1225.44
444.698	1253.44
444.919	1287.44
445.14	1402.44
445.361	1269.44
445.582	1167.44
445.803	1168.44
446.024	1103.44
446.245	1102.44
446.466	1113.44
446.687	1058.44
446.908	1065.44
447.129	1033.44
447.35	1010.44
447.571	1024.44
447.792	1001.44
448.013	987.44
448.234	949.44
448.455	927.44
448.675	959.44
448.896	945.44
449.117	967.44
449.338	945.44
449.559	931.44
449.779	961.44
450	918.44
450.221	936.44
450.442	971.44
450.662	956.44
450.883	969.44
451.104	975.44
451.324	947.44
451.545	951.44
451.766	986.44
451.986	946.44
452.207	948.44
452.428	935.44
452.648	949.44
452.869	897.44
453.089	922.44
453.31	934.44
453.53	913.44
453.751	916.44
453.971	906.44
454.192	909.44
454.412	873.44
454.633	912.44
454.853	906.44
455.073	895.44
455.294	891.44
455.514	882.44
455.734	872.44
455.955	865.44
456.175	877.44
456.395	875.44
456.616	884.44
456.836	876.44
457.056	900.44
457.276	882.44
457.497	906.44
457.717	889.44
457.937	907.44
458.157	915.44
458.377	878.44
458.598	928.44
458.818	959.44
459.038	968.44
459.258	986.44
459.478	1040.44
459.698	1048.44
459.918	1058.44
460.138	1118.44
460.358	1145.44
460.578	1188.44
460.798	1191.44
461.018	1237.44
461.238	1212.44
461.458	1214.44
461.678	1180.44
461.898	1206.44
462.118	1250.44
462.338	1291.44
462.558	1328.44
462.777	1353.44
462.997	1451.44
463.217	1466.44
463.437	1499.44
463.657	1469.44
463.876	1434.44
464.096	1393.44
464.316	1377.44
464.536	1349.44
464.755	1359.44
464.975	1307.44
465.195	1247.44
465.414	1184.44
465.634	1085.44
465.854	1104.44
466.073	1043.44
466.293	1059.44
466.512	1006.44
466.732	993.44
466.951	998.44
467.171	990.44
467.391	975.44
467.61	965.44
467.829	975.44
468.049	961.44
468.268	967.44
468.488	956.44
468.707	930.44
468.927	955.44
469.146	966.44
469.365	953.44
469.585	970.44
469.804	1023.44
470.023	1016.44
470.243	1008.44
470.462	999.44
470.681	1014.44
470.901	1019.44
471.12	1027.44
471.339	1001.44
471.558	978.44
471.777	978.44
471.997	1001.44
472.216	987.44
472.435	963.44
472.654	936.44
472.873	945.44
473.092	941.44
473.311	943.44
473.53	926.44
473.749	902.44
473.968	908.44
474.187	931.44
474.406	923.44
474.625	942.44
474.844	936.44
475.063	945.44
475.282	922.44
475.501	948.44
475.72	948.44
475.939	958.44
476.158	969.44
476.377	972.44
476.596	930.44
476.814	979.44
477.033	963.44
477.252	1015.44
477.471	1046.44
477.69	1025.44
477.908	1020.44
478.127	1096.44
478.346	1081.44
478.564	1112.44
478.783	1100.44
479.002	1150.44
479.22	1152.44
479.439	1131.44
479.658	1150.44
479.876	1143.44
480.095	1156.44
480.313	1207.44
480.532	1211.44
480.751	1198.44
480.969	1175.44
481.188	1129.44
481.406	1136.44
481.624	1098.44
481.843	1059.44
482.061	1055.44
482.28	1050.44
482.498	1062.44
482.717	1051.44
482.935	1059.44
483.153	1082.44
483.372	1061.44
483.59	1046.44
483.808	1066.44
484.027	1061.44
484.245	1080.44
484.463	1046.44
484.681	1096.44
484.9	1094.44
485.118	1107.44
485.336	1063.44
485.554	1077.44
485.772	1083.44
485.99	1093.44
486.209	1118.44
486.427	1099.44
486.645	1087.44
486.863	1104.44
487.081	1115.44
487.299	1123.44
487.517	1087.44
487.735	1097.44
487.953	1128.44
488.171	1107.44
488.389	1118.44
488.607	1098.44
488.825	1092.44
489.043	1096.44
489.261	1086.44
489.479	1086.44
489.696	1113.44
489.914	1108.44
490.132	1096.44
490.35	1111.44
490.568	1144.44
490.786	1150.44
491.003	1104.44
491.221	1124.44
491.439	1143.44
491.657	1115.44
491.874	1138.44
492.092	1178.44
492.31	1170.44
492.527	1119.44
492.745	1157.44
492.963	1162.44
493.18	1169.44
493.398	1170.44
493.615	1147.44
493.833	1187.44
494.05	1182.44
494.268	1164.44
494.485	1221.44
494.703	1221.44
494.92	1205.44
495.138	1211.44
495.355	1225.44
495.573	1210.44
495.79	1225.44
496.008	1231.44
496.225	1223.44
496.442	1229.44
496.66	1246.44
496.877	1275.44
