Data from Ni(NO3)2@0.0625M.TitratingCurve.Agarose3%dH2O.NegLispCup.LampEnergy10.LIBS07252019_HRD10591_18-13-47-569.txt Node
Date: Thu Jul 25 18:13:47 EDT 2019
User: cochatt
Spectrometer: HR+D1059
Trigger mode: 1
Integration Time (sec): 1.000000E-1
Scans to average: 1
Electric dark correction enabled: true
Nonlinearity correction enabled: false
Boxcar width: 0
XAxis mode: Wavelengths
Number of Pixels in Spectrum: 2048
>>>>>Begin Spectral Data<<<<<
223.165	-15.88
223.4	-15.88
223.635	-15.88
223.869	-19.88
224.104	-16.88
224.338	-28.88
224.573	-19.88
224.808	-13.88
225.042	-11.88
225.277	1.12
225.511	0.12
225.746	6.12
225.98	10.12
226.215	12.12
226.449	17.12
226.683	22.12
226.918	24.12
227.152	34.12
227.387	23.12
227.621	41.12
227.856	44.12
228.09	54.12
228.324	49.12
228.559	52.12
228.793	55.12
229.027	73.12
229.262	85.12
229.496	101.12
229.73	93.12
229.964	100.12
230.199	94.12
230.433	112.12
230.667	101.12
230.901	117.12
231.136	105.12
231.37	113.12
231.604	106.12
231.838	118.12
232.072	123.12
232.306	122.12
232.541	98.12
232.775	103.12
233.009	125.12
233.243	112.12
233.477	115.12
233.711	128.12
233.945	113.12
234.179	114.12
234.413	125.12
234.647	117.12
234.881	122.12
235.115	115.12
235.349	121.12
235.583	113.12
235.817	124.12
236.051	131.12
236.285	113.12
236.519	123.12
236.753	139.12
236.987	124.12
237.221	129.12
237.455	132.12
237.689	132.12
237.922	135.12
238.156	131.12
238.39	124.12
238.624	128.12
238.858	137.12
239.091	120.12
239.325	118.12
239.559	125.12
239.793	131.12
240.027	141.12
240.26	124.12
240.494	138.12
240.728	146.12
240.961	138.12
241.195	124.12
241.429	143.12
241.662	151.12
241.896	149.12
242.13	130.12
242.363	156.12
242.597	133.12
242.83	131.12
243.064	139.12
243.298	140.12
243.531	147.12
243.765	160.12
243.998	162.12
244.232	170.12
244.465	156.12
244.699	156.12
244.932	157.12
245.166	161.12
245.399	133.12
245.633	157.12
245.866	172.12
246.099	152.12
246.333	166.12
246.566	166.12
246.8	179.12
247.033	167.12
247.266	168.12
247.5	171.12
247.733	171.12
247.966	185.12
248.2	180.12
248.433	167.12
248.666	187.12
248.899	181.12
249.133	178.12
249.366	183.12
249.599	179.12
249.832	180.12
250.066	165.12
250.299	160.12
250.532	183.12
250.765	183.12
250.998	171.12
251.231	182.12
251.465	201.12
251.698	196.12
251.931	199.12
252.164	202.12
252.397	192.12
252.63	203.12
252.863	180.12
253.096	195.12
253.329	199.12
253.562	200.12
253.795	196.12
254.028	201.12
254.261	187.12
254.494	206.12
254.727	196.12
254.96	195.12
255.193	204.12
255.426	201.12
255.659	204.12
255.892	188.12
256.124	204.12
256.357	192.12
256.59	196.12
256.823	189.12
257.056	198.12
257.289	206.12
257.521	199.12
257.754	208.12
257.987	204.12
258.22	208.12
258.452	225.12
258.685	209.12
258.918	215.12
259.151	206.12
259.383	229.12
259.616	221.12
259.849	228.12
260.081	225.12
260.314	232.12
260.547	219.12
260.779	204.12
261.012	203.12
261.244	214.12
261.477	232.12
261.71	229.12
261.942	234.12
262.175	216.12
262.407	244.12
262.64	233.12
262.872	239.12
263.105	235.12
263.337	236.12
263.57	233.12
263.802	242.12
264.035	221.12
264.267	221.12
264.499	246.12
264.732	235.12
264.964	243.12
265.197	247.12
265.429	245.12
265.661	256.12
265.894	258.12
266.126	253.12
266.358	250.12
266.591	247.12
266.823	264.12
267.055	258.12
267.287	243.12
267.52	265.12
267.752	255.12
267.984	259.12
268.216	252.12
268.448	256.12
268.681	259.12
268.913	269.12
269.145	253.12
269.377	258.12
269.609	250.12
269.841	273.12
270.073	243.12
270.306	267.12
270.538	261.12
270.77	268.12
271.002	257.12
271.234	259.12
271.466	268.12
271.698	259.12
271.93	265.12
272.162	277.12
272.394	271.12
272.626	274.12
272.858	277.12
273.09	252.12
273.322	279.12
273.553	273.12
273.785	263.12
274.017	279.12
274.249	295.12
274.481	295.12
274.713	285.12
274.945	285.12
275.176	281.12
275.408	269.12
275.64	287.12
275.872	296.12
276.104	285.12
276.335	281.12
276.567	282.12
276.799	287.12
277.031	291.12
277.262	298.12
277.494	300.12
277.726	277.12
277.957	288.12
278.189	280.12
278.421	287.12
278.652	292.12
278.884	287.12
279.115	295.12
279.347	295.12
279.579	299.12
279.81	285.12
280.042	295.12
280.273	305.12
280.505	293.12
280.736	309.12
280.968	307.12
281.199	323.12
281.431	323.12
281.662	334.12
281.894	325.12
282.125	319.12
282.356	337.12
282.588	316.12
282.819	332.12
283.051	324.12
283.282	331.12
283.513	324.12
283.745	339.12
283.976	331.12
284.207	327.12
284.439	323.12
284.67	327.12
284.901	333.12
285.132	332.12
285.364	327.12
285.595	300.12
285.826	329.12
286.057	333.12
286.288	319.12
286.52	326.12
286.751	337.12
286.982	340.12
287.213	341.12
287.444	339.12
287.675	344.12
287.906	346.12
288.138	325.12
288.369	348.12
288.6	339.12
288.831	362.12
289.062	359.12
289.293	367.12
289.524	335.12
289.755	372.12
289.986	347.12
290.217	355.12
290.448	352.12
290.679	363.12
290.91	355.12
291.141	368.12
291.371	342.12
291.602	375.12
291.833	365.12
292.064	362.12
292.295	356.12
292.526	380.12
292.757	342.12
292.987	349.12
293.218	342.12
293.449	359.12
293.68	349.12
293.91	348.12
294.141	363.12
294.372	333.12
294.603	363.12
294.833	375.12
295.064	371.12
295.295	366.12
295.525	369.12
295.756	373.12
295.987	357.12
296.217	374.12
296.448	359.12
296.679	387.12
296.909	365.12
297.14	367.12
297.37	387.12
297.601	399.12
297.831	387.12
298.062	386.12
298.292	401.12
298.523	392.12
298.753	395.12
298.984	404.12
299.214	377.12
299.445	391.12
299.675	402.12
299.905	401.12
300.136	399.12
300.366	397.12
300.597	406.12
300.827	395.12
301.057	394.12
301.288	397.12
301.518	418.12
301.748	416.12
301.979	419.12
302.209	414.12
302.439	401.12
302.669	391.12
302.9	394.12
303.13	408.12
303.36	389.12
303.59	396.12
303.82	394.12
304.051	420.12
304.281	403.12
304.511	392.12
304.741	409.12
304.971	391.12
305.201	392.12
305.431	385.12
305.661	394.12
305.891	376.12
306.121	389.12
306.352	397.12
306.582	397.12
306.812	394.12
307.042	389.12
307.272	377.12
307.502	404.12
307.731	398.12
307.961	386.12
308.191	393.12
308.421	391.12
308.651	381.12
308.881	386.12
309.111	383.12
309.341	401.12
309.571	397.12
309.8	381.12
310.03	382.12
310.26	385.12
310.49	380.12
310.72	394.12
310.949	393.12
311.179	421.12
311.409	409.12
311.639	395.12
311.868	390.12
312.098	393.12
312.328	402.12
312.557	402.12
312.787	400.12
313.017	409.12
313.246	421.12
313.476	411.12
313.706	402.12
313.935	408.12
314.165	429.12
314.394	428.12
314.624	426.12
314.853	405.12
315.083	439.12
315.312	445.12
315.542	431.12
315.771	402.12
316.001	430.12
316.23	400.12
316.46	403.12
316.689	413.12
316.919	391.12
317.148	388.12
317.377	420.12
317.607	420.12
317.836	375.12
318.065	403.12
318.295	400.12
318.524	418.12
318.753	423.12
318.983	405.12
319.212	417.12
319.441	411.12
319.67	424.12
319.9	405.12
320.129	410.12
320.358	397.12
320.587	411.12
320.816	396.12
321.046	414.12
321.275	415.12
321.504	413.12
321.733	397.12
321.962	396.12
322.191	421.12
322.42	410.12
322.649	417.12
322.878	405.12
323.108	420.12
323.337	419.12
323.566	412.12
323.795	423.12
324.024	419.12
324.253	426.12
324.482	429.12
324.71	426.12
324.939	432.12
325.168	415.12
325.397	441.12
325.626	449.12
325.855	454.12
326.084	460.12
326.313	436.12
326.542	440.12
326.77	472.12
326.999	461.12
327.228	460.12
327.457	453.12
327.686	446.12
327.914	446.12
328.143	453.12
328.372	447.12
328.6	440.12
328.829	448.12
329.058	443.12
329.287	460.12
329.515	433.12
329.744	445.12
329.972	460.12
330.201	429.12
330.43	449.12
330.658	464.12
330.887	465.12
331.115	462.12
331.344	443.12
331.572	466.12
331.801	495.12
332.03	519.12
332.258	490.12
332.486	529.12
332.715	550.12
332.943	571.12
333.172	587.12
333.4	603.12
333.629	623.12
333.857	618.12
334.085	574.12
334.314	581.12
334.542	579.12
334.771	580.12
334.999	555.12
335.227	542.12
335.455	545.12
335.684	562.12
335.912	562.12
336.14	538.12
336.369	535.12
336.597	538.12
336.825	532.12
337.053	536.12
337.281	538.12
337.51	508.12
337.738	524.12
337.966	490.12
338.194	495.12
338.422	513.12
338.65	502.12
338.878	479.12
339.106	493.12
339.334	472.12
339.562	470.12
339.79	471.12
340.018	465.12
340.246	457.12
340.474	451.12
340.702	473.12
340.93	484.12
341.158	479.12
341.386	481.12
341.614	480.12
341.842	470.12
342.07	489.12
342.298	466.12
342.526	476.12
342.754	477.12
342.981	461.12
343.209	497.12
343.437	511.12
343.665	538.12
343.893	576.12
344.12	615.12
344.348	553.12
344.576	526.12
344.804	533.12
345.031	493.12
345.259	498.12
345.487	478.12
345.714	477.12
345.942	456.12
346.17	472.12
346.397	474.12
346.625	453.12
346.853	451.12
347.08	457.12
347.308	475.12
347.535	469.12
347.763	472.12
347.99	467.12
348.218	469.12
348.445	442.12
348.673	484.12
348.9	449.12
349.128	438.12
349.355	455.12
349.583	441.12
349.81	451.12
350.037	453.12
350.265	458.12
350.492	453.12
350.72	437.12
350.947	429.12
351.174	437.12
351.402	450.12
351.629	455.12
351.856	443.12
352.083	427.12
352.311	452.12
352.538	449.12
352.765	430.12
352.992	447.12
353.22	430.12
353.447	452.12
353.674	418.12
353.901	439.12
354.128	456.12
354.355	443.12
354.583	453.12
354.81	452.12
355.037	434.12
355.264	460.12
355.491	429.12
355.718	435.12
355.945	418.12
356.172	451.12
356.399	448.12
356.626	443.12
356.853	441.12
357.08	434.12
357.307	443.12
357.534	456.12
357.761	466.12
357.988	442.12
358.215	449.12
358.441	470.12
358.668	439.12
358.895	440.12
359.122	466.12
359.349	441.12
359.576	422.12
359.802	431.12
360.029	429.12
360.256	424.12
360.483	445.12
360.709	431.12
360.936	434.12
361.163	435.12
361.39	455.12
361.616	439.12
361.843	442.12
362.07	447.12
362.296	420.12
362.523	435.12
362.749	440.12
362.976	431.12
363.203	440.12
363.429	458.12
363.656	455.12
363.882	444.12
364.109	429.12
364.335	437.12
364.562	437.12
364.788	434.12
365.015	424.12
365.241	453.12
365.468	452.12
365.694	432.12
365.92	413.12
366.147	461.12
366.373	449.12
366.599	441.12
366.826	448.12
367.052	439.12
367.278	442.12
367.505	441.12
367.731	436.12
367.957	421.12
368.184	445.12
368.41	451.12
368.636	433.12
368.862	445.12
369.089	447.12
369.315	461.12
369.541	461.12
369.767	470.12
369.993	451.12
370.219	481.12
370.445	461.12
370.672	459.12
370.898	492.12
371.124	481.12
371.35	463.12
371.576	490.12
371.802	464.12
372.028	481.12
372.254	467.12
372.48	483.12
372.706	503.12
372.932	492.12
373.158	507.12
373.384	495.12
373.61	497.12
373.835	482.12
374.061	488.12
374.287	483.12
374.513	518.12
374.739	490.12
374.965	531.12
375.191	535.12
375.416	530.12
375.642	526.12
375.868	506.12
376.094	486.12
376.319	503.12
376.545	502.12
376.771	500.12
376.997	476.12
377.222	480.12
377.448	475.12
377.674	488.12
377.899	472.12
378.125	462.12
378.35	488.12
378.576	471.12
378.802	474.12
379.027	473.12
379.253	472.12
379.478	475.12
379.704	464.12
379.929	464.12
380.155	490.12
380.38	488.12
380.606	479.12
380.831	479.12
381.057	475.12
381.282	482.12
381.507	496.12
381.733	482.12
381.958	471.12
382.184	486.12
382.409	480.12
382.634	495.12
382.86	503.12
383.085	535.12
383.31	525.12
383.535	522.12
383.761	548.12
383.986	549.12
384.211	570.12
384.436	567.12
384.662	593.12
384.887	584.12
385.112	582.12
385.337	578.12
385.562	561.12
385.787	599.12
386.013	596.12
386.238	594.12
386.463	572.12
386.688	576.12
386.913	555.12
387.138	531.12
387.363	559.12
387.588	557.12
387.813	575.12
388.038	577.12
388.263	549.12
388.488	559.12
388.713	570.12
388.938	567.12
389.163	540.12
389.387	549.12
389.612	551.12
389.837	534.12
390.062	552.12
390.287	577.12
390.512	552.12
390.736	562.12
390.961	583.12
391.186	556.12
391.411	613.12
391.636	608.12
391.86	625.12
392.085	651.12
392.31	636.12
392.534	645.12
392.759	612.12
392.984	605.12
393.208	586.12
393.433	616.12
393.658	613.12
393.882	629.12
394.107	630.12
394.331	624.12
394.556	620.12
394.78	624.12
395.005	629.12
395.229	612.12
395.454	635.12
395.678	639.12
395.903	661.12
396.127	668.12
396.352	609.12
396.576	605.12
396.801	594.12
397.025	605.12
397.249	635.12
397.474	657.12
397.698	636.12
397.922	638.12
398.147	636.12
398.371	657.12
398.595	675.12
398.82	670.12
399.044	733.12
399.268	831.12
399.492	967.12
399.717	1099.12
399.941	1108.12
400.165	959.12
400.389	826.12
400.613	776.12
400.837	738.12
401.062	701.12
401.286	693.12
401.51	699.12
401.734	716.12
401.958	718.12
402.182	719.12
402.406	725.12
402.63	752.12
402.854	775.12
403.078	789.12
403.302	785.12
403.526	805.12
403.75	851.12
403.974	810.12
404.198	839.12
404.422	848.12
404.645	845.12
404.869	823.12
405.093	793.12
405.317	813.12
405.541	810.12
405.765	818.12
405.988	777.12
406.212	796.12
406.436	770.12
406.66	805.12
406.883	816.12
407.107	844.12
407.331	889.12
407.555	962.12
407.778	910.12
408.002	897.12
408.226	877.12
408.449	845.12
408.673	828.12
408.896	819.12
409.12	825.12
409.344	840.12
409.567	818.12
409.791	885.12
410.014	856.12
410.238	821.12
410.461	812.12
410.685	844.12
410.908	771.12
411.132	757.12
411.355	738.12
411.578	753.12
411.802	742.12
412.025	759.12
412.249	747.12
412.472	753.12
412.695	747.12
412.919	725.12
413.142	700.12
413.365	723.12
413.589	730.12
413.812	707.12
414.035	709.12
414.258	707.12
414.482	726.12
414.705	700.12
414.928	718.12
415.151	720.12
415.374	679.12
415.597	717.12
415.821	693.12
416.044	708.12
416.267	698.12
416.49	715.12
416.713	690.12
416.936	722.12
417.159	717.12
417.382	706.12
417.605	684.12
417.828	714.12
418.051	717.12
418.274	716.12
418.497	714.12
418.72	744.12
418.943	745.12
419.166	792.12
419.389	818.12
419.611	819.12
419.834	776.12
420.057	746.12
420.28	733.12
420.503	715.12
420.726	684.12
420.948	707.12
421.171	691.12
421.394	718.12
421.617	711.12
421.839	704.12
422.062	700.12
422.285	704.12
422.507	756.12
422.73	747.12
422.953	769.12
423.175	768.12
423.398	769.12
423.621	771.12
423.843	779.12
424.066	788.12
424.288	748.12
424.511	750.12
424.733	733.12
424.956	737.12
425.178	743.12
425.401	717.12
425.623	699.12
425.846	696.12
426.068	691.12
426.291	665.12
426.513	668.12
426.735	651.12
426.958	674.12
427.18	680.12
427.402	664.12
427.625	659.12
427.847	628.12
428.069	630.12
428.292	643.12
428.514	630.12
428.736	645.12
428.958	651.12
429.181	634.12
429.403	602.12
429.625	638.12
429.847	617.12
430.069	625.12
430.292	619.12
430.514	602.12
430.736	629.12
430.958	621.12
431.18	630.12
431.402	641.12
431.624	647.12
431.846	636.12
432.068	660.12
432.29	651.12
432.512	626.12
432.734	627.12
432.956	644.12
433.178	644.12
433.4	634.12
433.622	618.12
433.844	661.12
434.066	655.12
434.287	666.12
434.509	661.12
434.731	709.12
434.953	703.12
435.175	746.12
435.397	744.12
435.618	678.12
435.84	669.12
436.062	681.12
436.284	645.12
436.505	655.12
436.727	661.12
436.949	674.12
437.17	637.12
437.392	644.12
437.614	634.12
437.835	652.12
438.057	609.12
438.278	617.12
438.5	615.12
438.721	609.12
438.943	635.12
439.165	627.12
439.386	635.12
439.608	639.12
439.829	647.12
440.05	649.12
440.272	645.12
440.493	635.12
440.715	642.12
440.936	695.12
441.158	661.12
441.379	699.12
441.6	749.12
441.822	737.12
442.043	739.12
442.264	715.12
442.486	705.12
442.707	702.12
442.928	714.12
443.149	744.12
443.371	712.12
443.592	721.12
443.813	736.12
444.034	765.12
444.255	776.12
444.476	820.12
444.698	842.12
444.919	889.12
445.14	932.12
445.361	813.12
445.582	730.12
445.803	699.12
446.024	693.12
446.245	677.12
446.466	672.12
446.687	631.12
446.908	659.12
447.129	628.12
447.35	630.12
447.571	627.12
447.792	624.12
448.013	601.12
448.234	591.12
448.455	610.12
448.675	617.12
448.896	599.12
449.117	574.12
449.338	590.12
449.559	593.12
449.779	586.12
450	596.12
450.221	599.12
450.442	587.12
450.662	619.12
450.883	607.12
451.104	618.12
451.324	645.12
451.545	616.12
451.766	623.12
451.986	609.12
452.207	631.12
452.428	590.12
452.648	606.12
452.869	592.12
453.089	593.12
453.31	590.12
453.53	596.12
453.751	597.12
453.971	578.12
454.192	588.12
454.412	575.12
454.633	557.12
454.853	552.12
455.073	564.12
455.294	598.12
455.514	563.12
455.734	554.12
455.955	540.12
456.175	562.12
456.395	561.12
456.616	562.12
456.836	573.12
457.056	562.12
457.276	543.12
457.497	563.12
457.717	555.12
457.937	568.12
458.157	568.12
458.377	550.12
458.598	598.12
458.818	586.12
459.038	615.12
459.258	639.12
459.478	645.12
459.698	673.12
459.918	689.12
460.138	730.12
460.358	737.12
460.578	781.12
460.798	749.12
461.018	797.12
461.238	789.12
461.458	796.12
461.678	769.12
461.898	756.12
462.118	758.12
462.338	835.12
462.558	827.12
462.777	839.12
462.997	962.12
463.217	1087.12
463.437	1041.12
463.657	949.12
463.876	901.12
464.096	898.12
464.316	931.12
464.536	900.12
464.755	888.12
464.975	843.12
465.195	787.12
465.414	773.12
465.634	705.12
465.854	680.12
466.073	680.12
466.293	665.12
466.512	645.12
466.732	647.12
466.951	616.12
467.171	644.12
467.391	625.12
467.61	639.12
467.829	635.12
468.049	653.12
468.268	602.12
468.488	587.12
468.707	611.12
468.927	593.12
469.146	578.12
469.365	631.12
469.585	608.12
469.804	625.12
470.023	647.12
470.243	631.12
470.462	627.12
470.681	647.12
470.901	659.12
471.12	637.12
471.339	618.12
471.558	603.12
471.777	618.12
471.997	598.12
472.216	577.12
472.435	586.12
472.654	568.12
472.873	577.12
473.092	580.12
473.311	576.12
473.53	587.12
473.749	569.12
473.968	590.12
474.187	593.12
474.406	575.12
474.625	586.12
474.844	567.12
475.063	589.12
475.282	600.12
475.501	602.12
475.72	588.12
475.939	593.12
476.158	617.12
476.377	616.12
476.596	594.12
476.814	612.12
477.033	615.12
477.252	625.12
477.471	649.12
477.69	669.12
477.908	658.12
478.127	701.12
478.346	675.12
478.564	701.12
478.783	695.12
479.002	721.12
479.22	755.12
479.439	734.12
479.658	721.12
479.876	707.12
480.095	743.12
480.313	769.12
480.532	798.12
480.751	775.12
480.969	724.12
481.188	724.12
481.406	684.12
481.624	673.12
481.843	667.12
482.061	632.12
482.28	655.12
482.498	663.12
482.717	660.12
482.935	635.12
483.153	666.12
483.372	648.12
483.59	665.12
483.808	657.12
484.027	651.12
484.245	662.12
484.463	654.12
484.681	680.12
484.9	684.12
485.118	701.12
485.336	711.12
485.554	712.12
485.772	694.12
485.99	701.12
486.209	751.12
486.427	739.12
486.645	724.12
486.863	712.12
487.081	723.12
487.299	702.12
487.517	689.12
487.735	699.12
487.953	694.12
488.171	688.12
488.389	690.12
488.607	701.12
488.825	691.12
489.043	667.12
489.261	683.12
489.479	687.12
489.696	698.12
489.914	713.12
490.132	679.12
490.35	669.12
490.568	693.12
490.786	689.12
491.003	699.12
491.221	717.12
491.439	687.12
491.657	695.12
491.874	707.12
492.092	715.12
492.31	731.12
492.527	725.12
492.745	713.12
492.963	729.12
493.18	707.12
493.398	691.12
493.615	721.12
493.833	722.12
494.05	716.12
494.268	744.12
494.485	731.12
494.703	735.12
494.92	723.12
495.138	733.12
495.355	719.12
495.573	716.12
495.79	745.12
496.008	742.12
496.225	751.12
496.442	751.12
496.66	755.12
496.877	783.12
497.094	798.12
497.312	805.12
497.529	807.12
497.746	809.12
497.963	858.12
498.181	906.12
498.398	924.12
498.615	979.12
498.832	1014.12
499.049	1093.12
499.267	1187.12
499.484	1332.12
499.701	1463.12
499.918	1667.12
500.135	1936.12
500.352	2204.12
500.569	2311.12
500.786	2383.12
501.003	2089.12
501.22	1825.12
501.437	1621.12
