Data from Ni(NO3)2@0.125M.TitratingCurve.Agarose3%dH2O.NegLispCup.LampEnergy10.LIBS07252019_HRD10591_18-10-47-568.txt Node
Date: Thu Jul 25 18:10:47 EDT 2019
User: cochatt
Spectrometer: HR+D1059
Trigger mode: 1
Integration Time (sec): 1.000000E-1
Scans to average: 1
Electric dark correction enabled: true
Nonlinearity correction enabled: false
Boxcar width: 0
XAxis mode: Wavelengths
Number of Pixels in Spectrum: 2048
>>>>>Begin Spectral Data<<<<<
223.165	-21.56
223.4	-21.56
223.635	-21.56
223.869	-28.56
224.104	-28.56
224.338	-15.56
224.573	-4.56
224.808	-13.56
225.042	-2.56
225.277	-14.56
225.511	-9.56
225.746	5.44
225.98	12.44
226.215	23.44
226.449	8.44
226.683	37.44
226.918	23.44
227.152	28.44
227.387	33.44
227.621	28.44
227.856	50.44
228.09	42.44
228.324	35.44
228.559	45.44
228.793	65.44
229.027	82.44
229.262	112.44
229.496	114.44
229.73	99.44
229.964	104.44
230.199	116.44
230.433	109.44
230.667	111.44
230.901	115.44
231.136	122.44
231.37	124.44
231.604	121.44
231.838	131.44
232.072	128.44
232.306	140.44
232.541	132.44
232.775	125.44
233.009	120.44
233.243	121.44
233.477	127.44
233.711	129.44
233.945	118.44
234.179	126.44
234.413	145.44
234.647	124.44
234.881	144.44
235.115	132.44
235.349	121.44
235.583	135.44
235.817	133.44
236.051	128.44
236.285	122.44
236.519	128.44
236.753	125.44
236.987	120.44
237.221	138.44
237.455	127.44
237.689	130.44
237.922	147.44
238.156	146.44
238.39	140.44
238.624	147.44
238.858	149.44
239.091	156.44
239.325	134.44
239.559	148.44
239.793	147.44
240.027	138.44
240.26	138.44
240.494	151.44
240.728	153.44
240.961	146.44
241.195	170.44
241.429	142.44
241.662	156.44
241.896	158.44
242.13	168.44
242.363	170.44
242.597	147.44
242.83	158.44
243.064	152.44
243.298	144.44
243.531	176.44
243.765	182.44
243.998	174.44
244.232	169.44
244.465	168.44
244.699	172.44
244.932	179.44
245.166	186.44
245.399	167.44
245.633	164.44
245.866	167.44
246.099	192.44
246.333	176.44
246.566	179.44
246.8	176.44
247.033	190.44
247.266	194.44
247.5	180.44
247.733	184.44
247.966	189.44
248.2	194.44
248.433	191.44
248.666	180.44
248.899	190.44
249.133	200.44
249.366	190.44
249.599	213.44
249.832	201.44
250.066	202.44
250.299	204.44
250.532	212.44
250.765	180.44
250.998	202.44
251.231	216.44
251.465	208.44
251.698	221.44
251.931	213.44
252.164	215.44
252.397	202.44
252.63	220.44
252.863	218.44
253.096	239.44
253.329	208.44
253.562	218.44
253.795	226.44
254.028	222.44
254.261	238.44
254.494	227.44
254.727	228.44
254.96	214.44
255.193	232.44
255.426	226.44
255.659	224.44
255.892	225.44
256.124	230.44
256.357	227.44
256.59	249.44
256.823	237.44
257.056	238.44
257.289	248.44
257.521	249.44
257.754	254.44
257.987	247.44
258.22	243.44
258.452	234.44
258.685	258.44
258.918	249.44
259.151	248.44
259.383	255.44
259.616	246.44
259.849	244.44
260.081	253.44
260.314	274.44
260.547	248.44
260.779	246.44
261.012	260.44
261.244	241.44
261.477	236.44
261.71	256.44
261.942	265.44
262.175	240.44
262.407	267.44
262.64	277.44
262.872	259.44
263.105	273.44
263.337	272.44
263.57	276.44
263.802	276.44
264.035	261.44
264.267	262.44
264.499	273.44
264.732	267.44
264.964	276.44
265.197	276.44
265.429	278.44
265.661	276.44
265.894	289.44
266.126	293.44
266.358	268.44
266.591	275.44
266.823	283.44
267.055	293.44
267.287	286.44
267.52	290.44
267.752	282.44
267.984	298.44
268.216	292.44
268.448	315.44
268.681	309.44
268.913	299.44
269.145	292.44
269.377	293.44
269.609	316.44
269.841	291.44
270.073	296.44
270.306	297.44
270.538	308.44
270.77	311.44
271.002	293.44
271.234	298.44
271.466	302.44
271.698	305.44
271.93	296.44
272.162	307.44
272.394	298.44
272.626	286.44
272.858	310.44
273.09	306.44
273.322	308.44
273.553	301.44
273.785	321.44
274.017	322.44
274.249	314.44
274.481	320.44
274.713	312.44
274.945	323.44
275.176	308.44
275.408	327.44
275.64	324.44
275.872	317.44
276.104	320.44
276.335	310.44
276.567	307.44
276.799	338.44
277.031	329.44
277.262	337.44
277.494	332.44
277.726	329.44
277.957	340.44
278.189	337.44
278.421	336.44
278.652	337.44
278.884	335.44
279.115	360.44
279.347	347.44
279.579	343.44
279.81	343.44
280.042	357.44
280.273	353.44
280.505	363.44
280.736	357.44
280.968	353.44
281.199	351.44
281.431	361.44
281.662	344.44
281.894	358.44
282.125	370.44
282.356	353.44
282.588	360.44
282.819	360.44
283.051	350.44
283.282	353.44
283.513	345.44
283.745	369.44
283.976	355.44
284.207	362.44
284.439	392.44
284.67	370.44
284.901	380.44
285.132	377.44
285.364	370.44
285.595	404.44
285.826	379.44
286.057	381.44
286.288	380.44
286.52	386.44
286.751	402.44
286.982	388.44
287.213	386.44
287.444	376.44
287.675	412.44
287.906	416.44
288.138	396.44
288.369	394.44
288.6	419.44
288.831	374.44
289.062	397.44
289.293	382.44
289.524	382.44
289.755	384.44
289.986	405.44
290.217	399.44
290.448	392.44
290.679	404.44
290.91	406.44
291.141	432.44
291.371	399.44
291.602	389.44
291.833	405.44
292.064	411.44
292.295	410.44
292.526	406.44
292.757	401.44
292.987	372.44
293.218	384.44
293.449	401.44
293.68	410.44
293.91	395.44
294.141	403.44
294.372	398.44
294.603	398.44
294.833	411.44
295.064	417.44
295.295	416.44
295.525	421.44
295.756	417.44
295.987	402.44
296.217	425.44
296.448	405.44
296.679	422.44
296.909	430.44
297.14	415.44
297.37	444.44
297.601	434.44
297.831	428.44
298.062	424.44
298.292	453.44
298.523	447.44
298.753	450.44
298.984	454.44
299.214	435.44
299.445	443.44
299.675	444.44
299.905	437.44
300.136	439.44
300.366	442.44
300.597	446.44
300.827	458.44
301.057	453.44
301.288	486.44
301.518	448.44
301.748	453.44
301.979	472.44
302.209	482.44
302.439	462.44
302.669	443.44
302.9	441.44
303.13	461.44
303.36	441.44
303.59	449.44
303.82	450.44
304.051	440.44
304.281	457.44
304.511	461.44
304.741	462.44
304.971	440.44
305.201	467.44
305.431	432.44
305.661	439.44
305.891	437.44
306.121	452.44
306.352	447.44
306.582	448.44
306.812	429.44
307.042	451.44
307.272	470.44
307.502	441.44
307.731	450.44
307.961	460.44
308.191	446.44
308.421	421.44
308.651	424.44
308.881	425.44
309.111	447.44
309.341	445.44
309.571	450.44
309.8	439.44
310.03	458.44
310.26	421.44
310.49	445.44
310.72	464.44
310.949	459.44
311.179	464.44
311.409	457.44
311.639	446.44
311.868	427.44
312.098	466.44
312.328	464.44
312.557	454.44
312.787	482.44
313.017	490.44
313.246	473.44
313.476	475.44
313.706	495.44
313.935	477.44
314.165	480.44
314.394	466.44
314.624	476.44
314.853	472.44
315.083	478.44
315.312	452.44
315.542	455.44
315.771	476.44
316.001	485.44
316.23	478.44
316.46	473.44
316.689	458.44
316.919	456.44
317.148	477.44
317.377	457.44
317.607	467.44
317.836	446.44
318.065	470.44
318.295	472.44
318.524	448.44
318.753	460.44
318.983	445.44
319.212	460.44
319.441	458.44
319.67	459.44
319.9	456.44
320.129	482.44
320.358	454.44
320.587	489.44
320.816	469.44
321.046	463.44
321.275	481.44
321.504	467.44
321.733	464.44
321.962	464.44
322.191	477.44
322.42	446.44
322.649	474.44
322.878	468.44
323.108	476.44
323.337	486.44
323.566	484.44
323.795	489.44
324.024	491.44
324.253	476.44
324.482	502.44
324.71	480.44
324.939	484.44
325.168	472.44
325.397	485.44
325.626	497.44
325.855	505.44
326.084	531.44
326.313	532.44
326.542	532.44
326.77	530.44
326.999	524.44
327.228	506.44
327.457	520.44
327.686	500.44
327.914	502.44
328.143	531.44
328.372	548.44
328.6	547.44
328.829	525.44
329.058	508.44
329.287	519.44
329.515	506.44
329.744	526.44
329.972	525.44
330.201	531.44
330.43	512.44
330.658	537.44
330.887	544.44
331.115	531.44
331.344	541.44
331.572	572.44
331.801	550.44
332.03	572.44
332.258	590.44
332.486	592.44
332.715	625.44
332.943	666.44
333.172	633.44
333.4	696.44
333.629	699.44
333.857	714.44
334.085	694.44
334.314	669.44
334.542	654.44
334.771	671.44
334.999	648.44
335.227	655.44
335.455	646.44
335.684	655.44
335.912	654.44
336.14	608.44
336.369	637.44
336.597	639.44
336.825	618.44
337.053	614.44
337.281	612.44
337.51	615.44
337.738	605.44
337.966	573.44
338.194	579.44
338.422	576.44
338.65	562.44
338.878	561.44
339.106	562.44
339.334	555.44
339.562	549.44
339.79	528.44
340.018	548.44
340.246	555.44
340.474	544.44
340.702	546.44
340.93	539.44
341.158	548.44
341.386	545.44
341.614	558.44
341.842	534.44
342.07	530.44
342.298	526.44
342.526	534.44
342.754	555.44
342.981	555.44
343.209	565.44
343.437	574.44
343.665	606.44
343.893	655.44
344.12	684.44
344.348	640.44
344.576	617.44
344.804	594.44
345.031	567.44
345.259	558.44
345.487	561.44
345.714	544.44
345.942	532.44
346.17	557.44
346.397	532.44
346.625	492.44
346.853	513.44
347.08	537.44
347.308	503.44
347.535	533.44
347.763	561.44
347.99	561.44
348.218	554.44
348.445	573.44
348.673	525.44
348.9	540.44
349.128	517.44
349.355	515.44
349.583	518.44
349.81	530.44
350.037	507.44
350.265	532.44
350.492	503.44
350.72	526.44
350.947	519.44
351.174	489.44
351.402	504.44
351.629	518.44
351.856	508.44
352.083	501.44
352.311	510.44
352.538	480.44
352.765	522.44
352.992	520.44
353.22	530.44
353.447	524.44
353.674	515.44
353.901	511.44
354.128	516.44
354.355	534.44
354.583	507.44
354.81	503.44
355.037	508.44
355.264	503.44
355.491	532.44
355.718	516.44
355.945	488.44
356.172	508.44
356.399	514.44
356.626	532.44
356.853	530.44
357.08	520.44
357.307	510.44
357.534	525.44
357.761	520.44
357.988	502.44
358.215	478.44
358.441	501.44
358.668	508.44
358.895	502.44
359.122	509.44
359.349	488.44
359.576	484.44
359.802	508.44
360.029	510.44
360.256	529.44
360.483	513.44
360.709	517.44
360.936	496.44
361.163	494.44
361.39	491.44
361.616	508.44
361.843	523.44
362.07	496.44
362.296	500.44
362.523	484.44
362.749	499.44
362.976	518.44
363.203	514.44
363.429	504.44
363.656	496.44
363.882	510.44
364.109	506.44
364.335	499.44
364.562	500.44
364.788	495.44
365.015	513.44
365.241	494.44
365.468	485.44
365.694	524.44
365.92	502.44
366.147	506.44
366.373	501.44
366.599	496.44
366.826	513.44
367.052	515.44
367.278	502.44
367.505	503.44
367.731	526.44
367.957	499.44
368.184	496.44
368.41	527.44
368.636	517.44
368.862	540.44
369.089	516.44
369.315	532.44
369.541	530.44
369.767	523.44
369.993	508.44
370.219	527.44
370.445	526.44
370.672	526.44
370.898	541.44
371.124	575.44
371.35	554.44
371.576	560.44
371.802	525.44
372.028	553.44
372.254	559.44
372.48	568.44
372.706	570.44
372.932	573.44
373.158	586.44
373.384	545.44
373.61	553.44
373.835	548.44
374.061	528.44
374.287	573.44
374.513	570.44
374.739	576.44
374.965	605.44
375.191	608.44
375.416	611.44
375.642	590.44
375.868	590.44
376.094	589.44
376.319	576.44
376.545	560.44
376.771	575.44
376.997	544.44
377.222	552.44
377.448	566.44
377.674	550.44
377.899	544.44
378.125	542.44
378.35	527.44
378.576	532.44
378.802	544.44
379.027	539.44
379.253	538.44
379.478	519.44
379.704	548.44
379.929	555.44
380.155	560.44
380.38	556.44
380.606	547.44
380.831	555.44
381.057	540.44
381.282	531.44
381.507	532.44
381.733	544.44
381.958	547.44
382.184	565.44
382.409	578.44
382.634	579.44
382.86	568.44
383.085	589.44
383.31	602.44
383.535	587.44
383.761	652.44
383.986	618.44
384.211	615.44
384.436	637.44
384.662	664.44
384.887	670.44
385.112	654.44
385.337	642.44
385.562	640.44
385.787	650.44
386.013	662.44
386.238	658.44
386.463	634.44
386.688	681.44
386.913	635.44
387.138	638.44
387.363	644.44
387.588	655.44
387.813	632.44
388.038	633.44
388.263	659.44
388.488	632.44
388.713	665.44
388.938	649.44
389.163	628.44
389.387	634.44
389.612	626.44
389.837	620.44
390.062	624.44
390.287	647.44
390.512	664.44
390.736	636.44
390.961	664.44
391.186	664.44
391.411	660.44
391.636	697.44
391.86	730.44
392.085	761.44
392.31	741.44
392.534	703.44
392.759	715.44
392.984	698.44
393.208	690.44
393.433	709.44
393.658	684.44
393.882	678.44
394.107	708.44
394.331	738.44
394.556	709.44
394.78	713.44
395.005	707.44
395.229	703.44
395.454	718.44
395.678	756.44
395.903	734.44
396.127	708.44
396.352	708.44
396.576	689.44
396.801	679.44
397.025	690.44
397.249	683.44
397.474	721.44
397.698	721.44
397.922	732.44
398.147	746.44
398.371	753.44
398.595	776.44
398.82	820.44
399.044	856.44
399.268	936.44
399.492	1080.44
399.717	1268.44
399.941	1275.44
400.165	1106.44
400.389	989.44
400.613	849.44
400.837	842.44
401.062	818.44
401.286	810.44
401.51	802.44
401.734	833.44
401.958	825.44
402.182	824.44
402.406	839.44
402.63	867.44
402.854	878.44
403.078	893.44
403.302	922.44
403.526	922.44
403.75	954.44
403.974	989.44
404.198	976.44
404.422	980.44
404.645	932.44
404.869	940.44
405.093	972.44
405.317	906.44
405.541	896.44
405.765	894.44
405.988	891.44
406.212	902.44
406.436	909.44
406.66	913.44
406.883	923.44
407.107	989.44
407.331	1009.44
407.555	1070.44
407.778	1074.44
408.002	1060.44
408.226	1002.44
408.449	997.44
408.673	912.44
408.896	952.44
409.12	948.44
409.344	949.44
409.567	952.44
409.791	965.44
410.014	953.44
410.238	940.44
410.461	942.44
410.685	938.44
410.908	916.44
411.132	862.44
411.355	853.44
411.578	861.44
411.802	832.44
412.025	857.44
412.249	891.44
412.472	874.44
412.695	868.44
412.919	809.44
413.142	835.44
413.365	850.44
413.589	828.44
413.812	818.44
414.035	826.44
414.258	810.44
414.482	827.44
414.705	822.44
414.928	844.44
415.151	862.44
415.374	843.44
415.597	811.44
415.821	803.44
416.044	816.44
416.267	781.44
416.49	778.44
416.713	797.44
416.936	800.44
417.159	804.44
417.382	810.44
417.605	806.44
417.828	825.44
418.051	832.44
418.274	836.44
418.497	837.44
418.72	860.44
418.943	841.44
419.166	959.44
419.389	973.44
419.611	929.44
419.834	874.44
420.057	844.44
420.28	825.44
420.503	812.44
420.726	832.44
420.948	821.44
421.171	820.44
421.394	814.44
421.617	820.44
421.839	821.44
422.062	826.44
422.285	817.44
422.507	847.44
422.73	843.44
422.953	851.44
423.175	871.44
423.398	883.44
423.621	859.44
423.843	886.44
424.066	900.44
424.288	875.44
424.511	876.44
424.733	869.44
424.956	850.44
425.178	835.44
425.401	829.44
425.623	834.44
425.846	778.44
426.068	792.44
426.291	774.44
426.513	807.44
426.735	797.44
426.958	794.44
427.18	772.44
427.402	759.44
427.625	761.44
427.847	792.44
428.069	750.44
428.292	744.44
428.514	732.44
428.736	736.44
428.958	742.44
429.181	717.44
429.403	720.44
429.625	714.44
429.847	717.44
430.069	709.44
430.292	716.44
430.514	728.44
430.736	716.44
430.958	705.44
431.18	722.44
431.402	724.44
431.624	733.44
431.846	745.44
432.068	755.44
432.29	739.44
432.512	745.44
432.734	738.44
432.956	724.44
433.178	739.44
433.4	725.44
433.622	777.44
433.844	758.44
434.066	766.44
434.287	759.44
434.509	818.44
434.731	820.44
434.953	849.44
435.175	870.44
435.397	839.44
435.618	812.44
435.84	734.44
436.062	734.44
436.284	745.44
436.505	732.44
436.727	745.44
436.949	769.44
437.17	754.44
437.392	726.44
437.614	717.44
437.835	720.44
438.057	732.44
438.278	703.44
438.5	720.44
438.721	710.44
438.943	732.44
439.165	698.44
439.386	724.44
439.608	715.44
439.829	730.44
440.05	774.44
440.272	736.44
440.493	747.44
440.715	770.44
440.936	756.44
441.158	780.44
441.379	820.44
441.6	859.44
441.822	831.44
442.043	857.44
442.264	796.44
442.486	806.44
442.707	798.44
442.928	822.44
443.149	821.44
443.371	822.44
443.592	817.44
443.813	829.44
444.034	851.44
444.255	877.44
444.476	908.44
444.698	980.44
444.919	1000.44
445.14	1104.44
445.361	953.44
445.582	846.44
445.803	834.44
446.024	801.44
446.245	768.44
446.466	794.44
446.687	754.44
446.908	759.44
447.129	736.44
447.35	706.44
447.571	714.44
447.792	740.44
448.013	746.44
448.234	685.44
448.455	698.44
448.675	712.44
448.896	702.44
449.117	680.44
449.338	696.44
449.559	692.44
449.779	676.44
450	677.44
450.221	674.44
450.442	697.44
450.662	702.44
450.883	720.44
451.104	702.44
451.324	715.44
451.545	744.44
451.766	728.44
451.986	709.44
452.207	711.44
452.428	708.44
452.648	690.44
452.869	680.44
453.089	648.44
453.31	697.44
453.53	674.44
453.751	682.44
453.971	683.44
454.192	648.44
454.412	660.44
454.633	648.44
454.853	665.44
455.073	645.44
455.294	636.44
455.514	639.44
455.734	658.44
455.955	644.44
456.175	634.44
456.395	647.44
456.616	625.44
456.836	630.44
457.056	654.44
457.276	634.44
457.497	640.44
457.717	613.44
457.937	646.44
458.157	677.44
458.377	657.44
458.598	666.44
458.818	680.44
459.038	692.44
459.258	728.44
459.478	738.44
459.698	779.44
459.918	800.44
460.138	795.44
460.358	886.44
460.578	867.44
460.798	871.44
461.018	913.44
461.238	869.44
461.458	883.44
461.678	889.44
461.898	879.44
462.118	883.44
462.338	932.44
462.558	964.44
462.777	965.44
462.997	1095.44
463.217	1198.44
463.437	1244.44
463.657	1101.44
463.876	1045.44
464.096	1042.44
464.316	1033.44
464.536	1042.44
464.755	993.44
464.975	965.44
465.195	914.44
465.414	875.44
465.634	804.44
465.854	792.44
466.073	742.44
466.293	727.44
466.512	739.44
466.732	731.44
466.951	727.44
467.171	713.44
467.391	706.44
467.61	700.44
467.829	728.44
468.049	710.44
468.268	679.44
468.488	672.44
468.707	663.44
468.927	694.44
469.146	683.44
469.365	695.44
469.585	701.44
469.804	712.44
470.023	734.44
470.243	713.44
470.462	730.44
470.681	731.44
470.901	790.44
471.12	750.44
471.339	737.44
471.558	670.44
471.777	699.44
471.997	697.44
472.216	699.44
472.435	686.44
472.654	668.44
472.873	662.44
473.092	667.44
473.311	661.44
473.53	672.44
473.749	662.44
473.968	659.44
474.187	654.44
474.406	645.44
474.625	660.44
474.844	679.44
475.063	661.44
475.282	674.44
475.501	658.44
475.72	656.44
475.939	655.44
476.158	686.44
476.377	682.44
476.596	682.44
476.814	709.44
477.033	705.44
477.252	700.44
477.471	729.44
477.69	757.44
477.908	767.44
478.127	802.44
478.346	822.44
478.564	788.44
478.783	829.44
479.002	835.44
479.22	841.44
479.439	821.44
479.658	820.44
479.876	816.44
480.095	836.44
480.313	874.44
480.532	926.44
480.751	892.44
480.969	862.44
481.188	856.44
481.406	829.44
481.624	770.44
481.843	768.44
482.061	804.44
482.28	755.44
482.498	742.44
482.717	720.44
482.935	761.44
483.153	754.44
483.372	738.44
483.59	750.44
483.808	758.44
484.027	781.44
484.245	800.44
484.463	764.44
484.681	781.44
484.9	774.44
485.118	792.44
485.336	793.44
485.554	812.44
485.772	782.44
485.99	820.44
486.209	788.44
486.427	819.44
486.645	802.44
486.863	852.44
487.081	802.44
487.299	790.44
487.517	796.44
487.735	824.44
487.953	808.44
488.171	769.44
488.389	796.44
488.607	779.44
488.825	765.44
489.043	778.44
489.261	760.44
489.479	796.44
489.696	786.44
489.914	786.44
490.132	807.44
490.35	767.44
490.568	784.44
490.786	820.44
491.003	788.44
491.221	772.44
491.439	780.44
491.657	770.44
491.874	830.44
492.092	812.44
492.31	820.44
492.527	827.44
492.745	829.44
492.963	821.44
493.18	838.44
493.398	841.44
493.615	827.44
493.833	839.44
494.05	821.44
494.268	845.44
494.485	856.44
494.703	846.44
494.92	833.44
495.138	846.44
495.355	816.44
495.573	852.44
495.79	818.44
496.008	853.44
496.225	876.44
496.442	865.44
496.66	872.44
496.877	865.44
497.094	897.44
497.312	881.44
497.529	928.44
497.746	928.44
497.963	944.44
498.181	982.44
498.398	1058.44
498.615	1129.44
498.832	1185.44
499.049	1265.44
499.267	1352.44
499.484	1465.44
499.701	1704.44
499.918	1868.44
500.135	2225.44
500.352	2551.44
500.569	2688.44
500.786	2648.44
501.003	2378.44
501.22	2168.44
