Data from Ni(NO3)2@0.25M.TitratingCurve.Agarose3%dH2O.NegLispCup.LampEnergy10.LIBS07252019_HRD10591_18-04-56-566.txt Node
Date: Thu Jul 25 18:04:56 EDT 2019
User: cochatt
Spectrometer: HR+D1059
Trigger mode: 1
Integration Time (sec): 1.000000E-1
Scans to average: 1
Electric dark correction enabled: true
Nonlinearity correction enabled: false
Boxcar width: 0
XAxis mode: Wavelengths
Number of Pixels in Spectrum: 2048
>>>>>Begin Spectral Data<<<<<
223.165	-11.81
223.4	-11.81
223.635	-11.81
223.869	-15.81
224.104	-27.81
224.338	-18.81
224.573	-19.81
224.808	-24.81
225.042	1.19
225.277	-1.81
225.511	-7.81
225.746	4.19
225.98	10.19
226.215	27.19
226.449	7.19
226.683	24.19
226.918	32.19
227.152	22.19
227.387	40.19
227.621	34.19
227.856	42.19
228.09	45.19
228.324	62.19
228.559	51.19
228.793	67.19
229.027	88.19
229.262	95.19
229.496	99.19
229.73	94.19
229.964	105.19
230.199	108.19
230.433	102.19
230.667	98.19
230.901	114.19
231.136	116.19
231.37	109.19
231.604	115.19
231.838	120.19
232.072	131.19
232.306	112.19
232.541	112.19
232.775	108.19
233.009	128.19
233.243	125.19
233.477	127.19
233.711	130.19
233.945	124.19
234.179	120.19
234.413	124.19
234.647	117.19
234.881	121.19
235.115	137.19
235.349	120.19
235.583	116.19
235.817	120.19
236.051	142.19
236.285	147.19
236.519	124.19
236.753	121.19
236.987	130.19
237.221	133.19
237.455	141.19
237.689	135.19
237.922	139.19
238.156	132.19
238.39	114.19
238.624	122.19
238.858	127.19
239.091	138.19
239.325	136.19
239.559	130.19
239.793	146.19
240.027	160.19
240.26	132.19
240.494	150.19
240.728	143.19
240.961	140.19
241.195	142.19
241.429	164.19
241.662	153.19
241.896	145.19
242.13	136.19
242.363	142.19
242.597	152.19
242.83	153.19
243.064	150.19
243.298	155.19
243.531	165.19
243.765	156.19
243.998	146.19
244.232	158.19
244.465	160.19
244.699	153.19
244.932	151.19
245.166	145.19
245.399	167.19
245.633	167.19
245.866	161.19
246.099	151.19
246.333	167.19
246.566	174.19
246.8	158.19
247.033	169.19
247.266	168.19
247.5	182.19
247.733	180.19
247.966	170.19
248.2	176.19
248.433	177.19
248.666	181.19
248.899	193.19
249.133	187.19
249.366	164.19
249.599	196.19
249.832	181.19
250.066	193.19
250.299	200.19
250.532	185.19
250.765	170.19
250.998	200.19
251.231	194.19
251.465	205.19
251.698	210.19
251.931	192.19
252.164	213.19
252.397	190.19
252.63	203.19
252.863	214.19
253.096	214.19
253.329	203.19
253.562	202.19
253.795	213.19
254.028	241.19
254.261	231.19
254.494	196.19
254.727	232.19
254.96	224.19
255.193	221.19
255.426	224.19
255.659	230.19
255.892	222.19
256.124	241.19
256.357	225.19
256.59	227.19
256.823	240.19
257.056	232.19
257.289	230.19
257.521	229.19
257.754	225.19
257.987	226.19
258.22	247.19
258.452	247.19
258.685	247.19
258.918	245.19
259.151	246.19
259.383	261.19
259.616	230.19
259.849	244.19
260.081	236.19
260.314	241.19
260.547	241.19
260.779	258.19
261.012	258.19
261.244	261.19
261.477	270.19
261.71	266.19
261.942	264.19
262.175	257.19
262.407	254.19
262.64	264.19
262.872	266.19
263.105	263.19
263.337	276.19
263.57	266.19
263.802	260.19
264.035	288.19
264.267	259.19
264.499	288.19
264.732	271.19
264.964	265.19
265.197	274.19
265.429	286.19
265.661	282.19
265.894	275.19
266.126	296.19
266.358	290.19
266.591	282.19
266.823	265.19
267.055	282.19
267.287	307.19
267.52	292.19
267.752	297.19
267.984	312.19
268.216	287.19
268.448	280.19
268.681	312.19
268.913	298.19
269.145	275.19
269.377	304.19
269.609	297.19
269.841	284.19
270.073	304.19
270.306	299.19
270.538	306.19
270.77	291.19
271.002	297.19
271.234	305.19
271.466	310.19
271.698	301.19
271.93	311.19
272.162	293.19
272.394	300.19
272.626	314.19
272.858	306.19
273.09	324.19
273.322	322.19
273.553	330.19
273.785	312.19
274.017	334.19
274.249	321.19
274.481	331.19
274.713	310.19
274.945	337.19
275.176	350.19
275.408	314.19
275.64	336.19
275.872	308.19
276.104	336.19
276.335	341.19
276.567	328.19
276.799	311.19
277.031	335.19
277.262	347.19
277.494	334.19
277.726	360.19
277.957	344.19
278.189	322.19
278.421	335.19
278.652	339.19
278.884	360.19
279.115	360.19
279.347	356.19
279.579	355.19
279.81	348.19
280.042	327.19
280.273	350.19
280.505	355.19
280.736	343.19
280.968	368.19
281.199	340.19
281.431	338.19
281.662	378.19
281.894	371.19
282.125	345.19
282.356	356.19
282.588	369.19
282.819	362.19
283.051	366.19
283.282	357.19
283.513	369.19
283.745	346.19
283.976	357.19
284.207	358.19
284.439	362.19
284.67	391.19
284.901	377.19
285.132	371.19
285.364	365.19
285.595	376.19
285.826	365.19
286.057	384.19
286.288	404.19
286.52	375.19
286.751	388.19
286.982	387.19
287.213	386.19
287.444	380.19
287.675	378.19
287.906	384.19
288.138	391.19
288.369	379.19
288.6	374.19
288.831	368.19
289.062	381.19
289.293	378.19
289.524	392.19
289.755	380.19
289.986	377.19
290.217	394.19
290.448	394.19
290.679	373.19
290.91	404.19
291.141	377.19
291.371	392.19
291.602	375.19
291.833	390.19
292.064	384.19
292.295	387.19
292.526	377.19
292.757	402.19
292.987	389.19
293.218	392.19
293.449	390.19
293.68	387.19
293.91	406.19
294.141	388.19
294.372	363.19
294.603	404.19
294.833	406.19
295.064	401.19
295.295	397.19
295.525	404.19
295.756	386.19
295.987	398.19
296.217	392.19
296.448	394.19
296.679	412.19
296.909	397.19
297.14	418.19
297.37	432.19
297.601	406.19
297.831	404.19
298.062	402.19
298.292	422.19
298.523	416.19
298.753	407.19
298.984	398.19
299.214	432.19
299.445	408.19
299.675	424.19
299.905	407.19
300.136	412.19
300.366	423.19
300.597	432.19
300.827	432.19
301.057	430.19
301.288	441.19
301.518	423.19
301.748	426.19
301.979	444.19
302.209	434.19
302.439	444.19
302.669	423.19
302.9	452.19
303.13	427.19
303.36	449.19
303.59	424.19
303.82	442.19
304.051	442.19
304.281	433.19
304.511	435.19
304.741	425.19
304.971	445.19
305.201	451.19
305.431	447.19
305.661	453.19
305.891	464.19
306.121	444.19
306.352	424.19
306.582	443.19
306.812	427.19
307.042	435.19
307.272	440.19
307.502	424.19
307.731	445.19
307.961	432.19
308.191	464.19
308.421	421.19
308.651	434.19
308.881	410.19
309.111	435.19
309.341	429.19
309.571	458.19
309.8	448.19
310.03	433.19
310.26	452.19
310.49	446.19
310.72	447.19
310.949	434.19
311.179	445.19
311.409	444.19
311.639	439.19
311.868	453.19
312.098	448.19
312.328	470.19
312.557	465.19
312.787	459.19
313.017	447.19
313.246	475.19
313.476	486.19
313.706	477.19
313.935	499.19
314.165	477.19
314.394	491.19
314.624	466.19
314.853	483.19
315.083	488.19
315.312	504.19
315.542	484.19
315.771	500.19
316.001	499.19
316.23	483.19
316.46	492.19
316.689	490.19
316.919	496.19
317.148	472.19
317.377	496.19
317.607	482.19
317.836	473.19
318.065	506.19
318.295	470.19
318.524	476.19
318.753	508.19
318.983	486.19
319.212	496.19
319.441	470.19
319.67	493.19
319.9	479.19
320.129	506.19
320.358	491.19
320.587	472.19
320.816	509.19
321.046	516.19
321.275	503.19
321.504	509.19
321.733	503.19
321.962	517.19
322.191	504.19
322.42	504.19
322.649	508.19
322.878	504.19
323.108	505.19
323.337	537.19
323.566	526.19
323.795	575.19
324.024	545.19
324.253	541.19
324.482	534.19
324.71	531.19
324.939	540.19
325.168	557.19
325.397	549.19
325.626	561.19
325.855	552.19
326.084	590.19
326.313	589.19
326.542	581.19
326.77	597.19
326.999	598.19
327.228	580.19
327.457	555.19
327.686	584.19
327.914	589.19
328.143	572.19
328.372	566.19
328.6	561.19
328.829	561.19
329.058	586.19
329.287	582.19
329.515	593.19
329.744	598.19
329.972	605.19
330.201	602.19
330.43	606.19
330.658	612.19
330.887	614.19
331.115	609.19
331.344	640.19
331.572	618.19
331.801	650.19
332.03	638.19
332.258	664.19
332.486	674.19
332.715	697.19
332.943	710.19
333.172	704.19
333.4	756.19
333.629	748.19
333.857	768.19
334.085	780.19
334.314	760.19
334.542	768.19
334.771	758.19
334.999	744.19
335.227	736.19
335.455	786.19
335.684	758.19
335.912	774.19
336.14	749.19
336.369	755.19
336.597	749.19
336.825	743.19
337.053	713.19
337.281	714.19
337.51	718.19
337.738	714.19
337.966	705.19
338.194	693.19
338.422	690.19
338.65	643.19
338.878	670.19
339.106	702.19
339.334	704.19
339.562	674.19
339.79	640.19
340.018	658.19
340.246	652.19
340.474	626.19
340.702	674.19
340.93	664.19
341.158	647.19
341.386	660.19
341.614	674.19
341.842	663.19
342.07	637.19
342.298	641.19
342.526	647.19
342.754	655.19
342.981	646.19
343.209	650.19
343.437	681.19
343.665	725.19
343.893	734.19
344.12	746.19
344.348	784.19
344.576	738.19
344.804	714.19
345.031	668.19
345.259	660.19
345.487	675.19
345.714	654.19
345.942	666.19
346.17	663.19
346.397	645.19
346.625	640.19
346.853	629.19
347.08	615.19
347.308	640.19
347.535	636.19
347.763	633.19
347.99	604.19
348.218	636.19
348.445	618.19
348.673	615.19
348.9	641.19
349.128	643.19
349.355	609.19
349.583	651.19
349.81	626.19
350.037	624.19
350.265	633.19
350.492	619.19
350.72	592.19
350.947	612.19
351.174	614.19
351.402	632.19
351.629	619.19
351.856	638.19
352.083	608.19
352.311	606.19
352.538	630.19
352.765	642.19
352.992	606.19
353.22	582.19
353.447	590.19
353.674	576.19
353.901	604.19
354.128	602.19
354.355	578.19
354.583	611.19
354.81	613.19
355.037	582.19
355.264	626.19
355.491	596.19
355.718	601.19
355.945	604.19
356.172	594.19
356.399	594.19
356.626	606.19
356.853	619.19
357.08	611.19
357.307	604.19
357.534	593.19
357.761	589.19
357.988	612.19
358.215	583.19
358.441	626.19
358.668	606.19
358.895	595.19
359.122	586.19
359.349	605.19
359.576	597.19
359.802	597.19
360.029	609.19
360.256	607.19
360.483	607.19
360.709	584.19
360.936	604.19
361.163	609.19
361.39	608.19
361.616	590.19
361.843	588.19
362.07	612.19
362.296	607.19
362.523	609.19
362.749	601.19
362.976	614.19
363.203	600.19
363.429	600.19
363.656	593.19
363.882	626.19
364.109	567.19
364.335	594.19
364.562	590.19
364.788	568.19
365.015	590.19
365.241	619.19
365.468	588.19
365.694	581.19
365.92	601.19
366.147	587.19
366.373	600.19
366.599	626.19
366.826	581.19
367.052	590.19
367.278	626.19
367.505	593.19
367.731	592.19
367.957	609.19
368.184	582.19
368.41	592.19
368.636	586.19
368.862	608.19
369.089	598.19
369.315	615.19
369.541	613.19
369.767	597.19
369.993	597.19
370.219	612.19
370.445	641.19
370.672	626.19
370.898	626.19
371.124	619.19
371.35	617.19
371.576	624.19
371.802	633.19
372.028	612.19
372.254	619.19
372.48	632.19
372.706	656.19
372.932	622.19
373.158	636.19
373.384	648.19
373.61	631.19
373.835	626.19
374.061	640.19
374.287	649.19
374.513	646.19
374.739	669.19
374.965	661.19
375.191	697.19
375.416	676.19
375.642	682.19
375.868	649.19
376.094	669.19
376.319	659.19
376.545	659.19
376.771	636.19
376.997	629.19
377.222	642.19
377.448	627.19
377.674	634.19
377.899	609.19
378.125	630.19
378.35	608.19
378.576	632.19
378.802	610.19
379.027	602.19
379.253	628.19
379.478	625.19
379.704	629.19
379.929	617.19
380.155	604.19
380.38	616.19
380.606	618.19
380.831	629.19
381.057	630.19
381.282	618.19
381.507	604.19
381.733	639.19
381.958	626.19
382.184	625.19
382.409	645.19
382.634	627.19
382.86	622.19
383.085	630.19
383.31	646.19
383.535	667.19
383.761	660.19
383.986	688.19
384.211	680.19
384.436	697.19
384.662	707.19
384.887	718.19
385.112	701.19
385.337	746.19
385.562	726.19
385.787	741.19
386.013	764.19
386.238	714.19
386.463	733.19
386.688	730.19
386.913	735.19
387.138	715.19
387.363	722.19
387.588	723.19
387.813	744.19
388.038	733.19
388.263	730.19
388.488	730.19
388.713	724.19
388.938	735.19
389.163	714.19
389.387	728.19
389.612	710.19
389.837	726.19
390.062	717.19
390.287	719.19
390.512	736.19
390.736	734.19
390.961	733.19
391.186	752.19
391.411	748.19
391.636	791.19
391.86	810.19
392.085	822.19
392.31	813.19
392.534	790.19
392.759	792.19
392.984	792.19
393.208	757.19
393.433	777.19
393.658	769.19
393.882	757.19
394.107	788.19
394.331	791.19
394.556	788.19
394.78	761.19
395.005	765.19
395.229	771.19
395.454	816.19
395.678	808.19
395.903	820.19
396.127	820.19
396.352	788.19
396.576	800.19
396.801	776.19
397.025	791.19
397.249	828.19
397.474	830.19
397.698	845.19
397.922	839.19
398.147	842.19
398.371	884.19
398.595	896.19
398.82	914.19
399.044	1005.19
399.268	1033.19
399.492	1161.19
399.717	1270.19
399.941	1282.19
400.165	1178.19
400.389	1077.19
400.613	1040.19
400.837	992.19
401.062	944.19
401.286	970.19
401.51	946.19
401.734	923.19
401.958	946.19
402.182	948.19
402.406	940.19
402.63	954.19
402.854	959.19
403.078	958.19
403.302	960.19
403.526	984.19
403.75	976.19
403.974	1014.19
404.198	995.19
404.422	1012.19
404.645	1022.19
404.869	995.19
405.093	987.19
405.317	996.19
405.541	1009.19
405.765	979.19
405.988	990.19
406.212	1026.19
406.436	1002.19
406.66	1063.19
406.883	1025.19
407.107	1099.19
407.331	1143.19
407.555	1174.19
407.778	1185.19
408.002	1160.19
408.226	1121.19
408.449	1140.19
408.673	1064.19
408.896	1065.19
409.12	1000.19
409.344	1043.19
409.567	1026.19
409.791	997.19
410.014	1057.19
410.238	1030.19
410.461	1032.19
410.685	1013.19
410.908	972.19
411.132	998.19
411.355	963.19
411.578	964.19
411.802	974.19
412.025	953.19
412.249	961.19
412.472	965.19
412.695	955.19
412.919	954.19
413.142	958.19
413.365	940.19
413.589	958.19
413.812	937.19
414.035	971.19
414.258	943.19
414.482	940.19
414.705	974.19
414.928	963.19
415.151	960.19
415.374	947.19
415.597	925.19
415.821	902.19
416.044	916.19
416.267	935.19
416.49	892.19
416.713	895.19
416.936	908.19
417.159	942.19
417.382	902.19
417.605	916.19
417.828	911.19
418.051	926.19
418.274	941.19
418.497	934.19
418.72	975.19
418.943	940.19
419.166	994.19
419.389	1085.19
419.611	1049.19
419.834	973.19
420.057	991.19
420.28	954.19
420.503	947.19
420.726	939.19
420.948	933.19
421.171	940.19
421.394	937.19
421.617	925.19
421.839	931.19
422.062	940.19
422.285	929.19
422.507	955.19
422.73	974.19
422.953	941.19
423.175	954.19
423.398	932.19
423.621	974.19
423.843	980.19
424.066	962.19
424.288	1000.19
424.511	954.19
424.733	935.19
424.956	941.19
425.178	952.19
425.401	941.19
425.623	936.19
425.846	949.19
426.068	908.19
426.291	923.19
426.513	921.19
426.735	897.19
426.958	894.19
427.18	901.19
427.402	887.19
427.625	873.19
427.847	848.19
428.069	869.19
428.292	860.19
428.514	885.19
428.736	847.19
428.958	847.19
429.181	858.19
429.403	855.19
429.625	857.19
429.847	871.19
430.069	853.19
430.292	855.19
430.514	856.19
430.736	870.19
430.958	865.19
431.18	849.19
431.402	857.19
431.624	848.19
431.846	877.19
432.068	866.19
432.29	894.19
432.512	856.19
432.734	877.19
432.956	853.19
433.178	893.19
433.4	897.19
433.622	860.19
433.844	892.19
434.066	911.19
434.287	898.19
434.509	932.19
434.731	945.19
434.953	937.19
435.175	945.19
435.397	987.19
435.618	893.19
435.84	893.19
436.062	907.19
436.284	898.19
436.505	866.19
436.727	885.19
436.949	894.19
437.17	885.19
437.392	868.19
437.614	855.19
437.835	824.19
438.057	877.19
438.278	854.19
438.5	837.19
438.721	852.19
438.943	850.19
439.165	878.19
439.386	852.19
439.608	883.19
439.829	888.19
440.05	889.19
440.272	878.19
440.493	861.19
440.715	911.19
440.936	890.19
441.158	902.19
441.379	916.19
441.6	984.19
441.822	979.19
442.043	993.19
442.264	988.19
442.486	936.19
442.707	957.19
442.928	957.19
443.149	961.19
443.371	952.19
443.592	961.19
443.813	935.19
444.034	1000.19
444.255	1014.19
444.476	1028.19
444.698	1067.19
444.919	1105.19
445.14	1187.19
445.361	1096.19
445.582	1008.19
445.803	961.19
446.024	949.19
446.245	948.19
446.466	934.19
446.687	891.19
446.908	897.19
447.129	882.19
447.35	858.19
447.571	847.19
447.792	840.19
448.013	848.19
448.234	819.19
448.455	826.19
448.675	825.19
448.896	845.19
449.117	833.19
449.338	799.19
449.559	830.19
449.779	792.19
450	810.19
450.221	838.19
450.442	821.19
450.662	844.19
450.883	790.19
451.104	826.19
451.324	831.19
451.545	806.19
451.766	841.19
451.986	809.19
452.207	810.19
452.428	780.19
452.648	817.19
452.869	784.19
453.089	771.19
453.31	784.19
453.53	752.19
453.751	769.19
453.971	792.19
454.192	776.19
454.412	765.19
454.633	773.19
454.853	773.19
455.073	771.19
455.294	769.19
455.514	787.19
455.734	776.19
455.955	744.19
456.175	762.19
456.395	748.19
456.616	720.19
456.836	748.19
457.056	738.19
457.276	757.19
457.497	786.19
457.717	742.19
457.937	750.19
458.157	773.19
458.377	758.19
458.598	800.19
458.818	839.19
459.038	850.19
459.258	851.19
459.478	874.19
459.698	905.19
459.918	924.19
460.138	969.19
460.358	980.19
460.578	975.19
460.798	1000.19
461.018	1032.19
461.238	1038.19
461.458	1025.19
461.678	998.19
461.898	1027.19
462.118	1028.19
462.338	1105.19
462.558	1110.19
462.777	1155.19
462.997	1202.19
463.217	1295.19
463.437	1304.19
463.657	1223.19
463.876	1192.19
464.096	1196.19
464.316	1179.19
464.536	1173.19
464.755	1102.19
464.975	1096.19
465.195	1026.19
465.414	996.19
465.634	924.19
465.854	948.19
466.073	890.19
466.293	890.19
466.512	869.19
466.732	858.19
466.951	881.19
467.171	852.19
467.391	843.19
467.61	844.19
467.829	825.19
468.049	819.19
468.268	811.19
468.488	806.19
468.707	849.19
468.927	820.19
469.146	820.19
469.365	825.19
469.585	823.19
469.804	877.19
470.023	870.19
470.243	871.19
470.462	869.19
470.681	859.19
470.901	900.19
471.12	885.19
471.339	845.19
471.558	859.19
471.777	846.19
471.997	851.19
472.216	828.19
472.435	836.19
472.654	780.19
472.873	780.19
473.092	792.19
473.311	794.19
473.53	824.19
473.749	816.19
473.968	820.19
474.187	822.19
474.406	792.19
474.625	810.19
474.844	804.19
475.063	809.19
475.282	821.19
475.501	791.19
475.72	806.19
475.939	832.19
476.158	827.19
476.377	822.19
476.596	827.19
476.814	848.19
477.033	853.19
477.252	855.19
477.471	893.19
477.69	894.19
477.908	916.19
478.127	937.19
478.346	922.19
478.564	963.19
478.783	974.19
479.002	964.19
479.22	995.19
479.439	981.19
479.658	1005.19
479.876	978.19
480.095	1004.19
480.313	1014.19
480.532	1032.19
480.751	1009.19
480.969	967.19
481.188	964.19
481.406	943.19
481.624	930.19
481.843	902.19
482.061	904.19
482.28	915.19
482.498	930.19
482.717	908.19
482.935	907.19
483.153	909.19
483.372	940.19
483.59	917.19
483.808	913.19
484.027	908.19
484.245	913.19
484.463	944.19
484.681	949.19
484.9	927.19
485.118	928.19
485.336	918.19
485.554	935.19
485.772	920.19
485.99	918.19
486.209	942.19
486.427	951.19
486.645	971.19
486.863	961.19
487.081	954.19
487.299	940.19
487.517	933.19
487.735	952.19
487.953	960.19
488.171	958.19
488.389	937.19
488.607	947.19
488.825	924.19
489.043	969.19
489.261	972.19
489.479	935.19
489.696	940.19
489.914	944.19
490.132	964.19
490.35	967.19
490.568	954.19
490.786	993.19
491.003	978.19
491.221	980.19
491.439	970.19
491.657	962.19
491.874	1001.19
492.092	1022.19
492.31	974.19
492.527	1001.19
492.745	990.19
492.963	1004.19
493.18	1022.19
493.398	1014.19
493.615	992.19
493.833	1037.19
494.05	1013.19
494.268	1023.19
494.485	1038.19
494.703	1037.19
494.92	1044.19
495.138	1065.19
495.355	1043.19
495.573	1067.19
495.79	1032.19
496.008	1057.19
496.225	1088.19
496.442	1109.19
496.66	1110.19
496.877	1076.19
497.094	1127.19
497.312	1143.19
497.529	1164.19
497.746	1196.19
497.963	1217.19
498.181	1320.19
498.398	1348.19
498.615	1370.19
498.832	1484.19
499.049	1558.19
499.267	1682.19
499.484	1806.19
499.701	2010.19
499.918	2109.19
500.135	2298.19
