Data from Ni(NO3)2@0.0625M.TitratingCurve.Agarose3%dH2O.NegLispCup.LampEnergy10.LIBS07252019_HRD10591_18-13-50-569.txt Node
Date: Thu Jul 25 18:13:50 EDT 2019
User: cochatt
Spectrometer: HR+D1059
Trigger mode: 1
Integration Time (sec): 1.000000E-1
Scans to average: 1
Electric dark correction enabled: true
Nonlinearity correction enabled: false
Boxcar width: 0
XAxis mode: Wavelengths
Number of Pixels in Spectrum: 2048
>>>>>Begin Spectral Data<<<<<
223.165	-19.88
223.4	-19.88
223.635	-19.88
223.869	-22.88
224.104	-19.88
224.338	-17.88
224.573	-13.88
224.808	-9.88
225.042	-6.88
225.277	-8.88
225.511	10.12
225.746	14.12
225.98	6.12
226.215	-1.88
226.449	17.12
226.683	16.12
226.918	31.12
227.152	27.12
227.387	36.12
227.621	55.12
227.856	46.12
228.09	55.12
228.324	56.12
228.559	56.12
228.793	73.12
229.027	113.12
229.262	110.12
229.496	113.12
229.73	114.12
229.964	143.12
230.199	139.12
230.433	137.12
230.667	142.12
230.901	132.12
231.136	144.12
231.37	151.12
231.604	147.12
231.838	155.12
232.072	154.12
232.306	159.12
232.541	174.12
232.775	161.12
233.009	143.12
233.243	169.12
233.477	156.12
233.711	165.12
233.945	159.12
234.179	144.12
234.413	147.12
234.647	159.12
234.881	171.12
235.115	163.12
235.349	149.12
235.583	161.12
235.817	159.12
236.051	167.12
236.285	168.12
236.519	156.12
236.753	172.12
236.987	180.12
237.221	175.12
237.455	187.12
237.689	176.12
237.922	187.12
238.156	155.12
238.39	164.12
238.624	191.12
238.858	195.12
239.091	206.12
239.325	191.12
239.559	191.12
239.793	175.12
240.027	210.12
240.26	204.12
240.494	200.12
240.728	203.12
240.961	181.12
241.195	207.12
241.429	189.12
241.662	195.12
241.896	186.12
242.13	198.12
242.363	194.12
242.597	220.12
242.83	227.12
243.064	212.12
243.298	216.12
243.531	217.12
243.765	210.12
243.998	205.12
244.232	213.12
244.465	227.12
244.699	225.12
244.932	228.12
245.166	246.12
245.399	242.12
245.633	236.12
245.866	237.12
246.099	222.12
246.333	248.12
246.566	220.12
246.8	245.12
247.033	243.12
247.266	243.12
247.5	248.12
247.733	260.12
247.966	246.12
248.2	255.12
248.433	252.12
248.666	275.12
248.899	251.12
249.133	262.12
249.366	258.12
249.599	262.12
249.832	264.12
250.066	258.12
250.299	263.12
250.532	278.12
250.765	257.12
250.998	269.12
251.231	291.12
251.465	291.12
251.698	296.12
251.931	283.12
252.164	284.12
252.397	288.12
252.63	312.12
252.863	297.12
253.096	301.12
253.329	309.12
253.562	301.12
253.795	302.12
254.028	304.12
254.261	319.12
254.494	289.12
254.727	298.12
254.96	305.12
255.193	301.12
255.426	308.12
255.659	311.12
255.892	311.12
256.124	320.12
256.357	318.12
256.59	335.12
256.823	317.12
257.056	308.12
257.289	317.12
257.521	340.12
257.754	340.12
257.987	311.12
258.22	315.12
258.452	325.12
258.685	314.12
258.918	321.12
259.151	331.12
259.383	333.12
259.616	341.12
259.849	329.12
260.081	347.12
260.314	336.12
260.547	334.12
260.779	343.12
261.012	343.12
261.244	336.12
261.477	352.12
261.71	349.12
261.942	374.12
262.175	355.12
262.407	355.12
262.64	345.12
262.872	362.12
263.105	367.12
263.337	354.12
263.57	378.12
263.802	372.12
264.035	350.12
264.267	357.12
264.499	375.12
264.732	385.12
264.964	360.12
265.197	378.12
265.429	359.12
265.661	377.12
265.894	399.12
266.126	380.12
266.358	387.12
266.591	367.12
266.823	371.12
267.055	371.12
267.287	400.12
267.52	378.12
267.752	379.12
267.984	381.12
268.216	385.12
268.448	412.12
268.681	406.12
268.913	391.12
269.145	392.12
269.377	419.12
269.609	409.12
269.841	405.12
270.073	387.12
270.306	396.12
270.538	419.12
270.77	415.12
271.002	397.12
271.234	407.12
271.466	415.12
271.698	416.12
271.93	403.12
272.162	391.12
272.394	436.12
272.626	406.12
272.858	428.12
273.09	432.12
273.322	423.12
273.553	410.12
273.785	424.12
274.017	427.12
274.249	420.12
274.481	435.12
274.713	437.12
274.945	446.12
275.176	430.12
275.408	448.12
275.64	452.12
275.872	442.12
276.104	429.12
276.335	461.12
276.567	453.12
276.799	467.12
277.031	473.12
277.262	448.12
277.494	493.12
277.726	470.12
277.957	457.12
278.189	466.12
278.421	471.12
278.652	488.12
278.884	457.12
279.115	481.12
279.347	493.12
279.579	474.12
279.81	478.12
280.042	489.12
280.273	496.12
280.505	490.12
280.736	490.12
280.968	508.12
281.199	503.12
281.431	509.12
281.662	476.12
281.894	492.12
282.125	488.12
282.356	522.12
282.588	504.12
282.819	506.12
283.051	506.12
283.282	505.12
283.513	534.12
283.745	510.12
283.976	539.12
284.207	504.12
284.439	528.12
284.67	504.12
284.901	532.12
285.132	522.12
285.364	551.12
285.595	543.12
285.826	522.12
286.057	549.12
286.288	527.12
286.52	529.12
286.751	528.12
286.982	549.12
287.213	537.12
287.444	546.12
287.675	523.12
287.906	535.12
288.138	575.12
288.369	535.12
288.6	538.12
288.831	543.12
289.062	557.12
289.293	567.12
289.524	559.12
289.755	556.12
289.986	565.12
290.217	557.12
290.448	551.12
290.679	540.12
290.91	563.12
291.141	567.12
291.371	571.12
291.602	591.12
291.833	574.12
292.064	565.12
292.295	558.12
292.526	565.12
292.757	556.12
292.987	548.12
293.218	563.12
293.449	580.12
293.68	583.12
293.91	562.12
294.141	557.12
294.372	565.12
294.603	587.12
294.833	585.12
295.064	603.12
295.295	579.12
295.525	575.12
295.756	583.12
295.987	587.12
296.217	595.12
296.448	571.12
296.679	598.12
296.909	588.12
297.14	594.12
297.37	588.12
297.601	637.12
297.831	635.12
298.062	613.12
298.292	645.12
298.523	638.12
298.753	658.12
298.984	638.12
299.214	631.12
299.445	620.12
299.675	608.12
299.905	616.12
300.136	604.12
300.366	623.12
300.597	641.12
300.827	626.12
301.057	648.12
301.288	645.12
301.518	636.12
301.748	641.12
301.979	658.12
302.209	665.12
302.439	644.12
302.669	632.12
302.9	653.12
303.13	632.12
303.36	629.12
303.59	604.12
303.82	625.12
304.051	622.12
304.281	641.12
304.511	610.12
304.741	663.12
304.971	635.12
305.201	637.12
305.431	650.12
305.661	657.12
305.891	620.12
306.121	600.12
306.352	633.12
306.582	631.12
306.812	614.12
307.042	627.12
307.272	609.12
307.502	614.12
307.731	616.12
307.961	621.12
308.191	639.12
308.421	611.12
308.651	624.12
308.881	619.12
309.111	618.12
309.341	635.12
309.571	652.12
309.8	637.12
310.03	641.12
310.26	628.12
310.49	632.12
310.72	648.12
310.949	630.12
311.179	647.12
311.409	640.12
311.639	624.12
311.868	650.12
312.098	647.12
312.328	669.12
312.557	640.12
312.787	651.12
313.017	648.12
313.246	658.12
313.476	664.12
313.706	669.12
313.935	692.12
314.165	706.12
314.394	681.12
314.624	647.12
314.853	653.12
315.083	688.12
315.312	681.12
315.542	681.12
315.771	666.12
316.001	670.12
316.23	651.12
316.46	658.12
316.689	663.12
316.919	661.12
317.148	671.12
317.377	656.12
317.607	652.12
317.836	648.12
318.065	663.12
318.295	655.12
318.524	658.12
318.753	643.12
318.983	663.12
319.212	628.12
319.441	685.12
319.67	662.12
319.9	643.12
320.129	638.12
320.358	655.12
320.587	645.12
320.816	675.12
321.046	663.12
321.275	681.12
321.504	692.12
321.733	680.12
321.962	654.12
322.191	667.12
322.42	653.12
322.649	651.12
322.878	688.12
323.108	669.12
323.337	681.12
323.566	663.12
323.795	674.12
324.024	662.12
324.253	696.12
324.482	704.12
324.71	697.12
324.939	685.12
325.168	706.12
325.397	653.12
325.626	719.12
325.855	725.12
326.084	716.12
326.313	723.12
326.542	745.12
326.77	730.12
326.999	718.12
327.228	734.12
327.457	740.12
327.686	730.12
327.914	719.12
328.143	725.12
328.372	735.12
328.6	704.12
328.829	722.12
329.058	708.12
329.287	723.12
329.515	733.12
329.744	758.12
329.972	712.12
330.201	727.12
330.43	731.12
330.658	739.12
330.887	747.12
331.115	748.12
331.344	775.12
331.572	771.12
331.801	797.12
332.03	808.12
332.258	800.12
332.486	850.12
332.715	861.12
332.943	917.12
333.172	976.12
333.4	985.12
333.629	1024.12
333.857	1025.12
334.085	971.12
334.314	934.12
334.542	940.12
334.771	950.12
334.999	936.12
335.227	911.12
335.455	912.12
335.684	918.12
335.912	913.12
336.14	892.12
336.369	857.12
336.597	874.12
336.825	875.12
337.053	854.12
337.281	868.12
337.51	821.12
337.738	816.12
337.966	815.12
338.194	798.12
338.422	791.12
338.65	783.12
338.878	811.12
339.106	770.12
339.334	807.12
339.562	763.12
339.79	758.12
340.018	760.12
340.246	738.12
340.474	770.12
340.702	745.12
340.93	769.12
341.158	752.12
341.386	761.12
341.614	748.12
341.842	753.12
342.07	755.12
342.298	739.12
342.526	759.12
342.754	744.12
342.981	731.12
343.209	773.12
343.437	819.12
343.665	852.12
343.893	956.12
344.12	952.12
344.348	913.12
344.576	859.12
344.804	825.12
345.031	787.12
345.259	798.12
345.487	775.12
345.714	725.12
345.942	742.12
346.17	759.12
346.397	736.12
346.625	752.12
346.853	744.12
347.08	755.12
347.308	724.12
347.535	755.12
347.763	745.12
347.99	759.12
348.218	776.12
348.445	744.12
348.673	726.12
348.9	717.12
349.128	775.12
349.355	738.12
349.583	739.12
349.81	722.12
350.037	723.12
350.265	736.12
350.492	700.12
350.72	692.12
350.947	701.12
351.174	707.12
351.402	715.12
351.629	688.12
351.856	703.12
352.083	686.12
352.311	720.12
352.538	712.12
352.765	696.12
352.992	687.12
353.22	695.12
353.447	680.12
353.674	681.12
353.901	689.12
354.128	694.12
354.355	691.12
354.583	693.12
354.81	725.12
355.037	714.12
355.264	726.12
355.491	709.12
355.718	725.12
355.945	719.12
356.172	718.12
356.399	720.12
356.626	727.12
356.853	717.12
357.08	725.12
357.307	721.12
357.534	707.12
357.761	693.12
357.988	716.12
358.215	730.12
358.441	707.12
358.668	674.12
358.895	693.12
359.122	717.12
359.349	723.12
359.576	708.12
359.802	702.12
360.029	726.12
360.256	721.12
360.483	688.12
360.709	692.12
360.936	715.12
361.163	713.12
361.39	691.12
361.616	699.12
361.843	705.12
362.07	703.12
362.296	721.12
362.523	693.12
362.749	677.12
362.976	714.12
363.203	697.12
363.429	697.12
363.656	699.12
363.882	691.12
364.109	721.12
364.335	710.12
364.562	708.12
364.788	701.12
365.015	704.12
365.241	695.12
365.468	716.12
365.694	694.12
365.92	707.12
366.147	720.12
366.373	704.12
366.599	683.12
366.826	697.12
367.052	682.12
367.278	701.12
367.505	713.12
367.731	716.12
367.957	697.12
368.184	709.12
368.41	709.12
368.636	719.12
368.862	713.12
369.089	709.12
369.315	711.12
369.541	727.12
369.767	761.12
369.993	726.12
370.219	735.12
370.445	737.12
370.672	743.12
370.898	746.12
371.124	758.12
371.35	768.12
371.576	774.12
371.802	760.12
372.028	761.12
372.254	782.12
372.48	794.12
372.706	790.12
372.932	769.12
373.158	795.12
373.384	788.12
373.61	773.12
373.835	753.12
374.061	780.12
374.287	781.12
374.513	812.12
374.739	802.12
374.965	861.12
375.191	888.12
375.416	862.12
375.642	808.12
375.868	811.12
376.094	826.12
376.319	798.12
376.545	815.12
376.771	768.12
376.997	759.12
377.222	771.12
377.448	780.12
377.674	763.12
377.899	773.12
378.125	777.12
378.35	764.12
378.576	746.12
378.802	772.12
379.027	786.12
379.253	747.12
379.478	764.12
379.704	777.12
379.929	777.12
380.155	789.12
380.38	752.12
380.606	757.12
380.831	757.12
381.057	781.12
381.282	750.12
381.507	791.12
381.733	793.12
381.958	780.12
382.184	776.12
382.409	783.12
382.634	813.12
382.86	815.12
383.085	832.12
383.31	823.12
383.535	844.12
383.761	873.12
383.986	887.12
384.211	856.12
384.436	897.12
384.662	963.12
384.887	941.12
385.112	931.12
385.337	947.12
385.562	951.12
385.787	965.12
386.013	967.12
386.238	935.12
386.463	935.12
386.688	932.12
386.913	933.12
387.138	897.12
387.363	927.12
387.588	917.12
387.813	932.12
388.038	921.12
388.263	918.12
388.488	918.12
388.713	935.12
388.938	917.12
389.163	912.12
389.387	915.12
389.612	911.12
389.837	893.12
390.062	885.12
390.287	870.12
390.512	899.12
390.736	926.12
390.961	937.12
391.186	936.12
391.411	984.12
391.636	1008.12
391.86	1033.12
392.085	1043.12
392.31	993.12
392.534	1015.12
392.759	988.12
392.984	995.12
393.208	946.12
393.433	974.12
393.658	1000.12
393.882	976.12
394.107	983.12
394.331	984.12
394.556	981.12
394.78	1010.12
395.005	1011.12
395.229	1031.12
395.454	1023.12
395.678	1057.12
395.903	1038.12
396.127	1024.12
396.352	1007.12
396.576	977.12
396.801	950.12
397.025	986.12
397.249	1011.12
397.474	1006.12
397.698	1031.12
397.922	1003.12
398.147	1004.12
398.371	1073.12
398.595	1080.12
398.82	1145.12
399.044	1218.12
399.268	1345.12
399.492	1610.12
399.717	1823.12
399.941	1829.12
400.165	1584.12
400.389	1406.12
400.613	1303.12
400.837	1232.12
401.062	1227.12
401.286	1198.12
401.51	1133.12
401.734	1135.12
401.958	1158.12
402.182	1181.12
402.406	1170.12
402.63	1203.12
402.854	1258.12
403.078	1256.12
403.302	1312.12
403.526	1318.12
403.75	1390.12
403.974	1371.12
404.198	1385.12
404.422	1359.12
404.645	1361.12
404.869	1365.12
405.093	1331.12
405.317	1298.12
405.541	1262.12
405.765	1267.12
405.988	1258.12
406.212	1293.12
406.436	1262.12
406.66	1309.12
406.883	1296.12
407.107	1400.12
407.331	1478.12
407.555	1548.12
407.778	1501.12
408.002	1444.12
408.226	1456.12
408.449	1402.12
408.673	1340.12
408.896	1331.12
409.12	1289.12
409.344	1312.12
409.567	1287.12
409.791	1354.12
410.014	1356.12
410.238	1354.12
410.461	1311.12
410.685	1300.12
410.908	1313.12
411.132	1262.12
411.355	1237.12
411.578	1208.12
411.802	1186.12
412.025	1227.12
412.249	1229.12
412.472	1204.12
412.695	1161.12
412.919	1159.12
413.142	1165.12
413.365	1165.12
413.589	1169.12
413.812	1157.12
414.035	1151.12
414.258	1153.12
414.482	1172.12
414.705	1174.12
414.928	1190.12
415.151	1154.12
415.374	1156.12
415.597	1158.12
415.821	1142.12
416.044	1137.12
416.267	1112.12
416.49	1121.12
416.713	1180.12
416.936	1159.12
417.159	1135.12
417.382	1144.12
417.605	1165.12
417.828	1157.12
418.051	1151.12
418.274	1165.12
418.497	1143.12
418.72	1201.12
418.943	1155.12
419.166	1261.12
419.389	1341.12
419.611	1300.12
419.834	1246.12
420.057	1190.12
420.28	1180.12
420.503	1127.12
420.726	1118.12
420.948	1116.12
421.171	1124.12
421.394	1157.12
421.617	1145.12
421.839	1171.12
422.062	1153.12
422.285	1149.12
422.507	1186.12
422.73	1180.12
422.953	1189.12
423.175	1236.12
423.398	1252.12
423.621	1231.12
423.843	1261.12
424.066	1231.12
424.288	1197.12
424.511	1233.12
424.733	1219.12
424.956	1207.12
425.178	1182.12
425.401	1180.12
425.623	1164.12
425.846	1120.12
426.068	1109.12
426.291	1105.12
426.513	1097.12
426.735	1052.12
426.958	1084.12
427.18	1022.12
427.402	1061.12
427.625	1047.12
427.847	1004.12
428.069	1010.12
428.292	1026.12
428.514	996.12
428.736	974.12
428.958	996.12
429.181	997.12
429.403	979.12
429.625	981.12
429.847	991.12
430.069	975.12
430.292	1015.12
430.514	958.12
430.736	1007.12
430.958	1015.12
431.18	1004.12
431.402	1005.12
431.624	991.12
431.846	1004.12
432.068	1041.12
432.29	1044.12
432.512	998.12
432.734	1038.12
432.956	1009.12
433.178	1013.12
433.4	1029.12
433.622	1047.12
433.844	1065.12
434.066	1058.12
434.287	1050.12
434.509	1114.12
434.731	1141.12
434.953	1178.12
435.175	1183.12
435.397	1169.12
435.618	1087.12
435.84	1053.12
436.062	1032.12
436.284	1017.12
436.505	1009.12
436.727	1013.12
436.949	1029.12
437.17	1036.12
437.392	1012.12
437.614	1006.12
437.835	973.12
438.057	986.12
438.278	975.12
438.5	972.12
438.721	977.12
438.943	997.12
439.165	984.12
439.386	1004.12
439.608	1049.12
439.829	1033.12
440.05	1023.12
440.272	1016.12
440.493	1028.12
440.715	1060.12
440.936	1066.12
441.158	1078.12
441.379	1059.12
441.6	1133.12
441.822	1159.12
442.043	1144.12
442.264	1147.12
442.486	1120.12
442.707	1133.12
442.928	1140.12
443.149	1143.12
443.371	1132.12
443.592	1161.12
443.813	1144.12
444.034	1166.12
444.255	1214.12
444.476	1270.12
444.698	1354.12
444.919	1436.12
445.14	1438.12
445.361	1321.12
445.582	1187.12
445.803	1127.12
446.024	1079.12
446.245	1065.12
446.466	1036.12
446.687	1049.12
446.908	1037.12
447.129	985.12
447.35	992.12
447.571	978.12
447.792	976.12
448.013	978.12
448.234	972.12
448.455	929.12
448.675	940.12
448.896	931.12
449.117	941.12
449.338	952.12
449.559	912.12
449.779	912.12
450	910.12
450.221	927.12
450.442	928.12
450.662	910.12
450.883	980.12
451.104	977.12
451.324	955.12
451.545	980.12
451.766	976.12
451.986	945.12
452.207	946.12
452.428	939.12
452.648	931.12
452.869	949.12
453.089	909.12
453.31	940.12
453.53	911.12
453.751	914.12
453.971	942.12
454.192	913.12
454.412	898.12
454.633	887.12
454.853	877.12
455.073	907.12
455.294	901.12
455.514	878.12
455.734	910.12
455.955	847.12
456.175	904.12
456.395	877.12
456.616	845.12
456.836	889.12
457.056	868.12
457.276	860.12
457.497	869.12
457.717	883.12
457.937	887.12
458.157	901.12
458.377	896.12
458.598	924.12
458.818	952.12
459.038	951.12
459.258	1015.12
459.478	1041.12
459.698	1070.12
459.918	1100.12
460.138	1151.12
460.358	1240.12
460.578	1216.12
460.798	1219.12
461.018	1230.12
461.238	1217.12
461.458	1203.12
461.678	1215.12
461.898	1182.12
462.118	1246.12
462.338	1292.12
462.558	1353.12
462.777	1375.12
462.997	1484.12
463.217	1687.12
463.437	1717.12
463.657	1571.12
463.876	1422.12
464.096	1469.12
464.316	1436.12
464.536	1455.12
464.755	1415.12
464.975	1342.12
465.195	1294.12
465.414	1193.12
465.634	1115.12
465.854	1083.12
466.073	1057.12
466.293	1031.12
466.512	1038.12
466.732	1047.12
466.951	995.12
467.171	1006.12
467.391	1017.12
467.61	1007.12
467.829	971.12
468.049	976.12
468.268	943.12
468.488	943.12
468.707	960.12
468.927	949.12
469.146	963.12
469.365	945.12
469.585	949.12
469.804	982.12
470.023	1008.12
470.243	1018.12
470.462	1020.12
470.681	1015.12
470.901	1015.12
471.12	1031.12
471.339	1000.12
471.558	961.12
471.777	972.12
471.997	958.12
472.216	943.12
472.435	928.12
472.654	931.12
472.873	919.12
473.092	900.12
473.311	906.12
473.53	919.12
473.749	928.12
473.968	932.12
474.187	892.12
474.406	934.12
474.625	951.12
474.844	923.12
475.063	947.12
475.282	936.12
475.501	910.12
475.72	953.12
475.939	945.12
476.158	923.12
476.377	947.12
476.596	952.12
476.814	977.12
477.033	950.12
477.252	987.12
477.471	1032.12
477.69	1042.12
477.908	1062.12
478.127	1067.12
478.346	1126.12
478.564	1132.12
478.783	1104.12
479.002	1163.12
479.22	1199.12
479.439	1134.12
479.658	1133.12
479.876	1141.12
480.095	1157.12
480.313	1238.12
480.532	1271.12
480.751	1276.12
480.969	1184.12
481.188	1151.12
481.406	1117.12
481.624	1077.12
481.843	1094.12
482.061	1071.12
482.28	1054.12
482.498	1031.12
482.717	1032.12
482.935	1031.12
483.153	1056.12
483.372	1025.12
483.59	1080.12
483.808	1053.12
484.027	1069.12
484.245	1068.12
484.463	1062.12
484.681	1075.12
484.9	1077.12
485.118	1098.12
485.336	1101.12
485.554	1124.12
485.772	1137.12
485.99	1109.12
486.209	1144.12
486.427	1116.12
486.645	1121.12
486.863	1125.12
487.081	1115.12
487.299	1117.12
487.517	1134.12
487.735	1099.12
487.953	1104.12
488.171	1107.12
488.389	1099.12
488.607	1086.12
488.825	1069.12
489.043	1088.12
489.261	1077.12
489.479	1104.12
489.696	1081.12
489.914	1063.12
490.132	1116.12
490.35	1117.12
490.568	1115.12
490.786	1145.12
491.003	1149.12
491.221	1125.12
491.439	1115.12
491.657	1098.12
491.874	1113.12
492.092	1101.12
492.31	1126.12
492.527	1128.12
492.745	1143.12
492.963	1130.12
493.18	1130.12
493.398	1136.12
493.615	1158.12
493.833	1185.12
494.05	1171.12
494.268	1155.12
494.485	1160.12
494.703	1180.12
494.92	1160.12
495.138	1139.12
495.355	1163.12
495.573	1167.12
495.79	1188.12
496.008	1190.12
496.225	1167.12
496.442	1203.12
496.66	1255.12
