Data from Ni(NO3)2@0.125M.TitratingCurve.Agarose3%dH2O.NegLispCup.LampEnergy10.LIBS07252019_HRD10591_18-10-56-568.txt Node
Date: Thu Jul 25 18:10:56 EDT 2019
User: cochatt
Spectrometer: HR+D1059
Trigger mode: 1
Integration Time (sec): 1.000000E-1
Scans to average: 1
Electric dark correction enabled: true
Nonlinearity correction enabled: false
Boxcar width: 0
XAxis mode: Wavelengths
Number of Pixels in Spectrum: 2048
>>>>>Begin Spectral Data<<<<<
223.165	-6.94
223.4	-6.94
223.635	-6.94
223.869	-18.94
224.104	-26.94
224.338	-13.94
224.573	-8.94
224.808	-21.94
225.042	1.06
225.277	1.06
225.511	6.06
225.746	-2.94
225.98	-8.94
226.215	12.06
226.449	15.06
226.683	32.06
226.918	16.06
227.152	26.06
227.387	30.06
227.621	41.06
227.856	36.06
228.09	46.06
228.324	44.06
228.559	50.06
228.793	64.06
229.027	104.06
229.262	110.06
229.496	121.06
229.73	128.06
229.964	142.06
230.199	138.06
230.433	149.06
230.667	130.06
230.901	141.06
231.136	140.06
231.37	148.06
231.604	162.06
231.838	167.06
232.072	156.06
232.306	156.06
232.541	176.06
232.775	170.06
233.009	150.06
233.243	146.06
233.477	156.06
233.711	161.06
233.945	151.06
234.179	170.06
234.413	154.06
234.647	159.06
234.881	172.06
235.115	150.06
235.349	169.06
235.583	166.06
235.817	158.06
236.051	173.06
236.285	164.06
236.519	164.06
236.753	149.06
236.987	172.06
237.221	166.06
237.455	169.06
237.689	178.06
237.922	186.06
238.156	185.06
238.39	171.06
238.624	158.06
238.858	182.06
239.091	184.06
239.325	197.06
239.559	182.06
239.793	194.06
240.027	195.06
240.26	202.06
240.494	198.06
240.728	203.06
240.961	197.06
241.195	184.06
241.429	193.06
241.662	195.06
241.896	212.06
242.13	200.06
242.363	228.06
242.597	203.06
242.83	239.06
243.064	218.06
243.298	209.06
243.531	204.06
243.765	232.06
243.998	206.06
244.232	217.06
244.465	222.06
244.699	213.06
244.932	237.06
245.166	244.06
245.399	245.06
245.633	238.06
245.866	252.06
246.099	233.06
246.333	245.06
246.566	243.06
246.8	232.06
247.033	238.06
247.266	239.06
247.5	242.06
247.733	245.06
247.966	250.06
248.2	258.06
248.433	262.06
248.666	271.06
248.899	269.06
249.133	265.06
249.366	277.06
249.599	283.06
249.832	264.06
250.066	277.06
250.299	276.06
250.532	261.06
250.765	281.06
250.998	281.06
251.231	288.06
251.465	290.06
251.698	270.06
251.931	271.06
252.164	286.06
252.397	308.06
252.63	304.06
252.863	292.06
253.096	302.06
253.329	305.06
253.562	305.06
253.795	302.06
254.028	289.06
254.261	297.06
254.494	299.06
254.727	304.06
254.96	307.06
255.193	320.06
255.426	309.06
255.659	308.06
255.892	331.06
256.124	301.06
256.357	310.06
256.59	323.06
256.823	336.06
257.056	342.06
257.289	320.06
257.521	316.06
257.754	321.06
257.987	323.06
258.22	319.06
258.452	325.06
258.685	328.06
258.918	318.06
259.151	363.06
259.383	327.06
259.616	348.06
259.849	328.06
260.081	360.06
260.314	357.06
260.547	332.06
260.779	340.06
261.012	359.06
261.244	350.06
261.477	364.06
261.71	359.06
261.942	356.06
262.175	366.06
262.407	345.06
262.64	371.06
262.872	352.06
263.105	356.06
263.337	369.06
263.57	365.06
263.802	370.06
264.035	378.06
264.267	376.06
264.499	388.06
264.732	394.06
264.964	378.06
265.197	382.06
265.429	397.06
265.661	386.06
265.894	378.06
266.126	399.06
266.358	404.06
266.591	394.06
266.823	409.06
267.055	408.06
267.287	380.06
267.52	402.06
267.752	403.06
267.984	404.06
268.216	405.06
268.448	398.06
268.681	406.06
268.913	445.06
269.145	443.06
269.377	409.06
269.609	405.06
269.841	406.06
270.073	405.06
270.306	392.06
270.538	425.06
270.77	408.06
271.002	413.06
271.234	419.06
271.466	417.06
271.698	429.06
271.93	438.06
272.162	439.06
272.394	436.06
272.626	423.06
272.858	424.06
273.09	459.06
273.322	438.06
273.553	445.06
273.785	435.06
274.017	450.06
274.249	444.06
274.481	453.06
274.713	441.06
274.945	460.06
275.176	459.06
275.408	481.06
275.64	482.06
275.872	463.06
276.104	465.06
276.335	471.06
276.567	468.06
276.799	465.06
277.031	468.06
277.262	446.06
277.494	469.06
277.726	449.06
277.957	501.06
278.189	473.06
278.421	476.06
278.652	455.06
278.884	496.06
279.115	483.06
279.347	489.06
279.579	504.06
279.81	471.06
280.042	510.06
280.273	489.06
280.505	506.06
280.736	497.06
280.968	487.06
281.199	494.06
281.431	510.06
281.662	514.06
281.894	516.06
282.125	506.06
282.356	509.06
282.588	547.06
282.819	521.06
283.051	511.06
283.282	521.06
283.513	535.06
283.745	541.06
283.976	527.06
284.207	543.06
284.439	539.06
284.67	547.06
284.901	553.06
285.132	542.06
285.364	531.06
285.595	538.06
285.826	534.06
286.057	533.06
286.288	542.06
286.52	547.06
286.751	560.06
286.982	565.06
287.213	576.06
287.444	571.06
287.675	553.06
287.906	571.06
288.138	575.06
288.369	562.06
288.6	569.06
288.831	594.06
289.062	566.06
289.293	579.06
289.524	589.06
289.755	585.06
289.986	583.06
290.217	581.06
290.448	588.06
290.679	585.06
290.91	570.06
291.141	572.06
291.371	585.06
291.602	594.06
291.833	573.06
292.064	596.06
292.295	572.06
292.526	574.06
292.757	590.06
292.987	582.06
293.218	589.06
293.449	605.06
293.68	576.06
293.91	585.06
294.141	605.06
294.372	608.06
294.603	598.06
294.833	590.06
295.064	590.06
295.295	607.06
295.525	585.06
295.756	584.06
295.987	603.06
296.217	616.06
296.448	613.06
296.679	596.06
296.909	611.06
297.14	635.06
297.37	645.06
297.601	641.06
297.831	614.06
298.062	632.06
298.292	626.06
298.523	689.06
298.753	660.06
298.984	631.06
299.214	636.06
299.445	634.06
299.675	654.06
299.905	631.06
300.136	664.06
300.366	636.06
300.597	665.06
300.827	674.06
301.057	664.06
301.288	674.06
301.518	665.06
301.748	664.06
301.979	691.06
302.209	666.06
302.439	679.06
302.669	665.06
302.9	682.06
303.13	653.06
303.36	653.06
303.59	648.06
303.82	652.06
304.051	666.06
304.281	678.06
304.511	669.06
304.741	663.06
304.971	660.06
305.201	668.06
305.431	674.06
305.661	677.06
305.891	637.06
306.121	654.06
306.352	663.06
306.582	662.06
306.812	641.06
307.042	661.06
307.272	664.06
307.502	666.06
307.731	662.06
307.961	645.06
308.191	633.06
308.421	652.06
308.651	638.06
308.881	646.06
309.111	631.06
309.341	646.06
309.571	656.06
309.8	651.06
310.03	665.06
310.26	654.06
310.49	654.06
310.72	644.06
310.949	669.06
311.179	670.06
311.409	643.06
311.639	652.06
311.868	662.06
312.098	672.06
312.328	689.06
312.557	694.06
312.787	713.06
313.017	704.06
313.246	676.06
313.476	736.06
313.706	700.06
313.935	704.06
314.165	708.06
314.394	739.06
314.624	729.06
314.853	677.06
315.083	700.06
315.312	720.06
315.542	693.06
315.771	698.06
316.001	689.06
316.23	699.06
316.46	701.06
316.689	701.06
316.919	699.06
317.148	680.06
317.377	715.06
317.607	688.06
317.836	690.06
318.065	670.06
318.295	670.06
318.524	674.06
318.753	696.06
318.983	692.06
319.212	678.06
319.441	701.06
319.67	672.06
319.9	690.06
320.129	696.06
320.358	693.06
320.587	675.06
320.816	707.06
321.046	684.06
321.275	692.06
321.504	687.06
321.733	671.06
321.962	694.06
322.191	694.06
322.42	709.06
322.649	701.06
322.878	717.06
323.108	689.06
323.337	736.06
323.566	720.06
323.795	721.06
324.024	713.06
324.253	745.06
324.482	720.06
324.71	733.06
324.939	731.06
325.168	744.06
325.397	728.06
325.626	737.06
325.855	749.06
326.084	747.06
326.313	769.06
326.542	789.06
326.77	772.06
326.999	777.06
327.228	732.06
327.457	764.06
327.686	741.06
327.914	781.06
328.143	779.06
328.372	784.06
328.6	763.06
328.829	754.06
329.058	774.06
329.287	786.06
329.515	762.06
329.744	785.06
329.972	800.06
330.201	800.06
330.43	794.06
330.658	767.06
330.887	800.06
331.115	800.06
331.344	805.06
331.572	825.06
331.801	830.06
332.03	843.06
332.258	885.06
332.486	892.06
332.715	927.06
332.943	944.06
333.172	1014.06
333.4	1058.06
333.629	1064.06
333.857	1078.06
334.085	1037.06
334.314	1004.06
334.542	982.06
334.771	1012.06
334.999	974.06
335.227	981.06
335.455	978.06
335.684	960.06
335.912	944.06
336.14	939.06
336.369	928.06
336.597	948.06
336.825	905.06
337.053	929.06
337.281	928.06
337.51	888.06
337.738	886.06
337.966	870.06
338.194	861.06
338.422	864.06
338.65	834.06
338.878	852.06
339.106	834.06
339.334	836.06
339.562	833.06
339.79	797.06
340.018	795.06
340.246	827.06
340.474	812.06
340.702	803.06
340.93	802.06
341.158	845.06
341.386	820.06
341.614	843.06
341.842	793.06
342.07	790.06
342.298	791.06
342.526	824.06
342.754	808.06
342.981	813.06
343.209	836.06
343.437	876.06
343.665	937.06
343.893	993.06
344.12	1021.06
344.348	966.06
344.576	914.06
344.804	884.06
345.031	845.06
345.259	825.06
345.487	828.06
345.714	810.06
345.942	803.06
346.17	845.06
346.397	791.06
346.625	814.06
346.853	782.06
347.08	772.06
347.308	796.06
347.535	787.06
347.763	793.06
347.99	805.06
348.218	797.06
348.445	790.06
348.673	789.06
348.9	782.06
349.128	761.06
349.355	771.06
349.583	812.06
349.81	757.06
350.037	747.06
350.265	753.06
350.492	768.06
350.72	746.06
350.947	792.06
351.174	774.06
351.402	790.06
351.629	747.06
351.856	766.06
352.083	738.06
352.311	727.06
352.538	770.06
352.765	774.06
352.992	742.06
353.22	756.06
353.447	756.06
353.674	763.06
353.901	734.06
354.128	758.06
354.355	760.06
354.583	743.06
354.81	744.06
355.037	758.06
355.264	771.06
355.491	758.06
355.718	783.06
355.945	760.06
356.172	776.06
356.399	737.06
356.626	772.06
356.853	763.06
357.08	738.06
357.307	787.06
357.534	734.06
357.761	742.06
357.988	773.06
358.215	745.06
358.441	757.06
358.668	740.06
358.895	739.06
359.122	749.06
359.349	771.06
359.576	749.06
359.802	729.06
360.029	757.06
360.256	715.06
360.483	737.06
360.709	756.06
360.936	753.06
361.163	754.06
361.39	752.06
361.616	758.06
361.843	735.06
362.07	756.06
362.296	762.06
362.523	770.06
362.749	777.06
362.976	743.06
363.203	774.06
363.429	756.06
363.656	773.06
363.882	748.06
364.109	728.06
364.335	740.06
364.562	730.06
364.788	737.06
365.015	752.06
365.241	766.06
365.468	737.06
365.694	752.06
365.92	750.06
366.147	753.06
366.373	725.06
366.599	738.06
366.826	713.06
367.052	753.06
367.278	747.06
367.505	736.06
367.731	800.06
367.957	761.06
368.184	749.06
368.41	758.06
368.636	761.06
368.862	757.06
369.089	759.06
369.315	785.06
369.541	764.06
369.767	774.06
369.993	772.06
370.219	789.06
370.445	796.06
370.672	818.06
370.898	822.06
371.124	821.06
371.35	813.06
371.576	803.06
371.802	820.06
372.028	791.06
372.254	847.06
372.48	804.06
372.706	834.06
372.932	864.06
373.158	846.06
373.384	830.06
373.61	804.06
373.835	818.06
374.061	871.06
374.287	823.06
374.513	844.06
374.739	862.06
374.965	881.06
375.191	893.06
375.416	881.06
375.642	894.06
375.868	861.06
376.094	854.06
376.319	812.06
376.545	843.06
376.771	819.06
376.997	835.06
377.222	809.06
377.448	810.06
377.674	826.06
377.899	804.06
378.125	814.06
378.35	804.06
378.576	802.06
378.802	792.06
379.027	827.06
379.253	808.06
379.478	810.06
379.704	806.06
379.929	782.06
380.155	817.06
380.38	797.06
380.606	820.06
380.831	806.06
381.057	806.06
381.282	810.06
381.507	819.06
381.733	843.06
381.958	853.06
382.184	818.06
382.409	842.06
382.634	838.06
382.86	831.06
383.085	865.06
383.31	892.06
383.535	916.06
383.761	929.06
383.986	929.06
384.211	958.06
384.436	979.06
384.662	968.06
384.887	995.06
385.112	963.06
385.337	1008.06
385.562	976.06
385.787	1005.06
386.013	992.06
386.238	967.06
386.463	998.06
386.688	960.06
386.913	993.06
387.138	975.06
387.363	981.06
387.588	964.06
387.813	974.06
388.038	972.06
388.263	984.06
388.488	999.06
388.713	977.06
388.938	963.06
389.163	978.06
389.387	930.06
389.612	956.06
389.837	943.06
390.062	942.06
390.287	951.06
390.512	960.06
390.736	994.06
390.961	982.06
391.186	1003.06
391.411	1053.06
391.636	1045.06
391.86	1104.06
392.085	1115.06
392.31	1085.06
392.534	1077.06
392.759	1106.06
392.984	1075.06
393.208	1054.06
393.433	1034.06
393.658	1044.06
393.882	1050.06
394.107	1033.06
394.331	1029.06
394.556	1052.06
394.78	1091.06
395.005	1070.06
395.229	1069.06
395.454	1106.06
395.678	1114.06
395.903	1103.06
396.127	1085.06
396.352	1074.06
396.576	1047.06
396.801	1051.06
397.025	1038.06
397.249	1038.06
397.474	1084.06
397.698	1087.06
397.922	1112.06
398.147	1061.06
398.371	1096.06
398.595	1182.06
398.82	1202.06
399.044	1274.06
399.268	1430.06
399.492	1691.06
399.717	1877.06
399.941	1886.06
400.165	1640.06
400.389	1456.06
400.613	1372.06
400.837	1276.06
401.062	1284.06
401.286	1257.06
401.51	1234.06
401.734	1196.06
401.958	1240.06
402.182	1254.06
402.406	1284.06
402.63	1322.06
402.854	1323.06
403.078	1342.06
403.302	1370.06
403.526	1403.06
403.75	1438.06
403.974	1449.06
404.198	1472.06
404.422	1475.06
404.645	1442.06
404.869	1415.06
405.093	1379.06
405.317	1350.06
405.541	1374.06
405.765	1325.06
405.988	1365.06
406.212	1381.06
406.436	1327.06
406.66	1352.06
406.883	1396.06
407.107	1494.06
407.331	1557.06
407.555	1598.06
407.778	1602.06
408.002	1538.06
408.226	1494.06
408.449	1487.06
408.673	1395.06
408.896	1392.06
409.12	1406.06
409.344	1405.06
409.567	1412.06
409.791	1442.06
410.014	1422.06
410.238	1389.06
410.461	1414.06
410.685	1350.06
410.908	1344.06
411.132	1325.06
411.355	1273.06
411.578	1274.06
411.802	1283.06
412.025	1251.06
412.249	1300.06
412.472	1292.06
412.695	1265.06
412.919	1242.06
413.142	1252.06
413.365	1212.06
413.589	1233.06
413.812	1227.06
414.035	1222.06
414.258	1216.06
414.482	1251.06
414.705	1241.06
414.928	1278.06
415.151	1238.06
415.374	1208.06
415.597	1240.06
415.821	1214.06
416.044	1190.06
416.267	1191.06
416.49	1193.06
416.713	1185.06
416.936	1238.06
417.159	1205.06
417.382	1200.06
417.605	1192.06
417.828	1241.06
418.051	1221.06
418.274	1236.06
418.497	1221.06
418.72	1257.06
418.943	1233.06
419.166	1325.06
419.389	1412.06
419.611	1389.06
419.834	1317.06
420.057	1292.06
420.28	1252.06
420.503	1224.06
420.726	1193.06
420.948	1197.06
421.171	1243.06
421.394	1190.06
421.617	1204.06
421.839	1229.06
422.062	1229.06
422.285	1227.06
422.507	1250.06
422.73	1246.06
422.953	1259.06
423.175	1304.06
423.398	1321.06
423.621	1289.06
423.843	1267.06
424.066	1332.06
424.288	1299.06
424.511	1275.06
424.733	1276.06
424.956	1280.06
425.178	1267.06
425.401	1218.06
425.623	1204.06
425.846	1166.06
426.068	1196.06
426.291	1174.06
426.513	1145.06
426.735	1148.06
426.958	1126.06
427.18	1131.06
427.402	1116.06
427.625	1138.06
427.847	1082.06
428.069	1084.06
428.292	1084.06
428.514	1084.06
428.736	1013.06
428.958	1082.06
429.181	1068.06
429.403	1060.06
429.625	1076.06
429.847	1032.06
430.069	1037.06
430.292	1064.06
430.514	1029.06
430.736	1075.06
430.958	1039.06
431.18	1074.06
431.402	1057.06
431.624	1061.06
431.846	1088.06
432.068	1109.06
432.29	1082.06
432.512	1066.06
432.734	1070.06
432.956	1085.06
433.178	1077.06
433.4	1099.06
433.622	1106.06
433.844	1130.06
434.066	1085.06
434.287	1120.06
434.509	1152.06
434.731	1205.06
434.953	1204.06
435.175	1209.06
435.397	1224.06
435.618	1168.06
435.84	1133.06
436.062	1069.06
436.284	1079.06
436.505	1107.06
436.727	1089.06
436.949	1092.06
437.17	1110.06
437.392	1063.06
437.614	1052.06
437.835	1014.06
438.057	1030.06
438.278	1038.06
438.5	1045.06
438.721	1036.06
438.943	1072.06
439.165	1060.06
439.386	1060.06
439.608	1083.06
439.829	1086.06
440.05	1068.06
440.272	1075.06
440.493	1090.06
440.715	1089.06
440.936	1116.06
441.158	1113.06
441.379	1197.06
441.6	1234.06
441.822	1225.06
442.043	1225.06
442.264	1206.06
442.486	1173.06
442.707	1209.06
442.928	1176.06
443.149	1181.06
443.371	1192.06
443.592	1203.06
443.813	1252.06
444.034	1230.06
444.255	1270.06
444.476	1328.06
444.698	1402.06
444.919	1531.06
445.14	1576.06
445.361	1382.06
445.582	1269.06
445.803	1192.06
446.024	1160.06
446.245	1146.06
446.466	1130.06
446.687	1116.06
446.908	1078.06
447.129	1069.06
447.35	1053.06
447.571	1033.06
447.792	1035.06
448.013	1024.06
448.234	998.06
448.455	974.06
448.675	984.06
448.896	991.06
449.117	999.06
449.338	988.06
449.559	989.06
449.779	992.06
450	985.06
450.221	998.06
450.442	1003.06
450.662	997.06
450.883	1011.06
451.104	1044.06
451.324	1029.06
451.545	990.06
451.766	992.06
451.986	981.06
452.207	989.06
452.428	1009.06
452.648	987.06
452.869	976.06
453.089	974.06
453.31	981.06
453.53	977.06
453.751	955.06
453.971	965.06
454.192	977.06
454.412	924.06
454.633	948.06
454.853	946.06
455.073	939.06
455.294	934.06
455.514	912.06
455.734	943.06
455.955	940.06
456.175	913.06
456.395	906.06
456.616	909.06
456.836	933.06
457.056	920.06
457.276	925.06
457.497	931.06
457.717	927.06
457.937	929.06
458.157	928.06
458.377	952.06
458.598	949.06
458.818	1023.06
459.038	1011.06
459.258	1041.06
459.478	1087.06
459.698	1126.06
459.918	1166.06
460.138	1215.06
460.358	1256.06
460.578	1264.06
460.798	1292.06
461.018	1305.06
461.238	1294.06
461.458	1272.06
461.678	1264.06
461.898	1294.06
462.118	1308.06
462.338	1344.06
462.558	1466.06
462.777	1436.06
462.997	1555.06
463.217	1736.06
463.437	1763.06
463.657	1602.06
463.876	1515.06
464.096	1466.06
464.316	1498.06
464.536	1506.06
464.755	1442.06
464.975	1381.06
465.195	1333.06
465.414	1243.06
465.634	1158.06
465.854	1141.06
466.073	1076.06
466.293	1098.06
466.512	1082.06
466.732	1053.06
466.951	1036.06
467.171	1048.06
467.391	1045.06
467.61	1022.06
467.829	1009.06
468.049	1025.06
468.268	983.06
468.488	999.06
468.707	951.06
468.927	993.06
469.146	971.06
469.365	989.06
469.585	985.06
469.804	1029.06
470.023	1035.06
470.243	1039.06
470.462	1065.06
470.681	1067.06
470.901	1042.06
471.12	1050.06
471.339	1060.06
471.558	1033.06
471.777	1012.06
471.997	1009.06
472.216	988.06
472.435	989.06
472.654	964.06
472.873	932.06
473.092	979.06
473.311	964.06
473.53	971.06
473.749	939.06
473.968	961.06
474.187	982.06
474.406	930.06
474.625	934.06
474.844	977.06
475.063	948.06
475.282	984.06
475.501	980.06
475.72	990.06
475.939	997.06
476.158	1034.06
476.377	1032.06
476.596	1014.06
476.814	1029.06
477.033	995.06
477.252	1013.06
477.471	1046.06
477.69	1060.06
477.908	1121.06
478.127	1156.06
478.346	1156.06
478.564	1204.06
478.783	1164.06
479.002	1215.06
479.22	1234.06
479.439	1223.06
479.658	1194.06
479.876	1197.06
480.095	1235.06
480.313	1291.06
480.532	1328.06
480.751	1336.06
480.969	1235.06
481.188	1186.06
481.406	1204.06
481.624	1146.06
481.843	1133.06
482.061	1088.06
482.28	1141.06
482.498	1092.06
482.717	1082.06
482.935	1106.06
483.153	1111.06
483.372	1109.06
483.59	1118.06
483.808	1132.06
484.027	1124.06
484.245	1127.06
484.463	1144.06
484.681	1144.06
484.9	1164.06
485.118	1166.06
485.336	1161.06
485.554	1167.06
485.772	1205.06
485.99	1206.06
486.209	1203.06
486.427	1175.06
486.645	1171.06
486.863	1229.06
487.081	1187.06
487.299	1203.06
487.517	1181.06
487.735	1203.06
487.953	1191.06
488.171	1188.06
488.389	1187.06
488.607	1154.06
488.825	1157.06
489.043	1145.06
489.261	1168.06
489.479	1186.06
489.696	1178.06
489.914	1143.06
490.132	1178.06
490.35	1163.06
490.568	1140.06
490.786	1160.06
491.003	1169.06
491.221	1161.06
491.439	1164.06
491.657	1175.06
491.874	1182.06
492.092	1175.06
492.31	1178.06
492.527	1220.06
492.745	1182.06
492.963	1189.06
493.18	1213.06
493.398	1164.06
493.615	1218.06
493.833	1217.06
494.05	1200.06
494.268	1222.06
494.485	1197.06
494.703	1243.06
494.92	1205.06
495.138	1191.06
495.355	1187.06
495.573	1204.06
495.79	1250.06
496.008	1253.06
