Data from Ni(NO3)2Standard.Agarose3%.GreenCap.LampEnergy5.5.E.O_HRD10591_14-41-58-188.txt Node
Date: Mon Jul 22 14:41:58 EDT 2019
User: cochatt
Spectrometer: HR+D1059
Trigger mode: 1
Integration Time (sec): 1.000000E-1
Scans to average: 1
Electric dark correction enabled: true
Nonlinearity correction enabled: false
Boxcar width: 0
XAxis mode: Wavelengths
Number of Pixels in Spectrum: 2048
>>>>>Begin Spectral Data<<<<<
223.165	-21.25
223.4	-21.25
223.635	-21.25
223.869	-14.25
224.104	-19.25
224.338	-9.25
224.573	-22.25
224.808	-6.25
225.042	-5.25
225.277	-15.25
225.511	4.75
225.746	9.75
225.98	-2.25
226.215	4.75
226.449	20.75
226.683	27.75
226.918	14.75
227.152	32.75
227.387	26.75
227.621	45.75
227.856	37.75
228.09	48.75
228.324	56.75
228.559	46.75
228.793	71.75
229.027	67.75
229.262	77.75
229.496	70.75
229.73	72.75
229.964	77.75
230.199	83.75
230.433	86.75
230.667	70.75
230.901	76.75
231.136	92.75
231.37	83.75
231.604	78.75
231.838	76.75
232.072	87.75
232.306	65.75
232.541	85.75
232.775	71.75
233.009	89.75
233.243	80.75
233.477	86.75
233.711	72.75
233.945	74.75
234.179	79.75
234.413	78.75
234.647	79.75
234.881	75.75
235.115	82.75
235.349	77.75
235.583	71.75
235.817	72.75
236.051	92.75
236.285	74.75
236.519	80.75
236.753	86.75
236.987	83.75
237.221	88.75
237.455	93.75
237.689	73.75
237.922	78.75
238.156	79.75
238.39	71.75
238.624	71.75
238.858	76.75
239.091	72.75
239.325	85.75
239.559	80.75
239.793	78.75
240.027	85.75
240.26	71.75
240.494	74.75
240.728	84.75
240.961	77.75
241.195	80.75
241.429	63.75
241.662	69.75
241.896	77.75
242.13	71.75
242.363	84.75
242.597	84.75
242.83	83.75
243.064	78.75
243.298	64.75
243.531	69.75
243.765	80.75
243.998	80.75
244.232	83.75
244.465	80.75
244.699	85.75
244.932	88.75
245.166	71.75
245.399	94.75
245.633	93.75
245.866	84.75
246.099	73.75
246.333	77.75
246.566	75.75
246.8	74.75
247.033	79.75
247.266	78.75
247.5	74.75
247.733	69.75
247.966	85.75
248.2	83.75
248.433	93.75
248.666	78.75
248.899	83.75
249.133	70.75
249.366	96.75
249.599	69.75
249.832	100.75
250.066	82.75
250.299	78.75
250.532	74.75
250.765	84.75
250.998	84.75
251.231	79.75
251.465	76.75
251.698	82.75
251.931	79.75
252.164	81.75
252.397	79.75
252.63	85.75
252.863	85.75
253.096	87.75
253.329	84.75
253.562	87.75
253.795	91.75
254.028	75.75
254.261	79.75
254.494	88.75
254.727	78.75
254.96	66.75
255.193	83.75
255.426	74.75
255.659	89.75
255.892	80.75
256.124	74.75
256.357	74.75
256.59	83.75
256.823	72.75
257.056	81.75
257.289	86.75
257.521	80.75
257.754	98.75
257.987	85.75
258.22	93.75
258.452	105.75
258.685	88.75
258.918	85.75
259.151	72.75
259.383	80.75
259.616	86.75
259.849	66.75
260.081	81.75
260.314	76.75
260.547	106.75
260.779	82.75
261.012	69.75
261.244	83.75
261.477	91.75
261.71	71.75
261.942	82.75
262.175	96.75
262.407	83.75
262.64	82.75
262.872	69.75
263.105	81.75
263.337	87.75
263.57	79.75
263.802	83.75
264.035	83.75
264.267	69.75
264.499	92.75
264.732	79.75
264.964	74.75
265.197	88.75
265.429	79.75
265.661	89.75
265.894	78.75
266.126	78.75
266.358	89.75
266.591	88.75
266.823	71.75
267.055	89.75
267.287	74.75
267.52	68.75
267.752	77.75
267.984	93.75
268.216	89.75
268.448	86.75
268.681	78.75
268.913	87.75
269.145	88.75
269.377	86.75
269.609	80.75
269.841	91.75
270.073	88.75
270.306	78.75
270.538	87.75
270.77	79.75
271.002	89.75
271.234	91.75
271.466	84.75
271.698	87.75
271.93	87.75
272.162	88.75
272.394	89.75
272.626	91.75
272.858	86.75
273.09	79.75
273.322	83.75
273.553	82.75
273.785	87.75
274.017	90.75
274.249	86.75
274.481	92.75
274.713	92.75
274.945	86.75
275.176	79.75
275.408	89.75
275.64	92.75
275.872	83.75
276.104	95.75
276.335	101.75
276.567	89.75
276.799	85.75
277.031	92.75
277.262	79.75
277.494	88.75
277.726	85.75
277.957	89.75
278.189	92.75
278.421	78.75
278.652	86.75
278.884	78.75
279.115	83.75
279.347	76.75
279.579	75.75
279.81	81.75
280.042	87.75
280.273	88.75
280.505	90.75
280.736	89.75
280.968	98.75
281.199	79.75
281.431	76.75
281.662	95.75
281.894	78.75
282.125	85.75
282.356	91.75
282.588	86.75
282.819	72.75
283.051	86.75
283.282	89.75
283.513	94.75
283.745	89.75
283.976	75.75
284.207	79.75
284.439	101.75
284.67	89.75
284.901	75.75
285.132	92.75
285.364	90.75
285.595	85.75
285.826	77.75
286.057	88.75
286.288	72.75
286.52	98.75
286.751	81.75
286.982	75.75
287.213	93.75
287.444	79.75
287.675	81.75
287.906	77.75
288.138	93.75
288.369	96.75
288.6	92.75
288.831	96.75
289.062	91.75
289.293	86.75
289.524	87.75
289.755	74.75
289.986	98.75
290.217	86.75
290.448	90.75
290.679	92.75
290.91	86.75
291.141	80.75
291.371	82.75
291.602	82.75
291.833	99.75
292.064	87.75
292.295	79.75
292.526	90.75
292.757	82.75
292.987	96.75
293.218	86.75
293.449	92.75
293.68	86.75
293.91	73.75
294.141	92.75
294.372	82.75
294.603	89.75
294.833	91.75
295.064	78.75
295.295	78.75
295.525	80.75
295.756	98.75
295.987	73.75
296.217	98.75
296.448	74.75
296.679	81.75
296.909	79.75
297.14	78.75
297.37	93.75
297.601	83.75
297.831	89.75
298.062	76.75
298.292	92.75
298.523	83.75
298.753	115.75
298.984	100.75
299.214	88.75
299.445	83.75
299.675	90.75
299.905	86.75
300.136	91.75
300.366	92.75
300.597	88.75
300.827	82.75
301.057	82.75
301.288	104.75
301.518	95.75
301.748	89.75
301.979	87.75
302.209	71.75
302.439	104.75
302.669	84.75
302.9	91.75
303.13	82.75
303.36	92.75
303.59	94.75
303.82	84.75
304.051	76.75
304.281	75.75
304.511	74.75
304.741	93.75
304.971	90.75
305.201	101.75
305.431	88.75
305.661	89.75
305.891	90.75
306.121	80.75
306.352	86.75
306.582	89.75
306.812	95.75
307.042	101.75
307.272	96.75
307.502	106.75
307.731	85.75
307.961	100.75
308.191	70.75
308.421	76.75
308.651	80.75
308.881	75.75
309.111	90.75
309.341	77.75
309.571	93.75
309.8	88.75
310.03	81.75
310.26	85.75
310.49	89.75
310.72	108.75
310.949	93.75
311.179	97.75
311.409	71.75
311.639	88.75
311.868	91.75
312.098	79.75
312.328	78.75
312.557	95.75
312.787	90.75
313.017	92.75
313.246	80.75
313.476	74.75
313.706	84.75
313.935	90.75
314.165	97.75
314.394	94.75
314.624	78.75
314.853	80.75
315.083	94.75
315.312	95.75
315.542	76.75
315.771	83.75
316.001	78.75
316.23	93.75
316.46	100.75
316.689	88.75
316.919	78.75
317.148	94.75
317.377	86.75
317.607	79.75
317.836	80.75
318.065	80.75
318.295	86.75
318.524	86.75
318.753	82.75
318.983	76.75
319.212	97.75
319.441	83.75
319.67	91.75
319.9	93.75
320.129	83.75
320.358	89.75
320.587	95.75
320.816	80.75
321.046	87.75
321.275	90.75
321.504	90.75
321.733	84.75
321.962	91.75
322.191	91.75
322.42	85.75
322.649	101.75
322.878	89.75
323.108	91.75
323.337	101.75
323.566	88.75
323.795	91.75
324.024	87.75
324.253	88.75
324.482	92.75
324.71	81.75
324.939	80.75
325.168	94.75
325.397	101.75
325.626	81.75
325.855	78.75
326.084	86.75
326.313	85.75
326.542	80.75
326.77	80.75
326.999	76.75
327.228	88.75
327.457	95.75
327.686	95.75
327.914	88.75
328.143	105.75
328.372	95.75
328.6	91.75
328.829	95.75
329.058	79.75
329.287	67.75
329.515	97.75
329.744	91.75
329.972	83.75
330.201	87.75
330.43	83.75
330.658	88.75
330.887	85.75
331.115	84.75
331.344	95.75
331.572	106.75
331.801	94.75
332.03	90.75
332.258	85.75
332.486	88.75
332.715	91.75
332.943	102.75
333.172	89.75
333.4	84.75
333.629	80.75
333.857	92.75
334.085	93.75
334.314	72.75
334.542	82.75
334.771	89.75
334.999	80.75
335.227	92.75
335.455	96.75
335.684	86.75
335.912	70.75
336.14	91.75
336.369	94.75
336.597	97.75
336.825	69.75
337.053	77.75
337.281	77.75
337.51	95.75
337.738	86.75
337.966	90.75
338.194	84.75
338.422	94.75
338.65	84.75
338.878	84.75
339.106	81.75
339.334	92.75
339.562	80.75
339.79	86.75
340.018	81.75
340.246	85.75
340.474	92.75
340.702	86.75
340.93	100.75
341.158	80.75
341.386	80.75
341.614	87.75
341.842	78.75
342.07	83.75
342.298	84.75
342.526	77.75
342.754	93.75
342.981	86.75
343.209	95.75
343.437	89.75
343.665	77.75
343.893	96.75
344.12	88.75
344.348	85.75
344.576	94.75
344.804	78.75
345.031	76.75
345.259	90.75
345.487	81.75
345.714	93.75
345.942	109.75
346.17	92.75
346.397	98.75
346.625	102.75
346.853	79.75
347.08	86.75
347.308	94.75
347.535	91.75
347.763	84.75
347.99	98.75
348.218	87.75
348.445	87.75
348.673	89.75
348.9	93.75
349.128	100.75
349.355	83.75
349.583	89.75
349.81	91.75
350.037	73.75
350.265	90.75
350.492	78.75
350.72	84.75
350.947	74.75
351.174	94.75
351.402	86.75
351.629	91.75
351.856	90.75
352.083	93.75
352.311	89.75
352.538	82.75
352.765	83.75
352.992	82.75
353.22	77.75
353.447	91.75
353.674	85.75
353.901	101.75
354.128	92.75
354.355	101.75
354.583	87.75
354.81	84.75
355.037	85.75
355.264	92.75
355.491	88.75
355.718	93.75
355.945	105.75
356.172	91.75
356.399	78.75
356.626	86.75
356.853	82.75
357.08	87.75
357.307	92.75
357.534	104.75
357.761	70.75
357.988	91.75
358.215	75.75
358.441	79.75
358.668	81.75
358.895	95.75
359.122	83.75
359.349	83.75
359.576	87.75
359.802	93.75
360.029	84.75
360.256	79.75
360.483	89.75
360.709	82.75
360.936	92.75
361.163	79.75
361.39	84.75
361.616	86.75
361.843	102.75
362.07	82.75
362.296	78.75
362.523	85.75
362.749	92.75
362.976	79.75
363.203	93.75
363.429	89.75
363.656	89.75
363.882	77.75
364.109	82.75
364.335	110.75
364.562	96.75
364.788	85.75
365.015	91.75
365.241	93.75
365.468	91.75
365.694	86.75
365.92	97.75
366.147	82.75
366.373	87.75
366.599	79.75
366.826	87.75
367.052	102.75
367.278	78.75
367.505	71.75
367.731	91.75
367.957	98.75
368.184	82.75
368.41	79.75
368.636	86.75
368.862	83.75
369.089	85.75
369.315	86.75
369.541	82.75
369.767	97.75
369.993	92.75
370.219	92.75
370.445	85.75
370.672	86.75
370.898	84.75
371.124	78.75
371.35	83.75
371.576	76.75
371.802	68.75
372.028	77.75
372.254	72.75
372.48	80.75
372.706	77.75
372.932	90.75
373.158	92.75
373.384	85.75
373.61	96.75
373.835	74.75
374.061	75.75
374.287	90.75
374.513	79.75
374.739	95.75
374.965	92.75
375.191	79.75
375.416	78.75
375.642	83.75
375.868	87.75
376.094	88.75
376.319	86.75
376.545	94.75
376.771	94.75
376.997	76.75
377.222	82.75
377.448	86.75
377.674	73.75
377.899	84.75
378.125	91.75
378.35	83.75
378.576	87.75
378.802	88.75
379.027	80.75
379.253	85.75
379.478	88.75
379.704	83.75
379.929	77.75
380.155	90.75
380.38	90.75
380.606	84.75
380.831	78.75
381.057	82.75
381.282	84.75
381.507	84.75
381.733	92.75
381.958	85.75
382.184	94.75
382.409	88.75
382.634	98.75
382.86	86.75
383.085	75.75
383.31	89.75
383.535	85.75
383.761	95.75
383.986	88.75
384.211	86.75
384.436	88.75
384.662	91.75
384.887	102.75
385.112	83.75
385.337	86.75
385.562	88.75
385.787	81.75
386.013	96.75
386.238	77.75
386.463	87.75
386.688	99.75
386.913	83.75
387.138	99.75
387.363	83.75
387.588	84.75
387.813	81.75
388.038	85.75
388.263	82.75
388.488	76.75
388.713	86.75
388.938	82.75
389.163	92.75
389.387	89.75
389.612	93.75
389.837	79.75
390.062	78.75
390.287	92.75
390.512	102.75
390.736	96.75
390.961	95.75
391.186	83.75
391.411	74.75
391.636	96.75
391.86	82.75
392.085	93.75
392.31	93.75
392.534	81.75
392.759	96.75
392.984	88.75
393.208	84.75
393.433	78.75
393.658	86.75
393.882	89.75
394.107	79.75
394.331	74.75
394.556	95.75
394.78	86.75
395.005	84.75
395.229	86.75
395.454	98.75
395.678	99.75
395.903	95.75
396.127	98.75
396.352	82.75
396.576	88.75
396.801	73.75
397.025	80.75
397.249	78.75
397.474	84.75
397.698	98.75
397.922	96.75
398.147	96.75
398.371	92.75
398.595	99.75
398.82	84.75
399.044	91.75
399.268	87.75
399.492	90.75
399.717	92.75
399.941	89.75
400.165	83.75
400.389	93.75
400.613	101.75
400.837	82.75
401.062	100.75
401.286	90.75
401.51	71.75
401.734	79.75
401.958	85.75
402.182	73.75
402.406	86.75
402.63	95.75
402.854	92.75
403.078	76.75
403.302	81.75
403.526	86.75
403.75	92.75
403.974	92.75
404.198	78.75
404.422	84.75
404.645	84.75
404.869	92.75
405.093	78.75
405.317	90.75
405.541	106.75
405.765	81.75
405.988	86.75
406.212	92.75
406.436	70.75
406.66	84.75
406.883	103.75
407.107	80.75
407.331	99.75
407.555	88.75
407.778	90.75
408.002	98.75
408.226	87.75
408.449	81.75
408.673	79.75
408.896	76.75
409.12	86.75
409.344	90.75
409.567	83.75
409.791	81.75
410.014	86.75
410.238	99.75
410.461	82.75
410.685	77.75
410.908	91.75
411.132	92.75
411.355	105.75
411.578	97.75
411.802	70.75
412.025	79.75
412.249	86.75
412.472	84.75
412.695	99.75
412.919	87.75
413.142	74.75
413.365	97.75
413.589	91.75
413.812	90.75
414.035	92.75
414.258	91.75
414.482	94.75
414.705	87.75
414.928	79.75
415.151	87.75
415.374	89.75
415.597	75.75
415.821	88.75
416.044	80.75
416.267	80.75
416.49	95.75
416.713	78.75
416.936	88.75
417.159	94.75
417.382	81.75
417.605	68.75
417.828	92.75
418.051	87.75
418.274	90.75
418.497	93.75
418.72	79.75
418.943	98.75
419.166	89.75
419.389	90.75
419.611	83.75
419.834	83.75
420.057	85.75
420.28	86.75
420.503	73.75
420.726	91.75
420.948	95.75
421.171	104.75
421.394	90.75
421.617	98.75
421.839	88.75
422.062	79.75
422.285	104.75
422.507	84.75
422.73	91.75
422.953	83.75
423.175	79.75
423.398	71.75
423.621	116.75
423.843	105.75
424.066	84.75
424.288	88.75
424.511	99.75
424.733	101.75
424.956	79.75
425.178	93.75
425.401	80.75
425.623	98.75
425.846	99.75
426.068	87.75
426.291	80.75
426.513	91.75
426.735	88.75
426.958	87.75
427.18	74.75
427.402	95.75
427.625	81.75
427.847	83.75
428.069	89.75
428.292	84.75
428.514	87.75
428.736	95.75
428.958	79.75
429.181	84.75
429.403	89.75
429.625	84.75
429.847	92.75
430.069	86.75
430.292	78.75
430.514	68.75
430.736	86.75
430.958	80.75
431.18	106.75
431.402	80.75
431.624	79.75
431.846	94.75
432.068	89.75
432.29	82.75
432.512	93.75
432.734	79.75
432.956	86.75
433.178	88.75
433.4	91.75
433.622	106.75
433.844	92.75
434.066	85.75
434.287	92.75
434.509	79.75
434.731	90.75
434.953	89.75
435.175	74.75
435.397	89.75
435.618	95.75
435.84	95.75
436.062	99.75
436.284	94.75
436.505	90.75
436.727	91.75
436.949	77.75
437.17	84.75
437.392	99.75
437.614	98.75
437.835	108.75
438.057	82.75
438.278	90.75
438.5	85.75
438.721	91.75
438.943	72.75
439.165	93.75
439.386	85.75
439.608	96.75
439.829	79.75
440.05	97.75
440.272	86.75
440.493	87.75
440.715	85.75
440.936	94.75
441.158	87.75
441.379	81.75
441.6	103.75
441.822	86.75
442.043	97.75
442.264	92.75
442.486	95.75
442.707	78.75
442.928	81.75
443.149	88.75
443.371	80.75
443.592	82.75
443.813	84.75
444.034	92.75
444.255	92.75
444.476	92.75
444.698	79.75
444.919	77.75
445.14	216.75
445.361	144.75
445.582	88.75
445.803	71.75
446.024	82.75
446.245	97.75
446.466	90.75
446.687	77.75
446.908	88.75
447.129	78.75
447.35	98.75
447.571	87.75
447.792	87.75
448.013	85.75
448.234	77.75
448.455	97.75
448.675	102.75
448.896	97.75
449.117	85.75
449.338	94.75
449.559	96.75
449.779	84.75
450	79.75
450.221	87.75
450.442	86.75
450.662	82.75
450.883	91.75
451.104	80.75
451.324	89.75
451.545	99.75
451.766	86.75
451.986	81.75
452.207	75.75
452.428	96.75
452.648	97.75
452.869	96.75
453.089	86.75
453.31	91.75
453.53	86.75
453.751	86.75
453.971	93.75
454.192	93.75
454.412	99.75
454.633	86.75
454.853	88.75
455.073	91.75
455.294	92.75
455.514	79.75
455.734	90.75
455.955	86.75
456.175	82.75
456.395	80.75
456.616	85.75
456.836	94.75
457.056	83.75
457.276	93.75
457.497	90.75
457.717	79.75
457.937	86.75
458.157	93.75
458.377	83.75
458.598	81.75
458.818	79.75
459.038	91.75
459.258	84.75
459.478	90.75
459.698	82.75
459.918	86.75
460.138	79.75
460.358	99.75
460.578	81.75
460.798	96.75
461.018	100.75
461.238	93.75
461.458	89.75
461.678	80.75
461.898	87.75
462.118	93.75
462.338	101.75
462.558	81.75
462.777	86.75
462.997	100.75
463.217	87.75
463.437	96.75
463.657	91.75
463.876	87.75
464.096	106.75
464.316	86.75
464.536	82.75
464.755	88.75
464.975	96.75
465.195	88.75
465.414	90.75
465.634	96.75
465.854	86.75
466.073	96.75
466.293	93.75
466.512	84.75
466.732	81.75
466.951	87.75
467.171	92.75
467.391	95.75
467.61	80.75
467.829	105.75
468.049	91.75
468.268	86.75
468.488	93.75
468.707	81.75
468.927	101.75
469.146	102.75
469.365	96.75
469.585	95.75
469.804	97.75
470.023	89.75
470.243	76.75
470.462	86.75
470.681	83.75
470.901	92.75
471.12	94.75
471.339	92.75
471.558	87.75
471.777	99.75
471.997	83.75
472.216	93.75
472.435	84.75
472.654	97.75
472.873	102.75
473.092	89.75
473.311	96.75
473.53	91.75
473.749	91.75
473.968	88.75
474.187	68.75
474.406	90.75
474.625	75.75
474.844	81.75
475.063	96.75
475.282	96.75
475.501	85.75
475.72	79.75
475.939	94.75
476.158	90.75
476.377	80.75
476.596	80.75
476.814	89.75
477.033	83.75
477.252	90.75
477.471	89.75
477.69	84.75
477.908	92.75
478.127	107.75
478.346	86.75
478.564	95.75
478.783	90.75
479.002	112.75
479.22	107.75
479.439	99.75
479.658	107.75
479.876	87.75
480.095	98.75
480.313	98.75
480.532	95.75
480.751	88.75
480.969	86.75
481.188	89.75
481.406	100.75
481.624	81.75
481.843	96.75
482.061	99.75
482.28	80.75
482.498	89.75
482.717	77.75
482.935	68.75
483.153	91.75
483.372	89.75
483.59	91.75
483.808	104.75
484.027	106.75
484.245	93.75
484.463	79.75
484.681	95.75
484.9	87.75
485.118	102.75
485.336	100.75
485.554	92.75
485.772	99.75
485.99	101.75
486.209	103.75
486.427	93.75
486.645	80.75
486.863	87.75
487.081	96.75
487.299	82.75
487.517	90.75
487.735	87.75
487.953	110.75
488.171	81.75
488.389	79.75
488.607	96.75
488.825	90.75
489.043	90.75
489.261	99.75
489.479	91.75
489.696	94.75
489.914	97.75
490.132	81.75
490.35	99.75
490.568	99.75
490.786	85.75
491.003	89.75
491.221	95.75
491.439	102.75
491.657	102.75
491.874	102.75
492.092	102.75
492.31	103.75
492.527	95.75
492.745	99.75
492.963	93.75
493.18	92.75
493.398	88.75
493.615	99.75
493.833	90.75
494.05	91.75
494.268	98.75
494.485	95.75
494.703	81.75
494.92	85.75
495.138	104.75
495.355	102.75
495.573	91.75
495.79	101.75
496.008	104.75
496.225	94.75
496.442	96.75
496.66	116.75
496.877	91.75
497.094	95.75
497.312	79.75
497.529	92.75
497.746	98.75
497.963	89.75
498.181	93.75
498.398	94.75
498.615	100.75
498.832	94.75
499.049	89.75
499.267	106.75
499.484	106.75
499.701	91.75
499.918	116.75
500.135	106.75
500.352	126.75
500.569	123.75
500.786	116.75
501.003	100.75
501.22	107.75
501.437	115.75
501.654	101.75
501.871	109.75
502.088	90.75
502.305	99.75
502.522	103.75
502.739	96.75
502.956	86.75
503.172	114.75
503.389	110.75
503.606	109.75
503.823	104.75
504.04	107.75
504.256	110.75
504.473	110.75
504.69	103.75
504.907	95.75
505.123	99.75
505.34	108.75
505.557	84.75
505.773	97.75
505.99	96.75
506.207	84.75
506.423	95.75
506.64	106.75
506.856	92.75
507.073	96.75
507.289	88.75
507.506	96.75
507.722	94.75
507.939	101.75
508.155	94.75
508.372	81.75
508.588	89.75
508.805	106.75
509.021	96.75
509.238	84.75
509.454	96.75
509.67	93.75
509.887	85.75
510.103	85.75
510.319	85.75
510.536	86.75
510.752	88.75
510.968	78.75
511.184	105.75
511.401	95.75
511.617	93.75
511.833	84.75
512.049	95.75
512.265	88.75
512.481	101.75
512.698	86.75
512.914	73.75
513.13	87.75
513.346	82.75
513.562	86.75
513.778	94.75
513.994	84.75
514.21	85.75
514.426	93.75
514.642	94.75
514.858	108.75
515.074	94.75
515.29	92.75
515.506	86.75
515.721	90.75
515.937	107.75
516.153	87.75
516.369	94.75
516.585	82.75
516.801	98.75
517.016	95.75
517.232	92.75
517.448	96.75
517.664	95.75
517.879	93.75
