Data from Ni(NO3)2@0.25M.TitratingCurve.Agarose3%dH2O.NegLispCup.LampEnergy10.LIBS07252019_HRD10591_18-02-41-565.txt Node
Date: Thu Jul 25 18:02:41 EDT 2019
User: cochatt
Spectrometer: HR+D1059
Trigger mode: 1
Integration Time (sec): 1.000000E-1
Scans to average: 1
Electric dark correction enabled: true
Nonlinearity correction enabled: false
Boxcar width: 0
XAxis mode: Wavelengths
Number of Pixels in Spectrum: 2048
>>>>>Begin Spectral Data<<<<<
223.165	-22.81
223.4	-22.81
223.635	-22.81
223.869	-14.81
224.104	-10.81
224.338	-10.81
224.573	-8.81
224.808	-16.81
225.042	-3.81
225.277	-10.81
225.511	-9.81
225.746	4.19
225.98	12.19
226.215	3.19
226.449	14.19
226.683	13.19
226.918	41.19
227.152	21.19
227.387	31.19
227.621	31.19
227.856	36.19
228.09	50.19
228.324	51.19
228.559	55.19
228.793	66.19
229.027	129.19
229.262	111.19
229.496	123.19
229.73	126.19
229.964	127.19
230.199	157.19
230.433	164.19
230.667	160.19
230.901	153.19
231.136	145.19
231.37	139.19
231.604	161.19
231.838	170.19
232.072	174.19
232.306	156.19
232.541	138.19
232.775	149.19
233.009	149.19
233.243	134.19
233.477	134.19
233.711	144.19
233.945	135.19
234.179	147.19
234.413	143.19
234.647	162.19
234.881	151.19
235.115	135.19
235.349	139.19
235.583	145.19
235.817	165.19
236.051	129.19
236.285	147.19
236.519	149.19
236.753	140.19
236.987	152.19
237.221	160.19
237.455	137.19
237.689	159.19
237.922	158.19
238.156	154.19
238.39	148.19
238.624	158.19
238.858	154.19
239.091	157.19
239.325	166.19
239.559	158.19
239.793	154.19
240.027	182.19
240.26	161.19
240.494	161.19
240.728	163.19
240.961	158.19
241.195	165.19
241.429	167.19
241.662	175.19
241.896	173.19
242.13	181.19
242.363	181.19
242.597	156.19
242.83	153.19
243.064	175.19
243.298	172.19
243.531	190.19
243.765	182.19
243.998	194.19
244.232	207.19
244.465	190.19
244.699	173.19
244.932	201.19
245.166	195.19
245.399	182.19
245.633	200.19
245.866	199.19
246.099	196.19
246.333	198.19
246.566	202.19
246.8	204.19
247.033	200.19
247.266	219.19
247.5	193.19
247.733	214.19
247.966	221.19
248.2	223.19
248.433	214.19
248.666	235.19
248.899	226.19
249.133	237.19
249.366	241.19
249.599	240.19
249.832	246.19
250.066	237.19
250.299	232.19
250.532	246.19
250.765	260.19
250.998	267.19
251.231	278.19
251.465	265.19
251.698	284.19
251.931	282.19
252.164	273.19
252.397	272.19
252.63	301.19
252.863	301.19
253.096	287.19
253.329	278.19
253.562	282.19
253.795	298.19
254.028	318.19
254.261	319.19
254.494	299.19
254.727	307.19
254.96	316.19
255.193	313.19
255.426	300.19
255.659	324.19
255.892	332.19
256.124	334.19
256.357	353.19
256.59	335.19
256.823	324.19
257.056	333.19
257.289	343.19
257.521	374.19
257.754	350.19
257.987	357.19
258.22	357.19
258.452	361.19
258.685	364.19
258.918	349.19
259.151	369.19
259.383	353.19
259.616	373.19
259.849	366.19
260.081	373.19
260.314	393.19
260.547	368.19
260.779	378.19
261.012	393.19
261.244	407.19
261.477	405.19
261.71	389.19
261.942	368.19
262.175	408.19
262.407	413.19
262.64	410.19
262.872	407.19
263.105	403.19
263.337	409.19
263.57	431.19
263.802	422.19
264.035	413.19
264.267	419.19
264.499	415.19
264.732	419.19
264.964	439.19
265.197	417.19
265.429	438.19
265.661	419.19
265.894	434.19
266.126	435.19
266.358	427.19
266.591	426.19
266.823	444.19
267.055	443.19
267.287	438.19
267.52	456.19
267.752	442.19
267.984	427.19
268.216	435.19
268.448	452.19
268.681	425.19
268.913	442.19
269.145	453.19
269.377	470.19
269.609	449.19
269.841	463.19
270.073	469.19
270.306	473.19
270.538	461.19
270.77	467.19
271.002	453.19
271.234	472.19
271.466	474.19
271.698	483.19
271.93	475.19
272.162	471.19
272.394	476.19
272.626	475.19
272.858	450.19
273.09	467.19
273.322	476.19
273.553	480.19
273.785	481.19
274.017	452.19
274.249	485.19
274.481	486.19
274.713	474.19
274.945	503.19
275.176	491.19
275.408	487.19
275.64	486.19
275.872	486.19
276.104	469.19
276.335	497.19
276.567	482.19
276.799	488.19
277.031	483.19
277.262	510.19
277.494	506.19
277.726	516.19
277.957	510.19
278.189	511.19
278.421	494.19
278.652	493.19
278.884	514.19
279.115	492.19
279.347	509.19
279.579	506.19
279.81	519.19
280.042	513.19
280.273	531.19
280.505	529.19
280.736	513.19
280.968	533.19
281.199	519.19
281.431	518.19
281.662	518.19
281.894	521.19
282.125	528.19
282.356	539.19
282.588	494.19
282.819	531.19
283.051	522.19
283.282	541.19
283.513	543.19
283.745	539.19
283.976	510.19
284.207	514.19
284.439	527.19
284.67	522.19
284.901	543.19
285.132	530.19
285.364	506.19
285.595	542.19
285.826	549.19
286.057	544.19
286.288	529.19
286.52	554.19
286.751	545.19
286.982	557.19
287.213	535.19
287.444	548.19
287.675	546.19
287.906	547.19
288.138	540.19
288.369	550.19
288.6	538.19
288.831	534.19
289.062	522.19
289.293	572.19
289.524	536.19
289.755	561.19
289.986	537.19
290.217	509.19
290.448	547.19
290.679	534.19
290.91	545.19
291.141	539.19
291.371	553.19
291.602	533.19
291.833	553.19
292.064	547.19
292.295	551.19
292.526	530.19
292.757	554.19
292.987	526.19
293.218	510.19
293.449	562.19
293.68	558.19
293.91	552.19
294.141	531.19
294.372	569.19
294.603	557.19
294.833	542.19
295.064	555.19
295.295	547.19
295.525	519.19
295.756	547.19
295.987	524.19
296.217	546.19
296.448	557.19
296.679	565.19
296.909	563.19
297.14	557.19
297.37	561.19
297.601	581.19
297.831	548.19
298.062	559.19
298.292	547.19
298.523	587.19
298.753	555.19
298.984	564.19
299.214	596.19
299.445	600.19
299.675	589.19
299.905	573.19
300.136	588.19
300.366	621.19
300.597	610.19
300.827	598.19
301.057	607.19
301.288	628.19
301.518	611.19
301.748	582.19
301.979	598.19
302.209	606.19
302.439	594.19
302.669	595.19
302.9	611.19
303.13	589.19
303.36	583.19
303.59	629.19
303.82	608.19
304.051	637.19
304.281	621.19
304.511	608.19
304.741	607.19
304.971	606.19
305.201	640.19
305.431	641.19
305.661	633.19
305.891	638.19
306.121	636.19
306.352	634.19
306.582	637.19
306.812	628.19
307.042	602.19
307.272	619.19
307.502	625.19
307.731	645.19
307.961	649.19
308.191	648.19
308.421	654.19
308.651	649.19
308.881	637.19
309.111	643.19
309.341	605.19
309.571	652.19
309.8	663.19
310.03	659.19
310.26	690.19
310.49	664.19
310.72	679.19
310.949	673.19
311.179	690.19
311.409	651.19
311.639	676.19
311.868	681.19
312.098	689.19
312.328	713.19
312.557	709.19
312.787	675.19
313.017	693.19
313.246	707.19
313.476	741.19
313.706	728.19
313.935	723.19
314.165	708.19
314.394	702.19
314.624	714.19
314.853	736.19
315.083	747.19
315.312	747.19
315.542	766.19
315.771	751.19
316.001	720.19
316.23	749.19
316.46	753.19
316.689	769.19
316.919	742.19
317.148	777.19
317.377	775.19
317.607	775.19
317.836	807.19
318.065	798.19
318.295	807.19
318.524	767.19
318.753	789.19
318.983	784.19
319.212	783.19
319.441	791.19
319.67	823.19
319.9	826.19
320.129	806.19
320.358	837.19
320.587	833.19
320.816	831.19
321.046	854.19
321.275	825.19
321.504	873.19
321.733	842.19
321.962	861.19
322.191	847.19
322.42	883.19
322.649	893.19
322.878	883.19
323.108	876.19
323.337	890.19
323.566	911.19
323.795	905.19
324.024	912.19
324.253	896.19
324.482	899.19
324.71	889.19
324.939	928.19
325.168	919.19
325.397	931.19
325.626	977.19
325.855	927.19
326.084	943.19
326.313	942.19
326.542	965.19
326.77	981.19
326.999	953.19
327.228	958.19
327.457	965.19
327.686	989.19
327.914	988.19
328.143	1005.19
328.372	971.19
328.6	982.19
328.829	950.19
329.058	988.19
329.287	986.19
329.515	1025.19
329.744	993.19
329.972	1034.19
330.201	1038.19
330.43	1011.19
330.658	1037.19
330.887	1064.19
331.115	1024.19
331.344	1041.19
331.572	1043.19
331.801	1062.19
332.03	1052.19
332.258	1063.19
332.486	1075.19
332.715	1078.19
332.943	1082.19
333.172	1066.19
333.4	1095.19
333.629	1074.19
333.857	1067.19
334.085	1094.19
334.314	1117.19
334.542	1121.19
334.771	1137.19
334.999	1108.19
335.227	1160.19
335.455	1157.19
335.684	1155.19
335.912	1177.19
336.14	1174.19
336.369	1153.19
336.597	1159.19
336.825	1171.19
337.053	1155.19
337.281	1194.19
337.51	1159.19
337.738	1172.19
337.966	1150.19
338.194	1126.19
338.422	1167.19
338.65	1116.19
338.878	1130.19
339.106	1137.19
339.334	1149.19
339.562	1135.19
339.79	1147.19
340.018	1143.19
340.246	1153.19
340.474	1147.19
340.702	1119.19
340.93	1133.19
341.158	1126.19
341.386	1137.19
341.614	1165.19
341.842	1124.19
342.07	1081.19
342.298	1118.19
342.526	1125.19
342.754	1120.19
342.981	1128.19
343.209	1137.19
343.437	1145.19
343.665	1173.19
343.893	1133.19
344.12	1177.19
344.348	1157.19
344.576	1168.19
344.804	1189.19
345.031	1149.19
345.259	1137.19
345.487	1126.19
345.714	1146.19
345.942	1133.19
346.17	1144.19
346.397	1129.19
346.625	1115.19
346.853	1117.19
347.08	1119.19
347.308	1119.19
347.535	1135.19
347.763	1119.19
347.99	1098.19
348.218	1110.19
348.445	1117.19
348.673	1082.19
348.9	1085.19
349.128	1105.19
349.355	1116.19
349.583	1111.19
349.81	1091.19
350.037	1124.19
350.265	1079.19
350.492	1069.19
350.72	1066.19
350.947	1077.19
351.174	1083.19
351.402	1099.19
351.629	1133.19
351.856	1121.19
352.083	1086.19
352.311	1109.19
352.538	1110.19
352.765	1096.19
352.992	1089.19
353.22	1062.19
353.447	1078.19
353.674	1067.19
353.901	1062.19
354.128	1080.19
354.355	1049.19
354.583	1054.19
354.81	1062.19
355.037	1088.19
355.264	1067.19
355.491	1095.19
355.718	1064.19
355.945	1047.19
356.172	1082.19
356.399	1075.19
356.626	1099.19
356.853	1118.19
357.08	1035.19
357.307	1058.19
357.534	1108.19
357.761	1081.19
357.988	1080.19
358.215	1050.19
358.441	1068.19
358.668	1034.19
358.895	1073.19
359.122	1075.19
359.349	1062.19
359.576	1075.19
359.802	1055.19
360.029	1036.19
360.256	1079.19
360.483	1060.19
360.709	1083.19
360.936	1050.19
361.163	1077.19
361.39	1082.19
361.616	1049.19
361.843	1079.19
362.07	1083.19
362.296	1107.19
362.523	1057.19
362.749	1037.19
362.976	1060.19
363.203	1069.19
363.429	1036.19
363.656	1045.19
363.882	1088.19
364.109	1037.19
364.335	1056.19
364.562	1085.19
364.788	1055.19
365.015	1059.19
365.241	1083.19
365.468	1055.19
365.694	1065.19
365.92	1053.19
366.147	1051.19
366.373	1054.19
366.599	1039.19
366.826	1052.19
367.052	1028.19
367.278	1063.19
367.505	1047.19
367.731	1063.19
367.957	1069.19
368.184	1061.19
368.41	1066.19
368.636	1058.19
368.862	1071.19
369.089	1081.19
369.315	1043.19
369.541	1054.19
369.767	1048.19
369.993	1050.19
370.219	1068.19
370.445	1111.19
370.672	1056.19
370.898	1068.19
371.124	1066.19
371.35	1058.19
371.576	1035.19
371.802	1081.19
372.028	1055.19
372.254	1069.19
372.48	1092.19
372.706	1084.19
372.932	1067.19
373.158	1070.19
373.384	1049.19
373.61	1047.19
373.835	1045.19
374.061	1080.19
374.287	1068.19
374.513	1066.19
374.739	1051.19
374.965	1076.19
375.191	1074.19
375.416	1084.19
375.642	1040.19
375.868	1035.19
376.094	1039.19
376.319	1065.19
376.545	1021.19
376.771	1058.19
376.997	1053.19
377.222	1027.19
377.448	1012.19
377.674	1017.19
377.899	1002.19
378.125	998.19
378.35	1028.19
378.576	1016.19
378.802	1012.19
379.027	1021.19
379.253	1009.19
379.478	998.19
379.704	1006.19
379.929	1002.19
380.155	992.19
380.38	1008.19
380.606	1001.19
380.831	1008.19
381.057	1005.19
381.282	973.19
381.507	980.19
381.733	1007.19
381.958	1046.19
382.184	1012.19
382.409	1025.19
382.634	1057.19
382.86	1058.19
383.085	1007.19
383.31	1029.19
383.535	1019.19
383.761	1020.19
383.986	1036.19
384.211	1034.19
384.436	1068.19
384.662	1019.19
384.887	1036.19
385.112	1077.19
385.337	1084.19
385.562	1054.19
385.787	1049.19
386.013	1096.19
386.238	1057.19
386.463	1085.19
386.688	1054.19
386.913	1045.19
387.138	1061.19
387.363	1080.19
387.588	1067.19
387.813	1092.19
388.038	1077.19
388.263	1079.19
388.488	1071.19
388.713	1085.19
388.938	1079.19
389.163	1064.19
389.387	1095.19
389.612	1068.19
389.837	1097.19
390.062	1068.19
390.287	1085.19
390.512	1082.19
390.736	1098.19
390.961	1081.19
391.186	1099.19
391.411	1116.19
391.636	1064.19
391.86	1097.19
392.085	1127.19
392.31	1101.19
392.534	1095.19
392.759	1115.19
392.984	1109.19
393.208	1115.19
393.433	1110.19
393.658	1117.19
393.882	1093.19
394.107	1093.19
394.331	1094.19
394.556	1066.19
394.78	1095.19
395.005	1131.19
395.229	1103.19
395.454	1133.19
395.678	1123.19
395.903	1109.19
396.127	1148.19
396.352	1125.19
396.576	1130.19
396.801	1133.19
397.025	1120.19
397.249	1107.19
397.474	1134.19
397.698	1151.19
397.922	1157.19
398.147	1155.19
398.371	1189.19
398.595	1157.19
398.82	1177.19
399.044	1189.19
399.268	1229.19
399.492	1223.19
399.717	1260.19
399.941	1250.19
400.165	1261.19
400.389	1255.19
400.613	1261.19
400.837	1262.19
401.062	1244.19
401.286	1278.19
401.51	1215.19
401.734	1232.19
401.958	1254.19
402.182	1217.19
402.406	1212.19
402.63	1198.19
402.854	1196.19
403.078	1220.19
403.302	1221.19
403.526	1169.19
403.75	1195.19
403.974	1243.19
404.198	1215.19
404.422	1233.19
404.645	1225.19
404.869	1205.19
405.093	1219.19
405.317	1223.19
405.541	1223.19
405.765	1239.19
405.988	1267.19
406.212	1260.19
406.436	1245.19
406.66	1288.19
406.883	1276.19
407.107	1322.19
407.331	1292.19
407.555	1284.19
407.778	1295.19
408.002	1300.19
408.226	1324.19
408.449	1338.19
408.673	1334.19
408.896	1276.19
409.12	1243.19
409.344	1291.19
409.567	1286.19
409.791	1292.19
410.014	1293.19
410.238	1261.19
410.461	1301.19
410.685	1283.19
410.908	1288.19
411.132	1269.19
411.355	1258.19
411.578	1276.19
411.802	1265.19
412.025	1256.19
412.249	1269.19
412.472	1263.19
412.695	1261.19
412.919	1245.19
413.142	1251.19
413.365	1210.19
413.589	1286.19
413.812	1287.19
414.035	1251.19
414.258	1226.19
414.482	1240.19
414.705	1268.19
414.928	1234.19
415.151	1226.19
415.374	1217.19
415.597	1219.19
415.821	1198.19
416.044	1209.19
416.267	1235.19
416.49	1224.19
416.713	1221.19
416.936	1241.19
417.159	1215.19
417.382	1185.19
417.605	1207.19
417.828	1201.19
418.051	1253.19
418.274	1195.19
418.497	1168.19
418.72	1199.19
418.943	1198.19
419.166	1252.19
419.389	1328.19
419.611	1273.19
419.834	1278.19
420.057	1237.19
420.28	1230.19
420.503	1194.19
420.726	1189.19
420.948	1223.19
421.171	1201.19
421.394	1225.19
421.617	1226.19
421.839	1212.19
422.062	1225.19
422.285	1205.19
422.507	1210.19
422.73	1216.19
422.953	1243.19
423.175	1229.19
423.398	1227.19
423.621	1197.19
423.843	1253.19
424.066	1208.19
424.288	1247.19
424.511	1255.19
424.733	1229.19
424.956	1228.19
425.178	1219.19
425.401	1218.19
425.623	1204.19
425.846	1231.19
426.068	1218.19
426.291	1237.19
426.513	1192.19
426.735	1208.19
426.958	1247.19
427.18	1239.19
427.402	1191.19
427.625	1237.19
427.847	1228.19
428.069	1242.19
428.292	1254.19
428.514	1219.19
428.736	1204.19
428.958	1238.19
429.181	1230.19
429.403	1227.19
429.625	1237.19
429.847	1229.19
430.069	1242.19
430.292	1272.19
430.514	1222.19
430.736	1273.19
430.958	1239.19
431.18	1223.19
431.402	1231.19
431.624	1207.19
431.846	1232.19
432.068	1235.19
432.29	1251.19
432.512	1204.19
432.734	1251.19
432.956	1259.19
433.178	1243.19
433.4	1277.19
433.622	1252.19
433.844	1277.19
434.066	1249.19
434.287	1261.19
434.509	1268.19
434.731	1239.19
434.953	1254.19
435.175	1266.19
435.397	1304.19
435.618	1253.19
435.84	1254.19
436.062	1216.19
436.284	1252.19
436.505	1261.19
436.727	1275.19
436.949	1253.19
437.17	1227.19
437.392	1217.19
437.614	1261.19
437.835	1256.19
438.057	1197.19
438.278	1208.19
438.5	1198.19
438.721	1213.19
438.943	1225.19
439.165	1203.19
439.386	1262.19
439.608	1238.19
439.829	1205.19
440.05	1236.19
440.272	1252.19
440.493	1221.19
440.715	1255.19
440.936	1272.19
441.158	1250.19
441.379	1247.19
441.6	1287.19
441.822	1277.19
442.043	1294.19
442.264	1243.19
442.486	1253.19
442.707	1243.19
442.928	1264.19
443.149	1270.19
443.371	1299.19
443.592	1349.19
443.813	1296.19
444.034	1280.19
444.255	1288.19
444.476	1285.19
444.698	1309.19
444.919	1298.19
445.14	1417.19
445.361	1385.19
445.582	1309.19
445.803	1259.19
446.024	1235.19
446.245	1271.19
446.466	1274.19
446.687	1206.19
446.908	1229.19
447.129	1200.19
447.35	1217.19
447.571	1217.19
447.792	1189.19
448.013	1191.19
448.234	1227.19
448.455	1183.19
448.675	1199.19
448.896	1194.19
449.117	1164.19
449.338	1183.19
449.559	1149.19
449.779	1166.19
450	1204.19
450.221	1162.19
450.442	1175.19
450.662	1173.19
450.883	1157.19
451.104	1183.19
451.324	1156.19
451.545	1149.19
451.766	1161.19
451.986	1141.19
452.207	1115.19
452.428	1127.19
452.648	1117.19
452.869	1116.19
453.089	1131.19
453.31	1165.19
453.53	1127.19
453.751	1124.19
453.971	1109.19
454.192	1137.19
454.412	1155.19
454.633	1121.19
454.853	1118.19
455.073	1131.19
455.294	1123.19
455.514	1104.19
455.734	1143.19
455.955	1113.19
456.175	1149.19
456.395	1111.19
456.616	1105.19
456.836	1103.19
457.056	1130.19
457.276	1115.19
457.497	1150.19
457.717	1134.19
457.937	1145.19
458.157	1149.19
458.377	1143.19
458.598	1140.19
458.818	1146.19
459.038	1167.19
459.258	1206.19
459.478	1247.19
459.698	1285.19
459.918	1303.19
460.138	1281.19
460.358	1243.19
460.578	1257.19
460.798	1286.19
461.018	1292.19
461.238	1270.19
461.458	1265.19
461.678	1236.19
461.898	1271.19
462.118	1245.19
462.338	1268.19
462.558	1324.19
462.777	1315.19
462.997	1353.19
463.217	1350.19
463.437	1393.19
463.657	1372.19
463.876	1374.19
464.096	1333.19
464.316	1318.19
464.536	1287.19
464.755	1330.19
464.975	1319.19
465.195	1277.19
465.414	1272.19
465.634	1216.19
465.854	1238.19
466.073	1241.19
466.293	1238.19
466.512	1206.19
466.732	1201.19
466.951	1197.19
467.171	1203.19
467.391	1211.19
467.61	1229.19
467.829	1209.19
468.049	1226.19
468.268	1210.19
468.488	1198.19
468.707	1186.19
468.927	1210.19
469.146	1232.19
469.365	1244.19
469.585	1201.19
469.804	1225.19
470.023	1224.19
470.243	1206.19
470.462	1226.19
470.681	1227.19
470.901	1229.19
471.12	1238.19
471.339	1234.19
471.558	1237.19
471.777	1267.19
471.997	1237.19
472.216	1215.19
472.435	1192.19
472.654	1209.19
472.873	1201.19
473.092	1243.19
473.311	1240.19
473.53	1219.19
473.749	1229.19
473.968	1236.19
474.187	1231.19
474.406	1225.19
474.625	1230.19
474.844	1246.19
475.063	1289.19
475.282	1267.19
475.501	1299.19
475.72	1251.19
475.939	1292.19
476.158	1283.19
476.377	1290.19
476.596	1287.19
476.814	1303.19
477.033	1295.19
477.252	1367.19
477.471	1329.19
477.69	1342.19
477.908	1349.19
478.127	1368.19
478.346	1395.19
478.564	1409.19
478.783	1387.19
479.002	1449.19
479.22	1451.19
479.439	1426.19
479.658	1453.19
479.876	1425.19
480.095	1427.19
480.313	1453.19
480.532	1445.19
480.751	1433.19
480.969	1438.19
481.188	1431.19
481.406	1447.19
481.624	1404.19
481.843	1420.19
482.061	1457.19
482.28	1447.19
482.498	1431.19
482.717	1418.19
482.935	1473.19
483.153	1488.19
483.372	1502.19
483.59	1549.19
483.808	1517.19
484.027	1477.19
484.245	1470.19
484.463	1517.19
484.681	1466.19
484.9	1495.19
485.118	1498.19
485.336	1460.19
485.554	1491.19
485.772	1485.19
485.99	1461.19
486.209	1509.19
486.427	1463.19
486.645	1475.19
486.863	1490.19
487.081	1502.19
487.299	1506.19
487.517	1508.19
487.735	1541.19
487.953	1577.19
488.171	1554.19
488.389	1601.19
488.607	1553.19
488.825	1496.19
489.043	1505.19
489.261	1494.19
489.479	1518.19
489.696	1524.19
489.914	1538.19
490.132	1521.19
490.35	1556.19
490.568	1525.19
490.786	1560.19
491.003	1544.19
491.221	1572.19
491.439	1597.19
491.657	1585.19
