Data from Ni(NO3)2@0.0625M.TitratingCurve.Agarose3%dH2O.NegLispCup.LampEnergy10.LIBS07252019_HRD10591_18-13-17-568.txt Node
Date: Thu Jul 25 18:13:17 EDT 2019
User: cochatt
Spectrometer: HR+D1059
Trigger mode: 1
Integration Time (sec): 1.000000E-1
Scans to average: 1
Electric dark correction enabled: true
Nonlinearity correction enabled: false
Boxcar width: 0
XAxis mode: Wavelengths
Number of Pixels in Spectrum: 2048
>>>>>Begin Spectral Data<<<<<
223.165	-17.38
223.4	-17.38
223.635	-17.38
223.869	-24.38
224.104	-17.38
224.338	-23.38
224.573	-10.38
224.808	-10.38
225.042	-8.38
225.277	-3.38
225.511	5.62
225.746	11.62
225.98	6.62
226.215	5.62
226.449	18.62
226.683	23.62
226.918	13.62
227.152	29.62
227.387	30.62
227.621	39.62
227.856	34.62
228.09	43.62
228.324	41.62
228.559	56.62
228.793	72.62
229.027	97.62
229.262	91.62
229.496	104.62
229.73	122.62
229.964	98.62
230.199	100.62
230.433	119.62
230.667	109.62
230.901	125.62
231.136	116.62
231.37	124.62
231.604	126.62
231.838	118.62
232.072	122.62
232.306	129.62
232.541	129.62
232.775	111.62
233.009	126.62
233.243	136.62
233.477	135.62
233.711	116.62
233.945	138.62
234.179	138.62
234.413	122.62
234.647	130.62
234.881	131.62
235.115	141.62
235.349	123.62
235.583	148.62
235.817	133.62
236.051	131.62
236.285	132.62
236.519	141.62
236.753	132.62
236.987	138.62
237.221	132.62
237.455	151.62
237.689	143.62
237.922	151.62
238.156	139.62
238.39	140.62
238.624	157.62
238.858	128.62
239.091	138.62
239.325	147.62
239.559	164.62
239.793	155.62
240.027	146.62
240.26	153.62
240.494	155.62
240.728	160.62
240.961	146.62
241.195	149.62
241.429	164.62
241.662	142.62
241.896	180.62
242.13	163.62
242.363	168.62
242.597	169.62
242.83	147.62
243.064	167.62
243.298	170.62
243.531	155.62
243.765	166.62
243.998	160.62
244.232	178.62
244.465	182.62
244.699	159.62
244.932	184.62
245.166	175.62
245.399	193.62
245.633	188.62
245.866	190.62
246.099	171.62
246.333	199.62
246.566	188.62
246.8	161.62
247.033	186.62
247.266	193.62
247.5	187.62
247.733	190.62
247.966	218.62
248.2	203.62
248.433	198.62
248.666	202.62
248.899	210.62
249.133	208.62
249.366	205.62
249.599	207.62
249.832	201.62
250.066	219.62
250.299	210.62
250.532	211.62
250.765	227.62
250.998	203.62
251.231	226.62
251.465	216.62
251.698	215.62
251.931	206.62
252.164	210.62
252.397	229.62
252.63	227.62
252.863	223.62
253.096	229.62
253.329	242.62
253.562	222.62
253.795	213.62
254.028	231.62
254.261	241.62
254.494	252.62
254.727	236.62
254.96	243.62
255.193	242.62
255.426	237.62
255.659	235.62
255.892	211.62
256.124	226.62
256.357	261.62
256.59	245.62
256.823	232.62
257.056	244.62
257.289	254.62
257.521	247.62
257.754	251.62
257.987	239.62
258.22	233.62
258.452	243.62
258.685	261.62
258.918	249.62
259.151	264.62
259.383	269.62
259.616	247.62
259.849	252.62
260.081	260.62
260.314	264.62
260.547	244.62
260.779	257.62
261.012	249.62
261.244	251.62
261.477	269.62
261.71	266.62
261.942	267.62
262.175	266.62
262.407	263.62
262.64	263.62
262.872	281.62
263.105	259.62
263.337	268.62
263.57	272.62
263.802	262.62
264.035	279.62
264.267	274.62
264.499	288.62
264.732	283.62
264.964	288.62
265.197	271.62
265.429	284.62
265.661	270.62
265.894	293.62
266.126	283.62
266.358	292.62
266.591	286.62
266.823	281.62
267.055	300.62
267.287	284.62
267.52	305.62
267.752	293.62
267.984	293.62
268.216	311.62
268.448	295.62
268.681	307.62
268.913	292.62
269.145	294.62
269.377	308.62
269.609	300.62
269.841	311.62
270.073	302.62
270.306	302.62
270.538	309.62
270.77	315.62
271.002	311.62
271.234	333.62
271.466	316.62
271.698	316.62
271.93	312.62
272.162	335.62
272.394	319.62
272.626	310.62
272.858	331.62
273.09	323.62
273.322	322.62
273.553	305.62
273.785	306.62
274.017	298.62
274.249	348.62
274.481	313.62
274.713	322.62
274.945	334.62
275.176	328.62
275.408	337.62
275.64	320.62
275.872	329.62
276.104	344.62
276.335	336.62
276.567	338.62
276.799	331.62
277.031	338.62
277.262	353.62
277.494	350.62
277.726	346.62
277.957	356.62
278.189	331.62
278.421	323.62
278.652	334.62
278.884	352.62
279.115	345.62
279.347	365.62
279.579	355.62
279.81	344.62
280.042	370.62
280.273	352.62
280.505	368.62
280.736	352.62
280.968	372.62
281.199	358.62
281.431	364.62
281.662	365.62
281.894	392.62
282.125	375.62
282.356	372.62
282.588	378.62
282.819	376.62
283.051	372.62
283.282	391.62
283.513	381.62
283.745	389.62
283.976	391.62
284.207	393.62
284.439	382.62
284.67	390.62
284.901	394.62
285.132	395.62
285.364	386.62
285.595	378.62
285.826	376.62
286.057	391.62
286.288	403.62
286.52	392.62
286.751	412.62
286.982	396.62
287.213	407.62
287.444	394.62
287.675	406.62
287.906	403.62
288.138	419.62
288.369	410.62
288.6	415.62
288.831	430.62
289.062	409.62
289.293	423.62
289.524	432.62
289.755	436.62
289.986	437.62
290.217	417.62
290.448	404.62
290.679	419.62
290.91	412.62
291.141	424.62
291.371	422.62
291.602	411.62
291.833	432.62
292.064	425.62
292.295	408.62
292.526	421.62
292.757	424.62
292.987	437.62
293.218	388.62
293.449	420.62
293.68	416.62
293.91	408.62
294.141	419.62
294.372	434.62
294.603	443.62
294.833	438.62
295.064	447.62
295.295	448.62
295.525	448.62
295.756	433.62
295.987	408.62
296.217	446.62
296.448	450.62
296.679	446.62
296.909	441.62
297.14	435.62
297.37	458.62
297.601	458.62
297.831	451.62
298.062	466.62
298.292	471.62
298.523	456.62
298.753	478.62
298.984	459.62
299.214	451.62
299.445	463.62
299.675	453.62
299.905	456.62
300.136	463.62
300.366	469.62
300.597	450.62
300.827	479.62
301.057	468.62
301.288	484.62
301.518	481.62
301.748	457.62
301.979	491.62
302.209	480.62
302.439	465.62
302.669	469.62
302.9	484.62
303.13	464.62
303.36	481.62
303.59	463.62
303.82	468.62
304.051	463.62
304.281	487.62
304.511	481.62
304.741	475.62
304.971	480.62
305.201	486.62
305.431	467.62
305.661	474.62
305.891	476.62
306.121	469.62
306.352	459.62
306.582	467.62
306.812	463.62
307.042	456.62
307.272	463.62
307.502	453.62
307.731	447.62
307.961	480.62
308.191	467.62
308.421	445.62
308.651	456.62
308.881	443.62
309.111	450.62
309.341	464.62
309.571	468.62
309.8	466.62
310.03	441.62
310.26	456.62
310.49	456.62
310.72	474.62
310.949	464.62
311.179	462.62
311.409	471.62
311.639	464.62
311.868	489.62
312.098	492.62
312.328	506.62
312.557	465.62
312.787	497.62
313.017	494.62
313.246	480.62
313.476	494.62
313.706	488.62
313.935	501.62
314.165	499.62
314.394	492.62
314.624	482.62
314.853	494.62
315.083	480.62
315.312	500.62
315.542	486.62
315.771	499.62
316.001	491.62
316.23	478.62
316.46	459.62
316.689	473.62
316.919	466.62
317.148	467.62
317.377	478.62
317.607	467.62
317.836	477.62
318.065	483.62
318.295	491.62
318.524	471.62
318.753	482.62
318.983	475.62
319.212	439.62
319.441	492.62
319.67	492.62
319.9	482.62
320.129	493.62
320.358	483.62
320.587	476.62
320.816	510.62
321.046	472.62
321.275	476.62
321.504	465.62
321.733	484.62
321.962	465.62
322.191	473.62
322.42	499.62
322.649	499.62
322.878	508.62
323.108	489.62
323.337	504.62
323.566	499.62
323.795	500.62
324.024	507.62
324.253	474.62
324.482	513.62
324.71	514.62
324.939	521.62
325.168	491.62
325.397	491.62
325.626	513.62
325.855	515.62
326.084	512.62
326.313	528.62
326.542	555.62
326.77	540.62
326.999	535.62
327.228	534.62
327.457	534.62
327.686	534.62
327.914	510.62
328.143	528.62
328.372	554.62
328.6	519.62
328.829	533.62
329.058	538.62
329.287	537.62
329.515	539.62
329.744	536.62
329.972	531.62
330.201	529.62
330.43	556.62
330.658	550.62
330.887	536.62
331.115	548.62
331.344	552.62
331.572	562.62
331.801	562.62
332.03	587.62
332.258	598.62
332.486	609.62
332.715	628.62
332.943	648.62
333.172	690.62
333.4	720.62
333.629	747.62
333.857	723.62
334.085	698.62
334.314	694.62
334.542	668.62
334.771	683.62
334.999	669.62
335.227	635.62
335.455	653.62
335.684	662.62
335.912	670.62
336.14	644.62
336.369	655.62
336.597	656.62
336.825	664.62
337.053	635.62
337.281	634.62
337.51	622.62
337.738	602.62
337.966	595.62
338.194	573.62
338.422	590.62
338.65	564.62
338.878	603.62
339.106	567.62
339.334	553.62
339.562	564.62
339.79	556.62
340.018	539.62
340.246	559.62
340.474	563.62
340.702	561.62
340.93	583.62
341.158	574.62
341.386	559.62
341.614	572.62
341.842	554.62
342.07	542.62
342.298	532.62
342.526	573.62
342.754	548.62
342.981	550.62
343.209	535.62
343.437	611.62
343.665	638.62
343.893	676.62
344.12	707.62
344.348	668.62
344.576	594.62
344.804	577.62
345.031	595.62
345.259	594.62
345.487	555.62
345.714	566.62
345.942	562.62
346.17	578.62
346.397	539.62
346.625	544.62
346.853	548.62
347.08	567.62
347.308	545.62
347.535	553.62
347.763	565.62
347.99	548.62
348.218	574.62
348.445	564.62
348.673	533.62
348.9	558.62
349.128	550.62
349.355	533.62
349.583	525.62
349.81	521.62
350.037	537.62
350.265	527.62
350.492	527.62
350.72	501.62
350.947	517.62
351.174	506.62
351.402	528.62
351.629	541.62
351.856	525.62
352.083	494.62
352.311	504.62
352.538	498.62
352.765	510.62
352.992	512.62
353.22	520.62
353.447	507.62
353.674	510.62
353.901	535.62
354.128	525.62
354.355	503.62
354.583	514.62
354.81	526.62
355.037	518.62
355.264	516.62
355.491	516.62
355.718	511.62
355.945	518.62
356.172	534.62
356.399	514.62
356.626	540.62
356.853	540.62
357.08	506.62
357.307	521.62
357.534	538.62
357.761	503.62
357.988	532.62
358.215	504.62
358.441	527.62
358.668	507.62
358.895	514.62
359.122	518.62
359.349	518.62
359.576	543.62
359.802	523.62
360.029	512.62
360.256	528.62
360.483	509.62
360.709	522.62
360.936	530.62
361.163	521.62
361.39	531.62
361.616	515.62
361.843	503.62
362.07	550.62
362.296	544.62
362.523	505.62
362.749	525.62
362.976	528.62
363.203	519.62
363.429	532.62
363.656	524.62
363.882	484.62
364.109	522.62
364.335	505.62
364.562	503.62
364.788	506.62
365.015	506.62
365.241	521.62
365.468	528.62
365.694	506.62
365.92	521.62
366.147	513.62
366.373	530.62
366.599	514.62
366.826	495.62
367.052	498.62
367.278	526.62
367.505	509.62
367.731	518.62
367.957	538.62
368.184	504.62
368.41	528.62
368.636	518.62
368.862	534.62
369.089	521.62
369.315	525.62
369.541	538.62
369.767	525.62
369.993	537.62
370.219	547.62
370.445	570.62
370.672	551.62
370.898	542.62
371.124	568.62
371.35	561.62
371.576	562.62
371.802	565.62
372.028	549.62
372.254	559.62
372.48	572.62
372.706	592.62
372.932	599.62
373.158	604.62
373.384	579.62
373.61	560.62
373.835	557.62
374.061	579.62
374.287	568.62
374.513	565.62
374.739	616.62
374.965	616.62
375.191	614.62
375.416	643.62
375.642	603.62
375.868	617.62
376.094	626.62
376.319	564.62
376.545	566.62
376.771	584.62
376.997	568.62
377.222	562.62
377.448	567.62
377.674	555.62
377.899	564.62
378.125	558.62
378.35	548.62
378.576	554.62
378.802	551.62
379.027	575.62
379.253	553.62
379.478	551.62
379.704	560.62
379.929	558.62
380.155	558.62
380.38	583.62
380.606	582.62
380.831	582.62
381.057	574.62
381.282	555.62
381.507	547.62
381.733	536.62
381.958	558.62
382.184	563.62
382.409	585.62
382.634	584.62
382.86	578.62
383.085	595.62
383.31	607.62
383.535	617.62
383.761	631.62
383.986	637.62
384.211	652.62
384.436	654.62
384.662	686.62
384.887	657.62
385.112	672.62
385.337	679.62
385.562	696.62
385.787	683.62
386.013	681.62
386.238	676.62
386.463	683.62
386.688	678.62
386.913	690.62
387.138	686.62
387.363	660.62
387.588	675.62
387.813	649.62
388.038	676.62
388.263	659.62
388.488	678.62
388.713	670.62
388.938	657.62
389.163	667.62
389.387	658.62
389.612	645.62
389.837	646.62
390.062	652.62
390.287	635.62
390.512	656.62
390.736	675.62
390.961	672.62
391.186	696.62
391.411	715.62
391.636	731.62
391.86	744.62
392.085	768.62
392.31	750.62
392.534	753.62
392.759	733.62
392.984	746.62
393.208	706.62
393.433	721.62
393.658	722.62
393.882	707.62
394.107	715.62
394.331	726.62
394.556	726.62
394.78	725.62
395.005	737.62
395.229	738.62
395.454	732.62
395.678	758.62
395.903	781.62
396.127	772.62
396.352	715.62
396.576	695.62
396.801	692.62
397.025	713.62
397.249	741.62
397.474	731.62
397.698	741.62
397.922	735.62
398.147	746.62
398.371	755.62
398.595	786.62
398.82	801.62
399.044	867.62
399.268	968.62
399.492	1160.62
399.717	1317.62
399.941	1306.62
400.165	1126.62
400.389	1024.62
400.613	929.62
400.837	861.62
401.062	868.62
401.286	854.62
401.51	849.62
401.734	812.62
401.958	873.62
402.182	862.62
402.406	901.62
402.63	874.62
402.854	916.62
403.078	918.62
403.302	950.62
403.526	962.62
403.75	987.62
403.974	995.62
404.198	1036.62
404.422	1010.62
404.645	1008.62
404.869	961.62
405.093	958.62
405.317	938.62
405.541	947.62
405.765	927.62
405.988	919.62
406.212	927.62
406.436	934.62
406.66	944.62
406.883	958.62
407.107	1008.62
407.331	1049.62
407.555	1079.62
407.778	1116.62
408.002	1097.62
408.226	1060.62
408.449	1010.62
408.673	1013.62
408.896	936.62
409.12	963.62
409.344	1007.62
409.567	984.62
409.791	998.62
410.014	996.62
410.238	957.62
410.461	974.62
410.685	957.62
410.908	920.62
411.132	922.62
411.355	893.62
411.578	878.62
411.802	912.62
412.025	889.62
412.249	898.62
412.472	912.62
412.695	848.62
412.919	840.62
413.142	828.62
413.365	827.62
413.589	852.62
413.812	840.62
414.035	808.62
414.258	825.62
414.482	848.62
414.705	859.62
414.928	850.62
415.151	877.62
415.374	854.62
415.597	841.62
415.821	823.62
416.044	824.62
416.267	815.62
416.49	820.62
416.713	828.62
416.936	840.62
417.159	812.62
417.382	836.62
417.605	850.62
417.828	820.62
418.051	858.62
418.274	843.62
418.497	832.62
418.72	864.62
418.943	859.62
419.166	962.62
419.389	1000.62
419.611	932.62
419.834	911.62
420.057	874.62
420.28	868.62
420.503	820.62
420.726	823.62
420.948	840.62
421.171	812.62
421.394	840.62
421.617	814.62
421.839	863.62
422.062	842.62
422.285	816.62
422.507	870.62
422.73	870.62
422.953	885.62
423.175	883.62
423.398	921.62
423.621	877.62
423.843	900.62
424.066	898.62
424.288	928.62
424.511	881.62
424.733	888.62
424.956	883.62
425.178	855.62
425.401	860.62
425.623	856.62
425.846	838.62
426.068	850.62
426.291	822.62
426.513	810.62
426.735	785.62
426.958	822.62
427.18	784.62
427.402	781.62
427.625	754.62
427.847	731.62
428.069	752.62
428.292	773.62
428.514	753.62
428.736	736.62
428.958	729.62
429.181	735.62
429.403	739.62
429.625	753.62
429.847	740.62
430.069	738.62
430.292	721.62
430.514	723.62
430.736	728.62
430.958	726.62
431.18	738.62
431.402	731.62
431.624	732.62
431.846	761.62
432.068	776.62
432.29	765.62
432.512	759.62
432.734	745.62
432.956	730.62
433.178	746.62
433.4	759.62
433.622	743.62
433.844	762.62
434.066	750.62
434.287	799.62
434.509	826.62
434.731	834.62
434.953	878.62
435.175	857.62
435.397	841.62
435.618	807.62
435.84	778.62
436.062	757.62
436.284	791.62
436.505	735.62
436.727	771.62
436.949	741.62
437.17	750.62
437.392	742.62
437.614	736.62
437.835	732.62
438.057	738.62
438.278	720.62
438.5	726.62
438.721	739.62
438.943	731.62
439.165	747.62
439.386	731.62
439.608	759.62
439.829	766.62
440.05	741.62
440.272	756.62
440.493	784.62
440.715	795.62
440.936	794.62
441.158	768.62
441.379	817.62
441.6	854.62
441.822	868.62
442.043	880.62
442.264	832.62
442.486	848.62
442.707	840.62
442.928	826.62
443.149	851.62
443.371	835.62
443.592	848.62
443.813	863.62
444.034	846.62
444.255	898.62
444.476	944.62
444.698	974.62
444.919	1045.62
445.14	1090.62
445.361	974.62
445.582	896.62
445.803	848.62
446.024	813.62
446.245	793.62
446.466	784.62
446.687	777.62
446.908	770.62
447.129	737.62
447.35	727.62
447.571	709.62
447.792	725.62
448.013	738.62
448.234	733.62
448.455	711.62
448.675	720.62
448.896	699.62
449.117	699.62
449.338	730.62
449.559	696.62
449.779	687.62
450	698.62
450.221	706.62
450.442	693.62
450.662	705.62
450.883	743.62
451.104	751.62
451.324	734.62
451.545	728.62
451.766	696.62
451.986	722.62
452.207	720.62
452.428	725.62
452.648	697.62
452.869	674.62
453.089	682.62
453.31	709.62
453.53	676.62
453.751	681.62
453.971	698.62
454.192	672.62
454.412	675.62
454.633	666.62
454.853	675.62
455.073	658.62
455.294	658.62
455.514	666.62
455.734	663.62
455.955	633.62
456.175	653.62
456.395	643.62
456.616	647.62
456.836	681.62
457.056	676.62
457.276	625.62
457.497	647.62
457.717	647.62
457.937	671.62
458.157	670.62
458.377	655.62
458.598	688.62
458.818	686.62
459.038	719.62
459.258	744.62
459.478	761.62
459.698	792.62
459.918	825.62
460.138	837.62
460.358	875.62
460.578	903.62
460.798	910.62
461.018	917.62
461.238	897.62
461.458	887.62
461.678	896.62
461.898	907.62
462.118	903.62
462.338	970.62
462.558	984.62
462.777	996.62
462.997	1104.62
463.217	1231.62
463.437	1261.62
463.657	1148.62
463.876	1085.62
464.096	1072.62
464.316	1060.62
464.536	1063.62
464.755	1054.62
464.975	971.62
465.195	953.62
465.414	915.62
465.634	831.62
465.854	811.62
466.073	791.62
466.293	761.62
466.512	766.62
466.732	706.62
466.951	724.62
467.171	741.62
467.391	737.62
467.61	742.62
467.829	755.62
468.049	739.62
468.268	708.62
468.488	698.62
468.707	692.62
468.927	718.62
469.146	710.62
469.365	712.62
469.585	711.62
469.804	735.62
470.023	756.62
470.243	766.62
470.462	780.62
470.681	769.62
470.901	786.62
471.12	754.62
471.339	755.62
471.558	727.62
471.777	734.62
471.997	694.62
472.216	683.62
472.435	697.62
472.654	700.62
472.873	693.62
473.092	694.62
473.311	673.62
473.53	674.62
473.749	693.62
473.968	704.62
474.187	694.62
474.406	673.62
474.625	696.62
474.844	682.62
475.063	702.62
475.282	694.62
475.501	684.62
475.72	679.62
475.939	696.62
476.158	695.62
476.377	699.62
476.596	706.62
476.814	734.62
477.033	716.62
477.252	716.62
477.471	763.62
477.69	766.62
477.908	775.62
478.127	826.62
478.346	812.62
478.564	819.62
478.783	842.62
479.002	860.62
479.22	838.62
479.439	854.62
479.658	806.62
479.876	821.62
480.095	854.62
480.313	904.62
480.532	926.62
480.751	919.62
480.969	875.62
481.188	870.62
481.406	818.62
481.624	791.62
481.843	791.62
482.061	789.62
482.28	763.62
482.498	786.62
482.717	766.62
482.935	778.62
483.153	753.62
483.372	755.62
483.59	764.62
483.808	774.62
484.027	797.62
484.245	780.62
484.463	796.62
484.681	806.62
484.9	796.62
485.118	809.62
485.336	821.62
485.554	821.62
485.772	827.62
485.99	816.62
486.209	859.62
486.427	849.62
486.645	823.62
486.863	841.62
487.081	818.62
487.299	823.62
487.517	816.62
487.735	829.62
487.953	849.62
488.171	820.62
488.389	815.62
488.607	816.62
488.825	811.62
489.043	790.62
489.261	828.62
489.479	822.62
489.696	822.62
489.914	838.62
490.132	817.62
490.35	818.62
490.568	815.62
490.786	818.62
491.003	831.62
491.221	827.62
491.439	804.62
491.657	844.62
491.874	835.62
492.092	839.62
492.31	849.62
492.527	854.62
492.745	833.62
492.963	838.62
493.18	829.62
493.398	854.62
493.615	886.62
493.833	866.62
494.05	848.62
494.268	855.62
494.485	851.62
494.703	873.62
494.92	875.62
495.138	857.62
495.355	853.62
495.573	876.62
495.79	871.62
496.008	889.62
496.225	856.62
496.442	882.62
496.66	870.62
496.877	911.62
497.094	916.62
497.312	911.62
497.529	935.62
497.746	966.62
497.963	1011.62
498.181	1031.62
498.398	1065.62
498.615	1120.62
498.832	1227.62
499.049	1298.62
499.267	1434.62
499.484	1542.62
499.701	1710.62
499.918	1914.62
500.135	2223.62
500.352	2595.62
500.569	2760.62
500.786	2773.62
501.003	2503.62
