Data from Ni(NO3)2@0.0625M.TitratingCurve.Agarose3%dH2O.NegLispCup.LampEnergy10.LIBS07252019_HRD10591_18-13-15-568.txt Node
Date: Thu Jul 25 18:13:15 EDT 2019
User: cochatt
Spectrometer: HR+D1059
Trigger mode: 1
Integration Time (sec): 1.000000E-1
Scans to average: 1
Electric dark correction enabled: true
Nonlinearity correction enabled: false
Boxcar width: 0
XAxis mode: Wavelengths
Number of Pixels in Spectrum: 2048
>>>>>Begin Spectral Data<<<<<
223.165	-21.88
223.4	-21.88
223.635	-21.88
223.869	-26.88
224.104	-22.88
224.338	-11.88
224.573	-5.88
224.808	-24.88
225.042	-18.88
225.277	-6.88
225.511	-5.88
225.746	3.12
225.98	14.12
226.215	23.12
226.449	26.12
226.683	24.12
226.918	20.12
227.152	35.12
227.387	26.12
227.621	30.12
227.856	41.12
228.09	38.12
228.324	44.12
228.559	68.12
228.793	75.12
229.027	94.12
229.262	96.12
229.496	99.12
229.73	119.12
229.964	109.12
230.199	115.12
230.433	120.12
230.667	125.12
230.901	125.12
231.136	119.12
231.37	106.12
231.604	126.12
231.838	135.12
232.072	132.12
232.306	130.12
232.541	155.12
232.775	136.12
233.009	124.12
233.243	142.12
233.477	144.12
233.711	127.12
233.945	138.12
234.179	155.12
234.413	136.12
234.647	151.12
234.881	153.12
235.115	146.12
235.349	143.12
235.583	139.12
235.817	148.12
236.051	142.12
236.285	147.12
236.519	133.12
236.753	145.12
236.987	146.12
237.221	143.12
237.455	151.12
237.689	139.12
237.922	159.12
238.156	156.12
238.39	166.12
238.624	142.12
238.858	154.12
239.091	145.12
239.325	151.12
239.559	153.12
239.793	143.12
240.027	164.12
240.26	141.12
240.494	162.12
240.728	163.12
240.961	160.12
241.195	182.12
241.429	149.12
241.662	156.12
241.896	172.12
242.13	186.12
242.363	170.12
242.597	165.12
242.83	173.12
243.064	171.12
243.298	175.12
243.531	167.12
243.765	197.12
243.998	189.12
244.232	191.12
244.465	187.12
244.699	185.12
244.932	190.12
245.166	186.12
245.399	195.12
245.633	199.12
245.866	188.12
246.099	193.12
246.333	198.12
246.566	162.12
246.8	199.12
247.033	190.12
247.266	213.12
247.5	204.12
247.733	212.12
247.966	191.12
248.2	200.12
248.433	207.12
248.666	198.12
248.899	204.12
249.133	207.12
249.366	205.12
249.599	208.12
249.832	191.12
250.066	216.12
250.299	219.12
250.532	220.12
250.765	210.12
250.998	205.12
251.231	221.12
251.465	237.12
251.698	232.12
251.931	215.12
252.164	221.12
252.397	230.12
252.63	239.12
252.863	229.12
253.096	240.12
253.329	249.12
253.562	236.12
253.795	231.12
254.028	225.12
254.261	233.12
254.494	245.12
254.727	248.12
254.96	240.12
255.193	252.12
255.426	245.12
255.659	246.12
255.892	244.12
256.124	238.12
256.357	244.12
256.59	242.12
256.823	254.12
257.056	256.12
257.289	249.12
257.521	238.12
257.754	257.12
257.987	261.12
258.22	268.12
258.452	279.12
258.685	280.12
258.918	263.12
259.151	263.12
259.383	265.12
259.616	251.12
259.849	277.12
260.081	283.12
260.314	265.12
260.547	268.12
260.779	247.12
261.012	286.12
261.244	277.12
261.477	267.12
261.71	290.12
261.942	292.12
262.175	266.12
262.407	286.12
262.64	295.12
262.872	281.12
263.105	287.12
263.337	286.12
263.57	301.12
263.802	299.12
264.035	291.12
264.267	283.12
264.499	305.12
264.732	311.12
264.964	287.12
265.197	306.12
265.429	287.12
265.661	288.12
265.894	314.12
266.126	321.12
266.358	293.12
266.591	309.12
266.823	285.12
267.055	301.12
267.287	310.12
267.52	294.12
267.752	319.12
267.984	314.12
268.216	320.12
268.448	309.12
268.681	318.12
268.913	335.12
269.145	300.12
269.377	317.12
269.609	332.12
269.841	327.12
270.073	321.12
270.306	321.12
270.538	320.12
270.77	316.12
271.002	319.12
271.234	316.12
271.466	334.12
271.698	330.12
271.93	344.12
272.162	337.12
272.394	330.12
272.626	350.12
272.858	333.12
273.09	315.12
273.322	333.12
273.553	361.12
273.785	341.12
274.017	326.12
274.249	348.12
274.481	350.12
274.713	335.12
274.945	364.12
275.176	374.12
275.408	339.12
275.64	373.12
275.872	356.12
276.104	350.12
276.335	338.12
276.567	354.12
276.799	328.12
277.031	369.12
277.262	358.12
277.494	363.12
277.726	376.12
277.957	359.12
278.189	354.12
278.421	369.12
278.652	366.12
278.884	399.12
279.115	350.12
279.347	362.12
279.579	365.12
279.81	346.12
280.042	379.12
280.273	393.12
280.505	381.12
280.736	381.12
280.968	392.12
281.199	396.12
281.431	375.12
281.662	397.12
281.894	403.12
282.125	389.12
282.356	401.12
282.588	397.12
282.819	393.12
283.051	405.12
283.282	404.12
283.513	411.12
283.745	398.12
283.976	381.12
284.207	409.12
284.439	405.12
284.67	400.12
284.901	413.12
285.132	416.12
285.364	409.12
285.595	411.12
285.826	384.12
286.057	422.12
286.288	413.12
286.52	428.12
286.751	419.12
286.982	424.12
287.213	395.12
287.444	438.12
287.675	430.12
287.906	426.12
288.138	431.12
288.369	420.12
288.6	437.12
288.831	441.12
289.062	422.12
289.293	413.12
289.524	420.12
289.755	431.12
289.986	435.12
290.217	446.12
290.448	433.12
290.679	435.12
290.91	433.12
291.141	454.12
291.371	455.12
291.602	442.12
291.833	440.12
292.064	433.12
292.295	464.12
292.526	462.12
292.757	431.12
292.987	456.12
293.218	431.12
293.449	455.12
293.68	429.12
293.91	429.12
294.141	450.12
294.372	455.12
294.603	464.12
294.833	461.12
295.064	450.12
295.295	466.12
295.525	468.12
295.756	463.12
295.987	448.12
296.217	443.12
296.448	449.12
296.679	466.12
296.909	462.12
297.14	480.12
297.37	463.12
297.601	476.12
297.831	471.12
298.062	477.12
298.292	493.12
298.523	505.12
298.753	504.12
298.984	493.12
299.214	487.12
299.445	486.12
299.675	475.12
299.905	478.12
300.136	505.12
300.366	484.12
300.597	489.12
300.827	504.12
301.057	501.12
301.288	493.12
301.518	507.12
301.748	515.12
301.979	522.12
302.209	528.12
302.439	508.12
302.669	501.12
302.9	481.12
303.13	494.12
303.36	506.12
303.59	518.12
303.82	499.12
304.051	487.12
304.281	503.12
304.511	503.12
304.741	509.12
304.971	494.12
305.201	513.12
305.431	483.12
305.661	508.12
305.891	470.12
306.121	501.12
306.352	482.12
306.582	487.12
306.812	482.12
307.042	482.12
307.272	484.12
307.502	490.12
307.731	511.12
307.961	468.12
308.191	490.12
308.421	502.12
308.651	506.12
308.881	486.12
309.111	485.12
309.341	495.12
309.571	467.12
309.8	484.12
310.03	479.12
310.26	482.12
310.49	482.12
310.72	490.12
310.949	505.12
311.179	511.12
311.409	500.12
311.639	479.12
311.868	498.12
312.098	502.12
312.328	513.12
312.557	519.12
312.787	513.12
313.017	507.12
313.246	499.12
313.476	519.12
313.706	531.12
313.935	519.12
314.165	520.12
314.394	521.12
314.624	524.12
314.853	521.12
315.083	511.12
315.312	506.12
315.542	514.12
315.771	500.12
316.001	541.12
316.23	540.12
316.46	512.12
316.689	494.12
316.919	526.12
317.148	520.12
317.377	524.12
317.607	499.12
317.836	511.12
318.065	517.12
318.295	486.12
318.524	515.12
318.753	492.12
318.983	500.12
319.212	505.12
319.441	492.12
319.67	498.12
319.9	513.12
320.129	502.12
320.358	497.12
320.587	491.12
320.816	501.12
321.046	511.12
321.275	490.12
321.504	506.12
321.733	507.12
321.962	501.12
322.191	523.12
322.42	515.12
322.649	521.12
322.878	523.12
323.108	522.12
323.337	535.12
323.566	525.12
323.795	518.12
324.024	538.12
324.253	525.12
324.482	547.12
324.71	554.12
324.939	543.12
325.168	552.12
325.397	556.12
325.626	537.12
325.855	557.12
326.084	568.12
326.313	533.12
326.542	588.12
326.77	578.12
326.999	572.12
327.228	561.12
327.457	559.12
327.686	557.12
327.914	574.12
328.143	582.12
328.372	577.12
328.6	595.12
328.829	570.12
329.058	558.12
329.287	554.12
329.515	555.12
329.744	567.12
329.972	576.12
330.201	557.12
330.43	554.12
330.658	568.12
330.887	585.12
331.115	584.12
331.344	594.12
331.572	599.12
331.801	590.12
332.03	594.12
332.258	619.12
332.486	639.12
332.715	702.12
332.943	708.12
333.172	722.12
333.4	766.12
333.629	778.12
333.857	781.12
334.085	757.12
334.314	747.12
334.542	722.12
334.771	703.12
334.999	698.12
335.227	707.12
335.455	717.12
335.684	691.12
335.912	668.12
336.14	661.12
336.369	673.12
336.597	669.12
336.825	667.12
337.053	675.12
337.281	670.12
337.51	639.12
337.738	645.12
337.966	643.12
338.194	612.12
338.422	622.12
338.65	598.12
338.878	647.12
339.106	630.12
339.334	603.12
339.562	616.12
339.79	581.12
340.018	597.12
340.246	603.12
340.474	569.12
340.702	586.12
340.93	591.12
341.158	596.12
341.386	608.12
341.614	588.12
341.842	576.12
342.07	569.12
342.298	577.12
342.526	575.12
342.754	583.12
342.981	602.12
343.209	611.12
343.437	628.12
343.665	669.12
343.893	705.12
344.12	737.12
344.348	700.12
344.576	659.12
344.804	635.12
345.031	594.12
345.259	581.12
345.487	614.12
345.714	618.12
345.942	593.12
346.17	594.12
346.397	573.12
346.625	578.12
346.853	559.12
347.08	581.12
347.308	579.12
347.535	586.12
347.763	599.12
347.99	600.12
348.218	583.12
348.445	609.12
348.673	587.12
348.9	588.12
349.128	583.12
349.355	569.12
349.583	590.12
349.81	547.12
350.037	584.12
350.265	557.12
350.492	549.12
350.72	541.12
350.947	553.12
351.174	561.12
351.402	565.12
351.629	550.12
351.856	562.12
352.083	546.12
352.311	551.12
352.538	533.12
352.765	557.12
352.992	557.12
353.22	551.12
353.447	550.12
353.674	555.12
353.901	543.12
354.128	561.12
354.355	545.12
354.583	555.12
354.81	534.12
355.037	554.12
355.264	551.12
355.491	560.12
355.718	561.12
355.945	551.12
356.172	561.12
356.399	582.12
356.626	554.12
356.853	534.12
357.08	546.12
357.307	550.12
357.534	563.12
357.761	554.12
357.988	545.12
358.215	568.12
358.441	541.12
358.668	540.12
358.895	547.12
359.122	564.12
359.349	547.12
359.576	555.12
359.802	548.12
360.029	548.12
360.256	559.12
360.483	539.12
360.709	535.12
360.936	533.12
361.163	561.12
361.39	558.12
361.616	547.12
361.843	531.12
362.07	552.12
362.296	550.12
362.523	538.12
362.749	547.12
362.976	542.12
363.203	567.12
363.429	537.12
363.656	538.12
363.882	538.12
364.109	555.12
364.335	550.12
364.562	540.12
364.788	549.12
365.015	546.12
365.241	529.12
365.468	543.12
365.694	551.12
365.92	546.12
366.147	536.12
366.373	555.12
366.599	559.12
366.826	554.12
367.052	573.12
367.278	558.12
367.505	560.12
367.731	552.12
367.957	556.12
368.184	578.12
368.41	576.12
368.636	573.12
368.862	567.12
369.089	570.12
369.315	578.12
369.541	574.12
369.767	574.12
369.993	594.12
370.219	577.12
370.445	600.12
370.672	609.12
370.898	610.12
371.124	586.12
371.35	605.12
371.576	605.12
371.802	584.12
372.028	625.12
372.254	595.12
372.48	604.12
372.706	610.12
372.932	620.12
373.158	627.12
373.384	599.12
373.61	585.12
373.835	601.12
374.061	603.12
374.287	593.12
374.513	624.12
374.739	630.12
374.965	664.12
375.191	662.12
375.416	677.12
375.642	656.12
375.868	645.12
376.094	618.12
376.319	634.12
376.545	599.12
376.771	613.12
376.997	622.12
377.222	628.12
377.448	599.12
377.674	627.12
377.899	587.12
378.125	585.12
378.35	580.12
378.576	583.12
378.802	589.12
379.027	589.12
379.253	590.12
379.478	582.12
379.704	617.12
379.929	575.12
380.155	597.12
380.38	591.12
380.606	582.12
380.831	586.12
381.057	590.12
381.282	606.12
381.507	606.12
381.733	602.12
381.958	608.12
382.184	625.12
382.409	612.12
382.634	656.12
382.86	645.12
383.085	660.12
383.31	644.12
383.535	657.12
383.761	671.12
383.986	679.12
384.211	684.12
384.436	707.12
384.662	695.12
384.887	686.12
385.112	738.12
385.337	721.12
385.562	698.12
385.787	731.12
386.013	722.12
386.238	712.12
386.463	729.12
386.688	715.12
386.913	685.12
387.138	687.12
387.363	703.12
387.588	711.12
387.813	719.12
388.038	673.12
388.263	687.12
388.488	699.12
388.713	707.12
388.938	693.12
389.163	690.12
389.387	677.12
389.612	671.12
389.837	717.12
390.062	681.12
390.287	697.12
390.512	686.12
390.736	715.12
390.961	719.12
391.186	715.12
391.411	759.12
391.636	790.12
391.86	803.12
392.085	796.12
392.31	792.12
392.534	779.12
392.759	771.12
392.984	738.12
393.208	747.12
393.433	756.12
393.658	785.12
393.882	771.12
394.107	750.12
394.331	773.12
394.556	760.12
394.78	771.12
395.005	758.12
395.229	736.12
395.454	828.12
395.678	814.12
395.903	817.12
396.127	787.12
396.352	755.12
396.576	754.12
396.801	732.12
397.025	731.12
397.249	760.12
397.474	779.12
397.698	788.12
397.922	782.12
398.147	801.12
398.371	826.12
398.595	822.12
398.82	845.12
399.044	905.12
399.268	1009.12
399.492	1194.12
399.717	1375.12
399.941	1367.12
400.165	1195.12
400.389	1034.12
400.613	972.12
400.837	951.12
401.062	890.12
401.286	868.12
401.51	853.12
401.734	864.12
401.958	894.12
402.182	908.12
402.406	941.12
402.63	913.12
402.854	941.12
403.078	968.12
403.302	1002.12
403.526	1025.12
403.75	1042.12
403.974	1046.12
404.198	1043.12
404.422	1045.12
404.645	1059.12
404.869	1007.12
405.093	1040.12
405.317	998.12
405.541	987.12
405.765	1012.12
405.988	995.12
406.212	989.12
406.436	957.12
406.66	984.12
406.883	1006.12
407.107	1082.12
407.331	1093.12
407.555	1161.12
407.778	1125.12
408.002	1120.12
408.226	1087.12
408.449	1089.12
408.673	1054.12
408.896	1026.12
409.12	1006.12
409.344	1029.12
409.567	1014.12
409.791	1037.12
410.014	1034.12
410.238	999.12
410.461	1002.12
410.685	994.12
410.908	1006.12
411.132	959.12
411.355	927.12
411.578	932.12
411.802	903.12
412.025	953.12
412.249	937.12
412.472	929.12
412.695	876.12
412.919	872.12
413.142	882.12
413.365	901.12
413.589	907.12
413.812	877.12
414.035	873.12
414.258	895.12
414.482	895.12
414.705	942.12
414.928	901.12
415.151	899.12
415.374	886.12
415.597	905.12
415.821	870.12
416.044	868.12
416.267	872.12
416.49	852.12
416.713	862.12
416.936	869.12
417.159	870.12
417.382	871.12
417.605	870.12
417.828	877.12
418.051	892.12
418.274	864.12
418.497	858.12
418.72	903.12
418.943	901.12
419.166	978.12
419.389	1003.12
419.611	982.12
419.834	923.12
420.057	914.12
420.28	889.12
420.503	855.12
420.726	869.12
420.948	862.12
421.171	862.12
421.394	909.12
421.617	883.12
421.839	874.12
422.062	876.12
422.285	885.12
422.507	907.12
422.73	900.12
422.953	895.12
423.175	975.12
423.398	974.12
423.621	938.12
423.843	964.12
424.066	962.12
424.288	950.12
424.511	953.12
424.733	925.12
424.956	929.12
425.178	923.12
425.401	909.12
425.623	873.12
425.846	857.12
426.068	851.12
426.291	841.12
426.513	821.12
426.735	823.12
426.958	826.12
427.18	795.12
427.402	781.12
427.625	799.12
427.847	797.12
428.069	808.12
428.292	785.12
428.514	793.12
428.736	775.12
428.958	788.12
429.181	769.12
429.403	763.12
429.625	766.12
429.847	791.12
430.069	765.12
430.292	762.12
430.514	746.12
430.736	754.12
430.958	758.12
431.18	754.12
431.402	792.12
431.624	801.12
431.846	800.12
432.068	797.12
432.29	806.12
432.512	761.12
432.734	774.12
432.956	801.12
433.178	807.12
433.4	796.12
433.622	783.12
433.844	794.12
434.066	791.12
434.287	813.12
434.509	831.12
434.731	874.12
434.953	911.12
435.175	924.12
435.397	870.12
435.618	850.12
435.84	843.12
436.062	823.12
436.284	803.12
436.505	791.12
436.727	801.12
436.949	794.12
437.17	789.12
437.392	776.12
437.614	793.12
437.835	774.12
438.057	759.12
438.278	767.12
438.5	764.12
438.721	755.12
438.943	809.12
439.165	757.12
439.386	775.12
439.608	779.12
439.829	797.12
440.05	785.12
440.272	813.12
440.493	792.12
440.715	795.12
440.936	850.12
441.158	836.12
441.379	855.12
441.6	907.12
441.822	913.12
442.043	898.12
442.264	901.12
442.486	864.12
442.707	879.12
442.928	894.12
443.149	895.12
443.371	887.12
443.592	914.12
443.813	907.12
444.034	885.12
444.255	911.12
444.476	956.12
444.698	1033.12
444.919	1109.12
445.14	1157.12
445.361	989.12
445.582	939.12
445.803	873.12
446.024	844.12
446.245	837.12
446.466	810.12
446.687	793.12
446.908	819.12
447.129	786.12
447.35	784.12
447.571	762.12
447.792	739.12
448.013	759.12
448.234	774.12
448.455	757.12
448.675	730.12
448.896	749.12
449.117	701.12
449.338	727.12
449.559	722.12
449.779	735.12
450	738.12
450.221	755.12
450.442	735.12
450.662	745.12
450.883	763.12
451.104	791.12
451.324	758.12
451.545	748.12
451.766	761.12
451.986	755.12
452.207	744.12
452.428	736.12
452.648	728.12
452.869	739.12
453.089	747.12
453.31	728.12
453.53	734.12
453.751	734.12
453.971	726.12
454.192	712.12
454.412	699.12
454.633	697.12
454.853	716.12
455.073	701.12
455.294	693.12
455.514	706.12
455.734	712.12
455.955	665.12
456.175	697.12
456.395	690.12
456.616	666.12
456.836	668.12
457.056	693.12
457.276	694.12
457.497	670.12
457.717	677.12
457.937	685.12
458.157	716.12
458.377	702.12
458.598	724.12
458.818	763.12
459.038	776.12
459.258	790.12
459.478	825.12
459.698	826.12
459.918	846.12
460.138	897.12
460.358	934.12
460.578	941.12
460.798	965.12
461.018	951.12
461.238	926.12
461.458	935.12
461.678	952.12
461.898	937.12
462.118	929.12
462.338	995.12
462.558	1025.12
462.777	1055.12
462.997	1165.12
463.217	1284.12
463.437	1317.12
463.657	1160.12
463.876	1121.12
464.096	1098.12
464.316	1098.12
464.536	1131.12
464.755	1089.12
464.975	1025.12
465.195	982.12
465.414	920.12
465.634	857.12
465.854	836.12
466.073	823.12
466.293	802.12
466.512	795.12
466.732	781.12
466.951	777.12
467.171	777.12
467.391	754.12
467.61	759.12
467.829	763.12
468.049	772.12
468.268	750.12
468.488	742.12
468.707	756.12
468.927	739.12
469.146	725.12
469.365	749.12
469.585	762.12
469.804	763.12
470.023	766.12
470.243	775.12
470.462	787.12
470.681	792.12
470.901	821.12
471.12	773.12
471.339	777.12
471.558	761.12
471.777	753.12
471.997	743.12
472.216	737.12
472.435	748.12
472.654	739.12
472.873	740.12
473.092	719.12
473.311	712.12
473.53	723.12
473.749	716.12
473.968	720.12
474.187	713.12
474.406	734.12
474.625	718.12
474.844	716.12
475.063	728.12
475.282	714.12
475.501	713.12
475.72	746.12
475.939	743.12
476.158	734.12
476.377	745.12
476.596	748.12
476.814	754.12
477.033	769.12
477.252	765.12
477.471	776.12
477.69	789.12
477.908	834.12
478.127	868.12
478.346	855.12
478.564	864.12
478.783	860.12
479.002	902.12
479.22	897.12
479.439	893.12
479.658	879.12
479.876	893.12
480.095	899.12
480.313	938.12
480.532	973.12
480.751	970.12
480.969	915.12
481.188	897.12
481.406	854.12
481.624	829.12
481.843	831.12
482.061	829.12
482.28	818.12
482.498	837.12
482.717	821.12
482.935	799.12
483.153	817.12
483.372	821.12
483.59	795.12
483.808	819.12
484.027	813.12
484.245	828.12
484.463	819.12
484.681	845.12
484.9	861.12
485.118	831.12
485.336	859.12
485.554	874.12
485.772	875.12
485.99	863.12
486.209	875.12
486.427	861.12
486.645	858.12
486.863	891.12
487.081	870.12
487.299	870.12
487.517	870.12
487.735	872.12
487.953	862.12
488.171	870.12
488.389	847.12
488.607	854.12
488.825	825.12
489.043	825.12
489.261	839.12
489.479	839.12
489.696	854.12
489.914	845.12
490.132	852.12
490.35	873.12
490.568	843.12
490.786	877.12
491.003	851.12
491.221	841.12
491.439	867.12
491.657	872.12
491.874	866.12
492.092	861.12
492.31	899.12
492.527	886.12
492.745	883.12
492.963	887.12
493.18	849.12
493.398	903.12
493.615	907.12
493.833	906.12
494.05	903.12
494.268	885.12
494.485	924.12
494.703	911.12
494.92	901.12
495.138	886.12
495.355	923.12
495.573	899.12
495.79	877.12
496.008	904.12
496.225	917.12
496.442	914.12
496.66	927.12
496.877	947.12
497.094	958.12
497.312	985.12
497.529	1002.12
497.746	1022.12
497.963	1032.12
498.181	1067.12
498.398	1117.12
498.615	1199.12
498.832	1266.12
499.049	1368.12
499.267	1467.12
499.484	1626.12
499.701	1805.12
499.918	2004.12
500.135	2380.12
500.352	2768.12
500.569	2868.12
