Data from Ni(NO3)2Standard.Agarose3%.GreenCap.LampEnergy5.5.E.O_HRD10591_14-42-34-201.txt Node
Date: Mon Jul 22 14:42:34 EDT 2019
User: cochatt
Spectrometer: HR+D1059
Trigger mode: 1
Integration Time (sec): 1.000000E-1
Scans to average: 1
Electric dark correction enabled: true
Nonlinearity correction enabled: false
Boxcar width: 0
XAxis mode: Wavelengths
Number of Pixels in Spectrum: 2048
>>>>>Begin Spectral Data<<<<<
223.165	-12.19
223.4	-12.19
223.635	-12.19
223.869	-21.19
224.104	-18.19
224.338	-21.19
224.573	-22.19
224.808	-5.19
225.042	-6.19
225.277	-14.19
225.511	0.81
225.746	4.81
225.98	12.81
226.215	7.81
226.449	18.81
226.683	23.81
226.918	21.81
227.152	29.81
227.387	39.81
227.621	31.81
227.856	44.81
228.09	49.81
228.324	57.81
228.559	71.81
228.793	45.81
229.027	60.81
229.262	77.81
229.496	69.81
229.73	69.81
229.964	83.81
230.199	68.81
230.433	74.81
230.667	75.81
230.901	87.81
231.136	88.81
231.37	76.81
231.604	82.81
231.838	82.81
232.072	92.81
232.306	93.81
232.541	83.81
232.775	79.81
233.009	84.81
233.243	81.81
233.477	88.81
233.711	87.81
233.945	85.81
234.179	94.81
234.413	82.81
234.647	85.81
234.881	70.81
235.115	81.81
235.349	80.81
235.583	78.81
235.817	94.81
236.051	80.81
236.285	77.81
236.519	82.81
236.753	79.81
236.987	71.81
237.221	84.81
237.455	91.81
237.689	86.81
237.922	66.81
238.156	65.81
238.39	90.81
238.624	80.81
238.858	68.81
239.091	65.81
239.325	81.81
239.559	83.81
239.793	61.81
240.027	81.81
240.26	76.81
240.494	81.81
240.728	75.81
240.961	75.81
241.195	78.81
241.429	76.81
241.662	88.81
241.896	86.81
242.13	71.81
242.363	77.81
242.597	86.81
242.83	75.81
243.064	71.81
243.298	70.81
243.531	96.81
243.765	82.81
243.998	83.81
244.232	72.81
244.465	72.81
244.699	74.81
244.932	84.81
245.166	70.81
245.399	89.81
245.633	74.81
245.866	71.81
246.099	79.81
246.333	73.81
246.566	73.81
246.8	73.81
247.033	70.81
247.266	71.81
247.5	88.81
247.733	78.81
247.966	65.81
248.2	76.81
248.433	68.81
248.666	76.81
248.899	65.81
249.133	78.81
249.366	85.81
249.599	81.81
249.832	77.81
250.066	74.81
250.299	71.81
250.532	86.81
250.765	80.81
250.998	69.81
251.231	80.81
251.465	89.81
251.698	77.81
251.931	80.81
252.164	72.81
252.397	71.81
252.63	82.81
252.863	91.81
253.096	85.81
253.329	71.81
253.562	83.81
253.795	74.81
254.028	82.81
254.261	74.81
254.494	86.81
254.727	92.81
254.96	83.81
255.193	87.81
255.426	84.81
255.659	91.81
255.892	74.81
256.124	81.81
256.357	87.81
256.59	76.81
256.823	76.81
257.056	83.81
257.289	82.81
257.521	81.81
257.754	73.81
257.987	76.81
258.22	79.81
258.452	82.81
258.685	79.81
258.918	82.81
259.151	71.81
259.383	75.81
259.616	68.81
259.849	74.81
260.081	75.81
260.314	87.81
260.547	81.81
260.779	83.81
261.012	82.81
261.244	83.81
261.477	70.81
261.71	94.81
261.942	86.81
262.175	92.81
262.407	89.81
262.64	91.81
262.872	81.81
263.105	92.81
263.337	84.81
263.57	74.81
263.802	83.81
264.035	89.81
264.267	64.81
264.499	81.81
264.732	87.81
264.964	93.81
265.197	80.81
265.429	79.81
265.661	89.81
265.894	87.81
266.126	88.81
266.358	86.81
266.591	87.81
266.823	87.81
267.055	71.81
267.287	90.81
267.52	59.81
267.752	92.81
267.984	85.81
268.216	87.81
268.448	94.81
268.681	79.81
268.913	83.81
269.145	93.81
269.377	92.81
269.609	79.81
269.841	83.81
270.073	87.81
270.306	73.81
270.538	85.81
270.77	85.81
271.002	87.81
271.234	81.81
271.466	68.81
271.698	66.81
271.93	81.81
272.162	80.81
272.394	89.81
272.626	89.81
272.858	84.81
273.09	89.81
273.322	85.81
273.553	80.81
273.785	93.81
274.017	84.81
274.249	75.81
274.481	83.81
274.713	93.81
274.945	72.81
275.176	82.81
275.408	75.81
275.64	92.81
275.872	77.81
276.104	88.81
276.335	88.81
276.567	85.81
276.799	74.81
277.031	93.81
277.262	78.81
277.494	79.81
277.726	91.81
277.957	80.81
278.189	94.81
278.421	91.81
278.652	87.81
278.884	79.81
279.115	89.81
279.347	88.81
279.579	89.81
279.81	71.81
280.042	83.81
280.273	75.81
280.505	84.81
280.736	95.81
280.968	77.81
281.199	83.81
281.431	68.81
281.662	89.81
281.894	93.81
282.125	89.81
282.356	83.81
282.588	79.81
282.819	75.81
283.051	81.81
283.282	84.81
283.513	82.81
283.745	79.81
283.976	79.81
284.207	90.81
284.439	67.81
284.67	80.81
284.901	77.81
285.132	80.81
285.364	79.81
285.595	90.81
285.826	85.81
286.057	83.81
286.288	85.81
286.52	108.81
286.751	75.81
286.982	90.81
287.213	96.81
287.444	88.81
287.675	93.81
287.906	91.81
288.138	92.81
288.369	87.81
288.6	98.81
288.831	87.81
289.062	89.81
289.293	66.81
289.524	76.81
289.755	90.81
289.986	76.81
290.217	76.81
290.448	89.81
290.679	87.81
290.91	82.81
291.141	80.81
291.371	99.81
291.602	88.81
291.833	86.81
292.064	92.81
292.295	89.81
292.526	75.81
292.757	84.81
292.987	73.81
293.218	103.81
293.449	88.81
293.68	70.81
293.91	103.81
294.141	81.81
294.372	85.81
294.603	95.81
294.833	85.81
295.064	76.81
295.295	81.81
295.525	91.81
295.756	75.81
295.987	88.81
296.217	83.81
296.448	84.81
296.679	86.81
296.909	83.81
297.14	98.81
297.37	93.81
297.601	79.81
297.831	84.81
298.062	71.81
298.292	81.81
298.523	82.81
298.753	91.81
298.984	98.81
299.214	84.81
299.445	80.81
299.675	82.81
299.905	87.81
300.136	89.81
300.366	75.81
300.597	76.81
300.827	85.81
301.057	92.81
301.288	91.81
301.518	92.81
301.748	89.81
301.979	77.81
302.209	99.81
302.439	88.81
302.669	77.81
302.9	85.81
303.13	85.81
303.36	81.81
303.59	93.81
303.82	92.81
304.051	84.81
304.281	94.81
304.511	99.81
304.741	94.81
304.971	84.81
305.201	83.81
305.431	87.81
305.661	68.81
305.891	95.81
306.121	81.81
306.352	86.81
306.582	88.81
306.812	99.81
307.042	90.81
307.272	101.81
307.502	75.81
307.731	88.81
307.961	74.81
308.191	79.81
308.421	81.81
308.651	100.81
308.881	87.81
309.111	88.81
309.341	88.81
309.571	88.81
309.8	90.81
310.03	86.81
310.26	84.81
310.49	83.81
310.72	89.81
310.949	89.81
311.179	89.81
311.409	100.81
311.639	76.81
311.868	90.81
312.098	76.81
312.328	94.81
312.557	92.81
312.787	90.81
313.017	95.81
313.246	76.81
313.476	86.81
313.706	76.81
313.935	90.81
314.165	95.81
314.394	83.81
314.624	89.81
314.853	72.81
315.083	95.81
315.312	96.81
315.542	95.81
315.771	80.81
316.001	77.81
316.23	85.81
316.46	81.81
316.689	89.81
316.919	86.81
317.148	87.81
317.377	76.81
317.607	100.81
317.836	86.81
318.065	77.81
318.295	85.81
318.524	89.81
318.753	101.81
318.983	88.81
319.212	93.81
319.441	92.81
319.67	83.81
319.9	72.81
320.129	84.81
320.358	88.81
320.587	71.81
320.816	78.81
321.046	91.81
321.275	90.81
321.504	72.81
321.733	96.81
321.962	80.81
322.191	93.81
322.42	89.81
322.649	80.81
322.878	85.81
323.108	81.81
323.337	103.81
323.566	89.81
323.795	89.81
324.024	87.81
324.253	84.81
324.482	86.81
324.71	81.81
324.939	87.81
325.168	85.81
325.397	105.81
325.626	81.81
325.855	87.81
326.084	81.81
326.313	97.81
326.542	92.81
326.77	87.81
326.999	97.81
327.228	98.81
327.457	93.81
327.686	92.81
327.914	80.81
328.143	81.81
328.372	76.81
328.6	81.81
328.829	87.81
329.058	73.81
329.287	97.81
329.515	94.81
329.744	93.81
329.972	81.81
330.201	83.81
330.43	90.81
330.658	88.81
330.887	95.81
331.115	86.81
331.344	91.81
331.572	89.81
331.801	82.81
332.03	92.81
332.258	107.81
332.486	102.81
332.715	66.81
332.943	89.81
333.172	83.81
333.4	68.81
333.629	87.81
333.857	81.81
334.085	88.81
334.314	93.81
334.542	94.81
334.771	84.81
334.999	86.81
335.227	84.81
335.455	92.81
335.684	93.81
335.912	104.81
336.14	84.81
336.369	89.81
336.597	78.81
336.825	81.81
337.053	80.81
337.281	75.81
337.51	90.81
337.738	83.81
337.966	90.81
338.194	100.81
338.422	86.81
338.65	82.81
338.878	89.81
339.106	85.81
339.334	75.81
339.562	77.81
339.79	89.81
340.018	78.81
340.246	61.81
340.474	77.81
340.702	71.81
340.93	87.81
341.158	83.81
341.386	83.81
341.614	99.81
341.842	87.81
342.07	74.81
342.298	83.81
342.526	86.81
342.754	79.81
342.981	82.81
343.209	81.81
343.437	91.81
343.665	80.81
343.893	87.81
344.12	79.81
344.348	95.81
344.576	80.81
344.804	80.81
345.031	84.81
345.259	80.81
345.487	80.81
345.714	93.81
345.942	91.81
346.17	76.81
346.397	86.81
346.625	85.81
346.853	90.81
347.08	78.81
347.308	96.81
347.535	92.81
347.763	82.81
347.99	84.81
348.218	87.81
348.445	81.81
348.673	80.81
348.9	89.81
349.128	91.81
349.355	87.81
349.583	90.81
349.81	85.81
350.037	89.81
350.265	90.81
350.492	81.81
350.72	78.81
350.947	88.81
351.174	77.81
351.402	86.81
351.629	100.81
351.856	95.81
352.083	89.81
352.311	90.81
352.538	76.81
352.765	76.81
352.992	91.81
353.22	81.81
353.447	74.81
353.674	90.81
353.901	83.81
354.128	90.81
354.355	92.81
354.583	100.81
354.81	82.81
355.037	84.81
355.264	74.81
355.491	71.81
355.718	93.81
355.945	97.81
356.172	78.81
356.399	81.81
356.626	89.81
356.853	95.81
357.08	79.81
357.307	91.81
357.534	81.81
357.761	78.81
357.988	81.81
358.215	87.81
358.441	80.81
358.668	83.81
358.895	83.81
359.122	76.81
359.349	78.81
359.576	92.81
359.802	74.81
360.029	84.81
360.256	92.81
360.483	94.81
360.709	92.81
360.936	86.81
361.163	77.81
361.39	79.81
361.616	99.81
361.843	80.81
362.07	83.81
362.296	83.81
362.523	82.81
362.749	84.81
362.976	72.81
363.203	91.81
363.429	73.81
363.656	74.81
363.882	85.81
364.109	84.81
364.335	86.81
364.562	97.81
364.788	80.81
365.015	76.81
365.241	84.81
365.468	82.81
365.694	86.81
365.92	88.81
366.147	72.81
366.373	84.81
366.599	95.81
366.826	71.81
367.052	82.81
367.278	90.81
367.505	79.81
367.731	89.81
367.957	80.81
368.184	93.81
368.41	88.81
368.636	86.81
368.862	94.81
369.089	87.81
369.315	89.81
369.541	105.81
369.767	89.81
369.993	92.81
370.219	96.81
370.445	85.81
370.672	86.81
370.898	80.81
371.124	74.81
371.35	85.81
371.576	77.81
371.802	92.81
372.028	86.81
372.254	73.81
372.48	93.81
372.706	81.81
372.932	81.81
373.158	84.81
373.384	86.81
373.61	93.81
373.835	88.81
374.061	85.81
374.287	74.81
374.513	82.81
374.739	82.81
374.965	80.81
375.191	93.81
375.416	77.81
375.642	71.81
375.868	91.81
376.094	85.81
376.319	76.81
376.545	88.81
376.771	83.81
376.997	80.81
377.222	71.81
377.448	84.81
377.674	92.81
377.899	80.81
378.125	85.81
378.35	97.81
378.576	67.81
378.802	91.81
379.027	79.81
379.253	94.81
379.478	86.81
379.704	89.81
379.929	75.81
380.155	88.81
380.38	84.81
380.606	83.81
380.831	84.81
381.057	74.81
381.282	84.81
381.507	96.81
381.733	76.81
381.958	100.81
382.184	91.81
382.409	87.81
382.634	80.81
382.86	69.81
383.085	92.81
383.31	80.81
383.535	88.81
383.761	79.81
383.986	78.81
384.211	80.81
384.436	89.81
384.662	95.81
384.887	82.81
385.112	86.81
385.337	79.81
385.562	77.81
385.787	80.81
386.013	77.81
386.238	99.81
386.463	74.81
386.688	86.81
386.913	83.81
387.138	84.81
387.363	89.81
387.588	83.81
387.813	90.81
388.038	83.81
388.263	81.81
388.488	73.81
388.713	77.81
388.938	78.81
389.163	83.81
389.387	102.81
389.612	90.81
389.837	90.81
390.062	79.81
390.287	78.81
390.512	81.81
390.736	77.81
390.961	86.81
391.186	76.81
391.411	78.81
391.636	88.81
391.86	93.81
392.085	89.81
392.31	90.81
392.534	93.81
392.759	79.81
392.984	72.81
393.208	77.81
393.433	74.81
393.658	100.81
393.882	89.81
394.107	89.81
394.331	74.81
394.556	91.81
394.78	90.81
395.005	90.81
395.229	97.81
395.454	92.81
395.678	99.81
395.903	93.81
396.127	77.81
396.352	96.81
396.576	72.81
396.801	89.81
397.025	96.81
397.249	85.81
397.474	78.81
397.698	84.81
397.922	101.81
398.147	89.81
398.371	79.81
398.595	93.81
398.82	81.81
399.044	79.81
399.268	72.81
399.492	84.81
399.717	108.81
399.941	95.81
400.165	86.81
400.389	74.81
400.613	82.81
400.837	84.81
401.062	81.81
401.286	92.81
401.51	94.81
401.734	75.81
401.958	83.81
402.182	73.81
402.406	89.81
402.63	96.81
402.854	91.81
403.078	83.81
403.302	95.81
403.526	91.81
403.75	74.81
403.974	88.81
404.198	94.81
404.422	80.81
404.645	84.81
404.869	94.81
405.093	85.81
405.317	89.81
405.541	80.81
405.765	98.81
405.988	105.81
406.212	85.81
406.436	72.81
406.66	84.81
406.883	84.81
407.107	80.81
407.331	88.81
407.555	86.81
407.778	91.81
408.002	84.81
408.226	82.81
408.449	88.81
408.673	86.81
408.896	69.81
409.12	75.81
409.344	78.81
409.567	83.81
409.791	69.81
410.014	92.81
410.238	86.81
410.461	90.81
410.685	81.81
410.908	83.81
411.132	91.81
411.355	74.81
411.578	106.81
411.802	91.81
412.025	91.81
412.249	89.81
412.472	71.81
412.695	83.81
412.919	75.81
413.142	76.81
413.365	109.81
413.589	82.81
413.812	81.81
414.035	98.81
414.258	77.81
414.482	84.81
414.705	75.81
414.928	94.81
415.151	77.81
415.374	95.81
415.597	79.81
415.821	93.81
416.044	96.81
416.267	91.81
416.49	98.81
416.713	82.81
416.936	88.81
417.159	88.81
417.382	95.81
417.605	76.81
417.828	91.81
418.051	85.81
418.274	81.81
418.497	88.81
418.72	69.81
418.943	90.81
419.166	86.81
419.389	90.81
419.611	85.81
419.834	74.81
420.057	80.81
420.28	82.81
420.503	81.81
420.726	87.81
420.948	82.81
421.171	79.81
421.394	79.81
421.617	83.81
421.839	82.81
422.062	93.81
422.285	73.81
422.507	85.81
422.73	83.81
422.953	89.81
423.175	86.81
423.398	77.81
423.621	83.81
423.843	90.81
424.066	94.81
424.288	85.81
424.511	90.81
424.733	91.81
424.956	78.81
425.178	88.81
425.401	79.81
425.623	87.81
425.846	85.81
426.068	95.81
426.291	92.81
426.513	86.81
426.735	93.81
426.958	82.81
427.18	82.81
427.402	82.81
427.625	91.81
427.847	74.81
428.069	93.81
428.292	98.81
428.514	87.81
428.736	86.81
428.958	92.81
429.181	88.81
429.403	93.81
429.625	79.81
429.847	85.81
430.069	82.81
430.292	75.81
430.514	76.81
430.736	80.81
430.958	80.81
431.18	82.81
431.402	81.81
431.624	80.81
431.846	85.81
432.068	77.81
432.29	81.81
432.512	89.81
432.734	82.81
432.956	97.81
433.178	72.81
433.4	95.81
433.622	103.81
433.844	74.81
434.066	83.81
434.287	83.81
434.509	82.81
434.731	92.81
434.953	86.81
435.175	99.81
435.397	88.81
435.618	83.81
435.84	80.81
436.062	95.81
436.284	87.81
436.505	77.81
436.727	87.81
436.949	90.81
437.17	81.81
437.392	89.81
437.614	93.81
437.835	89.81
438.057	81.81
438.278	91.81
438.5	73.81
438.721	94.81
438.943	77.81
439.165	71.81
439.386	92.81
439.608	89.81
439.829	82.81
440.05	80.81
440.272	80.81
440.493	82.81
440.715	87.81
440.936	78.81
441.158	82.81
441.379	83.81
441.6	88.81
441.822	82.81
442.043	82.81
442.264	87.81
442.486	79.81
442.707	87.81
442.928	82.81
443.149	84.81
443.371	78.81
443.592	71.81
443.813	87.81
444.034	95.81
444.255	87.81
444.476	83.81
444.698	91.81
444.919	102.81
445.14	197.81
445.361	138.81
445.582	93.81
445.803	95.81
446.024	73.81
446.245	88.81
446.466	75.81
446.687	79.81
446.908	80.81
447.129	81.81
447.35	80.81
447.571	84.81
447.792	84.81
448.013	91.81
448.234	82.81
448.455	88.81
448.675	93.81
448.896	73.81
449.117	81.81
449.338	88.81
449.559	82.81
449.779	85.81
450	77.81
450.221	82.81
450.442	74.81
450.662	65.81
450.883	84.81
451.104	87.81
451.324	86.81
451.545	82.81
451.766	69.81
451.986	79.81
452.207	96.81
452.428	85.81
452.648	85.81
452.869	83.81
453.089	81.81
453.31	84.81
453.53	84.81
453.751	84.81
453.971	77.81
454.192	92.81
454.412	76.81
454.633	82.81
454.853	97.81
455.073	85.81
455.294	93.81
455.514	87.81
455.734	80.81
455.955	73.81
456.175	87.81
456.395	74.81
456.616	88.81
456.836	88.81
457.056	91.81
457.276	84.81
457.497	87.81
457.717	91.81
457.937	85.81
458.157	76.81
458.377	96.81
458.598	80.81
458.818	77.81
459.038	71.81
459.258	73.81
459.478	84.81
459.698	89.81
459.918	80.81
460.138	88.81
460.358	72.81
460.578	77.81
460.798	88.81
461.018	86.81
461.238	100.81
461.458	88.81
461.678	88.81
461.898	104.81
462.118	83.81
462.338	75.81
462.558	92.81
462.777	88.81
462.997	88.81
463.217	87.81
463.437	83.81
463.657	95.81
463.876	98.81
464.096	78.81
464.316	99.81
464.536	87.81
464.755	104.81
464.975	93.81
465.195	81.81
465.414	95.81
465.634	91.81
465.854	93.81
466.073	76.81
466.293	81.81
466.512	89.81
466.732	93.81
466.951	84.81
467.171	88.81
467.391	91.81
467.61	88.81
467.829	102.81
468.049	92.81
468.268	72.81
468.488	82.81
468.707	95.81
468.927	68.81
469.146	90.81
469.365	90.81
469.585	87.81
469.804	81.81
470.023	82.81
470.243	103.81
470.462	81.81
470.681	109.81
470.901	95.81
471.12	92.81
471.339	84.81
471.558	84.81
471.777	83.81
471.997	89.81
472.216	69.81
472.435	76.81
472.654	79.81
472.873	86.81
473.092	89.81
473.311	90.81
473.53	90.81
473.749	90.81
473.968	92.81
474.187	87.81
474.406	85.81
474.625	89.81
474.844	95.81
475.063	95.81
475.282	80.81
475.501	86.81
475.72	82.81
475.939	89.81
476.158	92.81
476.377	92.81
476.596	92.81
476.814	96.81
477.033	83.81
477.252	102.81
477.471	72.81
477.69	83.81
477.908	77.81
478.127	103.81
478.346	94.81
478.564	97.81
478.783	87.81
479.002	100.81
479.22	83.81
479.439	99.81
479.658	83.81
479.876	80.81
480.095	81.81
480.313	96.81
480.532	96.81
480.751	93.81
480.969	91.81
481.188	93.81
481.406	86.81
481.624	80.81
481.843	88.81
482.061	82.81
482.28	91.81
482.498	83.81
482.717	93.81
482.935	98.81
483.153	86.81
483.372	82.81
483.59	76.81
483.808	89.81
484.027	73.81
484.245	79.81
484.463	100.81
484.681	103.81
484.9	97.81
485.118	101.81
485.336	112.81
485.554	97.81
485.772	89.81
485.99	98.81
486.209	91.81
486.427	107.81
486.645	92.81
486.863	86.81
487.081	96.81
487.299	95.81
487.517	88.81
487.735	92.81
487.953	86.81
488.171	91.81
488.389	87.81
488.607	100.81
488.825	94.81
489.043	89.81
489.261	93.81
489.479	89.81
489.696	82.81
489.914	96.81
490.132	92.81
490.35	96.81
490.568	94.81
490.786	103.81
491.003	92.81
491.221	91.81
491.439	75.81
491.657	92.81
491.874	93.81
492.092	98.81
492.31	93.81
492.527	102.81
492.745	83.81
492.963	90.81
493.18	97.81
493.398	108.81
493.615	89.81
493.833	104.81
494.05	90.81
494.268	87.81
494.485	96.81
494.703	100.81
494.92	95.81
495.138	93.81
495.355	85.81
495.573	97.81
495.79	104.81
496.008	105.81
496.225	100.81
496.442	103.81
496.66	102.81
496.877	83.81
497.094	111.81
497.312	100.81
497.529	87.81
497.746	92.81
497.963	77.81
498.181	91.81
498.398	95.81
498.615	90.81
498.832	95.81
499.049	103.81
499.267	96.81
499.484	104.81
499.701	110.81
499.918	113.81
500.135	106.81
500.352	111.81
500.569	120.81
500.786	131.81
501.003	89.81
501.22	100.81
501.437	123.81
501.654	98.81
501.871	113.81
502.088	99.81
502.305	96.81
502.522	87.81
502.739	102.81
502.956	97.81
503.172	104.81
503.389	98.81
503.606	98.81
503.823	97.81
504.04	98.81
504.256	106.81
504.473	90.81
504.69	82.81
504.907	98.81
505.123	88.81
505.34	106.81
505.557	100.81
505.773	98.81
505.99	87.81
506.207	82.81
506.423	105.81
506.64	88.81
506.856	73.81
507.073	99.81
507.289	96.81
507.506	86.81
507.722	96.81
507.939	91.81
508.155	96.81
508.372	91.81
508.588	85.81
508.805	95.81
509.021	85.81
509.238	101.81
509.454	97.81
509.67	97.81
509.887	81.81
510.103	98.81
510.319	91.81
510.536	91.81
510.752	83.81
510.968	79.81
511.184	80.81
511.401	92.81
511.617	88.81
511.833	81.81
512.049	99.81
512.265	85.81
512.481	86.81
512.698	101.81
512.914	104.81
513.13	114.81
513.346	91.81
513.562	89.81
513.778	106.81
513.994	85.81
514.21	88.81
514.426	90.81
514.642	88.81
514.858	88.81
515.074	93.81
515.29	99.81
515.506	88.81
515.721	102.81
515.937	85.81
516.153	80.81
516.369	77.81
516.585	88.81
516.801	100.81
517.016	94.81
517.232	111.81
517.448	114.81
517.664	90.81
517.879	89.81
518.095	93.81
518.311	94.81
