Data from Ni(NO3)2@0.125M.TitratingCurve.Agarose3%dH2O.NegLispCup.LampEnergy10.LIBS07252019_HRD10591_18-09-26-567.txt Node
Date: Thu Jul 25 18:09:26 EDT 2019
User: cochatt
Spectrometer: HR+D1059
Trigger mode: 1
Integration Time (sec): 1.000000E-1
Scans to average: 1
Electric dark correction enabled: true
Nonlinearity correction enabled: false
Boxcar width: 0
XAxis mode: Wavelengths
Number of Pixels in Spectrum: 2048
>>>>>Begin Spectral Data<<<<<
223.165	-28.88
223.4	-28.88
223.635	-28.88
223.869	-24.88
224.104	-15.88
224.338	-6.88
224.573	-4.88
224.808	-20.88
225.042	-7.88
225.277	10.12
225.511	0.12
225.746	1.12
225.98	-1.88
226.215	14.12
226.449	15.12
226.683	11.12
226.918	30.12
227.152	30.12
227.387	27.12
227.621	31.12
227.856	38.12
228.09	38.12
228.324	59.12
228.559	68.12
228.793	80.12
229.027	89.12
229.262	97.12
229.496	104.12
229.73	111.12
229.964	103.12
230.199	103.12
230.433	100.12
230.667	96.12
230.901	106.12
231.136	122.12
231.37	110.12
231.604	113.12
231.838	118.12
232.072	126.12
232.306	125.12
232.541	114.12
232.775	110.12
233.009	112.12
233.243	122.12
233.477	124.12
233.711	114.12
233.945	141.12
234.179	114.12
234.413	143.12
234.647	122.12
234.881	116.12
235.115	122.12
235.349	119.12
235.583	130.12
235.817	121.12
236.051	118.12
236.285	116.12
236.519	134.12
236.753	118.12
236.987	120.12
237.221	106.12
237.455	135.12
237.689	135.12
237.922	117.12
238.156	132.12
238.39	132.12
238.624	129.12
238.858	115.12
239.091	118.12
239.325	124.12
239.559	144.12
239.793	124.12
240.027	137.12
240.26	136.12
240.494	130.12
240.728	139.12
240.961	146.12
241.195	123.12
241.429	162.12
241.662	133.12
241.896	140.12
242.13	151.12
242.363	136.12
242.597	132.12
242.83	147.12
243.064	144.12
243.298	142.12
243.531	142.12
243.765	156.12
243.998	154.12
244.232	153.12
244.465	155.12
244.699	151.12
244.932	150.12
245.166	167.12
245.399	139.12
245.633	161.12
245.866	155.12
246.099	159.12
246.333	165.12
246.566	144.12
246.8	168.12
247.033	143.12
247.266	164.12
247.5	161.12
247.733	164.12
247.966	161.12
248.2	185.12
248.433	172.12
248.666	174.12
248.899	173.12
249.133	171.12
249.366	174.12
249.599	185.12
249.832	179.12
250.066	163.12
250.299	188.12
250.532	178.12
250.765	187.12
250.998	162.12
251.231	186.12
251.465	193.12
251.698	171.12
251.931	184.12
252.164	192.12
252.397	188.12
252.63	182.12
252.863	197.12
253.096	196.12
253.329	202.12
253.562	200.12
253.795	190.12
254.028	181.12
254.261	204.12
254.494	194.12
254.727	202.12
254.96	220.12
255.193	187.12
255.426	186.12
255.659	216.12
255.892	211.12
256.124	205.12
256.357	215.12
256.59	214.12
256.823	212.12
257.056	207.12
257.289	196.12
257.521	194.12
257.754	201.12
257.987	205.12
258.22	212.12
258.452	213.12
258.685	216.12
258.918	212.12
259.151	204.12
259.383	216.12
259.616	209.12
259.849	209.12
260.081	232.12
260.314	218.12
260.547	228.12
260.779	241.12
261.012	216.12
261.244	221.12
261.477	221.12
261.71	242.12
261.942	227.12
262.175	218.12
262.407	210.12
262.64	229.12
262.872	226.12
263.105	232.12
263.337	234.12
263.57	243.12
263.802	221.12
264.035	242.12
264.267	248.12
264.499	231.12
264.732	251.12
264.964	237.12
265.197	242.12
265.429	234.12
265.661	234.12
265.894	262.12
266.126	269.12
266.358	240.12
266.591	255.12
266.823	253.12
267.055	237.12
267.287	233.12
267.52	253.12
267.752	256.12
267.984	262.12
268.216	238.12
268.448	246.12
268.681	236.12
268.913	248.12
269.145	260.12
269.377	247.12
269.609	262.12
269.841	261.12
270.073	251.12
270.306	251.12
270.538	257.12
270.77	269.12
271.002	247.12
271.234	261.12
271.466	248.12
271.698	245.12
271.93	270.12
272.162	269.12
272.394	268.12
272.626	259.12
272.858	280.12
273.09	269.12
273.322	275.12
273.553	270.12
273.785	280.12
274.017	268.12
274.249	262.12
274.481	266.12
274.713	277.12
274.945	285.12
275.176	260.12
275.408	270.12
275.64	288.12
275.872	276.12
276.104	279.12
276.335	288.12
276.567	292.12
276.799	286.12
277.031	296.12
277.262	305.12
277.494	276.12
277.726	280.12
277.957	283.12
278.189	300.12
278.421	296.12
278.652	282.12
278.884	308.12
279.115	305.12
279.347	284.12
279.579	292.12
279.81	297.12
280.042	297.12
280.273	312.12
280.505	304.12
280.736	313.12
280.968	317.12
281.199	294.12
281.431	298.12
281.662	312.12
281.894	323.12
282.125	301.12
282.356	329.12
282.588	334.12
282.819	332.12
283.051	318.12
283.282	290.12
283.513	308.12
283.745	322.12
283.976	333.12
284.207	323.12
284.439	336.12
284.67	317.12
284.901	341.12
285.132	328.12
285.364	325.12
285.595	323.12
285.826	320.12
286.057	319.12
286.288	325.12
286.52	328.12
286.751	350.12
286.982	342.12
287.213	340.12
287.444	345.12
287.675	334.12
287.906	329.12
288.138	341.12
288.369	346.12
288.6	349.12
288.831	352.12
289.062	345.12
289.293	347.12
289.524	352.12
289.755	341.12
289.986	359.12
290.217	343.12
290.448	344.12
290.679	346.12
290.91	355.12
291.141	363.12
291.371	367.12
291.602	361.12
291.833	361.12
292.064	365.12
292.295	362.12
292.526	373.12
292.757	360.12
292.987	351.12
293.218	349.12
293.449	366.12
293.68	361.12
293.91	349.12
294.141	347.12
294.372	350.12
294.603	346.12
294.833	363.12
295.064	374.12
295.295	367.12
295.525	368.12
295.756	365.12
295.987	347.12
296.217	350.12
296.448	363.12
296.679	366.12
296.909	353.12
297.14	368.12
297.37	376.12
297.601	374.12
297.831	372.12
298.062	391.12
298.292	380.12
298.523	381.12
298.753	394.12
298.984	410.12
299.214	378.12
299.445	392.12
299.675	378.12
299.905	393.12
300.136	384.12
300.366	401.12
300.597	402.12
300.827	386.12
301.057	403.12
301.288	392.12
301.518	409.12
301.748	412.12
301.979	406.12
302.209	407.12
302.439	412.12
302.669	390.12
302.9	398.12
303.13	391.12
303.36	398.12
303.59	407.12
303.82	409.12
304.051	412.12
304.281	379.12
304.511	381.12
304.741	418.12
304.971	416.12
305.201	405.12
305.431	411.12
305.661	400.12
305.891	394.12
306.121	402.12
306.352	393.12
306.582	389.12
306.812	390.12
307.042	379.12
307.272	378.12
307.502	391.12
307.731	404.12
307.961	397.12
308.191	381.12
308.421	388.12
308.651	399.12
308.881	399.12
309.111	401.12
309.341	412.12
309.571	380.12
309.8	384.12
310.03	393.12
310.26	402.12
310.49	414.12
310.72	400.12
310.949	418.12
311.179	396.12
311.409	405.12
311.639	434.12
311.868	402.12
312.098	429.12
312.328	417.12
312.557	411.12
312.787	422.12
313.017	401.12
313.246	432.12
313.476	423.12
313.706	432.12
313.935	423.12
314.165	438.12
314.394	443.12
314.624	417.12
314.853	408.12
315.083	424.12
315.312	421.12
315.542	435.12
315.771	415.12
316.001	436.12
316.23	412.12
316.46	426.12
316.689	418.12
316.919	415.12
317.148	426.12
317.377	428.12
317.607	432.12
317.836	427.12
318.065	425.12
318.295	406.12
318.524	413.12
318.753	402.12
318.983	408.12
319.212	406.12
319.441	418.12
319.67	418.12
319.9	422.12
320.129	448.12
320.358	409.12
320.587	426.12
320.816	435.12
321.046	417.12
321.275	428.12
321.504	429.12
321.733	429.12
321.962	439.12
322.191	415.12
322.42	409.12
322.649	454.12
322.878	446.12
323.108	435.12
323.337	418.12
323.566	444.12
323.795	441.12
324.024	442.12
324.253	452.12
324.482	443.12
324.71	459.12
324.939	445.12
325.168	462.12
325.397	456.12
325.626	454.12
325.855	453.12
326.084	484.12
326.313	473.12
326.542	458.12
326.77	480.12
326.999	454.12
327.228	452.12
327.457	464.12
327.686	492.12
327.914	479.12
328.143	465.12
328.372	473.12
328.6	469.12
328.829	479.12
329.058	483.12
329.287	458.12
329.515	490.12
329.744	455.12
329.972	486.12
330.201	469.12
330.43	488.12
330.658	465.12
330.887	507.12
331.115	516.12
331.344	488.12
331.572	514.12
331.801	508.12
332.03	512.12
332.258	526.12
332.486	555.12
332.715	567.12
332.943	584.12
333.172	626.12
333.4	625.12
333.629	649.12
333.857	620.12
334.085	633.12
334.314	611.12
334.542	627.12
334.771	626.12
334.999	590.12
335.227	600.12
335.455	590.12
335.684	573.12
335.912	572.12
336.14	577.12
336.369	591.12
336.597	588.12
336.825	586.12
337.053	565.12
337.281	580.12
337.51	547.12
337.738	517.12
337.966	547.12
338.194	530.12
338.422	527.12
338.65	524.12
338.878	524.12
339.106	534.12
339.334	514.12
339.562	514.12
339.79	511.12
340.018	510.12
340.246	497.12
340.474	504.12
340.702	509.12
340.93	492.12
341.158	488.12
341.386	487.12
341.614	512.12
341.842	497.12
342.07	496.12
342.298	526.12
342.526	512.12
342.754	519.12
342.981	520.12
343.209	519.12
343.437	553.12
343.665	561.12
343.893	619.12
344.12	634.12
344.348	600.12
344.576	562.12
344.804	578.12
345.031	530.12
345.259	523.12
345.487	514.12
345.714	536.12
345.942	524.12
346.17	505.12
346.397	506.12
346.625	492.12
346.853	488.12
347.08	490.12
347.308	510.12
347.535	504.12
347.763	499.12
347.99	476.12
348.218	514.12
348.445	476.12
348.673	498.12
348.9	483.12
349.128	487.12
349.355	493.12
349.583	498.12
349.81	480.12
350.037	457.12
350.265	480.12
350.492	490.12
350.72	471.12
350.947	471.12
351.174	471.12
351.402	465.12
351.629	489.12
351.856	475.12
352.083	472.12
352.311	461.12
352.538	469.12
352.765	469.12
352.992	464.12
353.22	469.12
353.447	460.12
353.674	469.12
353.901	473.12
354.128	479.12
354.355	472.12
354.583	457.12
354.81	471.12
355.037	507.12
355.264	480.12
355.491	452.12
355.718	464.12
355.945	473.12
356.172	479.12
356.399	461.12
356.626	505.12
356.853	486.12
357.08	477.12
357.307	477.12
357.534	474.12
357.761	453.12
357.988	467.12
358.215	482.12
358.441	466.12
358.668	489.12
358.895	468.12
359.122	480.12
359.349	468.12
359.576	484.12
359.802	480.12
360.029	470.12
360.256	476.12
360.483	458.12
360.709	473.12
360.936	470.12
361.163	482.12
361.39	484.12
361.616	471.12
361.843	482.12
362.07	492.12
362.296	466.12
362.523	461.12
362.749	472.12
362.976	482.12
363.203	475.12
363.429	470.12
363.656	468.12
363.882	488.12
364.109	472.12
364.335	484.12
364.562	481.12
364.788	464.12
365.015	454.12
365.241	462.12
365.468	481.12
365.694	466.12
365.92	470.12
366.147	489.12
366.373	477.12
366.599	467.12
366.826	474.12
367.052	462.12
367.278	463.12
367.505	486.12
367.731	466.12
367.957	461.12
368.184	472.12
368.41	468.12
368.636	502.12
368.862	479.12
369.089	466.12
369.315	504.12
369.541	477.12
369.767	481.12
369.993	465.12
370.219	497.12
370.445	490.12
370.672	488.12
370.898	516.12
371.124	502.12
371.35	513.12
371.576	520.12
371.802	501.12
372.028	504.12
372.254	520.12
372.48	527.12
372.706	526.12
372.932	537.12
373.158	538.12
373.384	531.12
373.61	514.12
373.835	526.12
374.061	511.12
374.287	525.12
374.513	506.12
374.739	560.12
374.965	549.12
375.191	552.12
375.416	556.12
375.642	546.12
375.868	551.12
376.094	521.12
376.319	530.12
376.545	525.12
376.771	506.12
376.997	518.12
377.222	516.12
377.448	509.12
377.674	507.12
377.899	489.12
378.125	527.12
378.35	501.12
378.576	508.12
378.802	493.12
379.027	512.12
379.253	496.12
379.478	504.12
379.704	511.12
379.929	479.12
380.155	491.12
380.38	497.12
380.606	532.12
380.831	512.12
381.057	516.12
381.282	497.12
381.507	502.12
381.733	510.12
381.958	526.12
382.184	526.12
382.409	532.12
382.634	531.12
382.86	538.12
383.085	539.12
383.31	557.12
383.535	580.12
383.761	558.12
383.986	555.12
384.211	564.12
384.436	578.12
384.662	599.12
384.887	613.12
385.112	592.12
385.337	612.12
385.562	616.12
385.787	617.12
386.013	607.12
386.238	605.12
386.463	624.12
386.688	622.12
386.913	583.12
387.138	602.12
387.363	590.12
387.588	605.12
387.813	610.12
388.038	577.12
388.263	579.12
388.488	603.12
388.713	595.12
388.938	604.12
389.163	592.12
389.387	594.12
389.612	575.12
389.837	596.12
390.062	595.12
390.287	606.12
390.512	590.12
390.736	599.12
390.961	605.12
391.186	606.12
391.411	622.12
391.636	670.12
391.86	677.12
392.085	681.12
392.31	700.12
392.534	652.12
392.759	669.12
392.984	650.12
393.208	647.12
393.433	641.12
393.658	618.12
393.882	667.12
394.107	668.12
394.331	651.12
394.556	639.12
394.78	644.12
395.005	644.12
395.229	661.12
395.454	676.12
395.678	680.12
395.903	676.12
396.127	661.12
396.352	642.12
396.576	663.12
396.801	632.12
397.025	658.12
397.249	670.12
397.474	650.12
397.698	672.12
397.922	690.12
398.147	670.12
398.371	696.12
398.595	708.12
398.82	750.12
399.044	764.12
399.268	881.12
399.492	1036.12
399.717	1160.12
399.941	1131.12
400.165	997.12
400.389	881.12
400.613	824.12
400.837	757.12
401.062	754.12
401.286	748.12
401.51	768.12
401.734	726.12
401.958	780.12
402.182	764.12
402.406	775.12
402.63	778.12
402.854	790.12
403.078	826.12
403.302	858.12
403.526	869.12
403.75	885.12
403.974	896.12
404.198	892.12
404.422	891.12
404.645	887.12
404.869	831.12
405.093	868.12
405.317	861.12
405.541	835.12
405.765	833.12
405.988	829.12
406.212	826.12
406.436	827.12
406.66	868.12
406.883	872.12
407.107	908.12
407.331	968.12
407.555	979.12
407.778	960.12
408.002	930.12
408.226	911.12
408.449	893.12
408.673	889.12
408.896	877.12
409.12	888.12
409.344	891.12
409.567	845.12
409.791	884.12
410.014	864.12
410.238	866.12
410.461	840.12
410.685	856.12
410.908	832.12
411.132	816.12
411.355	774.12
411.578	823.12
411.802	798.12
412.025	768.12
412.249	808.12
412.472	817.12
412.695	773.12
412.919	756.12
413.142	756.12
413.365	766.12
413.589	773.12
413.812	764.12
414.035	735.12
414.258	746.12
414.482	768.12
414.705	806.12
414.928	785.12
415.151	752.12
415.374	762.12
415.597	777.12
415.821	757.12
416.044	760.12
416.267	723.12
416.49	734.12
416.713	738.12
416.936	763.12
417.159	760.12
417.382	753.12
417.605	755.12
417.828	739.12
418.051	769.12
418.274	755.12
418.497	752.12
418.72	772.12
418.943	780.12
419.166	820.12
419.389	870.12
419.611	854.12
419.834	803.12
420.057	789.12
420.28	781.12
420.503	757.12
420.726	770.12
420.948	733.12
421.171	727.12
421.394	724.12
421.617	762.12
421.839	778.12
422.062	774.12
422.285	747.12
422.507	794.12
422.73	776.12
422.953	801.12
423.175	786.12
423.398	822.12
423.621	819.12
423.843	816.12
424.066	794.12
424.288	812.12
424.511	800.12
424.733	795.12
424.956	820.12
425.178	777.12
425.401	769.12
425.623	761.12
425.846	749.12
426.068	746.12
426.291	725.12
426.513	728.12
426.735	732.12
426.958	714.12
427.18	692.12
427.402	686.12
427.625	717.12
427.847	667.12
428.069	696.12
428.292	701.12
428.514	706.12
428.736	666.12
428.958	696.12
429.181	681.12
429.403	646.12
429.625	646.12
429.847	661.12
430.069	669.12
430.292	685.12
430.514	670.12
430.736	666.12
430.958	677.12
431.18	645.12
431.402	673.12
431.624	684.12
431.846	656.12
432.068	667.12
432.29	689.12
432.512	689.12
432.734	678.12
432.956	684.12
433.178	709.12
433.4	698.12
433.622	709.12
433.844	708.12
434.066	682.12
434.287	690.12
434.509	725.12
434.731	791.12
434.953	760.12
435.175	760.12
435.397	725.12
435.618	736.12
435.84	712.12
436.062	703.12
436.284	698.12
436.505	694.12
436.727	697.12
436.949	698.12
437.17	668.12
437.392	671.12
437.614	693.12
437.835	645.12
438.057	672.12
438.278	674.12
438.5	689.12
438.721	667.12
438.943	674.12
439.165	658.12
439.386	674.12
439.608	693.12
439.829	713.12
440.05	692.12
440.272	696.12
440.493	725.12
440.715	703.12
440.936	714.12
441.158	727.12
441.379	770.12
441.6	794.12
441.822	801.12
442.043	807.12
442.264	749.12
442.486	741.12
442.707	759.12
442.928	753.12
443.149	788.12
443.371	787.12
443.592	804.12
443.813	774.12
444.034	784.12
444.255	833.12
444.476	869.12
444.698	884.12
444.919	946.12
445.14	1021.12
445.361	885.12
445.582	785.12
445.803	747.12
446.024	717.12
446.245	739.12
446.466	727.12
446.687	704.12
446.908	712.12
447.129	690.12
447.35	680.12
447.571	669.12
447.792	665.12
448.013	640.12
448.234	665.12
448.455	628.12
448.675	626.12
448.896	664.12
449.117	624.12
449.338	620.12
449.559	632.12
449.779	626.12
450	630.12
450.221	626.12
450.442	657.12
450.662	628.12
450.883	670.12
451.104	672.12
451.324	650.12
451.545	644.12
451.766	630.12
451.986	634.12
452.207	648.12
452.428	636.12
452.648	628.12
452.869	630.12
453.089	632.12
453.31	624.12
453.53	639.12
453.751	608.12
453.971	618.12
454.192	625.12
454.412	611.12
454.633	602.12
454.853	601.12
455.073	577.12
455.294	606.12
455.514	595.12
455.734	600.12
455.955	603.12
456.175	605.12
456.395	584.12
456.616	588.12
456.836	587.12
457.056	602.12
457.276	598.12
457.497	601.12
457.717	604.12
457.937	602.12
458.157	594.12
458.377	608.12
458.598	633.12
458.818	641.12
459.038	647.12
459.258	651.12
459.478	673.12
459.698	736.12
459.918	762.12
460.138	745.12
460.358	820.12
460.578	818.12
460.798	798.12
461.018	828.12
461.238	844.12
461.458	795.12
461.678	813.12
461.898	813.12
462.118	808.12
462.338	843.12
462.558	867.12
462.777	930.12
462.997	1029.12
463.217	1103.12
463.437	1092.12
463.657	1010.12
463.876	949.12
464.096	952.12
464.316	905.12
464.536	946.12
464.755	886.12
464.975	874.12
465.195	828.12
465.414	795.12
465.634	749.12
465.854	722.12
466.073	691.12
466.293	700.12
466.512	666.12
466.732	662.12
466.951	670.12
467.171	692.12
467.391	696.12
467.61	689.12
467.829	681.12
468.049	653.12
468.268	636.12
468.488	620.12
468.707	588.12
468.927	627.12
469.146	628.12
469.365	638.12
469.585	672.12
469.804	670.12
470.023	688.12
470.243	688.12
470.462	666.12
470.681	683.12
470.901	688.12
471.12	681.12
471.339	652.12
471.558	664.12
471.777	667.12
471.997	662.12
472.216	635.12
472.435	632.12
472.654	628.12
472.873	620.12
473.092	640.12
473.311	624.12
473.53	641.12
473.749	603.12
473.968	622.12
474.187	597.12
474.406	593.12
474.625	590.12
474.844	618.12
475.063	621.12
475.282	634.12
475.501	633.12
475.72	637.12
475.939	659.12
476.158	651.12
476.377	640.12
476.596	668.12
476.814	656.12
477.033	648.12
477.252	650.12
477.471	678.12
477.69	700.12
477.908	710.12
478.127	724.12
478.346	724.12
478.564	781.12
478.783	738.12
479.002	780.12
479.22	790.12
479.439	760.12
479.658	768.12
479.876	752.12
480.095	757.12
480.313	827.12
480.532	809.12
480.751	842.12
480.969	800.12
481.188	759.12
481.406	744.12
481.624	740.12
481.843	701.12
482.061	678.12
482.28	709.12
482.498	686.12
482.717	706.12
482.935	699.12
483.153	688.12
483.372	711.12
483.59	729.12
483.808	720.12
484.027	709.12
484.245	715.12
484.463	704.12
484.681	725.12
484.9	718.12
485.118	739.12
485.336	723.12
485.554	722.12
485.772	739.12
485.99	753.12
486.209	773.12
486.427	727.12
486.645	727.12
486.863	781.12
487.081	768.12
487.299	739.12
487.517	718.12
487.735	733.12
487.953	743.12
488.171	749.12
488.389	743.12
488.607	725.12
488.825	729.12
489.043	700.12
489.261	720.12
489.479	722.12
489.696	719.12
489.914	740.12
490.132	726.12
490.35	736.12
490.568	736.12
490.786	757.12
491.003	747.12
491.221	737.12
491.439	729.12
491.657	776.12
491.874	764.12
492.092	777.12
492.31	754.12
492.527	764.12
492.745	781.12
492.963	760.12
493.18	766.12
493.398	779.12
493.615	804.12
493.833	790.12
494.05	763.12
494.268	815.12
494.485	816.12
494.703	771.12
494.92	782.12
495.138	771.12
495.355	790.12
495.573	793.12
495.79	793.12
496.008	806.12
496.225	802.12
496.442	813.12
496.66	824.12
496.877	834.12
497.094	834.12
497.312	859.12
497.529	867.12
497.746	876.12
497.963	889.12
498.181	914.12
498.398	943.12
498.615	1002.12
498.832	1083.12
499.049	1197.12
499.267	1292.12
499.484	1400.12
499.701	1556.12
499.918	1709.12
500.135	1998.12
500.352	2314.12
500.569	2386.12
500.786	2316.12
501.003	2145.12
501.22	1920.12
