Data from Ni(NO3)2@0.125M.TitratingCurve.Agarose3%dH2O.NegLispCup.LampEnergy10.LIBS07252019_HRD10591_18-11-03-568.txt Node
Date: Thu Jul 25 18:11:03 EDT 2019
User: cochatt
Spectrometer: HR+D1059
Trigger mode: 1
Integration Time (sec): 1.000000E-1
Scans to average: 1
Electric dark correction enabled: true
Nonlinearity correction enabled: false
Boxcar width: 0
XAxis mode: Wavelengths
Number of Pixels in Spectrum: 2048
>>>>>Begin Spectral Data<<<<<
223.165	-6.81
223.4	-6.81
223.635	-6.81
223.869	2.19
224.104	-21.81
224.338	-8.81
224.573	-18.81
224.808	-12.81
225.042	-18.81
225.277	-13.81
225.511	-3.81
225.746	12.19
225.98	2.19
226.215	9.19
226.449	12.19
226.683	22.19
226.918	20.19
227.152	25.19
227.387	43.19
227.621	35.19
227.856	38.19
228.09	46.19
228.324	44.19
228.559	61.19
228.793	57.19
229.027	99.19
229.262	110.19
229.496	103.19
229.73	117.19
229.964	133.19
230.199	133.19
230.433	148.19
230.667	161.19
230.901	123.19
231.136	111.19
231.37	131.19
231.604	140.19
231.838	150.19
232.072	137.19
232.306	133.19
232.541	142.19
232.775	162.19
233.009	157.19
233.243	156.19
233.477	153.19
233.711	148.19
233.945	151.19
234.179	158.19
234.413	149.19
234.647	149.19
234.881	170.19
235.115	156.19
235.349	139.19
235.583	162.19
235.817	154.19
236.051	169.19
236.285	153.19
236.519	163.19
236.753	158.19
236.987	167.19
237.221	174.19
237.455	168.19
237.689	164.19
237.922	150.19
238.156	170.19
238.39	161.19
238.624	154.19
238.858	203.19
239.091	198.19
239.325	184.19
239.559	174.19
239.793	174.19
240.027	179.19
240.26	181.19
240.494	198.19
240.728	195.19
240.961	194.19
241.195	186.19
241.429	194.19
241.662	198.19
241.896	186.19
242.13	199.19
242.363	192.19
242.597	198.19
242.83	194.19
243.064	211.19
243.298	190.19
243.531	213.19
243.765	209.19
243.998	211.19
244.232	220.19
244.465	210.19
244.699	217.19
244.932	217.19
245.166	219.19
245.399	224.19
245.633	218.19
245.866	225.19
246.099	225.19
246.333	228.19
246.566	221.19
246.8	235.19
247.033	241.19
247.266	235.19
247.5	253.19
247.733	241.19
247.966	250.19
248.2	257.19
248.433	241.19
248.666	255.19
248.899	262.19
249.133	237.19
249.366	259.19
249.599	279.19
249.832	236.19
250.066	263.19
250.299	260.19
250.532	256.19
250.765	266.19
250.998	268.19
251.231	271.19
251.465	267.19
251.698	286.19
251.931	258.19
252.164	279.19
252.397	289.19
252.63	266.19
252.863	289.19
253.096	275.19
253.329	291.19
253.562	302.19
253.795	289.19
254.028	306.19
254.261	274.19
254.494	300.19
254.727	303.19
254.96	284.19
255.193	290.19
255.426	300.19
255.659	294.19
255.892	293.19
256.124	287.19
256.357	302.19
256.59	289.19
256.823	292.19
257.056	305.19
257.289	307.19
257.521	309.19
257.754	314.19
257.987	307.19
258.22	309.19
258.452	302.19
258.685	315.19
258.918	330.19
259.151	327.19
259.383	336.19
259.616	335.19
259.849	336.19
260.081	335.19
260.314	341.19
260.547	333.19
260.779	347.19
261.012	356.19
261.244	329.19
261.477	329.19
261.71	339.19
261.942	337.19
262.175	332.19
262.407	340.19
262.64	356.19
262.872	363.19
263.105	341.19
263.337	349.19
263.57	345.19
263.802	356.19
264.035	353.19
264.267	375.19
264.499	354.19
264.732	367.19
264.964	349.19
265.197	374.19
265.429	379.19
265.661	372.19
265.894	359.19
266.126	371.19
266.358	348.19
266.591	363.19
266.823	386.19
267.055	357.19
267.287	381.19
267.52	382.19
267.752	371.19
267.984	396.19
268.216	376.19
268.448	384.19
268.681	381.19
268.913	387.19
269.145	388.19
269.377	388.19
269.609	397.19
269.841	383.19
270.073	381.19
270.306	399.19
270.538	400.19
270.77	398.19
271.002	407.19
271.234	385.19
271.466	410.19
271.698	403.19
271.93	389.19
272.162	392.19
272.394	419.19
272.626	410.19
272.858	414.19
273.09	415.19
273.322	419.19
273.553	408.19
273.785	421.19
274.017	409.19
274.249	425.19
274.481	405.19
274.713	440.19
274.945	427.19
275.176	446.19
275.408	443.19
275.64	426.19
275.872	430.19
276.104	427.19
276.335	448.19
276.567	425.19
276.799	435.19
277.031	441.19
277.262	431.19
277.494	445.19
277.726	441.19
277.957	446.19
278.189	456.19
278.421	471.19
278.652	419.19
278.884	444.19
279.115	467.19
279.347	457.19
279.579	475.19
279.81	476.19
280.042	475.19
280.273	441.19
280.505	450.19
280.736	469.19
280.968	466.19
281.199	472.19
281.431	449.19
281.662	468.19
281.894	478.19
282.125	495.19
282.356	494.19
282.588	489.19
282.819	482.19
283.051	483.19
283.282	497.19
283.513	486.19
283.745	510.19
283.976	493.19
284.207	515.19
284.439	504.19
284.67	523.19
284.901	515.19
285.132	510.19
285.364	516.19
285.595	525.19
285.826	494.19
286.057	510.19
286.288	514.19
286.52	510.19
286.751	513.19
286.982	534.19
287.213	533.19
287.444	525.19
287.675	527.19
287.906	532.19
288.138	531.19
288.369	551.19
288.6	522.19
288.831	552.19
289.062	547.19
289.293	542.19
289.524	528.19
289.755	547.19
289.986	542.19
290.217	527.19
290.448	534.19
290.679	542.19
290.91	544.19
291.141	566.19
291.371	564.19
291.602	543.19
291.833	568.19
292.064	571.19
292.295	566.19
292.526	545.19
292.757	551.19
292.987	555.19
293.218	541.19
293.449	554.19
293.68	549.19
293.91	543.19
294.141	549.19
294.372	569.19
294.603	559.19
294.833	549.19
295.064	554.19
295.295	552.19
295.525	555.19
295.756	587.19
295.987	561.19
296.217	549.19
296.448	564.19
296.679	577.19
296.909	564.19
297.14	602.19
297.37	599.19
297.601	597.19
297.831	594.19
298.062	622.19
298.292	589.19
298.523	586.19
298.753	621.19
298.984	599.19
299.214	605.19
299.445	579.19
299.675	575.19
299.905	599.19
300.136	572.19
300.366	591.19
300.597	599.19
300.827	631.19
301.057	620.19
301.288	633.19
301.518	643.19
301.748	636.19
301.979	689.19
302.209	630.19
302.439	632.19
302.669	616.19
302.9	618.19
303.13	599.19
303.36	605.19
303.59	625.19
303.82	625.19
304.051	608.19
304.281	623.19
304.511	620.19
304.741	619.19
304.971	642.19
305.201	605.19
305.431	613.19
305.661	630.19
305.891	633.19
306.121	606.19
306.352	592.19
306.582	627.19
306.812	601.19
307.042	609.19
307.272	645.19
307.502	611.19
307.731	618.19
307.961	596.19
308.191	601.19
308.421	588.19
308.651	622.19
308.881	611.19
309.111	604.19
309.341	626.19
309.571	609.19
309.8	609.19
310.03	629.19
310.26	612.19
310.49	605.19
310.72	618.19
310.949	605.19
311.179	617.19
311.409	605.19
311.639	623.19
311.868	606.19
312.098	602.19
312.328	598.19
312.557	633.19
312.787	633.19
313.017	636.19
313.246	637.19
313.476	661.19
313.706	678.19
313.935	674.19
314.165	665.19
314.394	654.19
314.624	646.19
314.853	649.19
315.083	654.19
315.312	654.19
315.542	647.19
315.771	661.19
316.001	651.19
316.23	643.19
316.46	643.19
316.689	641.19
316.919	633.19
317.148	635.19
317.377	629.19
317.607	633.19
317.836	638.19
318.065	639.19
318.295	640.19
318.524	647.19
318.753	640.19
318.983	633.19
319.212	646.19
319.441	642.19
319.67	647.19
319.9	626.19
320.129	636.19
320.358	633.19
320.587	644.19
320.816	647.19
321.046	643.19
321.275	650.19
321.504	648.19
321.733	659.19
321.962	641.19
322.191	649.19
322.42	651.19
322.649	655.19
322.878	661.19
323.108	673.19
323.337	677.19
323.566	669.19
323.795	674.19
324.024	670.19
324.253	669.19
324.482	676.19
324.71	667.19
324.939	661.19
325.168	683.19
325.397	658.19
325.626	675.19
325.855	695.19
326.084	721.19
326.313	705.19
326.542	714.19
326.77	697.19
326.999	707.19
327.228	705.19
327.457	694.19
327.686	692.19
327.914	714.19
328.143	727.19
328.372	734.19
328.6	692.19
328.829	737.19
329.058	710.19
329.287	732.19
329.515	741.19
329.744	743.19
329.972	724.19
330.201	732.19
330.43	735.19
330.658	739.19
330.887	737.19
331.115	755.19
331.344	751.19
331.572	738.19
331.801	746.19
332.03	765.19
332.258	804.19
332.486	825.19
332.715	849.19
332.943	901.19
333.172	925.19
333.4	967.19
333.629	965.19
333.857	997.19
334.085	958.19
334.314	969.19
334.542	903.19
334.771	890.19
334.999	901.19
335.227	877.19
335.455	913.19
335.684	895.19
335.912	932.19
336.14	871.19
336.369	876.19
336.597	861.19
336.825	851.19
337.053	850.19
337.281	843.19
337.51	829.19
337.738	836.19
337.966	807.19
338.194	817.19
338.422	787.19
338.65	793.19
338.878	782.19
339.106	777.19
339.334	761.19
339.562	750.19
339.79	759.19
340.018	745.19
340.246	724.19
340.474	738.19
340.702	768.19
340.93	749.19
341.158	757.19
341.386	776.19
341.614	728.19
341.842	740.19
342.07	732.19
342.298	719.19
342.526	729.19
342.754	764.19
342.981	750.19
343.209	771.19
343.437	814.19
343.665	847.19
343.893	896.19
344.12	947.19
344.348	927.19
344.576	820.19
344.804	817.19
345.031	783.19
345.259	776.19
345.487	762.19
345.714	766.19
345.942	753.19
346.17	749.19
346.397	713.19
346.625	720.19
346.853	732.19
347.08	739.19
347.308	738.19
347.535	729.19
347.763	737.19
347.99	733.19
348.218	735.19
348.445	721.19
348.673	729.19
348.9	693.19
349.128	735.19
349.355	738.19
349.583	735.19
349.81	714.19
350.037	712.19
350.265	724.19
350.492	728.19
350.72	695.19
350.947	686.19
351.174	713.19
351.402	694.19
351.629	712.19
351.856	707.19
352.083	698.19
352.311	682.19
352.538	691.19
352.765	706.19
352.992	717.19
353.22	676.19
353.447	678.19
353.674	706.19
353.901	718.19
354.128	698.19
354.355	695.19
354.583	694.19
354.81	686.19
355.037	713.19
355.264	700.19
355.491	710.19
355.718	689.19
355.945	698.19
356.172	718.19
356.399	715.19
356.626	718.19
356.853	709.19
357.08	691.19
357.307	692.19
357.534	726.19
357.761	704.19
357.988	698.19
358.215	681.19
358.441	682.19
358.668	690.19
358.895	710.19
359.122	704.19
359.349	701.19
359.576	697.19
359.802	701.19
360.029	697.19
360.256	700.19
360.483	694.19
360.709	692.19
360.936	675.19
361.163	697.19
361.39	714.19
361.616	700.19
361.843	706.19
362.07	710.19
362.296	713.19
362.523	693.19
362.749	694.19
362.976	688.19
363.203	687.19
363.429	687.19
363.656	696.19
363.882	696.19
364.109	680.19
364.335	689.19
364.562	678.19
364.788	683.19
365.015	718.19
365.241	696.19
365.468	691.19
365.694	705.19
365.92	682.19
366.147	696.19
366.373	724.19
366.599	691.19
366.826	692.19
367.052	681.19
367.278	684.19
367.505	701.19
367.731	714.19
367.957	706.19
368.184	707.19
368.41	704.19
368.636	706.19
368.862	713.19
369.089	706.19
369.315	710.19
369.541	713.19
369.767	742.19
369.993	738.19
370.219	713.19
370.445	728.19
370.672	756.19
370.898	753.19
371.124	764.19
371.35	762.19
371.576	766.19
371.802	773.19
372.028	753.19
372.254	765.19
372.48	769.19
372.706	773.19
372.932	784.19
373.158	804.19
373.384	786.19
373.61	754.19
373.835	785.19
374.061	762.19
374.287	766.19
374.513	788.19
374.739	803.19
374.965	814.19
375.191	872.19
375.416	859.19
375.642	805.19
375.868	802.19
376.094	796.19
376.319	771.19
376.545	777.19
376.771	771.19
376.997	758.19
377.222	775.19
377.448	720.19
377.674	753.19
377.899	750.19
378.125	736.19
378.35	736.19
378.576	724.19
378.802	734.19
379.027	743.19
379.253	759.19
379.478	749.19
379.704	733.19
379.929	742.19
380.155	750.19
380.38	710.19
380.606	756.19
380.831	737.19
381.057	747.19
381.282	773.19
381.507	775.19
381.733	754.19
381.958	793.19
382.184	769.19
382.409	782.19
382.634	786.19
382.86	782.19
383.085	837.19
383.31	813.19
383.535	814.19
383.761	858.19
383.986	869.19
384.211	886.19
384.436	885.19
384.662	892.19
384.887	914.19
385.112	933.19
385.337	919.19
385.562	921.19
385.787	926.19
386.013	937.19
386.238	896.19
386.463	959.19
386.688	929.19
386.913	912.19
387.138	903.19
387.363	900.19
387.588	925.19
387.813	895.19
388.038	908.19
388.263	906.19
388.488	894.19
388.713	903.19
388.938	872.19
389.163	885.19
389.387	897.19
389.612	890.19
389.837	889.19
390.062	888.19
390.287	854.19
390.512	897.19
390.736	897.19
390.961	906.19
391.186	930.19
391.411	963.19
391.636	984.19
391.86	1006.19
392.085	1066.19
392.31	1057.19
392.534	1017.19
392.759	989.19
392.984	984.19
393.208	963.19
393.433	979.19
393.658	968.19
393.882	966.19
394.107	964.19
394.331	962.19
394.556	950.19
394.78	986.19
395.005	1012.19
395.229	970.19
395.454	997.19
395.678	1043.19
395.903	1031.19
396.127	1009.19
396.352	982.19
396.576	960.19
396.801	957.19
397.025	956.19
397.249	979.19
397.474	1013.19
397.698	998.19
397.922	1039.19
398.147	1010.19
398.371	1034.19
398.595	1056.19
398.82	1075.19
399.044	1195.19
399.268	1309.19
399.492	1549.19
399.717	1811.19
399.941	1787.19
400.165	1508.19
400.389	1369.19
400.613	1224.19
400.837	1170.19
401.062	1190.19
401.286	1161.19
401.51	1154.19
401.734	1119.19
401.958	1167.19
402.182	1172.19
402.406	1189.19
402.63	1167.19
402.854	1241.19
403.078	1242.19
403.302	1288.19
403.526	1271.19
403.75	1337.19
403.974	1355.19
404.198	1360.19
404.422	1344.19
404.645	1350.19
404.869	1300.19
405.093	1321.19
405.317	1302.19
405.541	1301.19
405.765	1283.19
405.988	1246.19
406.212	1274.19
406.436	1238.19
406.66	1290.19
406.883	1300.19
407.107	1387.19
407.331	1476.19
407.555	1549.19
407.778	1513.19
408.002	1473.19
408.226	1433.19
408.449	1368.19
408.673	1353.19
408.896	1321.19
409.12	1294.19
409.344	1305.19
409.567	1318.19
409.791	1323.19
410.014	1313.19
410.238	1281.19
410.461	1277.19
410.685	1267.19
410.908	1264.19
411.132	1234.19
411.355	1182.19
411.578	1198.19
411.802	1209.19
412.025	1225.19
412.249	1205.19
412.472	1177.19
412.695	1170.19
412.919	1133.19
413.142	1124.19
413.365	1146.19
413.589	1155.19
413.812	1163.19
414.035	1139.19
414.258	1119.19
414.482	1116.19
414.705	1151.19
414.928	1179.19
415.151	1177.19
415.374	1186.19
415.597	1148.19
415.821	1155.19
416.044	1103.19
416.267	1114.19
416.49	1121.19
416.713	1118.19
416.936	1132.19
417.159	1129.19
417.382	1128.19
417.605	1161.19
417.828	1132.19
418.051	1129.19
418.274	1149.19
418.497	1117.19
418.72	1184.19
418.943	1200.19
419.166	1206.19
419.389	1318.19
419.611	1294.19
419.834	1213.19
420.057	1186.19
420.28	1140.19
420.503	1126.19
420.726	1126.19
420.948	1124.19
421.171	1115.19
421.394	1130.19
421.617	1100.19
421.839	1140.19
422.062	1154.19
422.285	1136.19
422.507	1172.19
422.73	1177.19
422.953	1179.19
423.175	1198.19
423.398	1232.19
423.621	1208.19
423.843	1231.19
424.066	1192.19
424.288	1218.19
424.511	1198.19
424.733	1221.19
424.956	1187.19
425.178	1141.19
425.401	1150.19
425.623	1110.19
425.846	1100.19
426.068	1136.19
426.291	1079.19
426.513	1089.19
426.735	1063.19
426.958	1038.19
427.18	1037.19
427.402	1040.19
427.625	1036.19
427.847	1014.19
428.069	1013.19
428.292	1040.19
428.514	1020.19
428.736	971.19
428.958	975.19
429.181	989.19
429.403	956.19
429.625	990.19
429.847	1003.19
430.069	997.19
430.292	978.19
430.514	961.19
430.736	982.19
430.958	983.19
431.18	994.19
431.402	1027.19
431.624	1010.19
431.846	1017.19
432.068	1027.19
432.29	1034.19
432.512	993.19
432.734	1029.19
432.956	1012.19
433.178	1028.19
433.4	979.19
433.622	1013.19
433.844	1005.19
434.066	1023.19
434.287	1067.19
434.509	1084.19
434.731	1123.19
434.953	1133.19
435.175	1172.19
435.397	1132.19
435.618	1097.19
435.84	1035.19
436.062	1035.19
436.284	973.19
436.505	994.19
436.727	1008.19
436.949	1025.19
437.17	1010.19
437.392	986.19
437.614	999.19
437.835	954.19
438.057	947.19
438.278	954.19
438.5	941.19
438.721	958.19
438.943	956.19
439.165	954.19
439.386	981.19
439.608	1025.19
439.829	1005.19
440.05	992.19
440.272	1035.19
440.493	1009.19
440.715	1017.19
440.936	1030.19
441.158	1086.19
441.379	1104.19
441.6	1140.19
441.822	1155.19
442.043	1157.19
442.264	1146.19
442.486	1079.19
442.707	1110.19
442.928	1139.19
443.149	1125.19
443.371	1132.19
443.592	1129.19
443.813	1181.19
444.034	1152.19
444.255	1210.19
444.476	1243.19
444.698	1299.19
444.919	1379.19
445.14	1446.19
445.361	1287.19
445.582	1195.19
445.803	1129.19
446.024	1087.19
446.245	1068.19
446.466	1029.19
446.687	1001.19
446.908	1010.19
447.129	1001.19
447.35	963.19
447.571	964.19
447.792	942.19
448.013	943.19
448.234	965.19
448.455	931.19
448.675	934.19
448.896	891.19
449.117	909.19
449.338	910.19
449.559	905.19
449.779	919.19
450	912.19
450.221	921.19
450.442	925.19
450.662	892.19
450.883	949.19
451.104	965.19
451.324	981.19
451.545	953.19
451.766	917.19
451.986	945.19
452.207	919.19
452.428	928.19
452.648	929.19
452.869	918.19
453.089	906.19
453.31	911.19
453.53	902.19
453.751	883.19
453.971	893.19
454.192	908.19
454.412	879.19
454.633	901.19
454.853	883.19
455.073	862.19
455.294	862.19
455.514	874.19
455.734	891.19
455.955	888.19
456.175	872.19
456.395	851.19
456.616	854.19
456.836	843.19
457.056	846.19
457.276	868.19
457.497	893.19
457.717	842.19
457.937	871.19
458.157	858.19
458.377	875.19
458.598	872.19
458.818	901.19
459.038	955.19
459.258	982.19
459.478	998.19
459.698	1035.19
459.918	1081.19
460.138	1131.19
460.358	1164.19
460.578	1184.19
460.798	1217.19
461.018	1228.19
461.238	1193.19
461.458	1196.19
461.678	1178.19
461.898	1213.19
462.118	1237.19
462.338	1262.19
462.558	1311.19
462.777	1338.19
462.997	1493.19
463.217	1632.19
463.437	1669.19
463.657	1493.19
463.876	1408.19
464.096	1373.19
464.316	1391.19
464.536	1441.19
464.755	1356.19
464.975	1302.19
465.195	1258.19
465.414	1183.19
465.634	1058.19
465.854	1039.19
466.073	1011.19
466.293	1011.19
466.512	999.19
466.732	956.19
466.951	963.19
467.171	969.19
467.391	983.19
467.61	974.19
467.829	921.19
468.049	950.19
468.268	934.19
468.488	909.19
468.707	916.19
468.927	936.19
469.146	946.19
469.365	911.19
469.585	942.19
469.804	949.19
470.023	984.19
470.243	971.19
470.462	1015.19
470.681	1007.19
470.901	990.19
471.12	981.19
471.339	964.19
471.558	963.19
471.777	957.19
471.997	911.19
472.216	927.19
472.435	935.19
472.654	913.19
472.873	893.19
473.092	907.19
473.311	915.19
473.53	902.19
473.749	922.19
473.968	892.19
474.187	885.19
474.406	907.19
474.625	885.19
474.844	878.19
475.063	886.19
475.282	877.19
475.501	893.19
475.72	907.19
475.939	921.19
476.158	937.19
476.377	926.19
476.596	943.19
476.814	954.19
477.033	964.19
477.252	961.19
477.471	965.19
477.69	1016.19
477.908	1025.19
478.127	1057.19
478.346	1070.19
478.564	1073.19
478.783	1107.19
479.002	1129.19
479.22	1132.19
479.439	1122.19
479.658	1107.19
479.876	1111.19
480.095	1134.19
480.313	1202.19
480.532	1244.19
480.751	1250.19
480.969	1173.19
481.188	1097.19
481.406	1069.19
481.624	1067.19
481.843	1079.19
482.061	1044.19
482.28	1050.19
482.498	1009.19
482.717	1017.19
482.935	1026.19
483.153	1032.19
483.372	1025.19
483.59	1010.19
483.808	1034.19
484.027	1045.19
484.245	1042.19
484.463	1015.19
484.681	1068.19
484.9	1068.19
485.118	1065.19
485.336	1066.19
485.554	1054.19
485.772	1088.19
485.99	1098.19
486.209	1064.19
486.427	1110.19
486.645	1062.19
486.863	1082.19
487.081	1105.19
487.299	1074.19
487.517	1084.19
487.735	1058.19
487.953	1091.19
488.171	1092.19
488.389	1098.19
488.607	1058.19
488.825	1063.19
489.043	1038.19
489.261	1064.19
489.479	1065.19
489.696	1058.19
489.914	1053.19
490.132	1084.19
490.35	1060.19
490.568	1065.19
490.786	1090.19
491.003	1091.19
491.221	1071.19
491.439	1104.19
491.657	1094.19
491.874	1089.19
492.092	1080.19
492.31	1110.19
492.527	1105.19
492.745	1097.19
492.963	1118.19
493.18	1119.19
493.398	1132.19
493.615	1125.19
493.833	1128.19
494.05	1123.19
494.268	1106.19
494.485	1131.19
494.703	1181.19
494.92	1131.19
495.138	1131.19
495.355	1113.19
495.573	1129.19
495.79	1131.19
496.008	1148.19
496.225	1129.19
496.442	1177.19
496.66	1169.19
496.877	1204.19
497.094	1188.19
