Data from Ni(NO3)2@0.5M.TitratingCurve.Agarose3%dH2O.NegLispCup.LampEnergy10.LIBS07252019_HRD10591_17-58-00-564.txt Node
Date: Thu Jul 25 17:58:00 EDT 2019
User: cochatt
Spectrometer: HR+D1059
Trigger mode: 1
Integration Time (sec): 1.000000E-1
Scans to average: 1
Electric dark correction enabled: true
Nonlinearity correction enabled: false
Boxcar width: 0
XAxis mode: Wavelengths
Number of Pixels in Spectrum: 2048
>>>>>Begin Spectral Data<<<<<
223.165	-20.88
223.4	-20.88
223.635	-20.88
223.869	-21.88
224.104	-19.88
224.338	-9.88
224.573	-17.88
224.808	-7.88
225.042	-4.88
225.277	-8.88
225.511	0.12
225.746	-15.88
225.98	8.12
226.215	4.12
226.449	25.12
226.683	32.12
226.918	26.12
227.152	32.12
227.387	37.12
227.621	28.12
227.856	45.12
228.09	54.12
228.324	47.12
228.559	50.12
228.793	98.12
229.027	156.12
229.262	181.12
229.496	178.12
229.73	189.12
229.964	223.12
230.199	273.12
230.433	288.12
230.667	257.12
230.901	257.12
231.136	215.12
231.37	228.12
231.604	249.12
231.838	250.12
232.072	281.12
232.306	249.12
232.541	229.12
232.775	218.12
233.009	207.12
233.243	196.12
233.477	194.12
233.711	221.12
233.945	228.12
234.179	225.12
234.413	217.12
234.647	242.12
234.881	234.12
235.115	253.12
235.349	201.12
235.583	213.12
235.817	221.12
236.051	212.12
236.285	229.12
236.519	229.12
236.753	224.12
236.987	224.12
237.221	229.12
237.455	217.12
237.689	221.12
237.922	234.12
238.156	232.12
238.39	241.12
238.624	219.12
238.858	248.12
239.091	258.12
239.325	238.12
239.559	260.12
239.793	295.12
240.027	322.12
240.26	286.12
240.494	273.12
240.728	266.12
240.961	264.12
241.195	267.12
241.429	274.12
241.662	295.12
241.896	329.12
242.13	336.12
242.363	299.12
242.597	286.12
242.83	274.12
243.064	287.12
243.298	292.12
243.531	311.12
243.765	310.12
243.998	326.12
244.232	326.12
244.465	329.12
244.699	309.12
244.932	311.12
245.166	303.12
245.399	304.12
245.633	306.12
245.866	312.12
246.099	317.12
246.333	332.12
246.566	325.12
246.8	316.12
247.033	342.12
247.266	331.12
247.5	346.12
247.733	348.12
247.966	335.12
248.2	334.12
248.433	358.12
248.666	367.12
248.899	358.12
249.133	377.12
249.366	396.12
249.599	392.12
249.832	377.12
250.066	369.12
250.299	379.12
250.532	384.12
250.765	412.12
250.998	427.12
251.231	447.12
251.465	464.12
251.698	463.12
251.931	402.12
252.164	419.12
252.397	414.12
252.63	430.12
252.863	429.12
253.096	436.12
253.329	436.12
253.562	432.12
253.795	436.12
254.028	438.12
254.261	457.12
254.494	462.12
254.727	467.12
254.96	476.12
255.193	460.12
255.426	463.12
255.659	486.12
255.892	489.12
256.124	471.12
256.357	488.12
256.59	472.12
256.823	471.12
257.056	480.12
257.289	488.12
257.521	525.12
257.754	522.12
257.987	506.12
258.22	512.12
258.452	500.12
258.685	518.12
258.918	527.12
259.151	536.12
259.383	532.12
259.616	539.12
259.849	536.12
260.081	524.12
260.314	544.12
260.547	537.12
260.779	536.12
261.012	551.12
261.244	561.12
261.477	567.12
261.71	576.12
261.942	564.12
262.175	576.12
262.407	582.12
262.64	558.12
262.872	562.12
263.105	598.12
263.337	577.12
263.57	607.12
263.802	584.12
264.035	606.12
264.267	600.12
264.499	590.12
264.732	605.12
264.964	603.12
265.197	617.12
265.429	589.12
265.661	597.12
265.894	637.12
266.126	647.12
266.358	640.12
266.591	625.12
266.823	618.12
267.055	640.12
267.287	628.12
267.52	637.12
267.752	643.12
267.984	628.12
268.216	648.12
268.448	653.12
268.681	655.12
268.913	654.12
269.145	625.12
269.377	646.12
269.609	650.12
269.841	673.12
270.073	669.12
270.306	650.12
270.538	673.12
270.77	643.12
271.002	686.12
271.234	679.12
271.466	689.12
271.698	689.12
271.93	677.12
272.162	661.12
272.394	672.12
272.626	677.12
272.858	666.12
273.09	679.12
273.322	708.12
273.553	700.12
273.785	715.12
274.017	705.12
274.249	716.12
274.481	719.12
274.713	695.12
274.945	725.12
275.176	744.12
275.408	713.12
275.64	706.12
275.872	738.12
276.104	733.12
276.335	710.12
276.567	712.12
276.799	737.12
277.031	749.12
277.262	752.12
277.494	758.12
277.726	732.12
277.957	746.12
278.189	722.12
278.421	764.12
278.652	745.12
278.884	770.12
279.115	764.12
279.347	744.12
279.579	752.12
279.81	790.12
280.042	758.12
280.273	758.12
280.505	759.12
280.736	786.12
280.968	785.12
281.199	778.12
281.431	788.12
281.662	808.12
281.894	781.12
282.125	778.12
282.356	801.12
282.588	784.12
282.819	801.12
283.051	808.12
283.282	768.12
283.513	818.12
283.745	837.12
283.976	815.12
284.207	792.12
284.439	815.12
284.67	805.12
284.901	816.12
285.132	830.12
285.364	811.12
285.595	789.12
285.826	824.12
286.057	825.12
286.288	837.12
286.52	861.12
286.751	811.12
286.982	854.12
287.213	839.12
287.444	861.12
287.675	830.12
287.906	843.12
288.138	834.12
288.369	829.12
288.6	847.12
288.831	884.12
289.062	838.12
289.293	869.12
289.524	860.12
289.755	861.12
289.986	861.12
290.217	847.12
290.448	858.12
290.679	848.12
290.91	872.12
291.141	859.12
291.371	843.12
291.602	862.12
291.833	840.12
292.064	870.12
292.295	849.12
292.526	851.12
292.757	884.12
292.987	862.12
293.218	836.12
293.449	864.12
293.68	880.12
293.91	861.12
294.141	842.12
294.372	864.12
294.603	882.12
294.833	896.12
295.064	866.12
295.295	847.12
295.525	877.12
295.756	880.12
295.987	880.12
296.217	875.12
296.448	895.12
296.679	900.12
296.909	869.12
297.14	889.12
297.37	899.12
297.601	920.12
297.831	896.12
298.062	905.12
298.292	912.12
298.523	918.12
298.753	897.12
298.984	934.12
299.214	937.12
299.445	930.12
299.675	926.12
299.905	954.12
300.136	929.12
300.366	983.12
300.597	1002.12
300.827	979.12
301.057	952.12
301.288	968.12
301.518	973.12
301.748	970.12
301.979	956.12
302.209	969.12
302.439	980.12
302.669	965.12
302.9	968.12
303.13	969.12
303.36	942.12
303.59	948.12
303.82	986.12
304.051	999.12
304.281	1014.12
304.511	959.12
304.741	960.12
304.971	995.12
305.201	1040.12
305.431	1048.12
305.661	1041.12
305.891	1033.12
306.121	1058.12
306.352	991.12
306.582	968.12
306.812	999.12
307.042	997.12
307.272	990.12
307.502	985.12
307.731	1001.12
307.961	1029.12
308.191	1024.12
308.421	1007.12
308.651	1017.12
308.881	1011.12
309.111	992.12
309.341	1007.12
309.571	1026.12
309.8	1044.12
310.03	1051.12
310.26	1119.12
310.49	1097.12
310.72	1076.12
310.949	1038.12
311.179	1037.12
311.409	1064.12
311.639	1054.12
311.868	1064.12
312.098	1083.12
312.328	1090.12
312.557	1086.12
312.787	1057.12
313.017	1070.12
313.246	1113.12
313.476	1154.12
313.706	1152.12
313.935	1122.12
314.165	1102.12
314.394	1145.12
314.624	1121.12
314.853	1112.12
315.083	1108.12
315.312	1111.12
315.542	1114.12
315.771	1138.12
316.001	1105.12
316.23	1136.12
316.46	1141.12
316.689	1165.12
316.919	1174.12
317.148	1150.12
317.377	1145.12
317.607	1152.12
317.836	1129.12
318.065	1206.12
318.295	1155.12
318.524	1188.12
318.753	1169.12
318.983	1176.12
319.212	1156.12
319.441	1207.12
319.67	1192.12
319.9	1192.12
320.129	1215.12
320.358	1210.12
320.587	1218.12
320.816	1236.12
321.046	1227.12
321.275	1210.12
321.504	1243.12
321.733	1249.12
321.962	1243.12
322.191	1230.12
322.42	1248.12
322.649	1245.12
322.878	1238.12
323.108	1262.12
323.337	1256.12
323.566	1268.12
323.795	1293.12
324.024	1302.12
324.253	1275.12
324.482	1273.12
324.71	1274.12
324.939	1262.12
325.168	1328.12
325.397	1316.12
325.626	1295.12
325.855	1298.12
326.084	1327.12
326.313	1332.12
326.542	1302.12
326.77	1315.12
326.999	1329.12
327.228	1333.12
327.457	1312.12
327.686	1305.12
327.914	1330.12
328.143	1342.12
328.372	1302.12
328.6	1296.12
328.829	1329.12
329.058	1322.12
329.287	1368.12
329.515	1349.12
329.744	1357.12
329.972	1346.12
330.201	1344.12
330.43	1316.12
330.658	1352.12
330.887	1388.12
331.115	1396.12
331.344	1400.12
331.572	1366.12
331.801	1405.12
332.03	1378.12
332.258	1407.12
332.486	1385.12
332.715	1398.12
332.943	1424.12
333.172	1400.12
333.4	1430.12
333.629	1428.12
333.857	1428.12
334.085	1423.12
334.314	1426.12
334.542	1433.12
334.771	1457.12
334.999	1445.12
335.227	1450.12
335.455	1460.12
335.684	1446.12
335.912	1497.12
336.14	1476.12
336.369	1462.12
336.597	1476.12
336.825	1481.12
337.053	1500.12
337.281	1526.12
337.51	1471.12
337.738	1512.12
337.966	1479.12
338.194	1505.12
338.422	1499.12
338.65	1423.12
338.878	1479.12
339.106	1469.12
339.334	1513.12
339.562	1516.12
339.79	1424.12
340.018	1442.12
340.246	1436.12
340.474	1435.12
340.702	1432.12
340.93	1456.12
341.158	1465.12
341.386	1486.12
341.614	1563.12
341.842	1526.12
342.07	1441.12
342.298	1460.12
342.526	1460.12
342.754	1473.12
342.981	1450.12
343.209	1454.12
343.437	1487.12
343.665	1508.12
343.893	1492.12
344.12	1474.12
344.348	1454.12
344.576	1481.12
344.804	1520.12
345.031	1525.12
345.259	1470.12
345.487	1505.12
345.714	1514.12
345.942	1534.12
346.17	1524.12
346.397	1495.12
346.625	1470.12
346.853	1418.12
347.08	1424.12
347.308	1444.12
347.535	1453.12
347.763	1430.12
347.99	1427.12
348.218	1418.12
348.445	1416.12
348.673	1423.12
348.9	1431.12
349.128	1427.12
349.355	1467.12
349.583	1469.12
349.81	1433.12
350.037	1414.12
350.265	1398.12
350.492	1420.12
350.72	1408.12
350.947	1406.12
351.174	1449.12
351.402	1483.12
351.629	1510.12
351.856	1481.12
352.083	1443.12
352.311	1458.12
352.538	1493.12
352.765	1532.12
352.992	1408.12
353.22	1372.12
353.447	1369.12
353.674	1344.12
353.901	1367.12
354.128	1363.12
354.355	1401.12
354.583	1382.12
354.81	1402.12
355.037	1407.12
355.264	1383.12
355.491	1374.12
355.718	1378.12
355.945	1406.12
356.172	1358.12
356.399	1416.12
356.626	1443.12
356.853	1446.12
357.08	1413.12
357.307	1418.12
357.534	1380.12
357.761	1377.12
357.988	1367.12
358.215	1381.12
358.441	1369.12
358.668	1404.12
358.895	1362.12
359.122	1378.12
359.349	1386.12
359.576	1351.12
359.802	1387.12
360.029	1393.12
360.256	1403.12
360.483	1408.12
360.709	1391.12
360.936	1393.12
361.163	1407.12
361.39	1448.12
361.616	1415.12
361.843	1446.12
362.07	1521.12
362.296	1455.12
362.523	1393.12
362.749	1357.12
362.976	1388.12
363.203	1411.12
363.429	1380.12
363.656	1400.12
363.882	1387.12
364.109	1382.12
364.335	1375.12
364.562	1388.12
364.788	1375.12
365.015	1356.12
365.241	1389.12
365.468	1398.12
365.694	1402.12
365.92	1406.12
366.147	1416.12
366.373	1393.12
366.599	1382.12
366.826	1401.12
367.052	1384.12
367.278	1435.12
367.505	1406.12
367.731	1417.12
367.957	1430.12
368.184	1382.12
368.41	1404.12
368.636	1414.12
368.862	1404.12
369.089	1419.12
369.315	1462.12
369.541	1406.12
369.767	1402.12
369.993	1446.12
370.219	1416.12
370.445	1445.12
370.672	1428.12
370.898	1410.12
371.124	1447.12
371.35	1425.12
371.576	1440.12
371.802	1420.12
372.028	1419.12
372.254	1441.12
372.48	1456.12
372.706	1449.12
372.932	1398.12
373.158	1426.12
373.384	1440.12
373.61	1396.12
373.835	1436.12
374.061	1443.12
374.287	1483.12
374.513	1450.12
374.739	1440.12
374.965	1430.12
375.191	1396.12
375.416	1435.12
375.642	1405.12
375.868	1420.12
376.094	1457.12
376.319	1425.12
376.545	1421.12
376.771	1395.12
376.997	1372.12
377.222	1414.12
377.448	1401.12
377.674	1424.12
377.899	1394.12
378.125	1433.12
378.35	1419.12
378.576	1396.12
378.802	1374.12
379.027	1408.12
379.253	1406.12
379.478	1385.12
379.704	1389.12
379.929	1387.12
380.155	1365.12
380.38	1400.12
380.606	1388.12
380.831	1416.12
381.057	1409.12
381.282	1362.12
381.507	1392.12
381.733	1402.12
381.958	1403.12
382.184	1397.12
382.409	1386.12
382.634	1372.12
382.86	1412.12
383.085	1424.12
383.31	1434.12
383.535	1423.12
383.761	1418.12
383.986	1450.12
384.211	1444.12
384.436	1428.12
384.662	1446.12
384.887	1451.12
385.112	1429.12
385.337	1476.12
385.562	1471.12
385.787	1480.12
386.013	1490.12
386.238	1458.12
386.463	1480.12
386.688	1490.12
386.913	1468.12
387.138	1467.12
387.363	1484.12
387.588	1444.12
387.813	1504.12
388.038	1453.12
388.263	1442.12
388.488	1456.12
388.713	1474.12
388.938	1489.12
389.163	1467.12
389.387	1496.12
389.612	1453.12
389.837	1460.12
390.062	1463.12
390.287	1504.12
390.512	1484.12
390.736	1473.12
390.961	1490.12
391.186	1488.12
391.411	1502.12
391.636	1511.12
391.86	1504.12
392.085	1527.12
392.31	1466.12
392.534	1482.12
392.759	1510.12
392.984	1500.12
393.208	1507.12
393.433	1540.12
393.658	1520.12
393.882	1508.12
394.107	1490.12
394.331	1500.12
394.556	1508.12
394.78	1498.12
395.005	1503.12
395.229	1489.12
395.454	1522.12
395.678	1503.12
395.903	1515.12
396.127	1526.12
396.352	1488.12
396.576	1517.12
396.801	1514.12
397.025	1558.12
397.249	1557.12
397.474	1540.12
397.698	1540.12
397.922	1527.12
398.147	1519.12
398.371	1556.12
398.595	1552.12
398.82	1571.12
399.044	1605.12
399.268	1605.12
399.492	1625.12
399.717	1625.12
399.941	1665.12
400.165	1682.12
400.389	1618.12
400.613	1616.12
400.837	1598.12
401.062	1615.12
401.286	1640.12
401.51	1613.12
401.734	1588.12
401.958	1635.12
402.182	1594.12
402.406	1586.12
402.63	1606.12
402.854	1608.12
403.078	1614.12
403.302	1596.12
403.526	1631.12
403.75	1602.12
403.974	1624.12
404.198	1608.12
404.422	1610.12
404.645	1592.12
404.869	1599.12
405.093	1627.12
405.317	1602.12
405.541	1620.12
405.765	1644.12
405.988	1620.12
406.212	1685.12
406.436	1668.12
406.66	1663.12
406.883	1673.12
407.107	1685.12
407.331	1674.12
407.555	1711.12
407.778	1725.12
408.002	1722.12
408.226	1692.12
408.449	1745.12
408.673	1734.12
408.896	1682.12
409.12	1706.12
409.344	1688.12
409.567	1699.12
409.791	1709.12
410.014	1665.12
410.238	1664.12
410.461	1686.12
410.685	1645.12
410.908	1641.12
411.132	1652.12
411.355	1629.12
411.578	1663.12
411.802	1609.12
412.025	1614.12
412.249	1615.12
412.472	1633.12
412.695	1631.12
412.919	1606.12
413.142	1633.12
413.365	1598.12
413.589	1622.12
413.812	1632.12
414.035	1630.12
414.258	1631.12
414.482	1641.12
414.705	1592.12
414.928	1617.12
415.151	1606.12
415.374	1562.12
415.597	1566.12
415.821	1590.12
416.044	1588.12
416.267	1548.12
416.49	1553.12
416.713	1537.12
416.936	1534.12
417.159	1579.12
417.382	1568.12
417.605	1558.12
417.828	1565.12
418.051	1560.12
418.274	1536.12
418.497	1534.12
418.72	1593.12
418.943	1519.12
419.166	1614.12
419.389	1708.12
419.611	1628.12
419.834	1649.12
420.057	1556.12
420.28	1558.12
420.503	1501.12
420.726	1529.12
420.948	1518.12
421.171	1502.12
421.394	1573.12
421.617	1535.12
421.839	1528.12
422.062	1581.12
422.285	1494.12
422.507	1520.12
422.73	1499.12
422.953	1612.12
423.175	1552.12
423.398	1502.12
423.621	1494.12
423.843	1545.12
424.066	1544.12
424.288	1560.12
424.511	1545.12
424.733	1531.12
424.956	1548.12
425.178	1528.12
425.401	1556.12
425.623	1555.12
425.846	1506.12
426.068	1525.12
426.291	1577.12
426.513	1565.12
426.735	1537.12
426.958	1541.12
427.18	1495.12
427.402	1517.12
427.625	1522.12
427.847	1548.12
428.069	1525.12
428.292	1531.12
428.514	1536.12
428.736	1524.12
428.958	1582.12
429.181	1544.12
429.403	1522.12
429.625	1558.12
429.847	1490.12
430.069	1509.12
430.292	1515.12
430.514	1488.12
430.736	1540.12
430.958	1551.12
431.18	1524.12
431.402	1535.12
431.624	1527.12
431.846	1545.12
432.068	1519.12
432.29	1551.12
432.512	1498.12
432.734	1547.12
432.956	1580.12
433.178	1592.12
433.4	1604.12
433.622	1626.12
433.844	1609.12
434.066	1620.12
434.287	1607.12
434.509	1528.12
434.731	1584.12
434.953	1559.12
435.175	1592.12
435.397	1611.12
435.618	1571.12
435.84	1558.12
436.062	1562.12
436.284	1555.12
436.505	1549.12
436.727	1559.12
436.949	1540.12
437.17	1589.12
437.392	1576.12
437.614	1520.12
437.835	1453.12
438.057	1498.12
438.278	1470.12
438.5	1516.12
438.721	1492.12
438.943	1519.12
439.165	1506.12
439.386	1488.12
439.608	1548.12
439.829	1500.12
440.05	1526.12
440.272	1534.12
440.493	1560.12
440.715	1608.12
440.936	1551.12
441.158	1576.12
441.379	1539.12
441.6	1582.12
441.822	1578.12
442.043	1584.12
442.264	1558.12
442.486	1584.12
442.707	1562.12
442.928	1552.12
443.149	1592.12
443.371	1633.12
443.592	1653.12
443.813	1632.12
444.034	1555.12
444.255	1571.12
444.476	1598.12
444.698	1609.12
444.919	1660.12
445.14	1717.12
445.361	1638.12
445.582	1628.12
445.803	1568.12
446.024	1555.12
446.245	1560.12
446.466	1515.12
446.687	1506.12
446.908	1486.12
447.129	1482.12
447.35	1463.12
447.571	1463.12
447.792	1443.12
448.013	1434.12
448.234	1428.12
448.455	1444.12
448.675	1448.12
448.896	1430.12
449.117	1401.12
449.338	1457.12
449.559	1416.12
449.779	1382.12
450	1422.12
450.221	1404.12
450.442	1397.12
450.662	1397.12
450.883	1439.12
451.104	1484.12
451.324	1457.12
451.545	1435.12
451.766	1399.12
451.986	1380.12
452.207	1388.12
452.428	1394.12
452.648	1432.12
452.869	1418.12
453.089	1447.12
453.31	1426.12
453.53	1400.12
453.751	1402.12
453.971	1408.12
454.192	1436.12
454.412	1457.12
454.633	1454.12
454.853	1412.12
455.073	1352.12
455.294	1425.12
455.514	1410.12
455.734	1488.12
455.955	1451.12
456.175	1473.12
456.395	1426.12
456.616	1389.12
456.836	1384.12
457.056	1403.12
457.276	1369.12
457.497	1400.12
457.717	1439.12
457.937	1458.12
458.157	1393.12
458.377	1403.12
458.598	1408.12
458.818	1420.12
459.038	1438.12
459.258	1455.12
459.478	1540.12
459.698	1642.12
459.918	1643.12
460.138	1607.12
460.358	1584.12
460.578	1579.12
460.798	1637.12
461.018	1656.12
461.238	1592.12
461.458	1541.12
461.678	1521.12
461.898	1557.12
462.118	1521.12
462.338	1571.12
462.558	1628.12
462.777	1673.12
462.997	1679.12
463.217	1686.12
463.437	1740.12
463.657	1715.12
463.876	1630.12
464.096	1688.12
464.316	1623.12
464.536	1634.12
464.755	1625.12
464.975	1595.12
465.195	1578.12
465.414	1554.12
465.634	1544.12
465.854	1485.12
466.073	1493.12
466.293	1491.12
466.512	1498.12
466.732	1478.12
466.951	1509.12
467.171	1510.12
467.391	1554.12
467.61	1507.12
467.829	1506.12
468.049	1474.12
468.268	1484.12
468.488	1494.12
468.707	1498.12
468.927	1480.12
469.146	1518.12
469.365	1552.12
469.585	1506.12
469.804	1507.12
470.023	1517.12
470.243	1484.12
470.462	1466.12
470.681	1492.12
470.901	1476.12
471.12	1525.12
471.339	1528.12
471.558	1503.12
471.777	1503.12
471.997	1504.12
472.216	1488.12
472.435	1505.12
472.654	1467.12
472.873	1473.12
473.092	1490.12
473.311	1519.12
473.53	1561.12
473.749	1516.12
473.968	1505.12
474.187	1512.12
474.406	1534.12
474.625	1555.12
474.844	1524.12
475.063	1568.12
475.282	1591.12
475.501	1592.12
475.72	1567.12
475.939	1564.12
476.158	1610.12
476.377	1580.12
476.596	1592.12
476.814	1631.12
477.033	1643.12
477.252	1604.12
477.471	1652.12
477.69	1683.12
477.908	1722.12
478.127	1686.12
478.346	1683.12
478.564	1720.12
478.783	1756.12
479.002	1784.12
479.22	1869.12
479.439	1786.12
479.658	1740.12
479.876	1750.12
480.095	1775.12
480.313	1768.12
480.532	1806.12
480.751	1736.12
480.969	1741.12
481.188	1795.12
481.406	1810.12
481.624	1782.12
481.843	1752.12
482.061	1776.12
482.28	1788.12
482.498	1780.12
482.717	1783.12
482.935	1826.12
483.153	1838.12
483.372	1904.12
483.59	1938.12
483.808	1857.12
484.027	1845.12
484.245	1825.12
484.463	1826.12
484.681	1846.12
484.9	1814.12
485.118	1837.12
485.336	1837.12
485.554	1871.12
485.772	1876.12
485.99	1846.12
486.209	1833.12
486.427	1853.12
486.645	1859.12
486.863	1877.12
487.081	1864.12
487.299	1845.12
487.517	1930.12
487.735	1920.12
487.953	1904.12
488.171	1885.12
488.389	1945.12
488.607	1912.12
488.825	1871.12
489.043	1883.12
489.261	1857.12
489.479	1874.12
489.696	1855.12
489.914	1868.12
490.132	1887.12
490.35	1880.12
