Data from Ni(NO3)2@0.0625M.TitratingCurve.Agarose3%dH2O.NegLispCup.LampEnergy10.LIBS07252019_HRD10591_18-14-38-569.txt Node
Date: Thu Jul 25 18:14:38 EDT 2019
User: cochatt
Spectrometer: HR+D1059
Trigger mode: 1
Integration Time (sec): 1.000000E-1
Scans to average: 1
Electric dark correction enabled: true
Nonlinearity correction enabled: false
Boxcar width: 0
XAxis mode: Wavelengths
Number of Pixels in Spectrum: 2048
>>>>>Begin Spectral Data<<<<<
223.165	-18.94
223.4	-18.94
223.635	-18.94
223.869	-31.94
224.104	-25.94
224.338	2.06
224.573	-13.94
224.808	6.06
225.042	-8.94
225.277	-5.94
225.511	-7.94
225.746	11.06
225.98	11.06
226.215	11.06
226.449	17.06
226.683	18.06
226.918	22.06
227.152	15.06
227.387	36.06
227.621	22.06
227.856	43.06
228.09	44.06
228.324	43.06
228.559	57.06
228.793	86.06
229.027	93.06
229.262	117.06
229.496	98.06
229.73	104.06
229.964	123.06
230.199	132.06
230.433	128.06
230.667	113.06
230.901	124.06
231.136	131.06
231.37	142.06
231.604	140.06
231.838	135.06
232.072	126.06
232.306	128.06
232.541	140.06
232.775	152.06
233.009	153.06
233.243	136.06
233.477	151.06
233.711	161.06
233.945	162.06
234.179	135.06
234.413	159.06
234.647	141.06
234.881	140.06
235.115	141.06
235.349	147.06
235.583	126.06
235.817	139.06
236.051	138.06
236.285	134.06
236.519	140.06
236.753	141.06
236.987	146.06
237.221	150.06
237.455	154.06
237.689	134.06
237.922	160.06
238.156	154.06
238.39	150.06
238.624	172.06
238.858	160.06
239.091	164.06
239.325	163.06
239.559	150.06
239.793	158.06
240.027	167.06
240.26	156.06
240.494	152.06
240.728	180.06
240.961	185.06
241.195	171.06
241.429	176.06
241.662	187.06
241.896	162.06
242.13	191.06
242.363	186.06
242.597	200.06
242.83	178.06
243.064	192.06
243.298	187.06
243.531	174.06
243.765	200.06
243.998	178.06
244.232	179.06
244.465	185.06
244.699	187.06
244.932	212.06
245.166	207.06
245.399	203.06
245.633	205.06
245.866	199.06
246.099	200.06
246.333	228.06
246.566	217.06
246.8	209.06
247.033	217.06
247.266	230.06
247.5	220.06
247.733	219.06
247.966	230.06
248.2	206.06
248.433	223.06
248.666	226.06
248.899	226.06
249.133	221.06
249.366	226.06
249.599	236.06
249.832	236.06
250.066	244.06
250.299	228.06
250.532	246.06
250.765	228.06
250.998	224.06
251.231	247.06
251.465	258.06
251.698	252.06
251.931	241.06
252.164	248.06
252.397	256.06
252.63	261.06
252.863	242.06
253.096	270.06
253.329	271.06
253.562	244.06
253.795	253.06
254.028	247.06
254.261	268.06
254.494	269.06
254.727	252.06
254.96	255.06
255.193	262.06
255.426	259.06
255.659	259.06
255.892	256.06
256.124	277.06
256.357	278.06
256.59	274.06
256.823	276.06
257.056	271.06
257.289	276.06
257.521	280.06
257.754	276.06
257.987	284.06
258.22	271.06
258.452	293.06
258.685	281.06
258.918	284.06
259.151	278.06
259.383	286.06
259.616	299.06
259.849	291.06
260.081	292.06
260.314	311.06
260.547	292.06
260.779	305.06
261.012	290.06
261.244	308.06
261.477	280.06
261.71	294.06
261.942	308.06
262.175	296.06
262.407	301.06
262.64	309.06
262.872	312.06
263.105	310.06
263.337	312.06
263.57	320.06
263.802	322.06
264.035	299.06
264.267	304.06
264.499	309.06
264.732	327.06
264.964	320.06
265.197	334.06
265.429	324.06
265.661	332.06
265.894	329.06
266.126	328.06
266.358	338.06
266.591	334.06
266.823	347.06
267.055	358.06
267.287	347.06
267.52	340.06
267.752	340.06
267.984	349.06
268.216	344.06
268.448	335.06
268.681	351.06
268.913	342.06
269.145	348.06
269.377	354.06
269.609	336.06
269.841	347.06
270.073	354.06
270.306	344.06
270.538	340.06
270.77	335.06
271.002	333.06
271.234	358.06
271.466	354.06
271.698	369.06
271.93	352.06
272.162	351.06
272.394	357.06
272.626	365.06
272.858	357.06
273.09	351.06
273.322	374.06
273.553	355.06
273.785	356.06
274.017	387.06
274.249	366.06
274.481	364.06
274.713	376.06
274.945	374.06
275.176	376.06
275.408	374.06
275.64	372.06
275.872	377.06
276.104	374.06
276.335	380.06
276.567	379.06
276.799	381.06
277.031	378.06
277.262	389.06
277.494	392.06
277.726	396.06
277.957	393.06
278.189	393.06
278.421	379.06
278.652	402.06
278.884	403.06
279.115	401.06
279.347	397.06
279.579	405.06
279.81	440.06
280.042	402.06
280.273	407.06
280.505	419.06
280.736	414.06
280.968	425.06
281.199	427.06
281.431	416.06
281.662	448.06
281.894	435.06
282.125	456.06
282.356	449.06
282.588	453.06
282.819	433.06
283.051	439.06
283.282	426.06
283.513	432.06
283.745	450.06
283.976	429.06
284.207	425.06
284.439	445.06
284.67	431.06
284.901	446.06
285.132	442.06
285.364	471.06
285.595	445.06
285.826	448.06
286.057	452.06
286.288	452.06
286.52	456.06
286.751	469.06
286.982	437.06
287.213	451.06
287.444	454.06
287.675	481.06
287.906	468.06
288.138	470.06
288.369	481.06
288.6	464.06
288.831	466.06
289.062	471.06
289.293	460.06
289.524	494.06
289.755	442.06
289.986	488.06
290.217	485.06
290.448	484.06
290.679	482.06
290.91	474.06
291.141	481.06
291.371	470.06
291.602	501.06
291.833	482.06
292.064	486.06
292.295	497.06
292.526	499.06
292.757	472.06
292.987	502.06
293.218	493.06
293.449	471.06
293.68	504.06
293.91	497.06
294.141	488.06
294.372	486.06
294.603	477.06
294.833	501.06
295.064	484.06
295.295	496.06
295.525	499.06
295.756	489.06
295.987	500.06
296.217	526.06
296.448	515.06
296.679	503.06
296.909	509.06
297.14	521.06
297.37	519.06
297.601	538.06
297.831	518.06
298.062	523.06
298.292	516.06
298.523	538.06
298.753	570.06
298.984	547.06
299.214	529.06
299.445	535.06
299.675	539.06
299.905	536.06
300.136	542.06
300.366	544.06
300.597	541.06
300.827	524.06
301.057	563.06
301.288	568.06
301.518	548.06
301.748	575.06
301.979	564.06
302.209	541.06
302.439	550.06
302.669	553.06
302.9	538.06
303.13	531.06
303.36	552.06
303.59	539.06
303.82	548.06
304.051	530.06
304.281	536.06
304.511	560.06
304.741	567.06
304.971	560.06
305.201	545.06
305.431	538.06
305.661	537.06
305.891	532.06
306.121	534.06
306.352	534.06
306.582	537.06
306.812	536.06
307.042	518.06
307.272	527.06
307.502	503.06
307.731	531.06
307.961	542.06
308.191	547.06
308.421	535.06
308.651	532.06
308.881	526.06
309.111	544.06
309.341	544.06
309.571	529.06
309.8	512.06
310.03	533.06
310.26	544.06
310.49	534.06
310.72	516.06
310.949	525.06
311.179	535.06
311.409	522.06
311.639	556.06
311.868	562.06
312.098	541.06
312.328	562.06
312.557	565.06
312.787	533.06
313.017	541.06
313.246	566.06
313.476	578.06
313.706	580.06
313.935	575.06
314.165	572.06
314.394	583.06
314.624	592.06
314.853	583.06
315.083	569.06
315.312	577.06
315.542	589.06
315.771	564.06
316.001	564.06
316.23	550.06
316.46	569.06
316.689	554.06
316.919	549.06
317.148	564.06
317.377	573.06
317.607	551.06
317.836	542.06
318.065	573.06
318.295	570.06
318.524	569.06
318.753	540.06
318.983	535.06
319.212	546.06
319.441	530.06
319.67	566.06
319.9	559.06
320.129	546.06
320.358	536.06
320.587	554.06
320.816	546.06
321.046	576.06
321.275	561.06
321.504	563.06
321.733	549.06
321.962	579.06
322.191	559.06
322.42	575.06
322.649	571.06
322.878	562.06
323.108	546.06
323.337	546.06
323.566	584.06
323.795	582.06
324.024	569.06
324.253	580.06
324.482	572.06
324.71	564.06
324.939	605.06
325.168	580.06
325.397	582.06
325.626	590.06
325.855	590.06
326.084	613.06
326.313	616.06
326.542	625.06
326.77	636.06
326.999	616.06
327.228	605.06
327.457	629.06
327.686	606.06
327.914	602.06
328.143	613.06
328.372	613.06
328.6	607.06
328.829	628.06
329.058	619.06
329.287	610.06
329.515	619.06
329.744	616.06
329.972	635.06
330.201	620.06
330.43	607.06
330.658	617.06
330.887	648.06
331.115	642.06
331.344	648.06
331.572	665.06
331.801	664.06
332.03	668.06
332.258	721.06
332.486	720.06
332.715	734.06
332.943	780.06
333.172	802.06
333.4	868.06
333.629	859.06
333.857	858.06
334.085	842.06
334.314	804.06
334.542	786.06
334.771	771.06
334.999	794.06
335.227	775.06
335.455	788.06
335.684	759.06
335.912	762.06
336.14	759.06
336.369	741.06
336.597	735.06
336.825	766.06
337.053	726.06
337.281	744.06
337.51	730.06
337.738	699.06
337.966	700.06
338.194	680.06
338.422	641.06
338.65	652.06
338.878	665.06
339.106	652.06
339.334	661.06
339.562	688.06
339.79	638.06
340.018	637.06
340.246	645.06
340.474	634.06
340.702	650.06
340.93	650.06
341.158	659.06
341.386	651.06
341.614	667.06
341.842	653.06
342.07	646.06
342.298	651.06
342.526	638.06
342.754	656.06
342.981	642.06
343.209	655.06
343.437	702.06
343.665	731.06
343.893	788.06
344.12	812.06
344.348	777.06
344.576	736.06
344.804	705.06
345.031	650.06
345.259	668.06
345.487	657.06
345.714	644.06
345.942	644.06
346.17	657.06
346.397	640.06
346.625	651.06
346.853	638.06
347.08	629.06
347.308	650.06
347.535	648.06
347.763	661.06
347.99	666.06
348.218	638.06
348.445	647.06
348.673	630.06
348.9	636.06
349.128	637.06
349.355	618.06
349.583	607.06
349.81	638.06
350.037	606.06
350.265	600.06
350.492	601.06
350.72	588.06
350.947	613.06
351.174	619.06
351.402	621.06
351.629	592.06
351.856	612.06
352.083	594.06
352.311	607.06
352.538	607.06
352.765	600.06
352.992	583.06
353.22	604.06
353.447	585.06
353.674	601.06
353.901	602.06
354.128	629.06
354.355	583.06
354.583	602.06
354.81	609.06
355.037	615.06
355.264	610.06
355.491	605.06
355.718	606.06
355.945	608.06
356.172	625.06
356.399	593.06
356.626	611.06
356.853	612.06
357.08	603.06
357.307	601.06
357.534	609.06
357.761	616.06
357.988	615.06
358.215	590.06
358.441	592.06
358.668	605.06
358.895	591.06
359.122	596.06
359.349	610.06
359.576	596.06
359.802	587.06
360.029	616.06
360.256	598.06
360.483	608.06
360.709	612.06
360.936	604.06
361.163	599.06
361.39	604.06
361.616	627.06
361.843	615.06
362.07	626.06
362.296	609.06
362.523	613.06
362.749	604.06
362.976	612.06
363.203	571.06
363.429	590.06
363.656	613.06
363.882	612.06
364.109	608.06
364.335	580.06
364.562	598.06
364.788	572.06
365.015	614.06
365.241	620.06
365.468	596.06
365.694	608.06
365.92	601.06
366.147	603.06
366.373	594.06
366.599	625.06
366.826	602.06
367.052	610.06
367.278	596.06
367.505	579.06
367.731	602.06
367.957	608.06
368.184	606.06
368.41	609.06
368.636	615.06
368.862	607.06
369.089	623.06
369.315	627.06
369.541	619.06
369.767	632.06
369.993	619.06
370.219	612.06
370.445	627.06
370.672	641.06
370.898	629.06
371.124	631.06
371.35	666.06
371.576	656.06
371.802	673.06
372.028	662.06
372.254	664.06
372.48	642.06
372.706	682.06
372.932	686.06
373.158	689.06
373.384	642.06
373.61	664.06
373.835	693.06
374.061	636.06
374.287	658.06
374.513	676.06
374.739	701.06
374.965	714.06
375.191	736.06
375.416	737.06
375.642	716.06
375.868	708.06
376.094	710.06
376.319	682.06
376.545	689.06
376.771	663.06
376.997	668.06
377.222	668.06
377.448	654.06
377.674	673.06
377.899	664.06
378.125	649.06
378.35	659.06
378.576	662.06
378.802	619.06
379.027	652.06
379.253	666.06
379.478	633.06
379.704	657.06
379.929	650.06
380.155	646.06
380.38	633.06
380.606	660.06
380.831	667.06
381.057	655.06
381.282	683.06
381.507	655.06
381.733	660.06
381.958	666.06
382.184	692.06
382.409	683.06
382.634	688.06
382.86	700.06
383.085	726.06
383.31	728.06
383.535	719.06
383.761	723.06
383.986	773.06
384.211	787.06
384.436	778.06
384.662	813.06
384.887	799.06
385.112	795.06
385.337	797.06
385.562	805.06
385.787	795.06
386.013	812.06
386.238	798.06
386.463	781.06
386.688	794.06
386.913	784.06
387.138	786.06
387.363	802.06
387.588	777.06
387.813	762.06
388.038	784.06
388.263	797.06
388.488	782.06
388.713	778.06
388.938	769.06
389.163	781.06
389.387	740.06
389.612	783.06
389.837	738.06
390.062	777.06
390.287	748.06
390.512	781.06
390.736	800.06
390.961	777.06
391.186	827.06
391.411	816.06
391.636	830.06
391.86	856.06
392.085	894.06
392.31	863.06
392.534	850.06
392.759	844.06
392.984	814.06
393.208	847.06
393.433	848.06
393.658	823.06
393.882	832.06
394.107	836.06
394.331	839.06
394.556	862.06
394.78	852.06
395.005	856.06
395.229	838.06
395.454	869.06
395.678	887.06
395.903	894.06
396.127	893.06
396.352	858.06
396.576	826.06
396.801	815.06
397.025	832.06
397.249	855.06
397.474	876.06
397.698	887.06
397.922	874.06
398.147	911.06
398.371	896.06
398.595	931.06
398.82	966.06
399.044	1018.06
399.268	1138.06
399.492	1355.06
399.717	1572.06
399.941	1570.06
400.165	1368.06
400.389	1206.06
400.613	1109.06
400.837	1032.06
401.062	1004.06
401.286	988.06
401.51	989.06
401.734	993.06
401.958	1012.06
402.182	994.06
402.406	1028.06
402.63	1058.06
402.854	1046.06
403.078	1088.06
403.302	1105.06
403.526	1111.06
403.75	1158.06
403.974	1136.06
404.198	1174.06
404.422	1175.06
404.645	1127.06
404.869	1172.06
405.093	1140.06
405.317	1095.06
405.541	1108.06
405.765	1101.06
405.988	1090.06
406.212	1069.06
406.436	1124.06
406.66	1113.06
406.883	1112.06
407.107	1221.06
407.331	1281.06
407.555	1320.06
407.778	1307.06
408.002	1284.06
408.226	1205.06
408.449	1194.06
408.673	1166.06
408.896	1136.06
409.12	1130.06
409.344	1152.06
409.567	1144.06
409.791	1170.06
410.014	1125.06
410.238	1133.06
410.461	1132.06
410.685	1117.06
410.908	1082.06
411.132	1080.06
411.355	1054.06
411.578	1031.06
411.802	1020.06
412.025	1048.06
412.249	1014.06
412.472	1058.06
412.695	1011.06
412.919	991.06
413.142	997.06
413.365	994.06
413.589	993.06
413.812	976.06
414.035	964.06
414.258	952.06
414.482	1006.06
414.705	1042.06
414.928	1022.06
415.151	995.06
415.374	1040.06
415.597	976.06
415.821	964.06
416.044	972.06
416.267	947.06
416.49	954.06
416.713	938.06
416.936	992.06
417.159	945.06
417.382	977.06
417.605	970.06
417.828	997.06
418.051	974.06
418.274	997.06
418.497	975.06
418.72	1011.06
418.943	1002.06
419.166	1072.06
419.389	1141.06
419.611	1120.06
419.834	1076.06
420.057	1011.06
420.28	1004.06
420.503	986.06
420.726	969.06
420.948	972.06
421.171	960.06
421.394	970.06
421.617	948.06
421.839	974.06
422.062	997.06
422.285	981.06
422.507	1011.06
422.73	1016.06
422.953	1039.06
423.175	1018.06
423.398	1066.06
423.621	1046.06
423.843	1074.06
424.066	1076.06
424.288	1053.06
424.511	1064.06
424.733	1019.06
424.956	994.06
425.178	989.06
425.401	983.06
425.623	969.06
425.846	955.06
426.068	973.06
426.291	929.06
426.513	933.06
426.735	918.06
426.958	912.06
427.18	902.06
427.402	891.06
427.625	890.06
427.847	882.06
428.069	870.06
428.292	872.06
428.514	858.06
428.736	878.06
428.958	885.06
429.181	861.06
429.403	836.06
429.625	846.06
429.847	848.06
430.069	858.06
430.292	859.06
430.514	857.06
430.736	857.06
430.958	828.06
431.18	859.06
431.402	863.06
431.624	837.06
431.846	866.06
432.068	891.06
432.29	902.06
432.512	901.06
432.734	878.06
432.956	867.06
433.178	898.06
433.4	861.06
433.622	895.06
433.844	900.06
434.066	887.06
434.287	902.06
434.509	942.06
434.731	973.06
434.953	1034.06
435.175	997.06
435.397	999.06
435.618	954.06
435.84	930.06
436.062	888.06
436.284	866.06
436.505	863.06
436.727	883.06
436.949	902.06
437.17	889.06
437.392	844.06
437.614	872.06
437.835	818.06
438.057	837.06
438.278	839.06
438.5	830.06
438.721	826.06
438.943	887.06
439.165	852.06
439.386	856.06
439.608	899.06
439.829	865.06
440.05	885.06
440.272	853.06
440.493	910.06
440.715	890.06
440.936	886.06
441.158	932.06
441.379	933.06
441.6	998.06
441.822	1030.06
442.043	1030.06
442.264	963.06
442.486	976.06
442.707	987.06
442.928	984.06
443.149	980.06
443.371	966.06
443.592	985.06
443.813	983.06
444.034	1004.06
444.255	1060.06
444.476	1088.06
444.698	1178.06
444.919	1221.06
445.14	1300.06
445.361	1132.06
445.582	1063.06
445.803	972.06
446.024	944.06
446.245	904.06
446.466	900.06
446.687	882.06
446.908	909.06
447.129	849.06
447.35	875.06
447.571	832.06
447.792	816.06
448.013	851.06
448.234	812.06
448.455	804.06
448.675	833.06
448.896	820.06
449.117	792.06
449.338	818.06
449.559	791.06
449.779	788.06
450	806.06
450.221	806.06
450.442	831.06
450.662	833.06
450.883	840.06
451.104	842.06
451.324	819.06
451.545	854.06
451.766	835.06
451.986	838.06
452.207	805.06
452.428	838.06
452.648	825.06
452.869	807.06
453.089	798.06
453.31	792.06
453.53	812.06
453.751	800.06
453.971	805.06
454.192	794.06
454.412	769.06
454.633	793.06
454.853	781.06
455.073	761.06
455.294	792.06
455.514	774.06
455.734	764.06
455.955	745.06
456.175	768.06
456.395	744.06
456.616	731.06
456.836	753.06
457.056	750.06
457.276	764.06
457.497	752.06
457.717	765.06
457.937	759.06
458.157	800.06
458.377	774.06
458.598	786.06
458.818	813.06
459.038	821.06
459.258	848.06
459.478	908.06
459.698	952.06
459.918	934.06
460.138	987.06
460.358	1049.06
460.578	1063.06
460.798	1047.06
461.018	1075.06
461.238	1033.06
461.458	1068.06
461.678	1035.06
461.898	1010.06
462.118	1062.06
462.338	1128.06
462.558	1144.06
462.777	1187.06
462.997	1301.06
463.217	1448.06
463.437	1511.06
463.657	1316.06
463.876	1212.06
464.096	1235.06
464.316	1248.06
464.536	1268.06
464.755	1228.06
464.975	1149.06
465.195	1067.06
465.414	1035.06
465.634	948.06
465.854	919.06
466.073	929.06
466.293	907.06
466.512	883.06
466.732	889.06
466.951	849.06
467.171	868.06
467.391	863.06
467.61	872.06
467.829	867.06
468.049	840.06
468.268	832.06
468.488	835.06
468.707	797.06
468.927	822.06
469.146	826.06
469.365	815.06
469.585	821.06
469.804	873.06
470.023	908.06
470.243	909.06
470.462	906.06
470.681	891.06
470.901	902.06
471.12	872.06
471.339	865.06
471.558	855.06
471.777	830.06
471.997	804.06
472.216	821.06
472.435	796.06
472.654	801.06
472.873	800.06
473.092	786.06
473.311	775.06
473.53	808.06
473.749	787.06
473.968	795.06
474.187	797.06
474.406	804.06
474.625	813.06
474.844	784.06
475.063	789.06
475.282	790.06
475.501	818.06
475.72	814.06
475.939	819.06
476.158	848.06
476.377	825.06
476.596	828.06
476.814	849.06
477.033	831.06
477.252	868.06
477.471	867.06
477.69	888.06
477.908	904.06
478.127	944.06
478.346	971.06
478.564	957.06
478.783	964.06
479.002	1021.06
479.22	1009.06
479.439	984.06
479.658	986.06
479.876	971.06
480.095	1016.06
480.313	1068.06
480.532	1088.06
480.751	1062.06
480.969	1036.06
481.188	989.06
481.406	968.06
481.624	957.06
481.843	905.06
482.061	895.06
482.28	892.06
482.498	893.06
482.717	905.06
482.935	899.06
483.153	884.06
483.372	902.06
483.59	902.06
483.808	911.06
484.027	928.06
484.245	933.06
484.463	895.06
484.681	937.06
484.9	930.06
485.118	934.06
485.336	954.06
485.554	967.06
485.772	968.06
485.99	963.06
486.209	968.06
486.427	967.06
486.645	949.06
486.863	946.06
487.081	977.06
487.299	984.06
487.517	954.06
487.735	962.06
487.953	969.06
488.171	938.06
488.389	944.06
488.607	930.06
488.825	953.06
489.043	930.06
489.261	928.06
489.479	960.06
489.696	936.06
489.914	958.06
490.132	956.06
490.35	936.06
490.568	976.06
490.786	988.06
491.003	940.06
491.221	965.06
491.439	964.06
491.657	948.06
491.874	973.06
492.092	954.06
492.31	958.06
492.527	994.06
492.745	976.06
492.963	990.06
493.18	989.06
493.398	984.06
493.615	993.06
493.833	1026.06
494.05	999.06
494.268	1024.06
494.485	1014.06
494.703	1002.06
494.92	1032.06
495.138	1009.06
495.355	998.06
495.573	1046.06
495.79	1015.06
496.008	1026.06
496.225	1033.06
496.442	1039.06
496.66	1076.06
496.877	1059.06
497.094	1082.06
497.312	1088.06
497.529	1120.06
497.746	1151.06
497.963	1173.06
498.181	1224.06
498.398	1280.06
498.615	1343.06
498.832	1418.06
499.049	1530.06
499.267	1690.06
499.484	1816.06
