Data from Ni(NO3)2Standard.Agarose3%.GreenCap.LampEnergy5.5.E.O_HRD10591_14-40-28-197.txt Node
Date: Mon Jul 22 14:40:28 EDT 2019
User: cochatt
Spectrometer: HR+D1059
Trigger mode: 1
Integration Time (sec): 1.000000E-1
Scans to average: 1
Electric dark correction enabled: true
Nonlinearity correction enabled: false
Boxcar width: 0
XAxis mode: Wavelengths
Number of Pixels in Spectrum: 2048
>>>>>Begin Spectral Data<<<<<
223.165	-27.38
223.4	-27.38
223.635	-27.38
223.869	-14.38
224.104	-21.38
224.338	-23.38
224.573	0.62
224.808	-27.38
225.042	-4.38
225.277	0.62
225.511	-2.38
225.746	11.62
225.98	8.62
226.215	8.62
226.449	23.62
226.683	18.62
226.918	11.62
227.152	36.62
227.387	43.62
227.621	35.62
227.856	25.62
228.09	49.62
228.324	41.62
228.559	55.62
228.793	55.62
229.027	69.62
229.262	61.62
229.496	56.62
229.73	67.62
229.964	80.62
230.199	89.62
230.433	75.62
230.667	76.62
230.901	69.62
231.136	84.62
231.37	74.62
231.604	75.62
231.838	76.62
232.072	78.62
232.306	71.62
232.541	83.62
232.775	83.62
233.009	92.62
233.243	87.62
233.477	76.62
233.711	89.62
233.945	90.62
234.179	83.62
234.413	90.62
234.647	73.62
234.881	89.62
235.115	73.62
235.349	77.62
235.583	78.62
235.817	76.62
236.051	70.62
236.285	82.62
236.519	83.62
236.753	82.62
236.987	85.62
237.221	71.62
237.455	72.62
237.689	62.62
237.922	88.62
238.156	76.62
238.39	68.62
238.624	70.62
238.858	85.62
239.091	88.62
239.325	81.62
239.559	82.62
239.793	75.62
240.027	79.62
240.26	74.62
240.494	80.62
240.728	73.62
240.961	53.62
241.195	87.62
241.429	83.62
241.662	70.62
241.896	83.62
242.13	74.62
242.363	87.62
242.597	63.62
242.83	71.62
243.064	74.62
243.298	71.62
243.531	67.62
243.765	78.62
243.998	88.62
244.232	68.62
244.465	60.62
244.699	61.62
244.932	77.62
245.166	62.62
245.399	78.62
245.633	71.62
245.866	75.62
246.099	84.62
246.333	72.62
246.566	66.62
246.8	75.62
247.033	80.62
247.266	77.62
247.5	81.62
247.733	74.62
247.966	55.62
248.2	76.62
248.433	77.62
248.666	85.62
248.899	68.62
249.133	70.62
249.366	76.62
249.599	71.62
249.832	81.62
250.066	85.62
250.299	74.62
250.532	79.62
250.765	60.62
250.998	76.62
251.231	73.62
251.465	86.62
251.698	83.62
251.931	82.62
252.164	77.62
252.397	79.62
252.63	77.62
252.863	66.62
253.096	85.62
253.329	86.62
253.562	79.62
253.795	74.62
254.028	83.62
254.261	75.62
254.494	79.62
254.727	76.62
254.96	92.62
255.193	96.62
255.426	95.62
255.659	70.62
255.892	70.62
256.124	80.62
256.357	84.62
256.59	99.62
256.823	78.62
257.056	61.62
257.289	85.62
257.521	94.62
257.754	74.62
257.987	80.62
258.22	85.62
258.452	77.62
258.685	86.62
258.918	83.62
259.151	81.62
259.383	72.62
259.616	77.62
259.849	74.62
260.081	68.62
260.314	85.62
260.547	78.62
260.779	76.62
261.012	77.62
261.244	79.62
261.477	87.62
261.71	84.62
261.942	91.62
262.175	90.62
262.407	85.62
262.64	81.62
262.872	70.62
263.105	84.62
263.337	92.62
263.57	80.62
263.802	87.62
264.035	75.62
264.267	66.62
264.499	66.62
264.732	85.62
264.964	75.62
265.197	87.62
265.429	88.62
265.661	82.62
265.894	71.62
266.126	79.62
266.358	61.62
266.591	66.62
266.823	81.62
267.055	81.62
267.287	71.62
267.52	88.62
267.752	73.62
267.984	68.62
268.216	80.62
268.448	97.62
268.681	76.62
268.913	92.62
269.145	98.62
269.377	71.62
269.609	69.62
269.841	85.62
270.073	93.62
270.306	78.62
270.538	99.62
270.77	86.62
271.002	76.62
271.234	82.62
271.466	69.62
271.698	79.62
271.93	67.62
272.162	80.62
272.394	80.62
272.626	64.62
272.858	77.62
273.09	80.62
273.322	81.62
273.553	91.62
273.785	87.62
274.017	80.62
274.249	83.62
274.481	88.62
274.713	70.62
274.945	75.62
275.176	74.62
275.408	80.62
275.64	82.62
275.872	81.62
276.104	94.62
276.335	81.62
276.567	81.62
276.799	79.62
277.031	75.62
277.262	88.62
277.494	85.62
277.726	88.62
277.957	103.62
278.189	88.62
278.421	87.62
278.652	78.62
278.884	75.62
279.115	100.62
279.347	78.62
279.579	89.62
279.81	83.62
280.042	85.62
280.273	82.62
280.505	76.62
280.736	69.62
280.968	76.62
281.199	77.62
281.431	92.62
281.662	84.62
281.894	97.62
282.125	97.62
282.356	89.62
282.588	82.62
282.819	73.62
283.051	85.62
283.282	77.62
283.513	86.62
283.745	92.62
283.976	77.62
284.207	83.62
284.439	88.62
284.67	76.62
284.901	87.62
285.132	82.62
285.364	98.62
285.595	75.62
285.826	90.62
286.057	72.62
286.288	81.62
286.52	88.62
286.751	85.62
286.982	81.62
287.213	81.62
287.444	95.62
287.675	89.62
287.906	89.62
288.138	95.62
288.369	79.62
288.6	84.62
288.831	71.62
289.062	73.62
289.293	77.62
289.524	73.62
289.755	79.62
289.986	82.62
290.217	91.62
290.448	79.62
290.679	83.62
290.91	96.62
291.141	82.62
291.371	83.62
291.602	83.62
291.833	86.62
292.064	75.62
292.295	90.62
292.526	78.62
292.757	88.62
292.987	76.62
293.218	72.62
293.449	95.62
293.68	89.62
293.91	72.62
294.141	87.62
294.372	78.62
294.603	88.62
294.833	90.62
295.064	80.62
295.295	88.62
295.525	72.62
295.756	81.62
295.987	94.62
296.217	92.62
296.448	96.62
296.679	73.62
296.909	92.62
297.14	76.62
297.37	70.62
297.601	76.62
297.831	91.62
298.062	88.62
298.292	91.62
298.523	87.62
298.753	80.62
298.984	90.62
299.214	87.62
299.445	85.62
299.675	82.62
299.905	86.62
300.136	86.62
300.366	79.62
300.597	90.62
300.827	84.62
301.057	80.62
301.288	86.62
301.518	96.62
301.748	80.62
301.979	92.62
302.209	92.62
302.439	85.62
302.669	81.62
302.9	98.62
303.13	85.62
303.36	95.62
303.59	80.62
303.82	92.62
304.051	91.62
304.281	92.62
304.511	82.62
304.741	83.62
304.971	80.62
305.201	87.62
305.431	67.62
305.661	89.62
305.891	83.62
306.121	94.62
306.352	89.62
306.582	83.62
306.812	83.62
307.042	90.62
307.272	94.62
307.502	87.62
307.731	79.62
307.961	87.62
308.191	81.62
308.421	83.62
308.651	106.62
308.881	95.62
309.111	87.62
309.341	83.62
309.571	76.62
309.8	88.62
310.03	92.62
310.26	97.62
310.49	80.62
310.72	91.62
310.949	88.62
311.179	97.62
311.409	94.62
311.639	104.62
311.868	75.62
312.098	94.62
312.328	83.62
312.557	87.62
312.787	87.62
313.017	87.62
313.246	80.62
313.476	88.62
313.706	79.62
313.935	96.62
314.165	90.62
314.394	89.62
314.624	88.62
314.853	76.62
315.083	75.62
315.312	91.62
315.542	89.62
315.771	69.62
316.001	81.62
316.23	85.62
316.46	90.62
316.689	88.62
316.919	96.62
317.148	86.62
317.377	86.62
317.607	85.62
317.836	82.62
318.065	81.62
318.295	84.62
318.524	92.62
318.753	82.62
318.983	78.62
319.212	82.62
319.441	98.62
319.67	96.62
319.9	81.62
320.129	96.62
320.358	73.62
320.587	88.62
320.816	72.62
321.046	104.62
321.275	91.62
321.504	91.62
321.733	95.62
321.962	81.62
322.191	88.62
322.42	92.62
322.649	79.62
322.878	91.62
323.108	84.62
323.337	95.62
323.566	87.62
323.795	72.62
324.024	90.62
324.253	85.62
324.482	99.62
324.71	88.62
324.939	74.62
325.168	67.62
325.397	85.62
325.626	85.62
325.855	84.62
326.084	87.62
326.313	83.62
326.542	88.62
326.77	103.62
326.999	105.62
327.228	79.62
327.457	74.62
327.686	78.62
327.914	85.62
328.143	98.62
328.372	89.62
328.6	88.62
328.829	97.62
329.058	87.62
329.287	98.62
329.515	86.62
329.744	73.62
329.972	98.62
330.201	86.62
330.43	92.62
330.658	86.62
330.887	77.62
331.115	91.62
331.344	88.62
331.572	82.62
331.801	84.62
332.03	86.62
332.258	82.62
332.486	91.62
332.715	92.62
332.943	100.62
333.172	87.62
333.4	79.62
333.629	90.62
333.857	91.62
334.085	81.62
334.314	72.62
334.542	90.62
334.771	92.62
334.999	84.62
335.227	92.62
335.455	85.62
335.684	94.62
335.912	97.62
336.14	81.62
336.369	92.62
336.597	87.62
336.825	92.62
337.053	88.62
337.281	71.62
337.51	100.62
337.738	83.62
337.966	83.62
338.194	98.62
338.422	90.62
338.65	91.62
338.878	88.62
339.106	91.62
339.334	88.62
339.562	89.62
339.79	87.62
340.018	79.62
340.246	80.62
340.474	74.62
340.702	77.62
340.93	82.62
341.158	98.62
341.386	76.62
341.614	86.62
341.842	87.62
342.07	77.62
342.298	88.62
342.526	79.62
342.754	87.62
342.981	89.62
343.209	88.62
343.437	87.62
343.665	86.62
343.893	91.62
344.12	89.62
344.348	81.62
344.576	79.62
344.804	100.62
345.031	89.62
345.259	83.62
345.487	92.62
345.714	79.62
345.942	88.62
346.17	90.62
346.397	104.62
346.625	97.62
346.853	85.62
347.08	108.62
347.308	80.62
347.535	77.62
347.763	79.62
347.99	97.62
348.218	83.62
348.445	96.62
348.673	96.62
348.9	104.62
349.128	92.62
349.355	89.62
349.583	94.62
349.81	93.62
350.037	97.62
350.265	96.62
350.492	86.62
350.72	97.62
350.947	72.62
351.174	98.62
351.402	84.62
351.629	96.62
351.856	91.62
352.083	85.62
352.311	76.62
352.538	81.62
352.765	79.62
352.992	89.62
353.22	95.62
353.447	87.62
353.674	90.62
353.901	93.62
354.128	84.62
354.355	98.62
354.583	90.62
354.81	80.62
355.037	83.62
355.264	90.62
355.491	97.62
355.718	95.62
355.945	84.62
356.172	98.62
356.399	75.62
356.626	82.62
356.853	85.62
357.08	87.62
357.307	87.62
357.534	75.62
357.761	80.62
357.988	74.62
358.215	86.62
358.441	83.62
358.668	79.62
358.895	81.62
359.122	85.62
359.349	100.62
359.576	90.62
359.802	83.62
360.029	87.62
360.256	78.62
360.483	93.62
360.709	81.62
360.936	84.62
361.163	88.62
361.39	81.62
361.616	91.62
361.843	85.62
362.07	71.62
362.296	90.62
362.523	88.62
362.749	90.62
362.976	86.62
363.203	94.62
363.429	85.62
363.656	96.62
363.882	77.62
364.109	75.62
364.335	107.62
364.562	75.62
364.788	84.62
365.015	92.62
365.241	88.62
365.468	87.62
365.694	85.62
365.92	83.62
366.147	71.62
366.373	95.62
366.599	81.62
366.826	90.62
367.052	78.62
367.278	76.62
367.505	82.62
367.731	77.62
367.957	81.62
368.184	92.62
368.41	90.62
368.636	91.62
368.862	84.62
369.089	83.62
369.315	90.62
369.541	97.62
369.767	100.62
369.993	80.62
370.219	82.62
370.445	85.62
370.672	80.62
370.898	80.62
371.124	91.62
371.35	80.62
371.576	79.62
371.802	84.62
372.028	90.62
372.254	84.62
372.48	95.62
372.706	89.62
372.932	88.62
373.158	91.62
373.384	96.62
373.61	83.62
373.835	92.62
374.061	70.62
374.287	83.62
374.513	81.62
374.739	104.62
374.965	82.62
375.191	88.62
375.416	72.62
375.642	83.62
375.868	79.62
376.094	89.62
376.319	77.62
376.545	95.62
376.771	87.62
376.997	75.62
377.222	85.62
377.448	69.62
377.674	89.62
377.899	88.62
378.125	74.62
378.35	79.62
378.576	85.62
378.802	86.62
379.027	88.62
379.253	86.62
379.478	69.62
379.704	83.62
379.929	84.62
380.155	88.62
380.38	89.62
380.606	69.62
380.831	92.62
381.057	80.62
381.282	91.62
381.507	84.62
381.733	80.62
381.958	91.62
382.184	90.62
382.409	74.62
382.634	91.62
382.86	72.62
383.085	75.62
383.31	74.62
383.535	81.62
383.761	77.62
383.986	81.62
384.211	84.62
384.436	75.62
384.662	88.62
384.887	88.62
385.112	97.62
385.337	99.62
385.562	88.62
385.787	83.62
386.013	83.62
386.238	80.62
386.463	67.62
386.688	87.62
386.913	80.62
387.138	82.62
387.363	75.62
387.588	92.62
387.813	82.62
388.038	74.62
388.263	92.62
388.488	78.62
388.713	62.62
388.938	103.62
389.163	86.62
389.387	80.62
389.612	84.62
389.837	76.62
390.062	80.62
390.287	82.62
390.512	79.62
390.736	88.62
390.961	84.62
391.186	83.62
391.411	86.62
391.636	85.62
391.86	78.62
392.085	89.62
392.31	93.62
392.534	93.62
392.759	81.62
392.984	84.62
393.208	88.62
393.433	97.62
393.658	83.62
393.882	74.62
394.107	96.62
394.331	81.62
394.556	88.62
394.78	98.62
395.005	81.62
395.229	89.62
395.454	92.62
395.678	56.62
395.903	92.62
396.127	81.62
396.352	84.62
396.576	83.62
396.801	83.62
397.025	86.62
397.249	96.62
397.474	84.62
397.698	93.62
397.922	85.62
398.147	90.62
398.371	82.62
398.595	88.62
398.82	81.62
399.044	93.62
399.268	77.62
399.492	85.62
399.717	72.62
399.941	79.62
400.165	88.62
400.389	86.62
400.613	92.62
400.837	93.62
401.062	76.62
401.286	98.62
401.51	85.62
401.734	73.62
401.958	91.62
402.182	74.62
402.406	85.62
402.63	88.62
402.854	87.62
403.078	91.62
403.302	78.62
403.526	86.62
403.75	94.62
403.974	96.62
404.198	80.62
404.422	93.62
404.645	81.62
404.869	73.62
405.093	91.62
405.317	80.62
405.541	92.62
405.765	83.62
405.988	89.62
406.212	76.62
406.436	82.62
406.66	93.62
406.883	95.62
407.107	88.62
407.331	76.62
407.555	87.62
407.778	86.62
408.002	91.62
408.226	94.62
408.449	100.62
408.673	80.62
408.896	75.62
409.12	81.62
409.344	75.62
409.567	90.62
409.791	83.62
410.014	87.62
410.238	72.62
410.461	74.62
410.685	85.62
410.908	82.62
411.132	84.62
411.355	99.62
411.578	75.62
411.802	85.62
412.025	79.62
412.249	71.62
412.472	76.62
412.695	88.62
412.919	84.62
413.142	88.62
413.365	92.62
413.589	85.62
413.812	80.62
414.035	83.62
414.258	84.62
414.482	93.62
414.705	88.62
414.928	87.62
415.151	90.62
415.374	95.62
415.597	87.62
415.821	80.62
416.044	82.62
416.267	76.62
416.49	81.62
416.713	87.62
416.936	77.62
417.159	88.62
417.382	89.62
417.605	88.62
417.828	83.62
418.051	89.62
418.274	90.62
418.497	91.62
418.72	68.62
418.943	82.62
419.166	97.62
419.389	82.62
419.611	72.62
419.834	93.62
420.057	81.62
420.28	77.62
420.503	87.62
420.726	74.62
420.948	81.62
421.171	84.62
421.394	90.62
421.617	73.62
421.839	83.62
422.062	89.62
422.285	89.62
422.507	85.62
422.73	90.62
422.953	88.62
423.175	81.62
423.398	84.62
423.621	88.62
423.843	84.62
424.066	84.62
424.288	87.62
424.511	96.62
424.733	86.62
424.956	86.62
425.178	86.62
425.401	87.62
425.623	83.62
425.846	77.62
426.068	76.62
426.291	101.62
426.513	86.62
426.735	92.62
426.958	77.62
427.18	81.62
427.402	87.62
427.625	86.62
427.847	73.62
428.069	76.62
428.292	86.62
428.514	99.62
428.736	84.62
428.958	80.62
429.181	95.62
429.403	79.62
429.625	96.62
429.847	98.62
430.069	93.62
430.292	79.62
430.514	94.62
430.736	75.62
430.958	99.62
431.18	71.62
431.402	99.62
431.624	94.62
431.846	75.62
432.068	89.62
432.29	70.62
432.512	96.62
432.734	89.62
432.956	84.62
433.178	73.62
433.4	102.62
433.622	78.62
433.844	74.62
434.066	78.62
434.287	86.62
434.509	74.62
434.731	95.62
434.953	87.62
435.175	81.62
435.397	83.62
435.618	95.62
435.84	80.62
436.062	66.62
436.284	74.62
436.505	75.62
436.727	81.62
436.949	99.62
437.17	75.62
437.392	71.62
437.614	91.62
437.835	79.62
438.057	85.62
438.278	78.62
438.5	76.62
438.721	89.62
438.943	79.62
439.165	83.62
439.386	90.62
439.608	87.62
439.829	101.62
440.05	95.62
440.272	86.62
440.493	76.62
440.715	73.62
440.936	89.62
441.158	90.62
441.379	91.62
441.6	81.62
441.822	95.62
442.043	75.62
442.264	87.62
442.486	90.62
442.707	90.62
442.928	97.62
443.149	75.62
443.371	88.62
443.592	89.62
443.813	95.62
444.034	83.62
444.255	95.62
444.476	92.62
444.698	93.62
444.919	88.62
445.14	199.62
445.361	145.62
445.582	85.62
445.803	80.62
446.024	84.62
446.245	81.62
446.466	78.62
446.687	90.62
446.908	93.62
447.129	87.62
447.35	89.62
447.571	83.62
447.792	77.62
448.013	87.62
448.234	97.62
448.455	75.62
448.675	85.62
448.896	82.62
449.117	72.62
449.338	84.62
449.559	87.62
449.779	72.62
450	87.62
450.221	75.62
450.442	93.62
450.662	80.62
450.883	77.62
451.104	78.62
451.324	92.62
451.545	76.62
451.766	88.62
451.986	84.62
452.207	89.62
452.428	86.62
452.648	85.62
452.869	82.62
453.089	82.62
453.31	89.62
453.53	98.62
453.751	72.62
453.971	84.62
454.192	82.62
454.412	89.62
454.633	81.62
454.853	92.62
455.073	83.62
455.294	84.62
455.514	85.62
455.734	96.62
455.955	91.62
456.175	70.62
456.395	81.62
456.616	83.62
456.836	87.62
457.056	74.62
457.276	79.62
457.497	78.62
457.717	66.62
457.937	75.62
458.157	86.62
458.377	75.62
458.598	88.62
458.818	87.62
459.038	82.62
459.258	67.62
459.478	89.62
459.698	88.62
459.918	79.62
460.138	88.62
460.358	91.62
460.578	80.62
460.798	85.62
461.018	87.62
461.238	88.62
461.458	92.62
461.678	84.62
461.898	81.62
462.118	97.62
462.338	88.62
462.558	82.62
462.777	89.62
462.997	84.62
463.217	85.62
463.437	91.62
463.657	84.62
463.876	88.62
464.096	83.62
464.316	96.62
464.536	96.62
464.755	91.62
464.975	87.62
465.195	89.62
465.414	88.62
465.634	86.62
465.854	90.62
466.073	86.62
466.293	80.62
466.512	82.62
466.732	76.62
466.951	84.62
467.171	105.62
467.391	97.62
467.61	92.62
467.829	106.62
468.049	85.62
468.268	92.62
468.488	93.62
468.707	101.62
468.927	95.62
469.146	70.62
469.365	94.62
469.585	84.62
469.804	78.62
470.023	88.62
470.243	87.62
470.462	83.62
470.681	82.62
470.901	77.62
471.12	85.62
471.339	86.62
471.558	84.62
471.777	105.62
471.997	100.62
472.216	76.62
472.435	90.62
472.654	85.62
472.873	92.62
473.092	86.62
473.311	91.62
473.53	92.62
473.749	79.62
473.968	93.62
474.187	83.62
474.406	97.62
474.625	81.62
474.844	89.62
475.063	77.62
475.282	79.62
475.501	91.62
475.72	93.62
475.939	84.62
476.158	108.62
476.377	77.62
476.596	83.62
476.814	95.62
477.033	100.62
477.252	85.62
477.471	83.62
477.69	88.62
477.908	74.62
478.127	83.62
478.346	90.62
478.564	81.62
478.783	100.62
479.002	92.62
479.22	111.62
479.439	84.62
479.658	74.62
479.876	82.62
480.095	93.62
480.313	95.62
480.532	102.62
480.751	92.62
480.969	88.62
481.188	79.62
481.406	79.62
481.624	86.62
481.843	90.62
482.061	90.62
482.28	89.62
482.498	87.62
482.717	81.62
482.935	71.62
483.153	84.62
483.372	87.62
483.59	79.62
483.808	77.62
484.027	87.62
484.245	91.62
484.463	85.62
484.681	97.62
484.9	81.62
485.118	99.62
485.336	77.62
485.554	92.62
485.772	96.62
485.99	87.62
486.209	92.62
486.427	88.62
486.645	98.62
486.863	87.62
487.081	98.62
487.299	89.62
487.517	91.62
487.735	88.62
487.953	93.62
488.171	82.62
488.389	97.62
488.607	91.62
488.825	91.62
489.043	95.62
489.261	107.62
489.479	86.62
489.696	92.62
489.914	92.62
490.132	97.62
490.35	81.62
490.568	98.62
490.786	93.62
491.003	92.62
491.221	90.62
491.439	95.62
491.657	100.62
491.874	98.62
492.092	80.62
492.31	93.62
492.527	96.62
492.745	87.62
492.963	111.62
493.18	93.62
493.398	101.62
493.615	97.62
493.833	107.62
494.05	96.62
494.268	79.62
494.485	99.62
494.703	87.62
494.92	102.62
495.138	89.62
495.355	95.62
495.573	96.62
495.79	87.62
496.008	88.62
496.225	96.62
496.442	103.62
496.66	95.62
496.877	94.62
497.094	85.62
497.312	79.62
497.529	97.62
497.746	101.62
497.963	96.62
498.181	107.62
498.398	97.62
498.615	98.62
498.832	107.62
499.049	93.62
499.267	85.62
499.484	94.62
499.701	101.62
499.918	99.62
500.135	106.62
500.352	109.62
500.569	121.62
500.786	106.62
501.003	103.62
501.22	93.62
501.437	114.62
501.654	100.62
501.871	95.62
502.088	105.62
502.305	108.62
502.522	92.62
502.739	93.62
502.956	85.62
503.172	98.62
503.389	116.62
503.606	96.62
503.823	88.62
504.04	86.62
504.256	98.62
504.473	94.62
504.69	110.62
504.907	98.62
505.123	88.62
505.34	93.62
505.557	97.62
505.773	90.62
505.99	91.62
506.207	94.62
506.423	91.62
506.64	99.62
506.856	84.62
507.073	81.62
507.289	91.62
507.506	101.62
507.722	92.62
507.939	87.62
508.155	87.62
508.372	101.62
508.588	76.62
508.805	94.62
509.021	87.62
509.238	86.62
509.454	95.62
509.67	87.62
509.887	81.62
510.103	96.62
510.319	85.62
510.536	115.62
510.752	89.62
510.968	81.62
511.184	93.62
511.401	94.62
511.617	93.62
511.833	70.62
512.049	82.62
512.265	76.62
512.481	89.62
512.698	78.62
512.914	81.62
513.13	81.62
513.346	96.62
513.562	91.62
513.778	84.62
513.994	80.62
514.21	87.62
514.426	72.62
514.642	92.62
514.858	103.62
515.074	97.62
515.29	94.62
515.506	81.62
515.721	83.62
515.937	83.62
516.153	92.62
516.369	106.62
516.585	83.62
516.801	85.62
517.016	86.62
517.232	95.62
517.448	99.62
517.664	92.62
517.879	96.62
518.095	91.62
518.311	94.62
518.527	87.62
518.742	92.62
