Data from Ni(NO3)2@0.0625M.TitratingCurve.Agarose3%dH2O.NegLispCup.LampEnergy10.LIBS07252019_HRD10591_18-15-15-569.txt Node
Date: Thu Jul 25 18:15:15 EDT 2019
User: cochatt
Spectrometer: HR+D1059
Trigger mode: 1
Integration Time (sec): 1.000000E-1
Scans to average: 1
Electric dark correction enabled: true
Nonlinearity correction enabled: false
Boxcar width: 0
XAxis mode: Wavelengths
Number of Pixels in Spectrum: 2048
>>>>>Begin Spectral Data<<<<<
223.165	-14.56
223.4	-14.56
223.635	-14.56
223.869	-27.56
224.104	-20.56
224.338	7.44
224.573	-9.56
224.808	-16.56
225.042	0.44
225.277	-7.56
225.511	-25.56
225.746	-6.56
225.98	11.44
226.215	7.44
226.449	25.44
226.683	33.44
226.918	16.44
227.152	26.44
227.387	26.44
227.621	34.44
227.856	37.44
228.09	46.44
228.324	51.44
228.559	55.44
228.793	62.44
229.027	120.44
229.262	103.44
229.496	118.44
229.73	122.44
229.964	131.44
230.199	115.44
230.433	129.44
230.667	127.44
230.901	133.44
231.136	124.44
231.37	134.44
231.604	156.44
231.838	146.44
232.072	163.44
232.306	138.44
232.541	137.44
232.775	144.44
233.009	148.44
233.243	145.44
233.477	134.44
233.711	150.44
233.945	149.44
234.179	143.44
234.413	136.44
234.647	145.44
234.881	152.44
235.115	145.44
235.349	160.44
235.583	154.44
235.817	139.44
236.051	148.44
236.285	133.44
236.519	150.44
236.753	147.44
236.987	164.44
237.221	167.44
237.455	147.44
237.689	154.44
237.922	147.44
238.156	149.44
238.39	166.44
238.624	161.44
238.858	146.44
239.091	165.44
239.325	146.44
239.559	179.44
239.793	155.44
240.027	173.44
240.26	172.44
240.494	177.44
240.728	186.44
240.961	176.44
241.195	162.44
241.429	182.44
241.662	178.44
241.896	178.44
242.13	164.44
242.363	183.44
242.597	181.44
242.83	193.44
243.064	201.44
243.298	188.44
243.531	188.44
243.765	201.44
243.998	194.44
244.232	191.44
244.465	183.44
244.699	209.44
244.932	198.44
245.166	205.44
245.399	222.44
245.633	209.44
245.866	211.44
246.099	195.44
246.333	224.44
246.566	233.44
246.8	200.44
247.033	199.44
247.266	211.44
247.5	219.44
247.733	205.44
247.966	220.44
248.2	214.44
248.433	226.44
248.666	225.44
248.899	236.44
249.133	223.44
249.366	245.44
249.599	214.44
249.832	237.44
250.066	239.44
250.299	221.44
250.532	233.44
250.765	238.44
250.998	251.44
251.231	267.44
251.465	252.44
251.698	248.44
251.931	239.44
252.164	248.44
252.397	257.44
252.63	255.44
252.863	248.44
253.096	259.44
253.329	257.44
253.562	254.44
253.795	259.44
254.028	272.44
254.261	267.44
254.494	273.44
254.727	254.44
254.96	262.44
255.193	257.44
255.426	268.44
255.659	267.44
255.892	280.44
256.124	278.44
256.357	267.44
256.59	276.44
256.823	285.44
257.056	260.44
257.289	280.44
257.521	288.44
257.754	276.44
257.987	274.44
258.22	294.44
258.452	298.44
258.685	286.44
258.918	294.44
259.151	283.44
259.383	287.44
259.616	282.44
259.849	288.44
260.081	285.44
260.314	293.44
260.547	304.44
260.779	291.44
261.012	309.44
261.244	288.44
261.477	294.44
261.71	304.44
261.942	295.44
262.175	277.44
262.407	313.44
262.64	307.44
262.872	300.44
263.105	322.44
263.337	309.44
263.57	299.44
263.802	326.44
264.035	333.44
264.267	338.44
264.499	317.44
264.732	328.44
264.964	328.44
265.197	322.44
265.429	330.44
265.661	340.44
265.894	331.44
266.126	343.44
266.358	348.44
266.591	323.44
266.823	348.44
267.055	326.44
267.287	345.44
267.52	333.44
267.752	357.44
267.984	343.44
268.216	328.44
268.448	331.44
268.681	345.44
268.913	339.44
269.145	355.44
269.377	347.44
269.609	346.44
269.841	358.44
270.073	359.44
270.306	347.44
270.538	355.44
270.77	356.44
271.002	370.44
271.234	354.44
271.466	367.44
271.698	375.44
271.93	356.44
272.162	351.44
272.394	376.44
272.626	367.44
272.858	373.44
273.09	379.44
273.322	374.44
273.553	359.44
273.785	389.44
274.017	377.44
274.249	372.44
274.481	380.44
274.713	382.44
274.945	349.44
275.176	375.44
275.408	375.44
275.64	382.44
275.872	386.44
276.104	403.44
276.335	393.44
276.567	397.44
276.799	388.44
277.031	392.44
277.262	397.44
277.494	399.44
277.726	397.44
277.957	413.44
278.189	404.44
278.421	372.44
278.652	418.44
278.884	399.44
279.115	401.44
279.347	411.44
279.579	425.44
279.81	423.44
280.042	402.44
280.273	429.44
280.505	419.44
280.736	428.44
280.968	413.44
281.199	397.44
281.431	420.44
281.662	440.44
281.894	444.44
282.125	410.44
282.356	437.44
282.588	435.44
282.819	435.44
283.051	444.44
283.282	422.44
283.513	444.44
283.745	440.44
283.976	427.44
284.207	447.44
284.439	439.44
284.67	439.44
284.901	455.44
285.132	445.44
285.364	452.44
285.595	464.44
285.826	467.44
286.057	483.44
286.288	461.44
286.52	433.44
286.751	459.44
286.982	471.44
287.213	461.44
287.444	466.44
287.675	485.44
287.906	489.44
288.138	470.44
288.369	468.44
288.6	466.44
288.831	479.44
289.062	478.44
289.293	488.44
289.524	485.44
289.755	467.44
289.986	483.44
290.217	478.44
290.448	481.44
290.679	504.44
290.91	492.44
291.141	499.44
291.371	487.44
291.602	498.44
291.833	489.44
292.064	465.44
292.295	491.44
292.526	482.44
292.757	500.44
292.987	502.44
293.218	487.44
293.449	495.44
293.68	491.44
293.91	486.44
294.141	480.44
294.372	485.44
294.603	485.44
294.833	492.44
295.064	507.44
295.295	521.44
295.525	492.44
295.756	513.44
295.987	490.44
296.217	515.44
296.448	511.44
296.679	529.44
296.909	496.44
297.14	521.44
297.37	524.44
297.601	521.44
297.831	529.44
298.062	540.44
298.292	539.44
298.523	533.44
298.753	539.44
298.984	523.44
299.214	519.44
299.445	540.44
299.675	539.44
299.905	549.44
300.136	540.44
300.366	542.44
300.597	553.44
300.827	578.44
301.057	581.44
301.288	583.44
301.518	567.44
301.748	577.44
301.979	579.44
302.209	569.44
302.439	560.44
302.669	553.44
302.9	557.44
303.13	568.44
303.36	572.44
303.59	562.44
303.82	561.44
304.051	547.44
304.281	592.44
304.511	576.44
304.741	574.44
304.971	555.44
305.201	552.44
305.431	597.44
305.661	567.44
305.891	548.44
306.121	556.44
306.352	546.44
306.582	563.44
306.812	546.44
307.042	548.44
307.272	569.44
307.502	552.44
307.731	545.44
307.961	544.44
308.191	560.44
308.421	541.44
308.651	553.44
308.881	553.44
309.111	570.44
309.341	551.44
309.571	552.44
309.8	548.44
310.03	570.44
310.26	533.44
310.49	573.44
310.72	570.44
310.949	555.44
311.179	563.44
311.409	561.44
311.639	553.44
311.868	584.44
312.098	568.44
312.328	567.44
312.557	563.44
312.787	578.44
313.017	585.44
313.246	611.44
313.476	581.44
313.706	599.44
313.935	617.44
314.165	605.44
314.394	610.44
314.624	591.44
314.853	595.44
315.083	603.44
315.312	598.44
315.542	587.44
315.771	599.44
316.001	587.44
316.23	591.44
316.46	590.44
316.689	587.44
316.919	592.44
317.148	604.44
317.377	584.44
317.607	544.44
317.836	583.44
318.065	583.44
318.295	581.44
318.524	557.44
318.753	585.44
318.983	574.44
319.212	560.44
319.441	585.44
319.67	599.44
319.9	588.44
320.129	593.44
320.358	580.44
320.587	590.44
320.816	581.44
321.046	610.44
321.275	615.44
321.504	594.44
321.733	596.44
321.962	598.44
322.191	597.44
322.42	594.44
322.649	602.44
322.878	572.44
323.108	568.44
323.337	591.44
323.566	610.44
323.795	598.44
324.024	604.44
324.253	608.44
324.482	618.44
324.71	616.44
324.939	619.44
325.168	610.44
325.397	580.44
325.626	616.44
325.855	639.44
326.084	637.44
326.313	652.44
326.542	646.44
326.77	647.44
326.999	664.44
327.228	651.44
327.457	648.44
327.686	650.44
327.914	682.44
328.143	655.44
328.372	651.44
328.6	654.44
328.829	669.44
329.058	629.44
329.287	637.44
329.515	668.44
329.744	647.44
329.972	639.44
330.201	662.44
330.43	645.44
330.658	654.44
330.887	639.44
331.115	689.44
331.344	692.44
331.572	695.44
331.801	712.44
332.03	710.44
332.258	748.44
332.486	748.44
332.715	783.44
332.943	813.44
333.172	839.44
333.4	867.44
333.629	874.44
333.857	900.44
334.085	860.44
334.314	879.44
334.542	812.44
334.771	851.44
334.999	839.44
335.227	825.44
335.455	820.44
335.684	823.44
335.912	804.44
336.14	771.44
336.369	758.44
336.597	783.44
336.825	789.44
337.053	772.44
337.281	761.44
337.51	731.44
337.738	733.44
337.966	730.44
338.194	733.44
338.422	697.44
338.65	685.44
338.878	716.44
339.106	705.44
339.334	713.44
339.562	740.44
339.79	706.44
340.018	681.44
340.246	685.44
340.474	657.44
340.702	665.44
340.93	697.44
341.158	702.44
341.386	691.44
341.614	704.44
341.842	673.44
342.07	674.44
342.298	679.44
342.526	691.44
342.754	672.44
342.981	684.44
343.209	685.44
343.437	733.44
343.665	773.44
343.893	842.44
344.12	835.44
344.348	804.44
344.576	767.44
344.804	746.44
345.031	710.44
345.259	717.44
345.487	713.44
345.714	665.44
345.942	707.44
346.17	680.44
346.397	667.44
346.625	697.44
346.853	653.44
347.08	642.44
347.308	634.44
347.535	686.44
347.763	665.44
347.99	671.44
348.218	677.44
348.445	657.44
348.673	662.44
348.9	646.44
349.128	650.44
349.355	676.44
349.583	673.44
349.81	645.44
350.037	632.44
350.265	642.44
350.492	627.44
350.72	641.44
350.947	641.44
351.174	643.44
351.402	667.44
351.629	643.44
351.856	637.44
352.083	644.44
352.311	645.44
352.538	610.44
352.765	632.44
352.992	634.44
353.22	602.44
353.447	641.44
353.674	636.44
353.901	636.44
354.128	618.44
354.355	616.44
354.583	615.44
354.81	630.44
355.037	655.44
355.264	638.44
355.491	644.44
355.718	647.44
355.945	651.44
356.172	662.44
356.399	641.44
356.626	626.44
356.853	618.44
357.08	612.44
357.307	649.44
357.534	645.44
357.761	617.44
357.988	635.44
358.215	647.44
358.441	636.44
358.668	639.44
358.895	647.44
359.122	635.44
359.349	626.44
359.576	641.44
359.802	653.44
360.029	646.44
360.256	630.44
360.483	636.44
360.709	623.44
360.936	647.44
361.163	632.44
361.39	624.44
361.616	654.44
361.843	636.44
362.07	648.44
362.296	665.44
362.523	635.44
362.749	621.44
362.976	627.44
363.203	653.44
363.429	629.44
363.656	631.44
363.882	647.44
364.109	634.44
364.335	635.44
364.562	620.44
364.788	637.44
365.015	632.44
365.241	615.44
365.468	638.44
365.694	637.44
365.92	666.44
366.147	622.44
366.373	649.44
366.599	649.44
366.826	640.44
367.052	647.44
367.278	625.44
367.505	625.44
367.731	641.44
367.957	599.44
368.184	655.44
368.41	634.44
368.636	649.44
368.862	649.44
369.089	617.44
369.315	644.44
369.541	675.44
369.767	663.44
369.993	665.44
370.219	659.44
370.445	665.44
370.672	669.44
370.898	685.44
371.124	693.44
371.35	681.44
371.576	692.44
371.802	695.44
372.028	709.44
372.254	697.44
372.48	694.44
372.706	697.44
372.932	703.44
373.158	731.44
373.384	719.44
373.61	711.44
373.835	677.44
374.061	713.44
374.287	721.44
374.513	715.44
374.739	725.44
374.965	739.44
375.191	775.44
375.416	757.44
375.642	743.44
375.868	719.44
376.094	720.44
376.319	715.44
376.545	719.44
376.771	709.44
376.997	703.44
377.222	692.44
377.448	671.44
377.674	682.44
377.899	687.44
378.125	709.44
378.35	685.44
378.576	687.44
378.802	684.44
379.027	655.44
379.253	677.44
379.478	669.44
379.704	672.44
379.929	683.44
380.155	689.44
380.38	689.44
380.606	685.44
380.831	669.44
381.057	701.44
381.282	694.44
381.507	692.44
381.733	689.44
381.958	716.44
382.184	692.44
382.409	720.44
382.634	711.44
382.86	731.44
383.085	763.44
383.31	731.44
383.535	772.44
383.761	755.44
383.986	772.44
384.211	778.44
384.436	819.44
384.662	812.44
384.887	853.44
385.112	847.44
385.337	829.44
385.562	823.44
385.787	836.44
386.013	880.44
386.238	853.44
386.463	859.44
386.688	824.44
386.913	787.44
387.138	803.44
387.363	829.44
387.588	819.44
387.813	781.44
388.038	815.44
388.263	811.44
388.488	809.44
388.713	836.44
388.938	846.44
389.163	807.44
389.387	835.44
389.612	804.44
389.837	831.44
390.062	808.44
390.287	840.44
390.512	834.44
390.736	804.44
390.961	843.44
391.186	843.44
391.411	882.44
391.636	881.44
391.86	923.44
392.085	934.44
392.31	930.44
392.534	932.44
392.759	923.44
392.984	892.44
393.208	876.44
393.433	887.44
393.658	893.44
393.882	890.44
394.107	899.44
394.331	888.44
394.556	881.44
394.78	892.44
395.005	903.44
395.229	897.44
395.454	928.44
395.678	932.44
395.903	962.44
396.127	903.44
396.352	871.44
396.576	877.44
396.801	890.44
397.025	859.44
397.249	886.44
397.474	951.44
397.698	930.44
397.922	937.44
398.147	924.44
398.371	956.44
398.595	995.44
398.82	1049.44
399.044	1099.44
399.268	1205.44
399.492	1442.44
399.717	1629.44
399.941	1605.44
400.165	1425.44
400.389	1279.44
400.613	1127.44
400.837	1073.44
401.062	1054.44
401.286	1083.44
401.51	1040.44
401.734	1045.44
401.958	1039.44
402.182	1056.44
402.406	1043.44
402.63	1087.44
402.854	1114.44
403.078	1159.44
403.302	1171.44
403.526	1210.44
403.75	1200.44
403.974	1253.44
404.198	1248.44
404.422	1259.44
404.645	1237.44
404.869	1202.44
405.093	1188.44
405.317	1159.44
405.541	1144.44
405.765	1129.44
405.988	1131.44
406.212	1128.44
406.436	1149.44
406.66	1161.44
406.883	1192.44
407.107	1276.44
407.331	1320.44
407.555	1392.44
407.778	1338.44
408.002	1307.44
408.226	1292.44
408.449	1260.44
408.673	1211.44
408.896	1213.44
409.12	1202.44
409.344	1209.44
409.567	1192.44
409.791	1192.44
410.014	1226.44
410.238	1166.44
410.461	1175.44
410.685	1178.44
410.908	1149.44
411.132	1107.44
411.355	1124.44
411.578	1084.44
411.802	1065.44
412.025	1089.44
412.249	1113.44
412.472	1090.44
412.695	1081.44
412.919	1068.44
413.142	1071.44
413.365	1035.44
413.589	1074.44
413.812	1057.44
414.035	1016.44
414.258	1049.44
414.482	1064.44
414.705	1073.44
414.928	1102.44
415.151	1073.44
415.374	1041.44
415.597	1045.44
415.821	1031.44
416.044	1014.44
416.267	976.44
416.49	1013.44
416.713	1025.44
416.936	1029.44
417.159	1015.44
417.382	1024.44
417.605	1030.44
417.828	1043.44
418.051	1048.44
418.274	1070.44
418.497	1031.44
418.72	1094.44
418.943	1085.44
419.166	1128.44
419.389	1211.44
419.611	1171.44
419.834	1094.44
420.057	1071.44
420.28	1058.44
420.503	1017.44
420.726	1024.44
420.948	1014.44
421.171	1026.44
421.394	1033.44
421.617	1018.44
421.839	1011.44
422.062	1044.44
422.285	1008.44
422.507	1072.44
422.73	1042.44
422.953	1059.44
423.175	1059.44
423.398	1113.44
423.621	1089.44
423.843	1137.44
424.066	1148.44
424.288	1104.44
424.511	1085.44
424.733	1069.44
424.956	1053.44
425.178	1036.44
425.401	1043.44
425.623	983.44
425.846	1000.44
426.068	992.44
426.291	999.44
426.513	957.44
426.735	954.44
426.958	992.44
427.18	945.44
427.402	968.44
427.625	919.44
427.847	923.44
428.069	924.44
428.292	928.44
428.514	889.44
428.736	870.44
428.958	917.44
429.181	859.44
429.403	909.44
429.625	910.44
429.847	887.44
430.069	875.44
430.292	897.44
430.514	881.44
430.736	900.44
430.958	877.44
431.18	900.44
431.402	909.44
431.624	912.44
431.846	914.44
432.068	917.44
432.29	952.44
432.512	950.44
432.734	936.44
432.956	929.44
433.178	904.44
433.4	928.44
433.622	962.44
433.844	923.44
434.066	935.44
434.287	959.44
434.509	962.44
434.731	1011.44
434.953	1041.44
435.175	1068.44
435.397	1000.44
435.618	972.44
435.84	932.44
436.062	932.44
436.284	914.44
436.505	910.44
436.727	911.44
436.949	936.44
437.17	923.44
437.392	912.44
437.614	885.44
437.835	879.44
438.057	885.44
438.278	883.44
438.5	898.44
438.721	891.44
438.943	895.44
439.165	869.44
439.386	876.44
439.608	915.44
439.829	929.44
440.05	935.44
440.272	945.44
440.493	903.44
440.715	941.44
440.936	948.44
441.158	953.44
441.379	1008.44
441.6	1049.44
441.822	1053.44
442.043	1045.44
442.264	1031.44
442.486	997.44
442.707	1006.44
442.928	1013.44
443.149	1017.44
443.371	1004.44
443.592	1004.44
443.813	1031.44
444.034	1041.44
444.255	1065.44
444.476	1116.44
444.698	1215.44
444.919	1309.44
445.14	1290.44
445.361	1155.44
445.582	1050.44
445.803	1023.44
446.024	970.44
446.245	961.44
446.466	934.44
446.687	951.44
446.908	930.44
447.129	874.44
447.35	895.44
447.571	893.44
447.792	855.44
448.013	867.44
448.234	858.44
448.455	834.44
448.675	843.44
448.896	849.44
449.117	837.44
449.338	817.44
449.559	839.44
449.779	807.44
450	843.44
450.221	837.44
450.442	852.44
450.662	824.44
450.883	845.44
451.104	883.44
451.324	885.44
451.545	845.44
451.766	839.44
451.986	884.44
452.207	863.44
452.428	843.44
452.648	828.44
452.869	835.44
453.089	812.44
453.31	845.44
453.53	827.44
453.751	831.44
453.971	794.44
454.192	810.44
454.412	790.44
454.633	801.44
454.853	807.44
455.073	795.44
455.294	767.44
455.514	780.44
455.734	790.44
455.955	783.44
456.175	775.44
456.395	762.44
456.616	780.44
456.836	777.44
457.056	768.44
457.276	773.44
457.497	781.44
457.717	815.44
457.937	772.44
458.157	786.44
458.377	793.44
458.598	835.44
458.818	864.44
459.038	877.44
459.258	867.44
459.478	901.44
459.698	976.44
459.918	972.44
460.138	1020.44
460.358	1085.44
460.578	1063.44
460.798	1115.44
461.018	1088.44
461.238	1073.44
461.458	1087.44
461.678	1062.44
461.898	1079.44
462.118	1068.44
462.338	1162.44
462.558	1195.44
462.777	1221.44
462.997	1387.44
463.217	1468.44
463.437	1500.44
463.657	1350.44
463.876	1299.44
464.096	1270.44
464.316	1261.44
464.536	1279.44
464.755	1258.44
464.975	1185.44
465.195	1143.44
465.414	1015.44
465.634	1005.44
465.854	977.44
466.073	937.44
466.293	923.44
466.512	897.44
466.732	882.44
466.951	888.44
467.171	899.44
467.391	913.44
467.61	891.44
467.829	901.44
468.049	890.44
468.268	841.44
468.488	824.44
468.707	835.44
468.927	833.44
469.146	841.44
469.365	849.44
469.585	888.44
469.804	890.44
470.023	903.44
470.243	925.44
470.462	919.44
470.681	923.44
470.901	906.44
471.12	869.44
471.339	876.44
471.558	868.44
471.777	864.44
471.997	834.44
472.216	858.44
472.435	849.44
472.654	841.44
472.873	833.44
473.092	825.44
473.311	821.44
473.53	829.44
473.749	797.44
473.968	823.44
474.187	821.44
474.406	779.44
474.625	827.44
474.844	814.44
475.063	827.44
475.282	842.44
475.501	834.44
475.72	845.44
475.939	836.44
476.158	835.44
476.377	855.44
476.596	851.44
476.814	882.44
477.033	865.44
477.252	894.44
477.471	891.44
477.69	928.44
477.908	937.44
478.127	986.44
478.346	982.44
478.564	995.44
478.783	1034.44
479.002	1044.44
479.22	1027.44
479.439	1031.44
479.658	1002.44
479.876	1011.44
480.095	1030.44
480.313	1086.44
480.532	1117.44
480.751	1129.44
480.969	1081.44
481.188	1042.44
481.406	996.44
481.624	985.44
481.843	968.44
482.061	935.44
482.28	945.44
482.498	937.44
482.717	953.44
482.935	943.44
483.153	966.44
483.372	946.44
483.59	975.44
483.808	927.44
484.027	965.44
484.245	951.44
484.463	967.44
484.681	988.44
484.9	983.44
485.118	989.44
485.336	972.44
485.554	996.44
485.772	1007.44
485.99	995.44
486.209	1012.44
486.427	1041.44
486.645	1021.44
486.863	1008.44
487.081	996.44
487.299	1007.44
487.517	1013.44
487.735	1015.44
487.953	989.44
488.171	1016.44
488.389	991.44
488.607	974.44
488.825	961.44
489.043	983.44
489.261	978.44
489.479	957.44
489.696	999.44
489.914	1007.44
490.132	983.44
490.35	987.44
490.568	953.44
490.786	989.44
491.003	980.44
491.221	995.44
491.439	995.44
491.657	1000.44
491.874	998.44
492.092	993.44
492.31	973.44
492.527	980.44
492.745	996.44
492.963	1012.44
493.18	1025.44
493.398	990.44
493.615	995.44
493.833	1058.44
494.05	1018.44
494.268	1044.44
494.485	1061.44
494.703	1028.44
494.92	1055.44
495.138	1034.44
495.355	1048.44
495.573	1040.44
495.79	1037.44
496.008	1053.44
496.225	1023.44
496.442	1063.44
496.66	1082.44
496.877	1090.44
497.094	1113.44
497.312	1084.44
497.529	1135.44
497.746	1195.44
497.963	1233.44
498.181	1243.44
498.398	1320.44
498.615	1383.44
