Data from Ni(NO3)2@0.125M.TitratingCurve.Agarose3%dH2O.NegLispCup.LampEnergy10.LIBS07252019_HRD10591_18-09-37-567.txt Node
Date: Thu Jul 25 18:09:37 EDT 2019
User: cochatt
Spectrometer: HR+D1059
Trigger mode: 1
Integration Time (sec): 1.000000E-1
Scans to average: 1
Electric dark correction enabled: true
Nonlinearity correction enabled: false
Boxcar width: 0
XAxis mode: Wavelengths
Number of Pixels in Spectrum: 2048
>>>>>Begin Spectral Data<<<<<
223.165	-8.81
223.4	-8.81
223.635	-8.81
223.869	-10.81
224.104	-19.81
224.338	-23.81
224.573	-12.81
224.808	-16.81
225.042	9.19
225.277	-14.81
225.511	-7.81
225.746	5.19
225.98	10.19
226.215	11.19
226.449	21.19
226.683	18.19
226.918	11.19
227.152	29.19
227.387	35.19
227.621	37.19
227.856	36.19
228.09	27.19
228.324	49.19
228.559	56.19
228.793	61.19
229.027	78.19
229.262	81.19
229.496	96.19
229.73	103.19
229.964	103.19
230.199	101.19
230.433	102.19
230.667	117.19
230.901	105.19
231.136	107.19
231.37	107.19
231.604	117.19
231.838	113.19
232.072	108.19
232.306	126.19
232.541	111.19
232.775	125.19
233.009	129.19
233.243	115.19
233.477	127.19
233.711	114.19
233.945	124.19
234.179	145.19
234.413	133.19
234.647	123.19
234.881	123.19
235.115	115.19
235.349	130.19
235.583	126.19
235.817	122.19
236.051	135.19
236.285	131.19
236.519	120.19
236.753	127.19
236.987	121.19
237.221	115.19
237.455	130.19
237.689	124.19
237.922	133.19
238.156	127.19
238.39	131.19
238.624	134.19
238.858	123.19
239.091	131.19
239.325	124.19
239.559	137.19
239.793	132.19
240.027	131.19
240.26	129.19
240.494	132.19
240.728	124.19
240.961	125.19
241.195	121.19
241.429	139.19
241.662	133.19
241.896	147.19
242.13	147.19
242.363	144.19
242.597	136.19
242.83	125.19
243.064	135.19
243.298	152.19
243.531	160.19
243.765	153.19
243.998	154.19
244.232	155.19
244.465	164.19
244.699	154.19
244.932	179.19
245.166	161.19
245.399	158.19
245.633	151.19
245.866	175.19
246.099	163.19
246.333	179.19
246.566	163.19
246.8	179.19
247.033	183.19
247.266	167.19
247.5	184.19
247.733	171.19
247.966	168.19
248.2	177.19
248.433	182.19
248.666	181.19
248.899	182.19
249.133	181.19
249.366	183.19
249.599	172.19
249.832	168.19
250.066	187.19
250.299	163.19
250.532	170.19
250.765	170.19
250.998	198.19
251.231	183.19
251.465	194.19
251.698	182.19
251.931	193.19
252.164	190.19
252.397	199.19
252.63	208.19
252.863	191.19
253.096	201.19
253.329	196.19
253.562	191.19
253.795	187.19
254.028	200.19
254.261	207.19
254.494	200.19
254.727	201.19
254.96	197.19
255.193	198.19
255.426	202.19
255.659	205.19
255.892	197.19
256.124	212.19
256.357	204.19
256.59	209.19
256.823	201.19
257.056	210.19
257.289	209.19
257.521	226.19
257.754	216.19
257.987	219.19
258.22	222.19
258.452	227.19
258.685	224.19
258.918	213.19
259.151	223.19
259.383	216.19
259.616	230.19
259.849	218.19
260.081	227.19
260.314	238.19
260.547	215.19
260.779	232.19
261.012	231.19
261.244	234.19
261.477	235.19
261.71	234.19
261.942	234.19
262.175	235.19
262.407	231.19
262.64	235.19
262.872	245.19
263.105	246.19
263.337	233.19
263.57	241.19
263.802	244.19
264.035	242.19
264.267	248.19
264.499	250.19
264.732	269.19
264.964	264.19
265.197	240.19
265.429	266.19
265.661	241.19
265.894	233.19
266.126	233.19
266.358	252.19
266.591	249.19
266.823	243.19
267.055	255.19
267.287	272.19
267.52	245.19
267.752	270.19
267.984	235.19
268.216	265.19
268.448	259.19
268.681	275.19
268.913	257.19
269.145	268.19
269.377	262.19
269.609	269.19
269.841	259.19
270.073	261.19
270.306	255.19
270.538	245.19
270.77	267.19
271.002	272.19
271.234	269.19
271.466	272.19
271.698	281.19
271.93	275.19
272.162	256.19
272.394	284.19
272.626	277.19
272.858	288.19
273.09	272.19
273.322	295.19
273.553	271.19
273.785	283.19
274.017	259.19
274.249	292.19
274.481	281.19
274.713	280.19
274.945	274.19
275.176	284.19
275.408	303.19
275.64	303.19
275.872	288.19
276.104	286.19
276.335	309.19
276.567	283.19
276.799	300.19
277.031	291.19
277.262	292.19
277.494	300.19
277.726	295.19
277.957	303.19
278.189	298.19
278.421	325.19
278.652	291.19
278.884	315.19
279.115	291.19
279.347	334.19
279.579	301.19
279.81	327.19
280.042	310.19
280.273	307.19
280.505	309.19
280.736	295.19
280.968	338.19
281.199	307.19
281.431	307.19
281.662	310.19
281.894	325.19
282.125	317.19
282.356	331.19
282.588	327.19
282.819	321.19
283.051	330.19
283.282	329.19
283.513	349.19
283.745	333.19
283.976	352.19
284.207	320.19
284.439	355.19
284.67	333.19
284.901	336.19
285.132	332.19
285.364	352.19
285.595	360.19
285.826	342.19
286.057	355.19
286.288	349.19
286.52	348.19
286.751	340.19
286.982	351.19
287.213	333.19
287.444	342.19
287.675	355.19
287.906	353.19
288.138	346.19
288.369	332.19
288.6	348.19
288.831	362.19
289.062	366.19
289.293	363.19
289.524	352.19
289.755	349.19
289.986	354.19
290.217	348.19
290.448	347.19
290.679	362.19
290.91	335.19
291.141	357.19
291.371	374.19
291.602	375.19
291.833	346.19
292.064	364.19
292.295	379.19
292.526	355.19
292.757	370.19
292.987	359.19
293.218	360.19
293.449	369.19
293.68	367.19
293.91	376.19
294.141	369.19
294.372	372.19
294.603	367.19
294.833	390.19
295.064	393.19
295.295	391.19
295.525	369.19
295.756	353.19
295.987	361.19
296.217	371.19
296.448	383.19
296.679	379.19
296.909	395.19
297.14	372.19
297.37	387.19
297.601	388.19
297.831	383.19
298.062	398.19
298.292	406.19
298.523	415.19
298.753	395.19
298.984	428.19
299.214	381.19
299.445	384.19
299.675	396.19
299.905	423.19
300.136	403.19
300.366	399.19
300.597	410.19
300.827	410.19
301.057	407.19
301.288	431.19
301.518	405.19
301.748	425.19
301.979	435.19
302.209	411.19
302.439	413.19
302.669	416.19
302.9	412.19
303.13	423.19
303.36	411.19
303.59	398.19
303.82	403.19
304.051	425.19
304.281	421.19
304.511	408.19
304.741	413.19
304.971	416.19
305.201	412.19
305.431	423.19
305.661	395.19
305.891	409.19
306.121	406.19
306.352	416.19
306.582	404.19
306.812	408.19
307.042	397.19
307.272	387.19
307.502	392.19
307.731	389.19
307.961	415.19
308.191	406.19
308.421	413.19
308.651	389.19
308.881	380.19
309.111	399.19
309.341	389.19
309.571	394.19
309.8	404.19
310.03	379.19
310.26	406.19
310.49	422.19
310.72	409.19
310.949	369.19
311.179	391.19
311.409	405.19
311.639	404.19
311.868	392.19
312.098	393.19
312.328	403.19
312.557	423.19
312.787	412.19
313.017	436.19
313.246	412.19
313.476	428.19
313.706	409.19
313.935	419.19
314.165	443.19
314.394	433.19
314.624	432.19
314.853	424.19
315.083	411.19
315.312	426.19
315.542	421.19
315.771	424.19
316.001	427.19
316.23	422.19
316.46	419.19
316.689	427.19
316.919	433.19
317.148	407.19
317.377	408.19
317.607	432.19
317.836	410.19
318.065	414.19
318.295	421.19
318.524	425.19
318.753	405.19
318.983	408.19
319.212	416.19
319.441	412.19
319.67	403.19
319.9	429.19
320.129	424.19
320.358	403.19
320.587	408.19
320.816	445.19
321.046	433.19
321.275	430.19
321.504	423.19
321.733	430.19
321.962	418.19
322.191	434.19
322.42	411.19
322.649	441.19
322.878	434.19
323.108	428.19
323.337	423.19
323.566	433.19
323.795	439.19
324.024	440.19
324.253	435.19
324.482	446.19
324.71	437.19
324.939	437.19
325.168	449.19
325.397	428.19
325.626	444.19
325.855	457.19
326.084	476.19
326.313	468.19
326.542	475.19
326.77	493.19
326.999	480.19
327.228	454.19
327.457	459.19
327.686	459.19
327.914	453.19
328.143	469.19
328.372	467.19
328.6	484.19
328.829	458.19
329.058	464.19
329.287	465.19
329.515	491.19
329.744	482.19
329.972	489.19
330.201	472.19
330.43	479.19
330.658	457.19
330.887	489.19
331.115	490.19
331.344	510.19
331.572	518.19
331.801	499.19
332.03	510.19
332.258	552.19
332.486	557.19
332.715	559.19
332.943	577.19
333.172	619.19
333.4	635.19
333.629	650.19
333.857	653.19
334.085	626.19
334.314	627.19
334.542	605.19
334.771	628.19
334.999	583.19
335.227	606.19
335.455	580.19
335.684	574.19
335.912	600.19
336.14	571.19
336.369	570.19
336.597	573.19
336.825	585.19
337.053	566.19
337.281	576.19
337.51	553.19
337.738	536.19
337.966	529.19
338.194	538.19
338.422	527.19
338.65	524.19
338.878	537.19
339.106	515.19
339.334	538.19
339.562	527.19
339.79	518.19
340.018	494.19
340.246	511.19
340.474	504.19
340.702	513.19
340.93	522.19
341.158	532.19
341.386	505.19
341.614	509.19
341.842	497.19
342.07	502.19
342.298	499.19
342.526	501.19
342.754	499.19
342.981	487.19
343.209	515.19
343.437	533.19
343.665	582.19
343.893	595.19
344.12	623.19
344.348	610.19
344.576	572.19
344.804	546.19
345.031	531.19
345.259	509.19
345.487	507.19
345.714	510.19
345.942	496.19
346.17	503.19
346.397	515.19
346.625	497.19
346.853	493.19
347.08	505.19
347.308	517.19
347.535	502.19
347.763	498.19
347.99	510.19
348.218	503.19
348.445	504.19
348.673	502.19
348.9	475.19
349.128	500.19
349.355	472.19
349.583	484.19
349.81	470.19
350.037	469.19
350.265	474.19
350.492	485.19
350.72	475.19
350.947	462.19
351.174	490.19
351.402	485.19
351.629	469.19
351.856	487.19
352.083	458.19
352.311	470.19
352.538	455.19
352.765	457.19
352.992	460.19
353.22	467.19
353.447	447.19
353.674	457.19
353.901	483.19
354.128	466.19
354.355	454.19
354.583	469.19
354.81	472.19
355.037	476.19
355.264	474.19
355.491	469.19
355.718	470.19
355.945	479.19
356.172	472.19
356.399	472.19
356.626	467.19
356.853	483.19
357.08	456.19
357.307	475.19
357.534	495.19
357.761	479.19
357.988	479.19
358.215	488.19
358.441	464.19
358.668	463.19
358.895	478.19
359.122	453.19
359.349	459.19
359.576	471.19
359.802	457.19
360.029	471.19
360.256	482.19
360.483	459.19
360.709	466.19
360.936	490.19
361.163	474.19
361.39	476.19
361.616	460.19
361.843	482.19
362.07	471.19
362.296	478.19
362.523	468.19
362.749	478.19
362.976	449.19
363.203	473.19
363.429	462.19
363.656	467.19
363.882	469.19
364.109	466.19
364.335	473.19
364.562	446.19
364.788	457.19
365.015	469.19
365.241	465.19
365.468	453.19
365.694	438.19
365.92	473.19
366.147	466.19
366.373	477.19
366.599	485.19
366.826	463.19
367.052	460.19
367.278	463.19
367.505	469.19
367.731	476.19
367.957	458.19
368.184	468.19
368.41	470.19
368.636	479.19
368.862	474.19
369.089	473.19
369.315	471.19
369.541	480.19
369.767	480.19
369.993	490.19
370.219	475.19
370.445	505.19
370.672	521.19
370.898	485.19
371.124	515.19
371.35	499.19
371.576	503.19
371.802	497.19
372.028	503.19
372.254	504.19
372.48	482.19
372.706	503.19
372.932	537.19
373.158	524.19
373.384	513.19
373.61	467.19
373.835	489.19
374.061	476.19
374.287	516.19
374.513	518.19
374.739	541.19
374.965	556.19
375.191	559.19
375.416	552.19
375.642	579.19
375.868	539.19
376.094	526.19
376.319	546.19
376.545	540.19
376.771	517.19
376.997	511.19
377.222	507.19
377.448	521.19
377.674	512.19
377.899	510.19
378.125	477.19
378.35	496.19
378.576	496.19
378.802	502.19
379.027	491.19
379.253	488.19
379.478	481.19
379.704	505.19
379.929	488.19
380.155	495.19
380.38	492.19
380.606	502.19
380.831	504.19
381.057	503.19
381.282	509.19
381.507	524.19
381.733	513.19
381.958	513.19
382.184	522.19
382.409	518.19
382.634	521.19
382.86	523.19
383.085	537.19
383.31	559.19
383.535	573.19
383.761	563.19
383.986	580.19
384.211	588.19
384.436	604.19
384.662	618.19
384.887	599.19
385.112	613.19
385.337	597.19
385.562	602.19
385.787	637.19
386.013	615.19
386.238	591.19
386.463	620.19
386.688	631.19
386.913	569.19
387.138	597.19
387.363	612.19
387.588	584.19
387.813	579.19
388.038	580.19
388.263	580.19
388.488	613.19
388.713	600.19
388.938	603.19
389.163	560.19
389.387	561.19
389.612	598.19
389.837	598.19
390.062	582.19
390.287	603.19
390.512	587.19
390.736	595.19
390.961	589.19
391.186	601.19
391.411	645.19
391.636	640.19
391.86	671.19
392.085	653.19
392.31	689.19
392.534	648.19
392.759	644.19
392.984	606.19
393.208	641.19
393.433	638.19
393.658	639.19
393.882	663.19
394.107	643.19
394.331	633.19
394.556	633.19
394.78	654.19
395.005	658.19
395.229	661.19
395.454	660.19
395.678	658.19
395.903	672.19
396.127	662.19
396.352	632.19
396.576	645.19
396.801	636.19
397.025	645.19
397.249	665.19
397.474	676.19
397.698	654.19
397.922	670.19
398.147	663.19
398.371	672.19
398.595	705.19
398.82	746.19
399.044	769.19
399.268	855.19
399.492	1025.19
399.717	1193.19
399.941	1153.19
400.165	999.19
400.389	883.19
400.613	808.19
400.837	775.19
401.062	753.19
401.286	742.19
401.51	741.19
401.734	744.19
401.958	756.19
402.182	748.19
402.406	800.19
402.63	785.19
402.854	821.19
403.078	804.19
403.302	827.19
403.526	861.19
403.75	889.19
403.974	905.19
404.198	875.19
404.422	896.19
404.645	872.19
404.869	845.19
405.093	873.19
405.317	852.19
405.541	831.19
405.765	826.19
405.988	825.19
406.212	802.19
406.436	822.19
406.66	856.19
406.883	861.19
407.107	903.19
407.331	953.19
407.555	989.19
407.778	1001.19
408.002	955.19
408.226	920.19
408.449	903.19
408.673	863.19
408.896	849.19
409.12	857.19
409.344	880.19
409.567	868.19
409.791	875.19
410.014	898.19
410.238	867.19
410.461	867.19
410.685	850.19
410.908	819.19
411.132	829.19
411.355	794.19
411.578	777.19
411.802	772.19
412.025	788.19
412.249	800.19
412.472	771.19
412.695	758.19
412.919	746.19
413.142	769.19
413.365	747.19
413.589	760.19
413.812	733.19
414.035	720.19
414.258	741.19
414.482	736.19
414.705	776.19
414.928	749.19
415.151	765.19
415.374	750.19
415.597	765.19
415.821	739.19
416.044	739.19
416.267	735.19
416.49	731.19
416.713	720.19
416.936	725.19
417.159	734.19
417.382	736.19
417.605	744.19
417.828	740.19
418.051	763.19
418.274	754.19
418.497	744.19
418.72	779.19
418.943	810.19
419.166	844.19
419.389	854.19
419.611	877.19
419.834	830.19
420.057	822.19
420.28	787.19
420.503	758.19
420.726	751.19
420.948	774.19
421.171	767.19
421.394	746.19
421.617	769.19
421.839	790.19
422.062	738.19
422.285	751.19
422.507	774.19
422.73	772.19
422.953	782.19
423.175	795.19
423.398	829.19
423.621	834.19
423.843	820.19
424.066	819.19
424.288	845.19
424.511	829.19
424.733	795.19
424.956	771.19
425.178	785.19
425.401	765.19
425.623	770.19
425.846	771.19
426.068	732.19
426.291	724.19
426.513	710.19
426.735	681.19
426.958	701.19
427.18	666.19
427.402	685.19
427.625	716.19
427.847	678.19
428.069	692.19
428.292	685.19
428.514	698.19
428.736	671.19
428.958	683.19
429.181	666.19
429.403	660.19
429.625	681.19
429.847	653.19
430.069	661.19
430.292	691.19
430.514	644.19
430.736	660.19
430.958	657.19
431.18	679.19
431.402	688.19
431.624	683.19
431.846	677.19
432.068	695.19
432.29	691.19
432.512	698.19
432.734	698.19
432.956	673.19
433.178	683.19
433.4	667.19
433.622	683.19
433.844	699.19
434.066	714.19
434.287	715.19
434.509	741.19
434.731	761.19
434.953	792.19
435.175	788.19
435.397	778.19
435.618	729.19
435.84	714.19
436.062	713.19
436.284	682.19
436.505	683.19
436.727	702.19
436.949	702.19
437.17	690.19
437.392	680.19
437.614	668.19
437.835	643.19
438.057	659.19
438.278	674.19
438.5	666.19
438.721	664.19
438.943	665.19
439.165	646.19
439.386	674.19
439.608	703.19
439.829	696.19
440.05	683.19
440.272	691.19
440.493	675.19
440.715	701.19
440.936	722.19
441.158	718.19
441.379	775.19
441.6	764.19
441.822	811.19
442.043	793.19
442.264	789.19
442.486	744.19
442.707	775.19
442.928	765.19
443.149	777.19
443.371	770.19
443.592	795.19
443.813	791.19
444.034	815.19
444.255	817.19
444.476	848.19
444.698	944.19
444.919	977.19
445.14	999.19
445.361	904.19
445.582	817.19
445.803	768.19
446.024	730.19
446.245	725.19
446.466	733.19
446.687	703.19
446.908	701.19
447.129	683.19
447.35	695.19
447.571	689.19
447.792	661.19
448.013	655.19
448.234	651.19
448.455	649.19
448.675	640.19
448.896	660.19
449.117	645.19
449.338	635.19
449.559	645.19
449.779	623.19
450	634.19
450.221	658.19
450.442	652.19
450.662	685.19
450.883	666.19
451.104	679.19
451.324	663.19
451.545	677.19
451.766	663.19
451.986	661.19
452.207	665.19
452.428	640.19
452.648	671.19
452.869	641.19
453.089	610.19
453.31	615.19
453.53	631.19
453.751	643.19
453.971	604.19
454.192	611.19
454.412	609.19
454.633	589.19
454.853	594.19
455.073	622.19
455.294	624.19
455.514	597.19
455.734	626.19
455.955	613.19
456.175	600.19
456.395	604.19
456.616	596.19
456.836	587.19
457.056	592.19
457.276	603.19
457.497	604.19
457.717	604.19
457.937	601.19
458.157	593.19
458.377	602.19
458.598	624.19
458.818	629.19
459.038	639.19
459.258	674.19
459.478	714.19
459.698	723.19
459.918	744.19
460.138	759.19
460.358	808.19
460.578	817.19
460.798	837.19
461.018	844.19
461.238	815.19
461.458	844.19
461.678	790.19
461.898	819.19
462.118	861.19
462.338	882.19
462.558	929.19
462.777	952.19
462.997	1053.19
463.217	1127.19
463.437	1151.19
463.657	998.19
463.876	951.19
464.096	966.19
464.316	960.19
464.536	983.19
464.755	937.19
464.975	900.19
465.195	879.19
465.414	805.19
465.634	783.19
465.854	739.19
466.073	725.19
466.293	706.19
466.512	709.19
466.732	689.19
466.951	669.19
467.171	670.19
467.391	677.19
467.61	690.19
467.829	690.19
468.049	672.19
468.268	657.19
468.488	640.19
468.707	635.19
468.927	664.19
469.146	662.19
469.365	643.19
469.585	662.19
469.804	675.19
470.023	695.19
470.243	687.19
470.462	706.19
470.681	711.19
470.901	707.19
471.12	693.19
471.339	651.19
471.558	650.19
471.777	649.19
471.997	636.19
472.216	664.19
472.435	656.19
472.654	629.19
472.873	609.19
473.092	610.19
473.311	614.19
473.53	612.19
473.749	621.19
473.968	603.19
474.187	620.19
474.406	630.19
474.625	632.19
474.844	640.19
475.063	602.19
475.282	621.19
475.501	641.19
475.72	655.19
475.939	634.19
476.158	651.19
476.377	652.19
476.596	657.19
476.814	652.19
477.033	657.19
477.252	660.19
477.471	676.19
477.69	700.19
477.908	726.19
478.127	737.19
478.346	754.19
478.564	779.19
478.783	779.19
479.002	799.19
479.22	836.19
479.439	796.19
479.658	773.19
479.876	771.19
480.095	773.19
480.313	839.19
480.532	867.19
480.751	879.19
480.969	797.19
481.188	769.19
481.406	764.19
481.624	738.19
481.843	728.19
482.061	700.19
482.28	703.19
482.498	717.19
482.717	708.19
482.935	716.19
483.153	717.19
483.372	723.19
483.59	740.19
483.808	707.19
484.027	708.19
484.245	744.19
484.463	729.19
484.681	748.19
484.9	728.19
485.118	732.19
485.336	740.19
485.554	762.19
485.772	775.19
485.99	760.19
486.209	766.19
486.427	760.19
486.645	777.19
486.863	781.19
487.081	770.19
487.299	761.19
487.517	791.19
487.735	771.19
487.953	757.19
488.171	775.19
488.389	763.19
488.607	737.19
488.825	727.19
489.043	747.19
489.261	740.19
489.479	756.19
489.696	740.19
489.914	746.19
490.132	765.19
490.35	737.19
490.568	749.19
490.786	769.19
491.003	778.19
491.221	767.19
491.439	751.19
491.657	800.19
491.874	783.19
492.092	786.19
492.31	788.19
492.527	789.19
492.745	779.19
492.963	758.19
493.18	759.19
493.398	788.19
493.615	794.19
493.833	811.19
494.05	804.19
494.268	811.19
494.485	816.19
494.703	799.19
494.92	801.19
495.138	798.19
495.355	803.19
495.573	809.19
495.79	802.19
496.008	825.19
496.225	827.19
496.442	814.19
496.66	863.19
496.877	823.19
497.094	858.19
497.312	843.19
497.529	865.19
497.746	902.19
497.963	915.19
498.181	955.19
498.398	980.19
498.615	1064.19
498.832	1083.19
499.049	1197.19
499.267	1300.19
499.484	1403.19
499.701	1591.19
499.918	1799.19
500.135	2068.19
500.352	2449.19
500.569	2547.19
500.786	2525.19
501.003	2285.19
501.22	2011.19
501.437	1760.19
