Data from Ni(NO3)2Standard.Agarose3%.GreenCap.LampEnergy5.5.E.O_HRD10591_14-42-23-188.txt Node
Date: Mon Jul 22 14:42:23 EDT 2019
User: cochatt
Spectrometer: HR+D1059
Trigger mode: 1
Integration Time (sec): 1.000000E-1
Scans to average: 1
Electric dark correction enabled: true
Nonlinearity correction enabled: false
Boxcar width: 0
XAxis mode: Wavelengths
Number of Pixels in Spectrum: 2048
>>>>>Begin Spectral Data<<<<<
223.165	-28.31
223.4	-28.31
223.635	-28.31
223.869	-20.31
224.104	-17.31
224.338	-14.31
224.573	-6.31
224.808	-18.31
225.042	-4.31
225.277	-13.31
225.511	1.69
225.746	8.69
225.98	6.69
226.215	12.69
226.449	19.69
226.683	15.69
226.918	16.69
227.152	40.69
227.387	23.69
227.621	29.69
227.856	28.69
228.09	44.69
228.324	54.69
228.559	64.69
228.793	50.69
229.027	50.69
229.262	61.69
229.496	64.69
229.73	67.69
229.964	69.69
230.199	75.69
230.433	72.69
230.667	83.69
230.901	82.69
231.136	77.69
231.37	73.69
231.604	71.69
231.838	67.69
232.072	59.69
232.306	71.69
232.541	97.69
232.775	74.69
233.009	83.69
233.243	80.69
233.477	77.69
233.711	81.69
233.945	71.69
234.179	73.69
234.413	84.69
234.647	81.69
234.881	72.69
235.115	80.69
235.349	72.69
235.583	76.69
235.817	84.69
236.051	83.69
236.285	74.69
236.519	81.69
236.753	73.69
236.987	71.69
237.221	67.69
237.455	72.69
237.689	85.69
237.922	75.69
238.156	79.69
238.39	76.69
238.624	78.69
238.858	68.69
239.091	73.69
239.325	66.69
239.559	74.69
239.793	70.69
240.027	72.69
240.26	78.69
240.494	75.69
240.728	73.69
240.961	84.69
241.195	76.69
241.429	86.69
241.662	85.69
241.896	79.69
242.13	74.69
242.363	64.69
242.597	86.69
242.83	68.69
243.064	75.69
243.298	96.69
243.531	77.69
243.765	84.69
243.998	67.69
244.232	68.69
244.465	77.69
244.699	79.69
244.932	80.69
245.166	72.69
245.399	74.69
245.633	63.69
245.866	63.69
246.099	72.69
246.333	68.69
246.566	83.69
246.8	78.69
247.033	78.69
247.266	83.69
247.5	75.69
247.733	80.69
247.966	74.69
248.2	81.69
248.433	85.69
248.666	85.69
248.899	87.69
249.133	85.69
249.366	75.69
249.599	68.69
249.832	92.69
250.066	92.69
250.299	82.69
250.532	84.69
250.765	85.69
250.998	80.69
251.231	77.69
251.465	83.69
251.698	70.69
251.931	75.69
252.164	83.69
252.397	92.69
252.63	77.69
252.863	75.69
253.096	74.69
253.329	87.69
253.562	72.69
253.795	92.69
254.028	84.69
254.261	81.69
254.494	77.69
254.727	75.69
254.96	73.69
255.193	70.69
255.426	74.69
255.659	82.69
255.892	71.69
256.124	86.69
256.357	86.69
256.59	90.69
256.823	92.69
257.056	92.69
257.289	85.69
257.521	87.69
257.754	79.69
257.987	69.69
258.22	87.69
258.452	79.69
258.685	77.69
258.918	76.69
259.151	83.69
259.383	85.69
259.616	81.69
259.849	83.69
260.081	84.69
260.314	89.69
260.547	84.69
260.779	85.69
261.012	68.69
261.244	80.69
261.477	90.69
261.71	69.69
261.942	68.69
262.175	72.69
262.407	92.69
262.64	90.69
262.872	91.69
263.105	81.69
263.337	80.69
263.57	83.69
263.802	90.69
264.035	95.69
264.267	85.69
264.499	88.69
264.732	95.69
264.964	85.69
265.197	88.69
265.429	86.69
265.661	74.69
265.894	88.69
266.126	75.69
266.358	92.69
266.591	86.69
266.823	68.69
267.055	71.69
267.287	84.69
267.52	76.69
267.752	79.69
267.984	89.69
268.216	85.69
268.448	81.69
268.681	90.69
268.913	78.69
269.145	81.69
269.377	97.69
269.609	76.69
269.841	71.69
270.073	80.69
270.306	89.69
270.538	72.69
270.77	87.69
271.002	91.69
271.234	77.69
271.466	84.69
271.698	78.69
271.93	89.69
272.162	86.69
272.394	72.69
272.626	90.69
272.858	83.69
273.09	84.69
273.322	85.69
273.553	70.69
273.785	79.69
274.017	79.69
274.249	77.69
274.481	84.69
274.713	76.69
274.945	97.69
275.176	71.69
275.408	83.69
275.64	89.69
275.872	82.69
276.104	87.69
276.335	83.69
276.567	86.69
276.799	81.69
277.031	86.69
277.262	85.69
277.494	83.69
277.726	86.69
277.957	83.69
278.189	72.69
278.421	74.69
278.652	89.69
278.884	91.69
279.115	76.69
279.347	76.69
279.579	100.69
279.81	84.69
280.042	92.69
280.273	97.69
280.505	82.69
280.736	89.69
280.968	76.69
281.199	83.69
281.431	75.69
281.662	79.69
281.894	91.69
282.125	94.69
282.356	96.69
282.588	80.69
282.819	79.69
283.051	85.69
283.282	89.69
283.513	95.69
283.745	89.69
283.976	86.69
284.207	95.69
284.439	82.69
284.67	94.69
284.901	77.69
285.132	93.69
285.364	94.69
285.595	80.69
285.826	73.69
286.057	75.69
286.288	74.69
286.52	97.69
286.751	84.69
286.982	80.69
287.213	91.69
287.444	76.69
287.675	90.69
287.906	76.69
288.138	82.69
288.369	86.69
288.6	96.69
288.831	84.69
289.062	100.69
289.293	94.69
289.524	83.69
289.755	75.69
289.986	84.69
290.217	85.69
290.448	78.69
290.679	96.69
290.91	93.69
291.141	94.69
291.371	90.69
291.602	76.69
291.833	87.69
292.064	76.69
292.295	88.69
292.526	81.69
292.757	80.69
292.987	96.69
293.218	83.69
293.449	91.69
293.68	96.69
293.91	88.69
294.141	71.69
294.372	92.69
294.603	98.69
294.833	79.69
295.064	82.69
295.295	74.69
295.525	92.69
295.756	95.69
295.987	98.69
296.217	94.69
296.448	79.69
296.679	76.69
296.909	81.69
297.14	98.69
297.37	87.69
297.601	86.69
297.831	84.69
298.062	108.69
298.292	97.69
298.523	79.69
298.753	88.69
298.984	91.69
299.214	79.69
299.445	95.69
299.675	76.69
299.905	63.69
300.136	78.69
300.366	80.69
300.597	84.69
300.827	92.69
301.057	92.69
301.288	94.69
301.518	97.69
301.748	95.69
301.979	87.69
302.209	77.69
302.439	82.69
302.669	91.69
302.9	75.69
303.13	84.69
303.36	73.69
303.59	85.69
303.82	81.69
304.051	84.69
304.281	96.69
304.511	83.69
304.741	82.69
304.971	89.69
305.201	86.69
305.431	94.69
305.661	85.69
305.891	89.69
306.121	75.69
306.352	92.69
306.582	81.69
306.812	84.69
307.042	87.69
307.272	78.69
307.502	76.69
307.731	91.69
307.961	82.69
308.191	81.69
308.421	89.69
308.651	92.69
308.881	88.69
309.111	91.69
309.341	84.69
309.571	90.69
309.8	76.69
310.03	85.69
310.26	82.69
310.49	85.69
310.72	87.69
310.949	102.69
311.179	80.69
311.409	85.69
311.639	94.69
311.868	84.69
312.098	86.69
312.328	89.69
312.557	88.69
312.787	84.69
313.017	96.69
313.246	89.69
313.476	91.69
313.706	93.69
313.935	84.69
314.165	102.69
314.394	83.69
314.624	82.69
314.853	91.69
315.083	85.69
315.312	84.69
315.542	92.69
315.771	90.69
316.001	86.69
316.23	84.69
316.46	74.69
316.689	76.69
316.919	82.69
317.148	91.69
317.377	92.69
317.607	96.69
317.836	101.69
318.065	93.69
318.295	92.69
318.524	99.69
318.753	90.69
318.983	98.69
319.212	92.69
319.441	87.69
319.67	94.69
319.9	79.69
320.129	73.69
320.358	77.69
320.587	88.69
320.816	96.69
321.046	79.69
321.275	90.69
321.504	88.69
321.733	99.69
321.962	76.69
322.191	80.69
322.42	77.69
322.649	87.69
322.878	86.69
323.108	87.69
323.337	92.69
323.566	82.69
323.795	88.69
324.024	81.69
324.253	89.69
324.482	71.69
324.71	90.69
324.939	83.69
325.168	88.69
325.397	85.69
325.626	85.69
325.855	88.69
326.084	95.69
326.313	89.69
326.542	82.69
326.77	83.69
326.999	86.69
327.228	89.69
327.457	101.69
327.686	87.69
327.914	85.69
328.143	93.69
328.372	92.69
328.6	100.69
328.829	71.69
329.058	81.69
329.287	84.69
329.515	97.69
329.744	87.69
329.972	93.69
330.201	81.69
330.43	86.69
330.658	83.69
330.887	90.69
331.115	83.69
331.344	85.69
331.572	96.69
331.801	83.69
332.03	91.69
332.258	86.69
332.486	78.69
332.715	88.69
332.943	87.69
333.172	84.69
333.4	90.69
333.629	96.69
333.857	92.69
334.085	82.69
334.314	98.69
334.542	81.69
334.771	85.69
334.999	91.69
335.227	92.69
335.455	87.69
335.684	96.69
335.912	97.69
336.14	90.69
336.369	88.69
336.597	83.69
336.825	92.69
337.053	96.69
337.281	89.69
337.51	84.69
337.738	87.69
337.966	89.69
338.194	86.69
338.422	78.69
338.65	83.69
338.878	82.69
339.106	84.69
339.334	95.69
339.562	93.69
339.79	101.69
340.018	96.69
340.246	80.69
340.474	82.69
340.702	75.69
340.93	90.69
341.158	86.69
341.386	69.69
341.614	89.69
341.842	85.69
342.07	89.69
342.298	78.69
342.526	81.69
342.754	91.69
342.981	94.69
343.209	74.69
343.437	93.69
343.665	89.69
343.893	102.69
344.12	87.69
344.348	90.69
344.576	79.69
344.804	85.69
345.031	68.69
345.259	90.69
345.487	101.69
345.714	73.69
345.942	89.69
346.17	86.69
346.397	71.69
346.625	91.69
346.853	92.69
347.08	83.69
347.308	81.69
347.535	84.69
347.763	93.69
347.99	87.69
348.218	75.69
348.445	91.69
348.673	107.69
348.9	82.69
349.128	85.69
349.355	88.69
349.583	91.69
349.81	85.69
350.037	78.69
350.265	91.69
350.492	85.69
350.72	95.69
350.947	82.69
351.174	80.69
351.402	91.69
351.629	92.69
351.856	97.69
352.083	83.69
352.311	86.69
352.538	81.69
352.765	89.69
352.992	92.69
353.22	76.69
353.447	74.69
353.674	92.69
353.901	100.69
354.128	102.69
354.355	84.69
354.583	86.69
354.81	105.69
355.037	83.69
355.264	90.69
355.491	79.69
355.718	83.69
355.945	95.69
356.172	93.69
356.399	87.69
356.626	85.69
356.853	94.69
357.08	96.69
357.307	89.69
357.534	78.69
357.761	95.69
357.988	83.69
358.215	84.69
358.441	77.69
358.668	82.69
358.895	67.69
359.122	78.69
359.349	72.69
359.576	84.69
359.802	84.69
360.029	67.69
360.256	88.69
360.483	99.69
360.709	70.69
360.936	95.69
361.163	81.69
361.39	91.69
361.616	90.69
361.843	82.69
362.07	101.69
362.296	95.69
362.523	100.69
362.749	76.69
362.976	80.69
363.203	81.69
363.429	70.69
363.656	82.69
363.882	88.69
364.109	105.69
364.335	84.69
364.562	91.69
364.788	81.69
365.015	92.69
365.241	86.69
365.468	99.69
365.694	83.69
365.92	76.69
366.147	70.69
366.373	71.69
366.599	74.69
366.826	77.69
367.052	85.69
367.278	75.69
367.505	77.69
367.731	85.69
367.957	79.69
368.184	79.69
368.41	70.69
368.636	87.69
368.862	79.69
369.089	86.69
369.315	75.69
369.541	89.69
369.767	78.69
369.993	81.69
370.219	85.69
370.445	91.69
370.672	76.69
370.898	97.69
371.124	82.69
371.35	92.69
371.576	81.69
371.802	84.69
372.028	82.69
372.254	84.69
372.48	91.69
372.706	67.69
372.932	84.69
373.158	93.69
373.384	85.69
373.61	80.69
373.835	81.69
374.061	85.69
374.287	82.69
374.513	83.69
374.739	84.69
374.965	87.69
375.191	85.69
375.416	82.69
375.642	73.69
375.868	91.69
376.094	93.69
376.319	75.69
376.545	75.69
376.771	77.69
376.997	86.69
377.222	94.69
377.448	79.69
377.674	99.69
377.899	76.69
378.125	82.69
378.35	87.69
378.576	82.69
378.802	87.69
379.027	82.69
379.253	81.69
379.478	84.69
379.704	88.69
379.929	81.69
380.155	80.69
380.38	84.69
380.606	89.69
380.831	84.69
381.057	97.69
381.282	92.69
381.507	77.69
381.733	85.69
381.958	76.69
382.184	89.69
382.409	81.69
382.634	86.69
382.86	80.69
383.085	65.69
383.31	98.69
383.535	94.69
383.761	92.69
383.986	76.69
384.211	81.69
384.436	102.69
384.662	77.69
384.887	73.69
385.112	77.69
385.337	77.69
385.562	92.69
385.787	87.69
386.013	87.69
386.238	79.69
386.463	81.69
386.688	82.69
386.913	76.69
387.138	72.69
387.363	92.69
387.588	84.69
387.813	80.69
388.038	78.69
388.263	99.69
388.488	84.69
388.713	95.69
388.938	81.69
389.163	98.69
389.387	93.69
389.612	70.69
389.837	74.69
390.062	91.69
390.287	92.69
390.512	77.69
390.736	84.69
390.961	78.69
391.186	104.69
391.411	72.69
391.636	77.69
391.86	97.69
392.085	95.69
392.31	83.69
392.534	76.69
392.759	89.69
392.984	72.69
393.208	75.69
393.433	80.69
393.658	88.69
393.882	102.69
394.107	85.69
394.331	82.69
394.556	82.69
394.78	91.69
395.005	93.69
395.229	88.69
395.454	80.69
395.678	79.69
395.903	85.69
396.127	81.69
396.352	91.69
396.576	82.69
396.801	87.69
397.025	84.69
397.249	79.69
397.474	87.69
397.698	74.69
397.922	87.69
398.147	89.69
398.371	80.69
398.595	90.69
398.82	87.69
399.044	86.69
399.268	79.69
399.492	70.69
399.717	67.69
399.941	85.69
400.165	92.69
400.389	81.69
400.613	87.69
400.837	86.69
401.062	75.69
401.286	95.69
401.51	90.69
401.734	77.69
401.958	91.69
402.182	104.69
402.406	83.69
402.63	89.69
402.854	87.69
403.078	83.69
403.302	76.69
403.526	81.69
403.75	92.69
403.974	87.69
404.198	86.69
404.422	89.69
404.645	84.69
404.869	72.69
405.093	84.69
405.317	88.69
405.541	90.69
405.765	85.69
405.988	87.69
406.212	78.69
406.436	76.69
406.66	81.69
406.883	83.69
407.107	84.69
407.331	81.69
407.555	96.69
407.778	96.69
408.002	81.69
408.226	85.69
408.449	77.69
408.673	92.69
408.896	78.69
409.12	81.69
409.344	80.69
409.567	83.69
409.791	85.69
410.014	78.69
410.238	83.69
410.461	76.69
410.685	90.69
410.908	77.69
411.132	83.69
411.355	87.69
411.578	81.69
411.802	91.69
412.025	83.69
412.249	69.69
412.472	80.69
412.695	83.69
412.919	73.69
413.142	91.69
413.365	75.69
413.589	71.69
413.812	84.69
414.035	79.69
414.258	83.69
414.482	84.69
414.705	68.69
414.928	83.69
415.151	83.69
415.374	72.69
415.597	82.69
415.821	82.69
416.044	71.69
416.267	85.69
416.49	78.69
416.713	70.69
416.936	72.69
417.159	88.69
417.382	84.69
417.605	72.69
417.828	75.69
418.051	101.69
418.274	86.69
418.497	73.69
418.72	96.69
418.943	73.69
419.166	87.69
419.389	87.69
419.611	84.69
419.834	69.69
420.057	85.69
420.28	90.69
420.503	90.69
420.726	87.69
420.948	78.69
421.171	88.69
421.394	88.69
421.617	89.69
421.839	84.69
422.062	88.69
422.285	77.69
422.507	87.69
422.73	61.69
422.953	81.69
423.175	74.69
423.398	79.69
423.621	93.69
423.843	69.69
424.066	78.69
424.288	74.69
424.511	91.69
424.733	76.69
424.956	82.69
425.178	79.69
425.401	74.69
425.623	81.69
425.846	78.69
426.068	87.69
426.291	90.69
426.513	76.69
426.735	72.69
426.958	83.69
427.18	85.69
427.402	103.69
427.625	87.69
427.847	79.69
428.069	99.69
428.292	98.69
428.514	82.69
428.736	80.69
428.958	79.69
429.181	98.69
429.403	84.69
429.625	89.69
429.847	84.69
430.069	89.69
430.292	91.69
430.514	78.69
430.736	77.69
430.958	84.69
431.18	87.69
431.402	89.69
431.624	78.69
431.846	74.69
432.068	71.69
432.29	81.69
432.512	86.69
432.734	76.69
432.956	70.69
433.178	87.69
433.4	88.69
433.622	77.69
433.844	101.69
434.066	80.69
434.287	77.69
434.509	74.69
434.731	76.69
434.953	80.69
435.175	90.69
435.397	89.69
435.618	83.69
435.84	84.69
436.062	88.69
436.284	85.69
436.505	77.69
436.727	81.69
436.949	71.69
437.17	78.69
437.392	86.69
437.614	92.69
437.835	84.69
438.057	101.69
438.278	82.69
438.5	92.69
438.721	89.69
438.943	79.69
439.165	87.69
439.386	82.69
439.608	90.69
439.829	74.69
440.05	81.69
440.272	88.69
440.493	78.69
440.715	72.69
440.936	66.69
441.158	75.69
441.379	87.69
441.6	76.69
441.822	74.69
442.043	84.69
442.264	71.69
442.486	71.69
442.707	88.69
442.928	80.69
443.149	92.69
443.371	88.69
443.592	77.69
443.813	80.69
444.034	100.69
444.255	99.69
444.476	83.69
444.698	91.69
444.919	78.69
445.14	198.69
445.361	146.69
445.582	92.69
445.803	90.69
446.024	75.69
446.245	79.69
446.466	86.69
446.687	82.69
446.908	88.69
447.129	89.69
447.35	71.69
447.571	71.69
447.792	75.69
448.013	81.69
448.234	86.69
448.455	90.69
448.675	97.69
448.896	84.69
449.117	79.69
449.338	96.69
449.559	85.69
449.779	81.69
450	84.69
450.221	95.69
450.442	73.69
450.662	71.69
450.883	73.69
451.104	79.69
451.324	75.69
451.545	93.69
451.766	85.69
451.986	90.69
452.207	95.69
452.428	90.69
452.648	86.69
452.869	82.69
453.089	80.69
453.31	85.69
453.53	76.69
453.751	77.69
453.971	78.69
454.192	86.69
454.412	86.69
454.633	75.69
454.853	77.69
455.073	80.69
455.294	92.69
455.514	93.69
455.734	75.69
455.955	78.69
456.175	92.69
456.395	75.69
456.616	84.69
456.836	77.69
457.056	80.69
457.276	82.69
457.497	103.69
457.717	68.69
457.937	71.69
458.157	90.69
458.377	87.69
458.598	87.69
458.818	77.69
459.038	102.69
459.258	86.69
459.478	87.69
459.698	79.69
459.918	85.69
460.138	89.69
460.358	84.69
460.578	76.69
460.798	78.69
461.018	70.69
461.238	91.69
461.458	99.69
461.678	75.69
461.898	84.69
462.118	79.69
462.338	87.69
462.558	75.69
462.777	82.69
462.997	94.69
463.217	94.69
463.437	88.69
463.657	90.69
463.876	86.69
464.096	88.69
464.316	89.69
464.536	86.69
464.755	85.69
464.975	72.69
465.195	91.69
465.414	84.69
465.634	86.69
465.854	78.69
466.073	87.69
466.293	84.69
466.512	76.69
466.732	76.69
466.951	83.69
467.171	83.69
467.391	67.69
467.61	85.69
467.829	95.69
468.049	91.69
468.268	84.69
468.488	83.69
468.707	76.69
468.927	79.69
469.146	84.69
469.365	94.69
469.585	83.69
469.804	76.69
470.023	92.69
470.243	73.69
470.462	94.69
470.681	83.69
470.901	84.69
471.12	90.69
471.339	98.69
471.558	74.69
471.777	87.69
471.997	82.69
472.216	93.69
472.435	77.69
472.654	89.69
472.873	98.69
473.092	78.69
473.311	87.69
473.53	85.69
473.749	85.69
473.968	92.69
474.187	73.69
474.406	69.69
474.625	86.69
474.844	97.69
475.063	70.69
475.282	103.69
475.501	78.69
475.72	88.69
475.939	86.69
476.158	75.69
476.377	95.69
476.596	88.69
476.814	91.69
477.033	89.69
477.252	88.69
477.471	97.69
477.69	84.69
477.908	89.69
478.127	99.69
478.346	71.69
478.564	94.69
478.783	90.69
479.002	90.69
479.22	91.69
479.439	90.69
479.658	87.69
479.876	86.69
480.095	79.69
480.313	95.69
480.532	93.69
480.751	97.69
480.969	74.69
481.188	90.69
481.406	88.69
481.624	92.69
481.843	87.69
482.061	75.69
482.28	92.69
482.498	83.69
482.717	84.69
482.935	88.69
483.153	73.69
483.372	74.69
483.59	89.69
483.808	86.69
484.027	68.69
484.245	89.69
484.463	67.69
484.681	93.69
484.9	68.69
485.118	74.69
485.336	89.69
485.554	100.69
485.772	92.69
485.99	80.69
486.209	91.69
486.427	77.69
486.645	80.69
486.863	88.69
487.081	84.69
487.299	83.69
487.517	88.69
487.735	92.69
487.953	79.69
488.171	97.69
488.389	95.69
488.607	93.69
488.825	83.69
489.043	86.69
489.261	92.69
489.479	82.69
489.696	86.69
489.914	93.69
490.132	96.69
490.35	91.69
490.568	85.69
490.786	94.69
491.003	90.69
491.221	85.69
491.439	74.69
491.657	107.69
491.874	97.69
492.092	98.69
492.31	103.69
492.527	100.69
492.745	90.69
492.963	108.69
493.18	94.69
493.398	91.69
493.615	92.69
493.833	91.69
494.05	90.69
494.268	84.69
494.485	101.69
494.703	103.69
494.92	103.69
495.138	88.69
495.355	84.69
495.573	90.69
495.79	95.69
496.008	95.69
496.225	101.69
496.442	96.69
496.66	97.69
496.877	92.69
497.094	97.69
497.312	88.69
497.529	87.69
497.746	93.69
497.963	94.69
498.181	93.69
498.398	97.69
498.615	97.69
498.832	109.69
499.049	93.69
499.267	103.69
499.484	95.69
499.701	108.69
499.918	95.69
500.135	101.69
500.352	107.69
500.569	108.69
500.786	120.69
501.003	106.69
501.22	111.69
501.437	93.69
501.654	100.69
501.871	102.69
502.088	99.69
502.305	97.69
502.522	102.69
502.739	96.69
502.956	105.69
503.172	113.69
503.389	95.69
503.606	97.69
503.823	89.69
504.04	106.69
504.256	95.69
504.473	90.69
504.69	111.69
504.907	87.69
505.123	93.69
505.34	91.69
505.557	97.69
505.773	100.69
505.99	104.69
506.207	71.69
506.423	77.69
506.64	73.69
506.856	91.69
507.073	77.69
507.289	92.69
507.506	79.69
507.722	101.69
507.939	82.69
508.155	94.69
508.372	82.69
508.588	85.69
508.805	97.69
509.021	83.69
509.238	96.69
509.454	100.69
509.67	102.69
509.887	96.69
510.103	76.69
510.319	85.69
510.536	77.69
510.752	90.69
510.968	95.69
511.184	85.69
511.401	88.69
511.617	85.69
511.833	89.69
512.049	93.69
512.265	100.69
512.481	77.69
512.698	85.69
512.914	85.69
513.13	85.69
513.346	91.69
513.562	97.69
513.778	80.69
513.994	94.69
514.21	80.69
514.426	85.69
514.642	85.69
514.858	84.69
515.074	83.69
515.29	99.69
515.506	98.69
515.721	80.69
515.937	83.69
516.153	81.69
516.369	77.69
516.585	87.69
516.801	88.69
517.016	92.69
517.232	86.69
517.448	95.69
517.664	85.69
517.879	90.69
518.095	81.69
518.311	85.69
518.527	88.69
