Data from Ni(NO3)2@0.0625M.TitratingCurve.Agarose3%dH2O.NegLispCup.LampEnergy10.LIBS07252019_HRD10591_18-12-58-569.txt Node
Date: Thu Jul 25 18:12:58 EDT 2019
User: cochatt
Spectrometer: HR+D1059
Trigger mode: 1
Integration Time (sec): 1.000000E-1
Scans to average: 1
Electric dark correction enabled: true
Nonlinearity correction enabled: false
Boxcar width: 0
XAxis mode: Wavelengths
Number of Pixels in Spectrum: 2048
>>>>>Begin Spectral Data<<<<<
223.165	-10.12
223.4	-10.12
223.635	-10.12
223.869	-22.12
224.104	-34.12
224.338	-21.12
224.573	8.88
224.808	-15.12
225.042	-28.12
225.277	0.88
225.511	1.88
225.746	5.88
225.98	13.88
226.215	6.88
226.449	8.88
226.683	25.88
226.918	33.88
227.152	23.88
227.387	33.88
227.621	35.88
227.856	54.88
228.09	50.88
228.324	46.88
228.559	36.88
228.793	69.88
229.027	98.88
229.262	105.88
229.496	125.88
229.73	121.88
229.964	126.88
230.199	122.88
230.433	133.88
230.667	128.88
230.901	128.88
231.136	146.88
231.37	140.88
231.604	136.88
231.838	154.88
232.072	140.88
232.306	162.88
232.541	163.88
232.775	156.88
233.009	171.88
233.243	162.88
233.477	150.88
233.711	159.88
233.945	142.88
234.179	160.88
234.413	146.88
234.647	166.88
234.881	166.88
235.115	158.88
235.349	163.88
235.583	155.88
235.817	149.88
236.051	168.88
236.285	177.88
236.519	158.88
236.753	172.88
236.987	173.88
237.221	164.88
237.455	161.88
237.689	167.88
237.922	173.88
238.156	169.88
238.39	181.88
238.624	160.88
238.858	188.88
239.091	190.88
239.325	184.88
239.559	182.88
239.793	204.88
240.027	201.88
240.26	189.88
240.494	187.88
240.728	198.88
240.961	192.88
241.195	205.88
241.429	200.88
241.662	199.88
241.896	204.88
242.13	198.88
242.363	210.88
242.597	205.88
242.83	209.88
243.064	197.88
243.298	201.88
243.531	223.88
243.765	215.88
243.998	227.88
244.232	214.88
244.465	207.88
244.699	213.88
244.932	227.88
245.166	228.88
245.399	233.88
245.633	235.88
245.866	236.88
246.099	233.88
246.333	243.88
246.566	243.88
246.8	236.88
247.033	252.88
247.266	236.88
247.5	243.88
247.733	264.88
247.966	244.88
248.2	269.88
248.433	253.88
248.666	250.88
248.899	262.88
249.133	269.88
249.366	264.88
249.599	265.88
249.832	244.88
250.066	275.88
250.299	282.88
250.532	282.88
250.765	270.88
250.998	278.88
251.231	264.88
251.465	281.88
251.698	306.88
251.931	280.88
252.164	294.88
252.397	284.88
252.63	280.88
252.863	310.88
253.096	301.88
253.329	295.88
253.562	269.88
253.795	288.88
254.028	270.88
254.261	301.88
254.494	297.88
254.727	299.88
254.96	297.88
255.193	299.88
255.426	293.88
255.659	317.88
255.892	326.88
256.124	304.88
256.357	336.88
256.59	316.88
256.823	292.88
257.056	328.88
257.289	318.88
257.521	319.88
257.754	299.88
257.987	345.88
258.22	321.88
258.452	342.88
258.685	318.88
258.918	339.88
259.151	338.88
259.383	336.88
259.616	317.88
259.849	309.88
260.081	326.88
260.314	329.88
260.547	342.88
260.779	337.88
261.012	329.88
261.244	353.88
261.477	372.88
261.71	340.88
261.942	366.88
262.175	356.88
262.407	353.88
262.64	354.88
262.872	372.88
263.105	380.88
263.337	349.88
263.57	374.88
263.802	349.88
264.035	368.88
264.267	361.88
264.499	378.88
264.732	357.88
264.964	375.88
265.197	388.88
265.429	378.88
265.661	386.88
265.894	378.88
266.126	379.88
266.358	372.88
266.591	393.88
266.823	378.88
267.055	397.88
267.287	401.88
267.52	397.88
267.752	397.88
267.984	388.88
268.216	389.88
268.448	389.88
268.681	416.88
268.913	399.88
269.145	415.88
269.377	400.88
269.609	404.88
269.841	417.88
270.073	399.88
270.306	408.88
270.538	406.88
270.77	406.88
271.002	409.88
271.234	409.88
271.466	418.88
271.698	416.88
271.93	425.88
272.162	408.88
272.394	432.88
272.626	405.88
272.858	424.88
273.09	439.88
273.322	446.88
273.553	427.88
273.785	425.88
274.017	438.88
274.249	432.88
274.481	443.88
274.713	419.88
274.945	430.88
275.176	433.88
275.408	460.88
275.64	441.88
275.872	448.88
276.104	456.88
276.335	480.88
276.567	460.88
276.799	429.88
277.031	444.88
277.262	470.88
277.494	459.88
277.726	456.88
277.957	466.88
278.189	480.88
278.421	448.88
278.652	451.88
278.884	458.88
279.115	468.88
279.347	476.88
279.579	485.88
279.81	476.88
280.042	473.88
280.273	497.88
280.505	481.88
280.736	494.88
280.968	475.88
281.199	492.88
281.431	485.88
281.662	514.88
281.894	513.88
282.125	481.88
282.356	511.88
282.588	510.88
282.819	536.88
283.051	498.88
283.282	525.88
283.513	518.88
283.745	493.88
283.976	509.88
284.207	543.88
284.439	530.88
284.67	504.88
284.901	534.88
285.132	525.88
285.364	540.88
285.595	521.88
285.826	532.88
286.057	542.88
286.288	546.88
286.52	521.88
286.751	542.88
286.982	554.88
287.213	562.88
287.444	564.88
287.675	540.88
287.906	563.88
288.138	564.88
288.369	547.88
288.6	589.88
288.831	553.88
289.062	548.88
289.293	537.88
289.524	556.88
289.755	544.88
289.986	566.88
290.217	568.88
290.448	566.88
290.679	589.88
290.91	556.88
291.141	545.88
291.371	570.88
291.602	588.88
291.833	589.88
292.064	604.88
292.295	559.88
292.526	558.88
292.757	587.88
292.987	572.88
293.218	558.88
293.449	576.88
293.68	590.88
293.91	596.88
294.141	568.88
294.372	609.88
294.603	581.88
294.833	585.88
295.064	596.88
295.295	603.88
295.525	592.88
295.756	580.88
295.987	586.88
296.217	610.88
296.448	618.88
296.679	580.88
296.909	585.88
297.14	603.88
297.37	642.88
297.601	617.88
297.831	597.88
298.062	621.88
298.292	599.88
298.523	632.88
298.753	653.88
298.984	644.88
299.214	628.88
299.445	618.88
299.675	629.88
299.905	608.88
300.136	615.88
300.366	619.88
300.597	637.88
300.827	676.88
301.057	653.88
301.288	646.88
301.518	675.88
301.748	641.88
301.979	636.88
302.209	663.88
302.439	649.88
302.669	640.88
302.9	655.88
303.13	638.88
303.36	637.88
303.59	613.88
303.82	646.88
304.051	645.88
304.281	638.88
304.511	651.88
304.741	637.88
304.971	674.88
305.201	646.88
305.431	654.88
305.661	634.88
305.891	629.88
306.121	646.88
306.352	645.88
306.582	643.88
306.812	617.88
307.042	662.88
307.272	635.88
307.502	634.88
307.731	640.88
307.961	593.88
308.191	630.88
308.421	630.88
308.651	626.88
308.881	633.88
309.111	629.88
309.341	623.88
309.571	641.88
309.8	634.88
310.03	626.88
310.26	642.88
310.49	645.88
310.72	647.88
310.949	632.88
311.179	632.88
311.409	639.88
311.639	653.88
311.868	651.88
312.098	652.88
312.328	657.88
312.557	670.88
312.787	660.88
313.017	651.88
313.246	649.88
313.476	680.88
313.706	678.88
313.935	722.88
314.165	676.88
314.394	712.88
314.624	676.88
314.853	670.88
315.083	678.88
315.312	690.88
315.542	675.88
315.771	698.88
316.001	706.88
316.23	662.88
316.46	685.88
316.689	657.88
316.919	662.88
317.148	676.88
317.377	637.88
317.607	667.88
317.836	690.88
318.065	672.88
318.295	658.88
318.524	704.88
318.753	660.88
318.983	655.88
319.212	663.88
319.441	670.88
319.67	670.88
319.9	669.88
320.129	658.88
320.358	660.88
320.587	677.88
320.816	686.88
321.046	669.88
321.275	691.88
321.504	660.88
321.733	676.88
321.962	681.88
322.191	684.88
322.42	698.88
322.649	683.88
322.878	704.88
323.108	678.88
323.337	683.88
323.566	685.88
323.795	681.88
324.024	671.88
324.253	691.88
324.482	705.88
324.71	702.88
324.939	698.88
325.168	708.88
325.397	712.88
325.626	726.88
325.855	715.88
326.084	729.88
326.313	746.88
326.542	747.88
326.77	748.88
326.999	741.88
327.228	737.88
327.457	755.88
327.686	724.88
327.914	726.88
328.143	738.88
328.372	724.88
328.6	728.88
328.829	740.88
329.058	762.88
329.287	740.88
329.515	777.88
329.744	766.88
329.972	770.88
330.201	748.88
330.43	754.88
330.658	788.88
330.887	779.88
331.115	770.88
331.344	802.88
331.572	793.88
331.801	811.88
332.03	802.88
332.258	852.88
332.486	881.88
332.715	902.88
332.943	914.88
333.172	981.88
333.4	1001.88
333.629	1017.88
333.857	1024.88
334.085	1027.88
334.314	980.88
334.542	987.88
334.771	960.88
334.999	962.88
335.227	949.88
335.455	948.88
335.684	950.88
335.912	924.88
336.14	900.88
336.369	898.88
336.597	890.88
336.825	899.88
337.053	898.88
337.281	868.88
337.51	876.88
337.738	864.88
337.966	841.88
338.194	835.88
338.422	831.88
338.65	804.88
338.878	812.88
339.106	808.88
339.334	797.88
339.562	814.88
339.79	793.88
340.018	776.88
340.246	784.88
340.474	763.88
340.702	783.88
340.93	796.88
341.158	799.88
341.386	802.88
341.614	771.88
341.842	789.88
342.07	789.88
342.298	776.88
342.526	783.88
342.754	795.88
342.981	790.88
343.209	782.88
343.437	826.88
343.665	874.88
343.893	954.88
344.12	986.88
344.348	933.88
344.576	865.88
344.804	857.88
345.031	809.88
345.259	825.88
345.487	803.88
345.714	800.88
345.942	779.88
346.17	790.88
346.397	774.88
346.625	763.88
346.853	777.88
347.08	757.88
347.308	756.88
347.535	788.88
347.763	791.88
347.99	786.88
348.218	792.88
348.445	788.88
348.673	754.88
348.9	758.88
349.128	764.88
349.355	741.88
349.583	753.88
349.81	752.88
350.037	717.88
350.265	764.88
350.492	745.88
350.72	719.88
350.947	732.88
351.174	734.88
351.402	710.88
351.629	734.88
351.856	744.88
352.083	730.88
352.311	724.88
352.538	745.88
352.765	727.88
352.992	719.88
353.22	740.88
353.447	707.88
353.674	725.88
353.901	717.88
354.128	716.88
354.355	733.88
354.583	724.88
354.81	725.88
355.037	757.88
355.264	746.88
355.491	737.88
355.718	736.88
355.945	764.88
356.172	736.88
356.399	733.88
356.626	722.88
356.853	717.88
357.08	732.88
357.307	750.88
357.534	727.88
357.761	742.88
357.988	736.88
358.215	744.88
358.441	731.88
358.668	743.88
358.895	729.88
359.122	719.88
359.349	747.88
359.576	760.88
359.802	747.88
360.029	706.88
360.256	746.88
360.483	713.88
360.709	716.88
360.936	747.88
361.163	744.88
361.39	723.88
361.616	716.88
361.843	733.88
362.07	723.88
362.296	718.88
362.523	738.88
362.749	748.88
362.976	718.88
363.203	733.88
363.429	728.88
363.656	745.88
363.882	712.88
364.109	718.88
364.335	713.88
364.562	727.88
364.788	710.88
365.015	709.88
365.241	719.88
365.468	736.88
365.694	739.88
365.92	721.88
366.147	734.88
366.373	736.88
366.599	722.88
366.826	724.88
367.052	727.88
367.278	733.88
367.505	738.88
367.731	728.88
367.957	746.88
368.184	732.88
368.41	745.88
368.636	724.88
368.862	765.88
369.089	766.88
369.315	744.88
369.541	757.88
369.767	748.88
369.993	757.88
370.219	774.88
370.445	765.88
370.672	782.88
370.898	762.88
371.124	770.88
371.35	786.88
371.576	771.88
371.802	818.88
372.028	803.88
372.254	820.88
372.48	828.88
372.706	828.88
372.932	829.88
373.158	810.88
373.384	795.88
373.61	782.88
373.835	801.88
374.061	784.88
374.287	820.88
374.513	826.88
374.739	847.88
374.965	894.88
375.191	898.88
375.416	861.88
375.642	860.88
375.868	828.88
376.094	816.88
376.319	830.88
376.545	801.88
376.771	808.88
376.997	821.88
377.222	799.88
377.448	820.88
377.674	789.88
377.899	795.88
378.125	809.88
378.35	782.88
378.576	761.88
378.802	780.88
379.027	821.88
379.253	786.88
379.478	784.88
379.704	775.88
379.929	808.88
380.155	800.88
380.38	785.88
380.606	774.88
380.831	768.88
381.057	794.88
381.282	794.88
381.507	787.88
381.733	812.88
381.958	802.88
382.184	792.88
382.409	820.88
382.634	856.88
382.86	821.88
383.085	825.88
383.31	864.88
383.535	885.88
383.761	902.88
383.986	910.88
384.211	912.88
384.436	933.88
384.662	962.88
384.887	964.88
385.112	960.88
385.337	964.88
385.562	964.88
385.787	994.88
386.013	983.88
386.238	983.88
386.463	958.88
386.688	962.88
386.913	953.88
387.138	934.88
387.363	952.88
387.588	934.88
387.813	962.88
388.038	927.88
388.263	974.88
388.488	964.88
388.713	951.88
388.938	946.88
389.163	926.88
389.387	921.88
389.612	891.88
389.837	939.88
390.062	944.88
390.287	906.88
390.512	924.88
390.736	965.88
390.961	972.88
391.186	969.88
391.411	1002.88
391.636	1029.88
391.86	1064.88
392.085	1100.88
392.31	1078.88
392.534	1028.88
392.759	1025.88
392.984	1028.88
393.208	1032.88
393.433	996.88
393.658	1014.88
393.882	1017.88
394.107	1034.88
394.331	1021.88
394.556	1026.88
394.78	1054.88
395.005	1035.88
395.229	1040.88
395.454	1074.88
395.678	1067.88
395.903	1082.88
396.127	1069.88
396.352	1021.88
396.576	1004.88
396.801	1013.88
397.025	1043.88
397.249	1011.88
397.474	1076.88
397.698	1063.88
397.922	1078.88
398.147	1082.88
398.371	1100.88
398.595	1129.88
398.82	1228.88
399.044	1283.88
399.268	1378.88
399.492	1696.88
399.717	1867.88
399.941	1904.88
400.165	1625.88
400.389	1467.88
400.613	1340.88
400.837	1251.88
401.062	1235.88
401.286	1225.88
401.51	1218.88
401.734	1219.88
401.958	1202.88
402.182	1228.88
402.406	1245.88
402.63	1292.88
402.854	1330.88
403.078	1329.88
403.302	1382.88
403.526	1386.88
403.75	1406.88
403.974	1430.88
404.198	1452.88
404.422	1444.88
404.645	1384.88
404.869	1420.88
405.093	1378.88
405.317	1342.88
405.541	1371.88
405.765	1332.88
405.988	1336.88
406.212	1369.88
406.436	1320.88
406.66	1373.88
406.883	1403.88
407.107	1467.88
407.331	1544.88
407.555	1605.88
407.778	1558.88
408.002	1564.88
408.226	1468.88
408.449	1435.88
408.673	1359.88
408.896	1384.88
409.12	1342.88
409.344	1356.88
409.567	1370.88
409.791	1397.88
410.014	1364.88
410.238	1379.88
410.461	1395.88
410.685	1316.88
410.908	1309.88
411.132	1251.88
411.355	1269.88
411.578	1250.88
411.802	1297.88
412.025	1255.88
412.249	1320.88
412.472	1266.88
412.695	1195.88
412.919	1206.88
413.142	1174.88
413.365	1208.88
413.589	1197.88
413.812	1168.88
414.035	1189.88
414.258	1195.88
414.482	1197.88
414.705	1263.88
414.928	1219.88
415.151	1232.88
415.374	1202.88
415.597	1204.88
415.821	1172.88
416.044	1190.88
416.267	1191.88
416.49	1166.88
416.713	1154.88
416.936	1191.88
417.159	1179.88
417.382	1167.88
417.605	1196.88
417.828	1158.88
418.051	1189.88
418.274	1217.88
418.497	1188.88
418.72	1247.88
418.943	1248.88
419.166	1284.88
419.389	1393.88
419.611	1362.88
419.834	1298.88
420.057	1246.88
420.28	1225.88
420.503	1216.88
420.726	1173.88
420.948	1154.88
421.171	1181.88
421.394	1195.88
421.617	1192.88
421.839	1149.88
422.062	1218.88
422.285	1170.88
422.507	1222.88
422.73	1213.88
422.953	1194.88
423.175	1285.88
423.398	1252.88
423.621	1278.88
423.843	1322.88
424.066	1305.88
424.288	1300.88
424.511	1261.88
424.733	1266.88
424.956	1225.88
425.178	1229.88
425.401	1209.88
425.623	1229.88
425.846	1160.88
426.068	1156.88
426.291	1127.88
426.513	1144.88
426.735	1118.88
426.958	1117.88
427.18	1085.88
427.402	1090.88
427.625	1072.88
427.847	1058.88
428.069	1052.88
428.292	1081.88
428.514	1054.88
428.736	1044.88
428.958	1067.88
429.181	1063.88
429.403	1006.88
429.625	1040.88
429.847	1049.88
430.069	1035.88
430.292	1049.88
430.514	1014.88
430.736	1048.88
430.958	1028.88
431.18	1017.88
431.402	1031.88
431.624	1031.88
431.846	1069.88
432.068	1064.88
432.29	1074.88
432.512	1056.88
432.734	1077.88
432.956	1056.88
433.178	1069.88
433.4	1062.88
433.622	1041.88
433.844	1049.88
434.066	1078.88
434.287	1068.88
434.509	1112.88
434.731	1157.88
434.953	1186.88
435.175	1197.88
435.397	1178.88
435.618	1138.88
435.84	1124.88
436.062	1076.88
436.284	1074.88
436.505	1033.88
436.727	1067.88
436.949	1054.88
437.17	1066.88
437.392	1048.88
437.614	1035.88
437.835	1023.88
438.057	1044.88
438.278	987.88
438.5	1010.88
438.721	1016.88
438.943	1013.88
439.165	1008.88
439.386	1042.88
439.608	1044.88
439.829	1066.88
440.05	1075.88
440.272	1066.88
440.493	1060.88
440.715	1108.88
440.936	1091.88
441.158	1125.88
441.379	1158.88
441.6	1200.88
441.822	1232.88
442.043	1186.88
442.264	1178.88
442.486	1156.88
442.707	1197.88
442.928	1159.88
443.149	1177.88
443.371	1194.88
443.592	1212.88
443.813	1178.88
444.034	1217.88
444.255	1250.88
444.476	1302.88
444.698	1387.88
444.919	1482.88
445.14	1516.88
445.361	1323.88
445.582	1254.88
445.803	1171.88
446.024	1144.88
446.245	1123.88
446.466	1098.88
446.687	1100.88
446.908	1063.88
447.129	1052.88
447.35	1021.88
447.571	1020.88
447.792	1026.88
448.013	1012.88
448.234	1007.88
448.455	980.88
448.675	984.88
448.896	957.88
449.117	958.88
449.338	952.88
449.559	955.88
449.779	968.88
450	946.88
450.221	952.88
450.442	991.88
450.662	988.88
450.883	984.88
451.104	1005.88
451.324	976.88
451.545	985.88
451.766	1004.88
451.986	971.88
452.207	983.88
452.428	960.88
452.648	993.88
452.869	926.88
453.089	954.88
453.31	968.88
453.53	932.88
453.751	945.88
453.971	946.88
454.192	936.88
454.412	922.88
454.633	933.88
454.853	930.88
455.073	938.88
455.294	923.88
455.514	911.88
455.734	904.88
455.955	884.88
456.175	906.88
456.395	900.88
456.616	871.88
456.836	894.88
457.056	881.88
457.276	878.88
457.497	897.88
457.717	870.88
457.937	932.88
458.157	937.88
458.377	950.88
458.598	962.88
458.818	970.88
459.038	1023.88
459.258	1032.88
459.478	1069.88
459.698	1091.88
459.918	1107.88
460.138	1183.88
460.358	1267.88
460.578	1232.88
460.798	1286.88
461.018	1302.88
461.238	1273.88
461.458	1277.88
461.678	1270.88
461.898	1244.88
462.118	1253.88
462.338	1343.88
462.558	1368.88
462.777	1453.88
462.997	1567.88
463.217	1727.88
463.437	1766.88
463.657	1590.88
463.876	1484.88
464.096	1450.88
464.316	1474.88
464.536	1482.88
464.755	1451.88
464.975	1377.88
465.195	1316.88
465.414	1216.88
465.634	1155.88
465.854	1108.88
466.073	1090.88
466.293	1063.88
466.512	1018.88
466.732	994.88
466.951	1023.88
467.171	991.88
467.391	1032.88
467.61	1011.88
467.829	1014.88
468.049	1005.88
468.268	995.88
468.488	960.88
468.707	942.88
468.927	967.88
469.146	986.88
469.365	971.88
469.585	972.88
469.804	1022.88
470.023	1028.88
470.243	1020.88
470.462	1063.88
470.681	1060.88
470.901	1053.88
471.12	1014.88
471.339	993.88
471.558	970.88
471.777	999.88
471.997	971.88
472.216	997.88
472.435	992.88
472.654	950.88
472.873	941.88
473.092	944.88
473.311	956.88
473.53	953.88
473.749	964.88
473.968	929.88
474.187	912.88
474.406	930.88
474.625	935.88
474.844	918.88
475.063	963.88
475.282	939.88
475.501	945.88
475.72	948.88
475.939	979.88
476.158	984.88
476.377	981.88
476.596	1006.88
476.814	1010.88
477.033	981.88
477.252	1031.88
477.471	1048.88
477.69	1085.88
477.908	1100.88
478.127	1102.88
478.346	1136.88
478.564	1152.88
478.783	1152.88
479.002	1224.88
479.22	1232.88
479.439	1184.88
479.658	1204.88
479.876	1188.88
480.095	1197.88
480.313	1287.88
480.532	1296.88
480.751	1314.88
480.969	1236.88
481.188	1173.88
481.406	1159.88
481.624	1123.88
481.843	1088.88
482.061	1103.88
482.28	1090.88
482.498	1063.88
482.717	1092.88
482.935	1074.88
483.153	1062.88
483.372	1075.88
483.59	1078.88
483.808	1051.88
484.027	1095.88
484.245	1100.88
484.463	1112.88
484.681	1134.88
484.9	1123.88
485.118	1115.88
485.336	1143.88
485.554	1090.88
485.772	1150.88
485.99	1138.88
486.209	1157.88
486.427	1147.88
486.645	1129.88
486.863	1142.88
487.081	1142.88
487.299	1146.88
487.517	1148.88
487.735	1163.88
487.953	1131.88
488.171	1167.88
488.389	1108.88
488.607	1142.88
488.825	1140.88
489.043	1117.88
489.261	1119.88
489.479	1130.88
489.696	1121.88
489.914	1136.88
490.132	1125.88
490.35	1124.88
490.568	1134.88
490.786	1158.88
491.003	1147.88
491.221	1140.88
491.439	1130.88
491.657	1154.88
491.874	1152.88
492.092	1149.88
492.31	1146.88
492.527	1152.88
492.745	1161.88
492.963	1138.88
493.18	1149.88
493.398	1189.88
493.615	1162.88
493.833	1203.88
494.05	1212.88
494.268	1185.88
494.485	1215.88
494.703	1218.88
494.92	1197.88
495.138	1164.88
495.355	1211.88
495.573	1225.88
495.79	1189.88
496.008	1222.88
496.225	1244.88
