Data from Ni(NO3)2Standard.Agarose3%.GreenCap.LampEnergy5.5.E.O_HRD10591_14-40-24-188.txt Node
Date: Mon Jul 22 14:40:24 EDT 2019
User: cochatt
Spectrometer: HR+D1059
Trigger mode: 1
Integration Time (sec): 1.000000E-1
Scans to average: 1
Electric dark correction enabled: true
Nonlinearity correction enabled: false
Boxcar width: 0
XAxis mode: Wavelengths
Number of Pixels in Spectrum: 2048
>>>>>Begin Spectral Data<<<<<
223.165	-21.75
223.4	-21.75
223.635	-21.75
223.869	-17.75
224.104	-19.75
224.338	-6.75
224.573	-5.75
224.808	-3.75
225.042	-2.75
225.277	-24.75
225.511	4.25
225.746	2.25
225.98	5.25
226.215	6.25
226.449	8.25
226.683	28.25
226.918	24.25
227.152	24.25
227.387	35.25
227.621	43.25
227.856	46.25
228.09	39.25
228.324	41.25
228.559	61.25
228.793	60.25
229.027	69.25
229.262	73.25
229.496	65.25
229.73	60.25
229.964	63.25
230.199	77.25
230.433	68.25
230.667	70.25
230.901	81.25
231.136	73.25
231.37	82.25
231.604	79.25
231.838	81.25
232.072	91.25
232.306	84.25
232.541	58.25
232.775	72.25
233.009	71.25
233.243	85.25
233.477	81.25
233.711	76.25
233.945	92.25
234.179	85.25
234.413	89.25
234.647	82.25
234.881	90.25
235.115	90.25
235.349	95.25
235.583	74.25
235.817	74.25
236.051	74.25
236.285	69.25
236.519	64.25
236.753	84.25
236.987	90.25
237.221	62.25
237.455	86.25
237.689	57.25
237.922	65.25
238.156	77.25
238.39	64.25
238.624	73.25
238.858	72.25
239.091	70.25
239.325	78.25
239.559	70.25
239.793	73.25
240.027	66.25
240.26	68.25
240.494	77.25
240.728	69.25
240.961	68.25
241.195	75.25
241.429	69.25
241.662	82.25
241.896	72.25
242.13	80.25
242.363	75.25
242.597	66.25
242.83	62.25
243.064	80.25
243.298	84.25
243.531	79.25
243.765	84.25
243.998	64.25
244.232	70.25
244.465	75.25
244.699	69.25
244.932	77.25
245.166	71.25
245.399	72.25
245.633	84.25
245.866	74.25
246.099	81.25
246.333	61.25
246.566	65.25
246.8	71.25
247.033	84.25
247.266	77.25
247.5	80.25
247.733	77.25
247.966	74.25
248.2	78.25
248.433	80.25
248.666	88.25
248.899	80.25
249.133	68.25
249.366	85.25
249.599	67.25
249.832	74.25
250.066	80.25
250.299	84.25
250.532	79.25
250.765	93.25
250.998	79.25
251.231	84.25
251.465	77.25
251.698	79.25
251.931	79.25
252.164	85.25
252.397	77.25
252.63	82.25
252.863	93.25
253.096	80.25
253.329	93.25
253.562	83.25
253.795	81.25
254.028	85.25
254.261	79.25
254.494	81.25
254.727	68.25
254.96	87.25
255.193	84.25
255.426	82.25
255.659	84.25
255.892	77.25
256.124	87.25
256.357	78.25
256.59	76.25
256.823	68.25
257.056	86.25
257.289	80.25
257.521	76.25
257.754	79.25
257.987	84.25
258.22	80.25
258.452	78.25
258.685	85.25
258.918	68.25
259.151	95.25
259.383	62.25
259.616	70.25
259.849	69.25
260.081	90.25
260.314	69.25
260.547	77.25
260.779	80.25
261.012	86.25
261.244	56.25
261.477	79.25
261.71	87.25
261.942	77.25
262.175	85.25
262.407	78.25
262.64	68.25
262.872	80.25
263.105	66.25
263.337	79.25
263.57	83.25
263.802	80.25
264.035	90.25
264.267	90.25
264.499	85.25
264.732	78.25
264.964	80.25
265.197	75.25
265.429	74.25
265.661	69.25
265.894	76.25
266.126	79.25
266.358	92.25
266.591	76.25
266.823	79.25
267.055	79.25
267.287	83.25
267.52	78.25
267.752	80.25
267.984	86.25
268.216	81.25
268.448	84.25
268.681	73.25
268.913	77.25
269.145	76.25
269.377	76.25
269.609	74.25
269.841	93.25
270.073	84.25
270.306	76.25
270.538	82.25
270.77	78.25
271.002	82.25
271.234	85.25
271.466	71.25
271.698	85.25
271.93	85.25
272.162	67.25
272.394	87.25
272.626	81.25
272.858	69.25
273.09	85.25
273.322	64.25
273.553	77.25
273.785	83.25
274.017	81.25
274.249	69.25
274.481	76.25
274.713	80.25
274.945	79.25
275.176	87.25
275.408	83.25
275.64	89.25
275.872	93.25
276.104	81.25
276.335	79.25
276.567	90.25
276.799	91.25
277.031	73.25
277.262	80.25
277.494	79.25
277.726	70.25
277.957	86.25
278.189	92.25
278.421	73.25
278.652	66.25
278.884	64.25
279.115	85.25
279.347	68.25
279.579	82.25
279.81	84.25
280.042	81.25
280.273	92.25
280.505	74.25
280.736	73.25
280.968	80.25
281.199	90.25
281.431	81.25
281.662	78.25
281.894	93.25
282.125	71.25
282.356	82.25
282.588	90.25
282.819	74.25
283.051	79.25
283.282	94.25
283.513	69.25
283.745	72.25
283.976	83.25
284.207	74.25
284.439	86.25
284.67	78.25
284.901	75.25
285.132	74.25
285.364	74.25
285.595	69.25
285.826	79.25
286.057	89.25
286.288	86.25
286.52	76.25
286.751	75.25
286.982	76.25
287.213	77.25
287.444	81.25
287.675	75.25
287.906	80.25
288.138	75.25
288.369	82.25
288.6	89.25
288.831	86.25
289.062	78.25
289.293	74.25
289.524	74.25
289.755	61.25
289.986	74.25
290.217	79.25
290.448	98.25
290.679	93.25
290.91	92.25
291.141	83.25
291.371	77.25
291.602	81.25
291.833	62.25
292.064	78.25
292.295	78.25
292.526	72.25
292.757	85.25
292.987	87.25
293.218	90.25
293.449	70.25
293.68	80.25
293.91	75.25
294.141	74.25
294.372	76.25
294.603	90.25
294.833	86.25
295.064	90.25
295.295	81.25
295.525	97.25
295.756	97.25
295.987	90.25
296.217	90.25
296.448	91.25
296.679	91.25
296.909	82.25
297.14	81.25
297.37	91.25
297.601	84.25
297.831	74.25
298.062	72.25
298.292	90.25
298.523	90.25
298.753	88.25
298.984	72.25
299.214	86.25
299.445	81.25
299.675	96.25
299.905	73.25
300.136	80.25
300.366	78.25
300.597	85.25
300.827	90.25
301.057	75.25
301.288	83.25
301.518	94.25
301.748	92.25
301.979	94.25
302.209	78.25
302.439	65.25
302.669	77.25
302.9	72.25
303.13	98.25
303.36	78.25
303.59	74.25
303.82	76.25
304.051	84.25
304.281	71.25
304.511	73.25
304.741	78.25
304.971	84.25
305.201	101.25
305.431	83.25
305.661	73.25
305.891	95.25
306.121	93.25
306.352	73.25
306.582	81.25
306.812	85.25
307.042	88.25
307.272	70.25
307.502	86.25
307.731	72.25
307.961	95.25
308.191	86.25
308.421	78.25
308.651	78.25
308.881	74.25
309.111	74.25
309.341	80.25
309.571	88.25
309.8	98.25
310.03	78.25
310.26	82.25
310.49	85.25
310.72	79.25
310.949	85.25
311.179	85.25
311.409	89.25
311.639	82.25
311.868	98.25
312.098	72.25
312.328	90.25
312.557	85.25
312.787	81.25
313.017	79.25
313.246	87.25
313.476	77.25
313.706	73.25
313.935	77.25
314.165	91.25
314.394	93.25
314.624	88.25
314.853	74.25
315.083	92.25
315.312	96.25
315.542	76.25
315.771	84.25
316.001	80.25
316.23	69.25
316.46	80.25
316.689	79.25
316.919	83.25
317.148	78.25
317.377	92.25
317.607	87.25
317.836	96.25
318.065	77.25
318.295	92.25
318.524	66.25
318.753	81.25
318.983	82.25
319.212	83.25
319.441	71.25
319.67	84.25
319.9	90.25
320.129	75.25
320.358	71.25
320.587	78.25
320.816	76.25
321.046	87.25
321.275	85.25
321.504	84.25
321.733	70.25
321.962	86.25
322.191	82.25
322.42	81.25
322.649	87.25
322.878	88.25
323.108	84.25
323.337	86.25
323.566	69.25
323.795	85.25
324.024	89.25
324.253	83.25
324.482	89.25
324.71	73.25
324.939	74.25
325.168	86.25
325.397	92.25
325.626	77.25
325.855	73.25
326.084	82.25
326.313	92.25
326.542	77.25
326.77	69.25
326.999	82.25
327.228	82.25
327.457	84.25
327.686	92.25
327.914	96.25
328.143	87.25
328.372	83.25
328.6	60.25
328.829	84.25
329.058	84.25
329.287	79.25
329.515	67.25
329.744	86.25
329.972	94.25
330.201	87.25
330.43	74.25
330.658	78.25
330.887	80.25
331.115	76.25
331.344	90.25
331.572	98.25
331.801	94.25
332.03	78.25
332.258	93.25
332.486	84.25
332.715	66.25
332.943	88.25
333.172	71.25
333.4	83.25
333.629	83.25
333.857	88.25
334.085	88.25
334.314	91.25
334.542	87.25
334.771	89.25
334.999	91.25
335.227	94.25
335.455	78.25
335.684	88.25
335.912	86.25
336.14	78.25
336.369	83.25
336.597	89.25
336.825	86.25
337.053	87.25
337.281	86.25
337.51	70.25
337.738	85.25
337.966	88.25
338.194	76.25
338.422	88.25
338.65	81.25
338.878	84.25
339.106	77.25
339.334	92.25
339.562	81.25
339.79	80.25
340.018	87.25
340.246	89.25
340.474	84.25
340.702	93.25
340.93	90.25
341.158	78.25
341.386	69.25
341.614	74.25
341.842	79.25
342.07	82.25
342.298	95.25
342.526	87.25
342.754	84.25
342.981	76.25
343.209	84.25
343.437	88.25
343.665	84.25
343.893	95.25
344.12	74.25
344.348	84.25
344.576	72.25
344.804	93.25
345.031	83.25
345.259	91.25
345.487	81.25
345.714	74.25
345.942	80.25
346.17	84.25
346.397	75.25
346.625	79.25
346.853	70.25
347.08	78.25
347.308	88.25
347.535	89.25
347.763	83.25
347.99	79.25
348.218	94.25
348.445	89.25
348.673	75.25
348.9	84.25
349.128	94.25
349.355	84.25
349.583	78.25
349.81	76.25
350.037	91.25
350.265	86.25
350.492	76.25
350.72	76.25
350.947	76.25
351.174	87.25
351.402	79.25
351.629	81.25
351.856	82.25
352.083	66.25
352.311	87.25
352.538	81.25
352.765	72.25
352.992	71.25
353.22	92.25
353.447	81.25
353.674	78.25
353.901	68.25
354.128	81.25
354.355	78.25
354.583	80.25
354.81	81.25
355.037	93.25
355.264	89.25
355.491	85.25
355.718	74.25
355.945	85.25
356.172	91.25
356.399	78.25
356.626	81.25
356.853	76.25
357.08	83.25
357.307	82.25
357.534	92.25
357.761	84.25
357.988	83.25
358.215	70.25
358.441	76.25
358.668	76.25
358.895	73.25
359.122	77.25
359.349	77.25
359.576	74.25
359.802	86.25
360.029	94.25
360.256	94.25
360.483	89.25
360.709	68.25
360.936	82.25
361.163	85.25
361.39	80.25
361.616	84.25
361.843	92.25
362.07	74.25
362.296	78.25
362.523	92.25
362.749	81.25
362.976	86.25
363.203	80.25
363.429	82.25
363.656	84.25
363.882	87.25
364.109	81.25
364.335	85.25
364.562	66.25
364.788	98.25
365.015	82.25
365.241	78.25
365.468	88.25
365.694	91.25
365.92	85.25
366.147	93.25
366.373	94.25
366.599	74.25
366.826	92.25
367.052	90.25
367.278	74.25
367.505	81.25
367.731	86.25
367.957	87.25
368.184	90.25
368.41	88.25
368.636	85.25
368.862	86.25
369.089	93.25
369.315	84.25
369.541	86.25
369.767	74.25
369.993	97.25
370.219	90.25
370.445	75.25
370.672	77.25
370.898	79.25
371.124	86.25
371.35	78.25
371.576	80.25
371.802	84.25
372.028	88.25
372.254	93.25
372.48	87.25
372.706	77.25
372.932	95.25
373.158	90.25
373.384	87.25
373.61	72.25
373.835	85.25
374.061	85.25
374.287	75.25
374.513	82.25
374.739	82.25
374.965	84.25
375.191	76.25
375.416	77.25
375.642	80.25
375.868	81.25
376.094	85.25
376.319	93.25
376.545	88.25
376.771	76.25
376.997	84.25
377.222	69.25
377.448	79.25
377.674	89.25
377.899	85.25
378.125	81.25
378.35	87.25
378.576	79.25
378.802	96.25
379.027	74.25
379.253	76.25
379.478	72.25
379.704	81.25
379.929	71.25
380.155	72.25
380.38	81.25
380.606	74.25
380.831	81.25
381.057	82.25
381.282	74.25
381.507	85.25
381.733	84.25
381.958	75.25
382.184	75.25
382.409	63.25
382.634	84.25
382.86	83.25
383.085	80.25
383.31	75.25
383.535	93.25
383.761	75.25
383.986	81.25
384.211	88.25
384.436	82.25
384.662	87.25
384.887	89.25
385.112	69.25
385.337	74.25
385.562	86.25
385.787	84.25
386.013	82.25
386.238	81.25
386.463	84.25
386.688	76.25
386.913	85.25
387.138	90.25
387.363	85.25
387.588	88.25
387.813	85.25
388.038	78.25
388.263	76.25
388.488	83.25
388.713	75.25
388.938	85.25
389.163	79.25
389.387	71.25
389.612	81.25
389.837	79.25
390.062	96.25
390.287	88.25
390.512	83.25
390.736	87.25
390.961	91.25
391.186	76.25
391.411	79.25
391.636	81.25
391.86	74.25
392.085	78.25
392.31	84.25
392.534	87.25
392.759	90.25
392.984	85.25
393.208	70.25
393.433	77.25
393.658	69.25
393.882	88.25
394.107	92.25
394.331	88.25
394.556	82.25
394.78	85.25
395.005	92.25
395.229	76.25
395.454	78.25
395.678	85.25
395.903	90.25
396.127	96.25
396.352	95.25
396.576	81.25
396.801	72.25
397.025	78.25
397.249	81.25
397.474	93.25
397.698	66.25
397.922	74.25
398.147	70.25
398.371	85.25
398.595	83.25
398.82	85.25
399.044	88.25
399.268	86.25
399.492	79.25
399.717	88.25
399.941	86.25
400.165	97.25
400.389	83.25
400.613	76.25
400.837	77.25
401.062	95.25
401.286	89.25
401.51	84.25
401.734	82.25
401.958	82.25
402.182	81.25
402.406	65.25
402.63	78.25
402.854	77.25
403.078	84.25
403.302	87.25
403.526	82.25
403.75	75.25
403.974	85.25
404.198	81.25
404.422	101.25
404.645	73.25
404.869	75.25
405.093	73.25
405.317	74.25
405.541	84.25
405.765	85.25
405.988	81.25
406.212	77.25
406.436	78.25
406.66	74.25
406.883	72.25
407.107	76.25
407.331	70.25
407.555	86.25
407.778	85.25
408.002	88.25
408.226	88.25
408.449	87.25
408.673	78.25
408.896	75.25
409.12	68.25
409.344	77.25
409.567	82.25
409.791	82.25
410.014	83.25
410.238	68.25
410.461	72.25
410.685	57.25
410.908	83.25
411.132	85.25
411.355	88.25
411.578	93.25
411.802	87.25
412.025	84.25
412.249	74.25
412.472	76.25
412.695	67.25
412.919	81.25
413.142	92.25
413.365	87.25
413.589	76.25
413.812	91.25
414.035	85.25
414.258	84.25
414.482	71.25
414.705	92.25
414.928	86.25
415.151	68.25
415.374	79.25
415.597	80.25
415.821	85.25
416.044	77.25
416.267	75.25
416.49	88.25
416.713	81.25
416.936	84.25
417.159	89.25
417.382	86.25
417.605	95.25
417.828	89.25
418.051	97.25
418.274	94.25
418.497	85.25
418.72	71.25
418.943	81.25
419.166	78.25
419.389	83.25
419.611	77.25
419.834	89.25
420.057	77.25
420.28	82.25
420.503	89.25
420.726	62.25
420.948	94.25
421.171	86.25
421.394	88.25
421.617	82.25
421.839	79.25
422.062	81.25
422.285	72.25
422.507	84.25
422.73	68.25
422.953	94.25
423.175	74.25
423.398	83.25
423.621	83.25
423.843	74.25
424.066	81.25
424.288	88.25
424.511	91.25
424.733	100.25
424.956	81.25
425.178	70.25
425.401	97.25
425.623	93.25
425.846	78.25
426.068	71.25
426.291	76.25
426.513	73.25
426.735	85.25
426.958	71.25
427.18	74.25
427.402	81.25
427.625	93.25
427.847	85.25
428.069	91.25
428.292	82.25
428.514	69.25
428.736	77.25
428.958	80.25
429.181	93.25
429.403	92.25
429.625	93.25
429.847	70.25
430.069	87.25
430.292	84.25
430.514	81.25
430.736	87.25
430.958	88.25
431.18	81.25
431.402	81.25
431.624	79.25
431.846	89.25
432.068	82.25
432.29	73.25
432.512	92.25
432.734	66.25
432.956	81.25
433.178	71.25
433.4	88.25
433.622	87.25
433.844	85.25
434.066	82.25
434.287	82.25
434.509	74.25
434.731	98.25
434.953	90.25
435.175	80.25
435.397	73.25
435.618	86.25
435.84	70.25
436.062	81.25
436.284	87.25
436.505	61.25
436.727	79.25
436.949	93.25
437.17	85.25
437.392	86.25
437.614	82.25
437.835	93.25
438.057	85.25
438.278	69.25
438.5	97.25
438.721	72.25
438.943	80.25
439.165	83.25
439.386	80.25
439.608	80.25
439.829	77.25
440.05	101.25
440.272	72.25
440.493	86.25
440.715	66.25
440.936	84.25
441.158	85.25
441.379	86.25
441.6	73.25
441.822	78.25
442.043	82.25
442.264	67.25
442.486	79.25
442.707	79.25
442.928	76.25
443.149	84.25
443.371	67.25
443.592	84.25
443.813	84.25
444.034	74.25
444.255	93.25
444.476	71.25
444.698	89.25
444.919	82.25
445.14	190.25
445.361	127.25
445.582	85.25
445.803	81.25
446.024	94.25
446.245	77.25
446.466	78.25
446.687	90.25
446.908	75.25
447.129	78.25
447.35	88.25
447.571	82.25
447.792	90.25
448.013	80.25
448.234	86.25
448.455	88.25
448.675	89.25
448.896	79.25
449.117	81.25
449.338	104.25
449.559	90.25
449.779	72.25
450	85.25
450.221	81.25
450.442	84.25
450.662	94.25
450.883	77.25
451.104	81.25
451.324	75.25
451.545	91.25
451.766	95.25
451.986	88.25
452.207	91.25
452.428	74.25
452.648	85.25
452.869	79.25
453.089	75.25
453.31	87.25
453.53	69.25
453.751	81.25
453.971	85.25
454.192	93.25
454.412	79.25
454.633	76.25
454.853	92.25
455.073	72.25
455.294	83.25
455.514	90.25
455.734	83.25
455.955	87.25
456.175	93.25
456.395	86.25
456.616	84.25
456.836	82.25
457.056	68.25
457.276	72.25
457.497	98.25
457.717	80.25
457.937	84.25
458.157	76.25
458.377	82.25
458.598	78.25
458.818	72.25
459.038	75.25
459.258	76.25
459.478	93.25
459.698	90.25
459.918	89.25
460.138	74.25
460.358	82.25
460.578	78.25
460.798	93.25
461.018	80.25
461.238	93.25
461.458	80.25
461.678	81.25
461.898	72.25
462.118	89.25
462.338	80.25
462.558	95.25
462.777	83.25
462.997	97.25
463.217	87.25
463.437	92.25
463.657	88.25
463.876	88.25
464.096	85.25
464.316	87.25
464.536	82.25
464.755	97.25
464.975	82.25
465.195	79.25
465.414	97.25
465.634	85.25
465.854	80.25
466.073	75.25
466.293	82.25
466.512	75.25
466.732	71.25
466.951	88.25
467.171	80.25
467.391	80.25
467.61	92.25
467.829	82.25
468.049	82.25
468.268	85.25
468.488	78.25
468.707	98.25
468.927	76.25
469.146	88.25
469.365	78.25
469.585	80.25
469.804	87.25
470.023	85.25
470.243	79.25
470.462	74.25
470.681	92.25
470.901	68.25
471.12	82.25
471.339	81.25
471.558	90.25
471.777	90.25
471.997	70.25
472.216	89.25
472.435	83.25
472.654	88.25
472.873	95.25
473.092	83.25
473.311	91.25
473.53	91.25
473.749	95.25
473.968	87.25
474.187	84.25
474.406	73.25
474.625	84.25
474.844	94.25
475.063	84.25
475.282	71.25
475.501	70.25
475.72	83.25
475.939	73.25
476.158	94.25
476.377	97.25
476.596	82.25
476.814	73.25
477.033	87.25
477.252	74.25
477.471	72.25
477.69	91.25
477.908	84.25
478.127	92.25
478.346	89.25
478.564	84.25
478.783	105.25
479.002	91.25
479.22	91.25
479.439	78.25
479.658	88.25
479.876	68.25
480.095	92.25
480.313	93.25
480.532	89.25
480.751	94.25
480.969	87.25
481.188	85.25
481.406	90.25
481.624	103.25
481.843	69.25
482.061	74.25
482.28	77.25
482.498	83.25
482.717	85.25
482.935	101.25
483.153	93.25
483.372	88.25
483.59	80.25
483.808	79.25
484.027	77.25
484.245	90.25
484.463	80.25
484.681	96.25
484.9	93.25
485.118	88.25
485.336	78.25
485.554	88.25
485.772	76.25
485.99	77.25
486.209	90.25
486.427	100.25
486.645	94.25
486.863	96.25
487.081	88.25
487.299	86.25
487.517	92.25
487.735	73.25
487.953	84.25
488.171	89.25
488.389	82.25
488.607	101.25
488.825	94.25
489.043	90.25
489.261	79.25
489.479	87.25
489.696	83.25
489.914	93.25
490.132	82.25
490.35	97.25
490.568	77.25
490.786	93.25
491.003	96.25
491.221	82.25
491.439	96.25
491.657	84.25
491.874	84.25
492.092	88.25
492.31	92.25
492.527	82.25
492.745	88.25
492.963	84.25
493.18	100.25
493.398	112.25
493.615	94.25
493.833	101.25
494.05	93.25
494.268	80.25
494.485	86.25
494.703	100.25
494.92	112.25
495.138	111.25
495.355	101.25
495.573	106.25
495.79	80.25
496.008	80.25
496.225	95.25
496.442	93.25
496.66	105.25
496.877	86.25
497.094	97.25
497.312	98.25
497.529	94.25
497.746	90.25
497.963	85.25
498.181	101.25
498.398	104.25
498.615	107.25
498.832	100.25
499.049	98.25
499.267	89.25
499.484	111.25
499.701	102.25
499.918	108.25
500.135	118.25
500.352	109.25
500.569	119.25
500.786	116.25
501.003	121.25
501.22	100.25
501.437	98.25
501.654	99.25
501.871	98.25
502.088	104.25
502.305	95.25
502.522	89.25
502.739	95.25
502.956	100.25
503.172	90.25
503.389	79.25
503.606	87.25
503.823	95.25
504.04	92.25
504.256	97.25
504.473	98.25
504.69	80.25
504.907	112.25
505.123	113.25
505.34	89.25
505.557	101.25
505.773	89.25
505.99	85.25
506.207	85.25
506.423	102.25
506.64	89.25
506.856	65.25
507.073	90.25
507.289	87.25
507.506	86.25
507.722	99.25
507.939	103.25
508.155	83.25
508.372	78.25
508.588	100.25
508.805	93.25
509.021	90.25
509.238	101.25
509.454	85.25
509.67	94.25
509.887	84.25
510.103	79.25
510.319	94.25
510.536	108.25
510.752	75.25
510.968	92.25
511.184	92.25
511.401	84.25
511.617	85.25
511.833	80.25
512.049	72.25
512.265	83.25
512.481	98.25
512.698	73.25
512.914	96.25
513.13	90.25
513.346	80.25
513.562	103.25
513.778	110.25
513.994	89.25
514.21	90.25
514.426	85.25
514.642	96.25
514.858	91.25
515.074	92.25
515.29	94.25
515.506	98.25
515.721	80.25
515.937	88.25
516.153	92.25
516.369	94.25
516.585	85.25
516.801	78.25
517.016	104.25
517.232	85.25
517.448	94.25
517.664	85.25
517.879	84.25
518.095	103.25
518.311	92.25
518.527	89.25
518.742	88.25
518.958	108.25
