Data from Ni(NO3)2@0.125M.TitratingCurve.Agarose3%dH2O.NegLispCup.LampEnergy10.LIBS07252019_HRD10591_18-09-38-567.txt Node
Date: Thu Jul 25 18:09:38 EDT 2019
User: cochatt
Spectrometer: HR+D1059
Trigger mode: 1
Integration Time (sec): 1.000000E-1
Scans to average: 1
Electric dark correction enabled: true
Nonlinearity correction enabled: false
Boxcar width: 0
XAxis mode: Wavelengths
Number of Pixels in Spectrum: 2048
>>>>>Begin Spectral Data<<<<<
223.165	-3.44
223.4	-3.44
223.635	-3.44
223.869	-23.44
224.104	-10.44
224.338	-10.44
224.573	2.56
224.808	-2.44
225.042	-7.44
225.277	-11.44
225.511	-15.44
225.746	4.56
225.98	4.56
226.215	5.56
226.449	1.56
226.683	18.56
226.918	19.56
227.152	27.56
227.387	38.56
227.621	17.56
227.856	51.56
228.09	31.56
228.324	58.56
228.559	63.56
228.793	60.56
229.027	68.56
229.262	76.56
229.496	78.56
229.73	102.56
229.964	103.56
230.199	106.56
230.433	106.56
230.667	115.56
230.901	89.56
231.136	93.56
231.37	93.56
231.604	108.56
231.838	108.56
232.072	126.56
232.306	129.56
232.541	117.56
232.775	113.56
233.009	124.56
233.243	108.56
233.477	121.56
233.711	117.56
233.945	112.56
234.179	122.56
234.413	119.56
234.647	110.56
234.881	108.56
235.115	129.56
235.349	116.56
235.583	118.56
235.817	119.56
236.051	116.56
236.285	106.56
236.519	121.56
236.753	107.56
236.987	113.56
237.221	121.56
237.455	133.56
237.689	111.56
237.922	131.56
238.156	130.56
238.39	138.56
238.624	140.56
238.858	147.56
239.091	125.56
239.325	123.56
239.559	111.56
239.793	119.56
240.027	127.56
240.26	148.56
240.494	123.56
240.728	129.56
240.961	132.56
241.195	137.56
241.429	135.56
241.662	129.56
241.896	137.56
242.13	128.56
242.363	124.56
242.597	140.56
242.83	137.56
243.064	157.56
243.298	139.56
243.531	146.56
243.765	150.56
243.998	143.56
244.232	148.56
244.465	144.56
244.699	167.56
244.932	147.56
245.166	153.56
245.399	168.56
245.633	156.56
245.866	162.56
246.099	149.56
246.333	149.56
246.566	137.56
246.8	159.56
247.033	156.56
247.266	159.56
247.5	150.56
247.733	170.56
247.966	149.56
248.2	162.56
248.433	175.56
248.666	156.56
248.899	169.56
249.133	171.56
249.366	150.56
249.599	160.56
249.832	164.56
250.066	181.56
250.299	162.56
250.532	167.56
250.765	189.56
250.998	181.56
251.231	183.56
251.465	188.56
251.698	178.56
251.931	177.56
252.164	190.56
252.397	171.56
252.63	179.56
252.863	189.56
253.096	188.56
253.329	178.56
253.562	181.56
253.795	187.56
254.028	197.56
254.261	199.56
254.494	192.56
254.727	194.56
254.96	178.56
255.193	179.56
255.426	191.56
255.659	180.56
255.892	198.56
256.124	206.56
256.357	193.56
256.59	193.56
256.823	189.56
257.056	194.56
257.289	201.56
257.521	195.56
257.754	199.56
257.987	187.56
258.22	201.56
258.452	183.56
258.685	219.56
258.918	209.56
259.151	205.56
259.383	202.56
259.616	205.56
259.849	206.56
260.081	212.56
260.314	233.56
260.547	205.56
260.779	219.56
261.012	207.56
261.244	209.56
261.477	230.56
261.71	242.56
261.942	217.56
262.175	221.56
262.407	224.56
262.64	214.56
262.872	205.56
263.105	222.56
263.337	219.56
263.57	222.56
263.802	225.56
264.035	222.56
264.267	223.56
264.499	224.56
264.732	221.56
264.964	225.56
265.197	229.56
265.429	230.56
265.661	214.56
265.894	240.56
266.126	243.56
266.358	233.56
266.591	233.56
266.823	237.56
267.055	218.56
267.287	226.56
267.52	241.56
267.752	224.56
267.984	249.56
268.216	247.56
268.448	245.56
268.681	246.56
268.913	258.56
269.145	245.56
269.377	248.56
269.609	245.56
269.841	255.56
270.073	245.56
270.306	260.56
270.538	244.56
270.77	253.56
271.002	242.56
271.234	234.56
271.466	251.56
271.698	265.56
271.93	257.56
272.162	255.56
272.394	274.56
272.626	264.56
272.858	266.56
273.09	250.56
273.322	255.56
273.553	261.56
273.785	249.56
274.017	244.56
274.249	249.56
274.481	258.56
274.713	270.56
274.945	257.56
275.176	271.56
275.408	274.56
275.64	263.56
275.872	271.56
276.104	271.56
276.335	255.56
276.567	266.56
276.799	267.56
277.031	278.56
277.262	288.56
277.494	287.56
277.726	295.56
277.957	279.56
278.189	286.56
278.421	268.56
278.652	277.56
278.884	301.56
279.115	296.56
279.347	273.56
279.579	283.56
279.81	285.56
280.042	281.56
280.273	287.56
280.505	291.56
280.736	284.56
280.968	304.56
281.199	300.56
281.431	287.56
281.662	298.56
281.894	295.56
282.125	307.56
282.356	321.56
282.588	294.56
282.819	299.56
283.051	304.56
283.282	319.56
283.513	316.56
283.745	305.56
283.976	309.56
284.207	325.56
284.439	323.56
284.67	306.56
284.901	333.56
285.132	324.56
285.364	330.56
285.595	303.56
285.826	316.56
286.057	323.56
286.288	320.56
286.52	312.56
286.751	312.56
286.982	327.56
287.213	326.56
287.444	306.56
287.675	343.56
287.906	335.56
288.138	331.56
288.369	326.56
288.6	323.56
288.831	325.56
289.062	352.56
289.293	348.56
289.524	348.56
289.755	323.56
289.986	327.56
290.217	334.56
290.448	335.56
290.679	337.56
290.91	341.56
291.141	360.56
291.371	360.56
291.602	340.56
291.833	343.56
292.064	351.56
292.295	315.56
292.526	351.56
292.757	341.56
292.987	351.56
293.218	341.56
293.449	357.56
293.68	344.56
293.91	338.56
294.141	332.56
294.372	365.56
294.603	373.56
294.833	337.56
295.064	349.56
295.295	346.56
295.525	345.56
295.756	335.56
295.987	330.56
296.217	379.56
296.448	362.56
296.679	387.56
296.909	367.56
297.14	351.56
297.37	367.56
297.601	344.56
297.831	348.56
298.062	380.56
298.292	355.56
298.523	386.56
298.753	379.56
298.984	362.56
299.214	370.56
299.445	363.56
299.675	368.56
299.905	356.56
300.136	371.56
300.366	390.56
300.597	375.56
300.827	386.56
301.057	392.56
301.288	397.56
301.518	377.56
301.748	385.56
301.979	394.56
302.209	395.56
302.439	376.56
302.669	383.56
302.9	383.56
303.13	372.56
303.36	397.56
303.59	387.56
303.82	402.56
304.051	379.56
304.281	386.56
304.511	381.56
304.741	385.56
304.971	405.56
305.201	406.56
305.431	382.56
305.661	390.56
305.891	392.56
306.121	373.56
306.352	373.56
306.582	365.56
306.812	381.56
307.042	361.56
307.272	365.56
307.502	385.56
307.731	371.56
307.961	366.56
308.191	377.56
308.421	376.56
308.651	380.56
308.881	388.56
309.111	369.56
309.341	369.56
309.571	371.56
309.8	374.56
310.03	368.56
310.26	396.56
310.49	398.56
310.72	379.56
310.949	372.56
311.179	379.56
311.409	374.56
311.639	381.56
311.868	409.56
312.098	385.56
312.328	388.56
312.557	412.56
312.787	398.56
313.017	380.56
313.246	387.56
313.476	409.56
313.706	401.56
313.935	409.56
314.165	425.56
314.394	407.56
314.624	415.56
314.853	406.56
315.083	413.56
315.312	419.56
315.542	402.56
315.771	403.56
316.001	410.56
316.23	417.56
316.46	412.56
316.689	408.56
316.919	409.56
317.148	394.56
317.377	409.56
317.607	412.56
317.836	400.56
318.065	404.56
318.295	402.56
318.524	417.56
318.753	392.56
318.983	385.56
319.212	400.56
319.441	388.56
319.67	420.56
319.9	420.56
320.129	406.56
320.358	402.56
320.587	409.56
320.816	424.56
321.046	442.56
321.275	409.56
321.504	401.56
321.733	419.56
321.962	432.56
322.191	406.56
322.42	417.56
322.649	413.56
322.878	429.56
323.108	418.56
323.337	433.56
323.566	429.56
323.795	425.56
324.024	421.56
324.253	434.56
324.482	418.56
324.71	443.56
324.939	428.56
325.168	438.56
325.397	435.56
325.626	419.56
325.855	441.56
326.084	423.56
326.313	453.56
326.542	463.56
326.77	477.56
326.999	442.56
327.228	443.56
327.457	455.56
327.686	448.56
327.914	467.56
328.143	447.56
328.372	424.56
328.6	457.56
328.829	452.56
329.058	457.56
329.287	441.56
329.515	472.56
329.744	441.56
329.972	469.56
330.201	449.56
330.43	457.56
330.658	439.56
330.887	488.56
331.115	480.56
331.344	480.56
331.572	499.56
331.801	477.56
332.03	522.56
332.258	512.56
332.486	495.56
332.715	554.56
332.943	567.56
333.172	575.56
333.4	622.56
333.629	613.56
333.857	618.56
334.085	615.56
334.314	594.56
334.542	587.56
334.771	586.56
334.999	590.56
335.227	593.56
335.455	570.56
335.684	589.56
335.912	571.56
336.14	537.56
336.369	547.56
336.597	523.56
336.825	530.56
337.053	536.56
337.281	545.56
337.51	521.56
337.738	525.56
337.966	514.56
338.194	507.56
338.422	500.56
338.65	475.56
338.878	515.56
339.106	504.56
339.334	498.56
339.562	498.56
339.79	482.56
340.018	473.56
340.246	487.56
340.474	475.56
340.702	503.56
340.93	471.56
341.158	495.56
341.386	495.56
341.614	478.56
341.842	492.56
342.07	472.56
342.298	473.56
342.526	501.56
342.754	469.56
342.981	474.56
343.209	503.56
343.437	514.56
343.665	554.56
343.893	572.56
344.12	609.56
344.348	565.56
344.576	518.56
344.804	521.56
345.031	496.56
345.259	507.56
345.487	503.56
345.714	470.56
345.942	492.56
346.17	491.56
346.397	482.56
346.625	461.56
346.853	456.56
347.08	480.56
347.308	468.56
347.535	487.56
347.763	470.56
347.99	492.56
348.218	491.56
348.445	495.56
348.673	456.56
348.9	498.56
349.128	465.56
349.355	476.56
349.583	458.56
349.81	449.56
350.037	444.56
350.265	440.56
350.492	451.56
350.72	459.56
350.947	470.56
351.174	451.56
351.402	474.56
351.629	458.56
351.856	460.56
352.083	447.56
352.311	432.56
352.538	469.56
352.765	483.56
352.992	453.56
353.22	455.56
353.447	464.56
353.674	459.56
353.901	458.56
354.128	452.56
354.355	439.56
354.583	457.56
354.81	450.56
355.037	465.56
355.264	443.56
355.491	465.56
355.718	473.56
355.945	476.56
356.172	466.56
356.399	456.56
356.626	480.56
356.853	490.56
357.08	458.56
357.307	483.56
357.534	450.56
357.761	444.56
357.988	445.56
358.215	471.56
358.441	443.56
358.668	440.56
358.895	470.56
359.122	454.56
359.349	453.56
359.576	464.56
359.802	458.56
360.029	449.56
360.256	451.56
360.483	451.56
360.709	441.56
360.936	461.56
361.163	452.56
361.39	443.56
361.616	467.56
361.843	478.56
362.07	460.56
362.296	467.56
362.523	442.56
362.749	462.56
362.976	458.56
363.203	449.56
363.429	455.56
363.656	463.56
363.882	462.56
364.109	447.56
364.335	454.56
364.562	444.56
364.788	446.56
365.015	463.56
365.241	475.56
365.468	435.56
365.694	450.56
365.92	453.56
366.147	437.56
366.373	445.56
366.599	441.56
366.826	459.56
367.052	465.56
367.278	466.56
367.505	464.56
367.731	471.56
367.957	464.56
368.184	460.56
368.41	455.56
368.636	440.56
368.862	462.56
369.089	466.56
369.315	461.56
369.541	469.56
369.767	462.56
369.993	502.56
370.219	496.56
370.445	476.56
370.672	466.56
370.898	471.56
371.124	504.56
371.35	479.56
371.576	484.56
371.802	487.56
372.028	471.56
372.254	508.56
372.48	521.56
372.706	515.56
372.932	511.56
373.158	510.56
373.384	516.56
373.61	511.56
373.835	517.56
374.061	495.56
374.287	505.56
374.513	514.56
374.739	527.56
374.965	533.56
375.191	533.56
375.416	527.56
375.642	520.56
375.868	511.56
376.094	525.56
376.319	500.56
376.545	477.56
376.771	514.56
376.997	493.56
377.222	500.56
377.448	501.56
377.674	487.56
377.899	484.56
378.125	497.56
378.35	482.56
378.576	488.56
378.802	491.56
379.027	481.56
379.253	484.56
379.478	473.56
379.704	476.56
379.929	490.56
380.155	488.56
380.38	494.56
380.606	498.56
380.831	509.56
381.057	480.56
381.282	481.56
381.507	495.56
381.733	499.56
381.958	492.56
382.184	508.56
382.409	530.56
382.634	520.56
382.86	525.56
383.085	529.56
383.31	506.56
383.535	543.56
383.761	529.56
383.986	561.56
384.211	572.56
384.436	580.56
384.662	582.56
384.887	573.56
385.112	576.56
385.337	576.56
385.562	594.56
385.787	563.56
386.013	579.56
386.238	567.56
386.463	578.56
386.688	604.56
386.913	591.56
387.138	567.56
387.363	614.56
387.588	584.56
387.813	579.56
388.038	593.56
388.263	573.56
388.488	601.56
388.713	597.56
388.938	572.56
389.163	547.56
389.387	551.56
389.612	552.56
389.837	600.56
390.062	576.56
390.287	561.56
390.512	569.56
390.736	587.56
390.961	603.56
391.186	594.56
391.411	616.56
391.636	634.56
391.86	646.56
392.085	665.56
392.31	647.56
392.534	612.56
392.759	611.56
392.984	624.56
393.208	605.56
393.433	622.56
393.658	631.56
393.882	620.56
394.107	629.56
394.331	624.56
394.556	613.56
394.78	632.56
395.005	657.56
395.229	637.56
395.454	649.56
395.678	635.56
395.903	655.56
396.127	641.56
396.352	624.56
396.576	609.56
396.801	615.56
397.025	624.56
397.249	637.56
397.474	677.56
397.698	651.56
397.922	671.56
398.147	637.56
398.371	644.56
398.595	680.56
398.82	704.56
399.044	785.56
399.268	851.56
399.492	986.56
399.717	1123.56
399.941	1071.56
400.165	937.56
400.389	834.56
400.613	781.56
400.837	742.56
401.062	743.56
401.286	734.56
401.51	735.56
401.734	727.56
401.958	738.56
402.182	726.56
402.406	742.56
402.63	728.56
402.854	775.56
403.078	793.56
403.302	792.56
403.526	789.56
403.75	813.56
403.974	861.56
404.198	851.56
404.422	855.56
404.645	835.56
404.869	819.56
405.093	815.56
405.317	803.56
405.541	785.56
405.765	803.56
405.988	773.56
406.212	795.56
406.436	775.56
406.66	793.56
406.883	845.56
407.107	882.56
407.331	889.56
407.555	936.56
407.778	916.56
408.002	905.56
408.226	871.56
408.449	886.56
408.673	823.56
408.896	806.56
409.12	812.56
409.344	821.56
409.567	825.56
409.791	814.56
410.014	837.56
410.238	828.56
410.461	826.56
410.685	812.56
410.908	769.56
411.132	782.56
411.355	775.56
411.578	744.56
411.802	763.56
412.025	777.56
412.249	748.56
412.472	755.56
412.695	721.56
412.919	718.56
413.142	732.56
413.365	731.56
413.589	743.56
413.812	715.56
414.035	729.56
414.258	716.56
414.482	733.56
414.705	756.56
414.928	770.56
415.151	715.56
415.374	765.56
415.597	732.56
415.821	719.56
416.044	729.56
416.267	698.56
416.49	737.56
416.713	700.56
416.936	714.56
417.159	726.56
417.382	726.56
417.605	716.56
417.828	723.56
418.051	715.56
418.274	728.56
418.497	725.56
418.72	765.56
418.943	741.56
419.166	785.56
419.389	829.56
419.611	822.56
419.834	794.56
420.057	755.56
420.28	740.56
420.503	710.56
420.726	733.56
420.948	743.56
421.171	715.56
421.394	712.56
421.617	716.56
421.839	719.56
422.062	734.56
422.285	742.56
422.507	740.56
422.73	740.56
422.953	748.56
423.175	771.56
423.398	758.56
423.621	795.56
423.843	786.56
424.066	806.56
424.288	771.56
424.511	785.56
424.733	741.56
424.956	740.56
425.178	740.56
425.401	727.56
425.623	732.56
425.846	696.56
426.068	708.56
426.291	689.56
426.513	673.56
426.735	685.56
426.958	652.56
427.18	636.56
427.402	660.56
427.625	697.56
427.847	641.56
428.069	657.56
428.292	656.56
428.514	640.56
428.736	651.56
428.958	663.56
429.181	637.56
429.403	628.56
429.625	628.56
429.847	623.56
430.069	637.56
430.292	660.56
430.514	639.56
430.736	639.56
430.958	636.56
431.18	635.56
431.402	640.56
431.624	643.56
431.846	654.56
432.068	637.56
432.29	665.56
432.512	618.56
432.734	651.56
432.956	651.56
433.178	663.56
433.4	637.56
433.622	681.56
433.844	673.56
434.066	668.56
434.287	697.56
434.509	682.56
434.731	713.56
434.953	735.56
435.175	748.56
435.397	721.56
435.618	714.56
435.84	693.56
436.062	658.56
436.284	677.56
436.505	661.56
436.727	690.56
436.949	672.56
437.17	654.56
437.392	665.56
437.614	638.56
437.835	637.56
438.057	634.56
438.278	608.56
438.5	630.56
438.721	638.56
438.943	631.56
439.165	637.56
439.386	661.56
439.608	672.56
439.829	652.56
440.05	652.56
440.272	673.56
440.493	679.56
440.715	689.56
440.936	717.56
441.158	694.56
441.379	748.56
441.6	752.56
441.822	753.56
442.043	735.56
442.264	732.56
442.486	728.56
442.707	726.56
442.928	756.56
443.149	734.56
443.371	724.56
443.592	753.56
443.813	771.56
444.034	742.56
444.255	811.56
444.476	834.56
444.698	892.56
444.919	895.56
445.14	962.56
445.361	834.56
445.582	759.56
445.803	709.56
446.024	711.56
446.245	679.56
446.466	680.56
446.687	700.56
446.908	681.56
447.129	667.56
447.35	643.56
447.571	661.56
447.792	629.56
448.013	648.56
448.234	620.56
448.455	620.56
448.675	626.56
448.896	620.56
449.117	610.56
449.338	618.56
449.559	605.56
449.779	601.56
450	619.56
450.221	637.56
450.442	607.56
450.662	619.56
450.883	630.56
451.104	650.56
451.324	641.56
451.545	633.56
451.766	636.56
451.986	617.56
452.207	595.56
452.428	626.56
452.648	607.56
452.869	600.56
453.089	596.56
453.31	605.56
453.53	584.56
453.751	594.56
453.971	565.56
454.192	580.56
454.412	581.56
454.633	586.56
454.853	556.56
455.073	562.56
455.294	586.56
455.514	582.56
455.734	589.56
455.955	556.56
456.175	584.56
456.395	561.56
456.616	544.56
456.836	582.56
457.056	573.56
457.276	564.56
457.497	568.56
457.717	568.56
457.937	550.56
458.157	570.56
458.377	597.56
458.598	591.56
458.818	590.56
459.038	612.56
459.258	640.56
459.478	674.56
459.698	688.56
459.918	667.56
460.138	729.56
460.358	769.56
460.578	778.56
460.798	783.56
461.018	817.56
461.238	776.56
461.458	762.56
461.678	764.56
461.898	776.56
462.118	809.56
462.338	829.56
462.558	821.56
462.777	856.56
462.997	959.56
463.217	1068.56
463.437	1055.56
463.657	949.56
463.876	890.56
464.096	912.56
464.316	886.56
464.536	876.56
464.755	861.56
464.975	841.56
465.195	767.56
465.414	748.56
465.634	705.56
465.854	701.56
466.073	666.56
466.293	661.56
466.512	657.56
466.732	656.56
466.951	653.56
467.171	632.56
467.391	635.56
467.61	635.56
467.829	618.56
468.049	641.56
468.268	624.56
468.488	609.56
468.707	617.56
468.927	615.56
469.146	621.56
469.365	618.56
469.585	661.56
469.804	623.56
470.023	641.56
470.243	660.56
470.462	661.56
470.681	672.56
470.901	664.56
471.12	669.56
471.339	635.56
471.558	645.56
471.777	587.56
471.997	612.56
472.216	613.56
472.435	594.56
472.654	597.56
472.873	586.56
473.092	606.56
473.311	591.56
473.53	594.56
473.749	590.56
473.968	636.56
474.187	607.56
474.406	561.56
474.625	598.56
474.844	587.56
475.063	577.56
475.282	604.56
475.501	605.56
475.72	583.56
475.939	598.56
476.158	591.56
476.377	617.56
476.596	605.56
476.814	623.56
477.033	597.56
477.252	612.56
477.471	649.56
477.69	683.56
477.908	694.56
478.127	715.56
478.346	717.56
478.564	717.56
478.783	711.56
479.002	747.56
479.22	739.56
479.439	737.56
479.658	740.56
479.876	746.56
480.095	741.56
480.313	785.56
480.532	783.56
480.751	773.56
480.969	740.56
481.188	721.56
481.406	704.56
481.624	693.56
481.843	683.56
482.061	659.56
482.28	653.56
482.498	682.56
482.717	687.56
482.935	663.56
483.153	684.56
483.372	663.56
483.59	669.56
483.808	698.56
484.027	663.56
484.245	689.56
484.463	688.56
484.681	691.56
484.9	695.56
485.118	696.56
485.336	705.56
485.554	691.56
485.772	702.56
485.99	719.56
486.209	703.56
486.427	716.56
486.645	704.56
486.863	725.56
487.081	703.56
487.299	697.56
487.517	710.56
487.735	717.56
487.953	719.56
488.171	718.56
488.389	713.56
488.607	692.56
488.825	682.56
489.043	677.56
489.261	683.56
489.479	694.56
489.696	719.56
489.914	711.56
490.132	699.56
490.35	720.56
490.568	701.56
490.786	687.56
491.003	727.56
491.221	737.56
491.439	737.56
491.657	730.56
491.874	713.56
492.092	727.56
492.31	740.56
492.527	771.56
492.745	737.56
492.963	732.56
493.18	735.56
493.398	733.56
493.615	753.56
493.833	741.56
494.05	758.56
494.268	746.56
494.485	744.56
494.703	786.56
494.92	757.56
495.138	744.56
495.355	755.56
495.573	740.56
495.79	753.56
496.008	790.56
496.225	771.56
496.442	778.56
496.66	779.56
496.877	790.56
497.094	811.56
497.312	808.56
497.529	819.56
497.746	851.56
497.963	852.56
498.181	888.56
498.398	936.56
498.615	988.56
498.832	1027.56
499.049	1121.56
499.267	1223.56
499.484	1322.56
499.701	1465.56
499.918	1685.56
500.135	1923.56
500.352	2138.56
500.569	2231.56
500.786	2248.56
501.003	2051.56
501.22	1804.56
501.437	1577.56
