Data from Ni(NO3)2Standard.Agarose3%.GreenCap.LampEnergy5.5.E.O_HRD10591_14-41-07-189.txt Node
Date: Mon Jul 22 14:41:07 EDT 2019
User: cochatt
Spectrometer: HR+D1059
Trigger mode: 1
Integration Time (sec): 1.000000E-1
Scans to average: 1
Electric dark correction enabled: true
Nonlinearity correction enabled: false
Boxcar width: 0
XAxis mode: Wavelengths
Number of Pixels in Spectrum: 2048
>>>>>Begin Spectral Data<<<<<
223.165	-10.56
223.4	-10.56
223.635	-10.56
223.869	-17.56
224.104	-15.56
224.338	-13.56
224.573	-25.56
224.808	-15.56
225.042	-18.56
225.277	-11.56
225.511	1.44
225.746	2.44
225.98	-0.56
226.215	18.44
226.449	19.44
226.683	25.44
226.918	31.44
227.152	30.44
227.387	26.44
227.621	43.44
227.856	69.44
228.09	64.44
228.324	58.44
228.559	54.44
228.793	61.44
229.027	63.44
229.262	57.44
229.496	71.44
229.73	61.44
229.964	75.44
230.199	71.44
230.433	67.44
230.667	72.44
230.901	92.44
231.136	87.44
231.37	76.44
231.604	79.44
231.838	90.44
232.072	94.44
232.306	78.44
232.541	70.44
232.775	87.44
233.009	85.44
233.243	93.44
233.477	70.44
233.711	82.44
233.945	90.44
234.179	83.44
234.413	85.44
234.647	93.44
234.881	81.44
235.115	82.44
235.349	84.44
235.583	85.44
235.817	86.44
236.051	79.44
236.285	94.44
236.519	84.44
236.753	85.44
236.987	77.44
237.221	72.44
237.455	91.44
237.689	84.44
237.922	67.44
238.156	84.44
238.39	94.44
238.624	76.44
238.858	81.44
239.091	83.44
239.325	86.44
239.559	76.44
239.793	78.44
240.027	74.44
240.26	77.44
240.494	80.44
240.728	73.44
240.961	61.44
241.195	84.44
241.429	82.44
241.662	77.44
241.896	97.44
242.13	80.44
242.363	90.44
242.597	82.44
242.83	74.44
243.064	85.44
243.298	91.44
243.531	90.44
243.765	86.44
243.998	80.44
244.232	94.44
244.465	81.44
244.699	75.44
244.932	80.44
245.166	78.44
245.399	86.44
245.633	73.44
245.866	83.44
246.099	82.44
246.333	85.44
246.566	84.44
246.8	81.44
247.033	95.44
247.266	79.44
247.5	86.44
247.733	81.44
247.966	88.44
248.2	72.44
248.433	74.44
248.666	83.44
248.899	83.44
249.133	86.44
249.366	80.44
249.599	86.44
249.832	88.44
250.066	106.44
250.299	70.44
250.532	75.44
250.765	70.44
250.998	90.44
251.231	85.44
251.465	67.44
251.698	89.44
251.931	82.44
252.164	86.44
252.397	85.44
252.63	80.44
252.863	82.44
253.096	72.44
253.329	80.44
253.562	83.44
253.795	78.44
254.028	95.44
254.261	79.44
254.494	89.44
254.727	79.44
254.96	85.44
255.193	83.44
255.426	87.44
255.659	76.44
255.892	85.44
256.124	76.44
256.357	75.44
256.59	75.44
256.823	82.44
257.056	84.44
257.289	83.44
257.521	79.44
257.754	79.44
257.987	78.44
258.22	96.44
258.452	87.44
258.685	89.44
258.918	73.44
259.151	80.44
259.383	87.44
259.616	78.44
259.849	71.44
260.081	76.44
260.314	80.44
260.547	78.44
260.779	97.44
261.012	81.44
261.244	77.44
261.477	92.44
261.71	83.44
261.942	85.44
262.175	92.44
262.407	90.44
262.64	75.44
262.872	85.44
263.105	87.44
263.337	101.44
263.57	82.44
263.802	75.44
264.035	74.44
264.267	80.44
264.499	80.44
264.732	81.44
264.964	91.44
265.197	85.44
265.429	75.44
265.661	74.44
265.894	80.44
266.126	73.44
266.358	91.44
266.591	78.44
266.823	81.44
267.055	81.44
267.287	85.44
267.52	79.44
267.752	77.44
267.984	103.44
268.216	75.44
268.448	95.44
268.681	85.44
268.913	98.44
269.145	87.44
269.377	85.44
269.609	82.44
269.841	91.44
270.073	91.44
270.306	91.44
270.538	86.44
270.77	86.44
271.002	81.44
271.234	84.44
271.466	99.44
271.698	94.44
271.93	85.44
272.162	93.44
272.394	78.44
272.626	93.44
272.858	73.44
273.09	80.44
273.322	97.44
273.553	86.44
273.785	97.44
274.017	85.44
274.249	78.44
274.481	79.44
274.713	76.44
274.945	83.44
275.176	91.44
275.408	85.44
275.64	99.44
275.872	91.44
276.104	80.44
276.335	77.44
276.567	75.44
276.799	90.44
277.031	86.44
277.262	79.44
277.494	85.44
277.726	91.44
277.957	82.44
278.189	89.44
278.421	77.44
278.652	81.44
278.884	84.44
279.115	83.44
279.347	65.44
279.579	87.44
279.81	86.44
280.042	90.44
280.273	93.44
280.505	86.44
280.736	68.44
280.968	90.44
281.199	86.44
281.431	93.44
281.662	84.44
281.894	103.44
282.125	84.44
282.356	97.44
282.588	103.44
282.819	93.44
283.051	95.44
283.282	80.44
283.513	89.44
283.745	79.44
283.976	90.44
284.207	94.44
284.439	97.44
284.67	96.44
284.901	101.44
285.132	85.44
285.364	78.44
285.595	85.44
285.826	92.44
286.057	93.44
286.288	97.44
286.52	79.44
286.751	88.44
286.982	85.44
287.213	75.44
287.444	87.44
287.675	90.44
287.906	89.44
288.138	98.44
288.369	95.44
288.6	88.44
288.831	94.44
289.062	87.44
289.293	81.44
289.524	86.44
289.755	93.44
289.986	75.44
290.217	72.44
290.448	87.44
290.679	86.44
290.91	88.44
291.141	80.44
291.371	77.44
291.602	83.44
291.833	82.44
292.064	99.44
292.295	90.44
292.526	84.44
292.757	87.44
292.987	87.44
293.218	69.44
293.449	80.44
293.68	88.44
293.91	76.44
294.141	78.44
294.372	85.44
294.603	95.44
294.833	91.44
295.064	79.44
295.295	91.44
295.525	87.44
295.756	86.44
295.987	85.44
296.217	85.44
296.448	89.44
296.679	78.44
296.909	88.44
297.14	89.44
297.37	85.44
297.601	83.44
297.831	98.44
298.062	92.44
298.292	90.44
298.523	92.44
298.753	101.44
298.984	83.44
299.214	101.44
299.445	74.44
299.675	88.44
299.905	82.44
300.136	94.44
300.366	76.44
300.597	90.44
300.827	80.44
301.057	90.44
301.288	95.44
301.518	82.44
301.748	90.44
301.979	89.44
302.209	85.44
302.439	75.44
302.669	92.44
302.9	86.44
303.13	79.44
303.36	105.44
303.59	94.44
303.82	98.44
304.051	95.44
304.281	89.44
304.511	85.44
304.741	84.44
304.971	89.44
305.201	83.44
305.431	95.44
305.661	94.44
305.891	98.44
306.121	86.44
306.352	90.44
306.582	84.44
306.812	84.44
307.042	91.44
307.272	82.44
307.502	85.44
307.731	92.44
307.961	96.44
308.191	80.44
308.421	113.44
308.651	103.44
308.881	85.44
309.111	78.44
309.341	88.44
309.571	93.44
309.8	84.44
310.03	81.44
310.26	104.44
310.49	103.44
310.72	103.44
310.949	108.44
311.179	100.44
311.409	78.44
311.639	83.44
311.868	84.44
312.098	99.44
312.328	88.44
312.557	94.44
312.787	84.44
313.017	90.44
313.246	95.44
313.476	98.44
313.706	91.44
313.935	97.44
314.165	86.44
314.394	92.44
314.624	91.44
314.853	91.44
315.083	83.44
315.312	88.44
315.542	86.44
315.771	99.44
316.001	94.44
316.23	75.44
316.46	88.44
316.689	82.44
316.919	85.44
317.148	83.44
317.377	80.44
317.607	98.44
317.836	84.44
318.065	99.44
318.295	100.44
318.524	89.44
318.753	90.44
318.983	101.44
319.212	91.44
319.441	92.44
319.67	77.44
319.9	83.44
320.129	93.44
320.358	79.44
320.587	73.44
320.816	100.44
321.046	87.44
321.275	85.44
321.504	86.44
321.733	85.44
321.962	96.44
322.191	101.44
322.42	71.44
322.649	86.44
322.878	89.44
323.108	88.44
323.337	79.44
323.566	76.44
323.795	88.44
324.024	68.44
324.253	83.44
324.482	77.44
324.71	86.44
324.939	87.44
325.168	100.44
325.397	104.44
325.626	95.44
325.855	90.44
326.084	86.44
326.313	93.44
326.542	90.44
326.77	91.44
326.999	94.44
327.228	88.44
327.457	100.44
327.686	87.44
327.914	88.44
328.143	99.44
328.372	79.44
328.6	72.44
328.829	86.44
329.058	89.44
329.287	83.44
329.515	80.44
329.744	92.44
329.972	93.44
330.201	99.44
330.43	99.44
330.658	98.44
330.887	82.44
331.115	98.44
331.344	84.44
331.572	97.44
331.801	80.44
332.03	86.44
332.258	90.44
332.486	88.44
332.715	101.44
332.943	94.44
333.172	92.44
333.4	97.44
333.629	84.44
333.857	83.44
334.085	96.44
334.314	90.44
334.542	90.44
334.771	83.44
334.999	84.44
335.227	84.44
335.455	88.44
335.684	98.44
335.912	87.44
336.14	89.44
336.369	99.44
336.597	84.44
336.825	96.44
337.053	90.44
337.281	84.44
337.51	95.44
337.738	91.44
337.966	100.44
338.194	81.44
338.422	101.44
338.65	88.44
338.878	93.44
339.106	99.44
339.334	99.44
339.562	91.44
339.79	75.44
340.018	99.44
340.246	96.44
340.474	100.44
340.702	95.44
340.93	86.44
341.158	86.44
341.386	91.44
341.614	73.44
341.842	74.44
342.07	89.44
342.298	81.44
342.526	87.44
342.754	94.44
342.981	106.44
343.209	83.44
343.437	96.44
343.665	97.44
343.893	92.44
344.12	100.44
344.348	99.44
344.576	86.44
344.804	94.44
345.031	95.44
345.259	86.44
345.487	96.44
345.714	99.44
345.942	81.44
346.17	80.44
346.397	76.44
346.625	84.44
346.853	86.44
347.08	91.44
347.308	94.44
347.535	105.44
347.763	86.44
347.99	94.44
348.218	101.44
348.445	92.44
348.673	91.44
348.9	96.44
349.128	89.44
349.355	91.44
349.583	84.44
349.81	82.44
350.037	97.44
350.265	90.44
350.492	84.44
350.72	91.44
350.947	96.44
351.174	105.44
351.402	99.44
351.629	84.44
351.856	76.44
352.083	83.44
352.311	85.44
352.538	82.44
352.765	79.44
352.992	87.44
353.22	88.44
353.447	87.44
353.674	82.44
353.901	106.44
354.128	85.44
354.355	75.44
354.583	82.44
354.81	87.44
355.037	104.44
355.264	95.44
355.491	92.44
355.718	83.44
355.945	96.44
356.172	92.44
356.399	83.44
356.626	86.44
356.853	79.44
357.08	93.44
357.307	95.44
357.534	82.44
357.761	77.44
357.988	87.44
358.215	82.44
358.441	86.44
358.668	82.44
358.895	91.44
359.122	98.44
359.349	94.44
359.576	91.44
359.802	94.44
360.029	83.44
360.256	105.44
360.483	84.44
360.709	87.44
360.936	110.44
361.163	86.44
361.39	94.44
361.616	77.44
361.843	83.44
362.07	84.44
362.296	100.44
362.523	90.44
362.749	92.44
362.976	87.44
363.203	93.44
363.429	85.44
363.656	97.44
363.882	112.44
364.109	93.44
364.335	83.44
364.562	89.44
364.788	94.44
365.015	83.44
365.241	91.44
365.468	87.44
365.694	98.44
365.92	90.44
366.147	94.44
366.373	78.44
366.599	75.44
366.826	85.44
367.052	82.44
367.278	80.44
367.505	81.44
367.731	87.44
367.957	96.44
368.184	107.44
368.41	96.44
368.636	90.44
368.862	98.44
369.089	99.44
369.315	86.44
369.541	104.44
369.767	80.44
369.993	88.44
370.219	96.44
370.445	86.44
370.672	94.44
370.898	80.44
371.124	81.44
371.35	91.44
371.576	95.44
371.802	88.44
372.028	88.44
372.254	87.44
372.48	81.44
372.706	79.44
372.932	79.44
373.158	80.44
373.384	82.44
373.61	95.44
373.835	95.44
374.061	73.44
374.287	81.44
374.513	88.44
374.739	99.44
374.965	116.44
375.191	93.44
375.416	94.44
375.642	97.44
375.868	93.44
376.094	84.44
376.319	97.44
376.545	87.44
376.771	95.44
376.997	88.44
377.222	83.44
377.448	90.44
377.674	89.44
377.899	87.44
378.125	87.44
378.35	92.44
378.576	86.44
378.802	92.44
379.027	87.44
379.253	83.44
379.478	86.44
379.704	83.44
379.929	86.44
380.155	77.44
380.38	83.44
380.606	85.44
380.831	92.44
381.057	90.44
381.282	74.44
381.507	92.44
381.733	95.44
381.958	92.44
382.184	89.44
382.409	91.44
382.634	91.44
382.86	77.44
383.085	84.44
383.31	87.44
383.535	88.44
383.761	93.44
383.986	96.44
384.211	74.44
384.436	72.44
384.662	89.44
384.887	91.44
385.112	94.44
385.337	94.44
385.562	89.44
385.787	73.44
386.013	102.44
386.238	91.44
386.463	95.44
386.688	94.44
386.913	98.44
387.138	80.44
387.363	83.44
387.588	77.44
387.813	97.44
388.038	93.44
388.263	75.44
388.488	87.44
388.713	85.44
388.938	93.44
389.163	90.44
389.387	89.44
389.612	73.44
389.837	96.44
390.062	92.44
390.287	80.44
390.512	90.44
390.736	96.44
390.961	80.44
391.186	102.44
391.411	100.44
391.636	97.44
391.86	83.44
392.085	79.44
392.31	83.44
392.534	87.44
392.759	102.44
392.984	82.44
393.208	90.44
393.433	86.44
393.658	85.44
393.882	92.44
394.107	93.44
394.331	77.44
394.556	87.44
394.78	100.44
395.005	91.44
395.229	63.44
395.454	83.44
395.678	83.44
395.903	82.44
396.127	86.44
396.352	82.44
396.576	87.44
396.801	83.44
397.025	97.44
397.249	89.44
397.474	109.44
397.698	93.44
397.922	89.44
398.147	94.44
398.371	86.44
398.595	93.44
398.82	87.44
399.044	90.44
399.268	94.44
399.492	97.44
399.717	95.44
399.941	102.44
400.165	87.44
400.389	88.44
400.613	85.44
400.837	84.44
401.062	80.44
401.286	87.44
401.51	89.44
401.734	93.44
401.958	91.44
402.182	100.44
402.406	78.44
402.63	72.44
402.854	91.44
403.078	87.44
403.302	89.44
403.526	85.44
403.75	90.44
403.974	94.44
404.198	87.44
404.422	88.44
404.645	91.44
404.869	78.44
405.093	89.44
405.317	100.44
405.541	107.44
405.765	79.44
405.988	91.44
406.212	84.44
406.436	74.44
406.66	87.44
406.883	76.44
407.107	88.44
407.331	88.44
407.555	84.44
407.778	80.44
408.002	81.44
408.226	99.44
408.449	88.44
408.673	80.44
408.896	81.44
409.12	90.44
409.344	92.44
409.567	95.44
409.791	89.44
410.014	103.44
410.238	91.44
410.461	93.44
410.685	89.44
410.908	98.44
411.132	95.44
411.355	95.44
411.578	80.44
411.802	82.44
412.025	99.44
412.249	101.44
412.472	93.44
412.695	93.44
412.919	101.44
413.142	87.44
413.365	86.44
413.589	89.44
413.812	90.44
414.035	100.44
414.258	87.44
414.482	85.44
414.705	91.44
414.928	86.44
415.151	97.44
415.374	87.44
415.597	99.44
415.821	82.44
416.044	79.44
416.267	90.44
416.49	83.44
416.713	94.44
416.936	97.44
417.159	83.44
417.382	92.44
417.605	78.44
417.828	91.44
418.051	83.44
418.274	92.44
418.497	84.44
418.72	92.44
418.943	95.44
419.166	81.44
419.389	90.44
419.611	89.44
419.834	80.44
420.057	89.44
420.28	100.44
420.503	84.44
420.726	87.44
420.948	88.44
421.171	83.44
421.394	79.44
421.617	106.44
421.839	88.44
422.062	89.44
422.285	102.44
422.507	94.44
422.73	85.44
422.953	94.44
423.175	97.44
423.398	88.44
423.621	98.44
423.843	84.44
424.066	94.44
424.288	95.44
424.511	97.44
424.733	93.44
424.956	91.44
425.178	85.44
425.401	71.44
425.623	99.44
425.846	95.44
426.068	82.44
426.291	99.44
426.513	94.44
426.735	94.44
426.958	99.44
427.18	103.44
427.402	87.44
427.625	88.44
427.847	88.44
428.069	89.44
428.292	86.44
428.514	95.44
428.736	92.44
428.958	93.44
429.181	82.44
429.403	89.44
429.625	87.44
429.847	86.44
430.069	85.44
430.292	92.44
430.514	72.44
430.736	78.44
430.958	82.44
431.18	92.44
431.402	99.44
431.624	88.44
431.846	90.44
432.068	86.44
432.29	89.44
432.512	69.44
432.734	94.44
432.956	93.44
433.178	76.44
433.4	88.44
433.622	91.44
433.844	84.44
434.066	75.44
434.287	94.44
434.509	87.44
434.731	97.44
434.953	101.44
435.175	102.44
435.397	102.44
435.618	93.44
435.84	100.44
436.062	79.44
436.284	92.44
436.505	107.44
436.727	87.44
436.949	81.44
437.17	73.44
437.392	78.44
437.614	95.44
437.835	88.44
438.057	79.44
438.278	88.44
438.5	93.44
438.721	96.44
438.943	100.44
439.165	79.44
439.386	78.44
439.608	82.44
439.829	94.44
440.05	85.44
440.272	92.44
440.493	99.44
440.715	92.44
440.936	97.44
441.158	116.44
441.379	82.44
441.6	81.44
441.822	116.44
442.043	85.44
442.264	90.44
442.486	94.44
442.707	87.44
442.928	77.44
443.149	85.44
443.371	76.44
443.592	78.44
443.813	78.44
444.034	97.44
444.255	92.44
444.476	86.44
444.698	100.44
444.919	87.44
445.14	216.44
445.361	163.44
445.582	72.44
445.803	102.44
446.024	95.44
446.245	97.44
446.466	77.44
446.687	106.44
446.908	94.44
447.129	73.44
447.35	94.44
447.571	71.44
447.792	81.44
448.013	86.44
448.234	84.44
448.455	81.44
448.675	88.44
448.896	94.44
449.117	95.44
449.338	93.44
449.559	93.44
449.779	89.44
450	93.44
450.221	79.44
450.442	84.44
450.662	95.44
450.883	91.44
451.104	103.44
451.324	104.44
451.545	67.44
451.766	90.44
451.986	77.44
452.207	89.44
452.428	92.44
452.648	108.44
452.869	88.44
453.089	86.44
453.31	98.44
453.53	68.44
453.751	79.44
453.971	91.44
454.192	71.44
454.412	75.44
454.633	92.44
454.853	92.44
455.073	67.44
455.294	88.44
455.514	92.44
455.734	91.44
455.955	88.44
456.175	74.44
456.395	100.44
456.616	87.44
456.836	75.44
457.056	102.44
457.276	95.44
457.497	81.44
457.717	85.44
457.937	88.44
458.157	91.44
458.377	88.44
458.598	99.44
458.818	94.44
459.038	94.44
459.258	91.44
459.478	87.44
459.698	86.44
459.918	85.44
460.138	80.44
460.358	94.44
460.578	103.44
460.798	87.44
461.018	94.44
461.238	101.44
461.458	107.44
461.678	102.44
461.898	78.44
462.118	95.44
462.338	94.44
462.558	91.44
462.777	100.44
462.997	98.44
463.217	106.44
463.437	88.44
463.657	88.44
463.876	94.44
464.096	94.44
464.316	81.44
464.536	91.44
464.755	88.44
464.975	98.44
465.195	77.44
465.414	86.44
465.634	84.44
465.854	89.44
466.073	64.44
466.293	90.44
466.512	81.44
466.732	82.44
466.951	90.44
467.171	95.44
467.391	95.44
467.61	80.44
467.829	98.44
468.049	86.44
468.268	84.44
468.488	91.44
468.707	95.44
468.927	89.44
469.146	92.44
469.365	95.44
469.585	101.44
469.804	87.44
470.023	94.44
470.243	84.44
470.462	95.44
470.681	84.44
470.901	104.44
471.12	104.44
471.339	89.44
471.558	89.44
471.777	92.44
471.997	96.44
472.216	103.44
472.435	86.44
472.654	77.44
472.873	79.44
473.092	87.44
473.311	90.44
473.53	85.44
473.749	76.44
473.968	84.44
474.187	96.44
474.406	88.44
474.625	93.44
474.844	88.44
475.063	95.44
475.282	90.44
475.501	83.44
475.72	89.44
475.939	107.44
476.158	98.44
476.377	87.44
476.596	90.44
476.814	87.44
477.033	88.44
477.252	86.44
477.471	90.44
477.69	93.44
477.908	104.44
478.127	90.44
478.346	85.44
478.564	89.44
478.783	88.44
479.002	92.44
479.22	95.44
479.439	98.44
479.658	86.44
479.876	101.44
480.095	102.44
480.313	91.44
480.532	83.44
480.751	84.44
480.969	96.44
481.188	92.44
481.406	93.44
481.624	86.44
481.843	92.44
482.061	87.44
482.28	91.44
482.498	95.44
482.717	83.44
482.935	95.44
483.153	93.44
483.372	81.44
483.59	95.44
483.808	89.44
484.027	103.44
484.245	96.44
484.463	88.44
484.681	80.44
484.9	95.44
485.118	88.44
485.336	84.44
485.554	94.44
485.772	107.44
485.99	92.44
486.209	100.44
486.427	97.44
486.645	90.44
486.863	95.44
487.081	81.44
487.299	93.44
487.517	105.44
487.735	110.44
487.953	90.44
488.171	101.44
488.389	96.44
488.607	94.44
488.825	86.44
489.043	92.44
489.261	99.44
489.479	95.44
489.696	104.44
489.914	81.44
490.132	93.44
490.35	104.44
490.568	94.44
490.786	106.44
491.003	102.44
491.221	95.44
491.439	108.44
491.657	89.44
491.874	111.44
492.092	100.44
492.31	89.44
492.527	90.44
492.745	106.44
492.963	111.44
493.18	107.44
493.398	104.44
493.615	118.44
493.833	117.44
494.05	94.44
494.268	98.44
494.485	99.44
494.703	105.44
494.92	108.44
495.138	93.44
495.355	106.44
495.573	91.44
495.79	104.44
496.008	90.44
496.225	86.44
496.442	98.44
496.66	116.44
496.877	106.44
497.094	97.44
497.312	116.44
497.529	111.44
497.746	87.44
497.963	99.44
498.181	94.44
498.398	83.44
498.615	98.44
498.832	101.44
499.049	104.44
499.267	110.44
499.484	107.44
499.701	119.44
499.918	124.44
500.135	101.44
500.352	122.44
500.569	94.44
500.786	103.44
501.003	127.44
501.22	107.44
501.437	120.44
501.654	110.44
501.871	101.44
502.088	91.44
502.305	106.44
502.522	99.44
502.739	101.44
502.956	89.44
503.172	109.44
503.389	101.44
503.606	103.44
503.823	98.44
504.04	96.44
504.256	101.44
504.473	101.44
504.69	96.44
504.907	94.44
505.123	95.44
505.34	94.44
505.557	98.44
505.773	98.44
505.99	96.44
506.207	82.44
506.423	92.44
506.64	94.44
506.856	98.44
507.073	88.44
507.289	93.44
507.506	98.44
507.722	101.44
507.939	94.44
508.155	102.44
508.372	96.44
508.588	89.44
508.805	101.44
509.021	104.44
509.238	102.44
509.454	103.44
509.67	98.44
509.887	103.44
510.103	95.44
510.319	97.44
510.536	101.44
510.752	111.44
510.968	90.44
511.184	97.44
511.401	85.44
511.617	91.44
511.833	84.44
512.049	93.44
512.265	103.44
512.481	90.44
512.698	91.44
512.914	91.44
513.13	95.44
513.346	104.44
513.562	76.44
513.778	101.44
513.994	104.44
514.21	99.44
514.426	104.44
514.642	100.44
514.858	94.44
515.074	88.44
515.29	92.44
515.506	96.44
515.721	94.44
515.937	96.44
516.153	95.44
516.369	92.44
516.585	98.44
516.801	90.44
517.016	94.44
517.232	104.44
