Data from Ni(NO3)2@0.5M.TitratingCurve.Agarose3%dH2O.NegLispCup.LampEnergy10.LIBS07252019_HRD10591_18-00-04-565.txt Node
Date: Thu Jul 25 18:00:04 EDT 2019
User: cochatt
Spectrometer: HR+D1059
Trigger mode: 1
Integration Time (sec): 1.000000E-1
Scans to average: 1
Electric dark correction enabled: true
Nonlinearity correction enabled: false
Boxcar width: 0
XAxis mode: Wavelengths
Number of Pixels in Spectrum: 2048
>>>>>Begin Spectral Data<<<<<
223.165	-24.19
223.4	-24.19
223.635	-24.19
223.869	-18.19
224.104	-22.19
224.338	-7.19
224.573	-29.19
224.808	-20.19
225.042	-0.19
225.277	-10.19
225.511	0.81
225.746	3.81
225.98	12.81
226.215	-0.19
226.449	30.81
226.683	29.81
226.918	19.81
227.152	33.81
227.387	42.81
227.621	41.81
227.856	46.81
228.09	35.81
228.324	47.81
228.559	63.81
228.793	83.81
229.027	119.81
229.262	145.81
229.496	140.81
229.73	156.81
229.964	166.81
230.199	191.81
230.433	180.81
230.667	170.81
230.901	168.81
231.136	166.81
231.37	166.81
231.604	189.81
231.838	203.81
232.072	215.81
232.306	189.81
232.541	183.81
232.775	170.81
233.009	175.81
233.243	171.81
233.477	171.81
233.711	189.81
233.945	183.81
234.179	172.81
234.413	200.81
234.647	183.81
234.881	182.81
235.115	184.81
235.349	165.81
235.583	180.81
235.817	178.81
236.051	208.81
236.285	181.81
236.519	164.81
236.753	178.81
236.987	184.81
237.221	188.81
237.455	182.81
237.689	188.81
237.922	191.81
238.156	189.81
238.39	196.81
238.624	196.81
238.858	194.81
239.091	206.81
239.325	213.81
239.559	221.81
239.793	236.81
240.027	236.81
240.26	202.81
240.494	207.81
240.728	227.81
240.961	221.81
241.195	218.81
241.429	221.81
241.662	201.81
241.896	236.81
242.13	220.81
242.363	215.81
242.597	222.81
242.83	239.81
243.064	240.81
243.298	247.81
243.531	238.81
243.765	270.81
243.998	249.81
244.232	267.81
244.465	254.81
244.699	228.81
244.932	258.81
245.166	260.81
245.399	258.81
245.633	259.81
245.866	251.81
246.099	270.81
246.333	266.81
246.566	263.81
246.8	268.81
247.033	272.81
247.266	276.81
247.5	288.81
247.733	280.81
247.966	273.81
248.2	294.81
248.433	301.81
248.666	282.81
248.899	278.81
249.133	286.81
249.366	314.81
249.599	294.81
249.832	292.81
250.066	291.81
250.299	285.81
250.532	305.81
250.765	307.81
250.998	300.81
251.231	342.81
251.465	345.81
251.698	300.81
251.931	326.81
252.164	329.81
252.397	310.81
252.63	327.81
252.863	330.81
253.096	327.81
253.329	315.81
253.562	332.81
253.795	334.81
254.028	348.81
254.261	342.81
254.494	331.81
254.727	345.81
254.96	352.81
255.193	357.81
255.426	361.81
255.659	351.81
255.892	352.81
256.124	370.81
256.357	342.81
256.59	363.81
256.823	358.81
257.056	358.81
257.289	379.81
257.521	374.81
257.754	370.81
257.987	385.81
258.22	377.81
258.452	383.81
258.685	371.81
258.918	391.81
259.151	373.81
259.383	362.81
259.616	388.81
259.849	406.81
260.081	396.81
260.314	385.81
260.547	407.81
260.779	392.81
261.012	390.81
261.244	400.81
261.477	414.81
261.71	414.81
261.942	407.81
262.175	414.81
262.407	405.81
262.64	416.81
262.872	413.81
263.105	410.81
263.337	411.81
263.57	410.81
263.802	416.81
264.035	440.81
264.267	412.81
264.499	414.81
264.732	414.81
264.964	435.81
265.197	425.81
265.429	416.81
265.661	423.81
265.894	452.81
266.126	452.81
266.358	451.81
266.591	443.81
266.823	452.81
267.055	442.81
267.287	458.81
267.52	444.81
267.752	464.81
267.984	447.81
268.216	491.81
268.448	454.81
268.681	456.81
268.913	463.81
269.145	453.81
269.377	464.81
269.609	477.81
269.841	462.81
270.073	478.81
270.306	482.81
270.538	472.81
270.77	474.81
271.002	466.81
271.234	467.81
271.466	475.81
271.698	512.81
271.93	498.81
272.162	489.81
272.394	501.81
272.626	514.81
272.858	484.81
273.09	502.81
273.322	499.81
273.553	516.81
273.785	484.81
274.017	498.81
274.249	510.81
274.481	517.81
274.713	529.81
274.945	539.81
275.176	532.81
275.408	554.81
275.64	560.81
275.872	544.81
276.104	523.81
276.335	542.81
276.567	546.81
276.799	546.81
277.031	534.81
277.262	522.81
277.494	553.81
277.726	558.81
277.957	551.81
278.189	546.81
278.421	541.81
278.652	550.81
278.884	566.81
279.115	568.81
279.347	577.81
279.579	573.81
279.81	556.81
280.042	545.81
280.273	546.81
280.505	545.81
280.736	593.81
280.968	563.81
281.199	556.81
281.431	574.81
281.662	580.81
281.894	573.81
282.125	571.81
282.356	584.81
282.588	581.81
282.819	581.81
283.051	590.81
283.282	593.81
283.513	582.81
283.745	613.81
283.976	584.81
284.207	606.81
284.439	619.81
284.67	634.81
284.901	593.81
285.132	613.81
285.364	592.81
285.595	653.81
285.826	639.81
286.057	620.81
286.288	609.81
286.52	635.81
286.751	638.81
286.982	632.81
287.213	629.81
287.444	621.81
287.675	652.81
287.906	662.81
288.138	627.81
288.369	646.81
288.6	664.81
288.831	637.81
289.062	634.81
289.293	613.81
289.524	638.81
289.755	644.81
289.986	650.81
290.217	653.81
290.448	657.81
290.679	655.81
290.91	644.81
291.141	650.81
291.371	640.81
291.602	669.81
291.833	632.81
292.064	658.81
292.295	639.81
292.526	641.81
292.757	644.81
292.987	647.81
293.218	662.81
293.449	634.81
293.68	644.81
293.91	667.81
294.141	678.81
294.372	670.81
294.603	659.81
294.833	670.81
295.064	673.81
295.295	675.81
295.525	642.81
295.756	666.81
295.987	655.81
296.217	676.81
296.448	701.81
296.679	687.81
296.909	647.81
297.14	695.81
297.37	693.81
297.601	680.81
297.831	679.81
298.062	684.81
298.292	678.81
298.523	716.81
298.753	733.81
298.984	676.81
299.214	713.81
299.445	708.81
299.675	714.81
299.905	735.81
300.136	743.81
300.366	726.81
300.597	742.81
300.827	736.81
301.057	726.81
301.288	747.81
301.518	738.81
301.748	743.81
301.979	759.81
302.209	728.81
302.439	746.81
302.669	761.81
302.9	730.81
303.13	733.81
303.36	738.81
303.59	751.81
303.82	736.81
304.051	767.81
304.281	774.81
304.511	718.81
304.741	768.81
304.971	775.81
305.201	799.81
305.431	774.81
305.661	776.81
305.891	772.81
306.121	786.81
306.352	763.81
306.582	739.81
306.812	741.81
307.042	746.81
307.272	787.81
307.502	751.81
307.731	747.81
307.961	750.81
308.191	731.81
308.421	730.81
308.651	752.81
308.881	770.81
309.111	773.81
309.341	774.81
309.571	764.81
309.8	785.81
310.03	780.81
310.26	820.81
310.49	806.81
310.72	796.81
310.949	769.81
311.179	783.81
311.409	791.81
311.639	782.81
311.868	778.81
312.098	773.81
312.328	775.81
312.557	798.81
312.787	815.81
313.017	799.81
313.246	802.81
313.476	823.81
313.706	845.81
313.935	819.81
314.165	837.81
314.394	824.81
314.624	838.81
314.853	802.81
315.083	794.81
315.312	823.81
315.542	830.81
315.771	822.81
316.001	813.81
316.23	822.81
316.46	814.81
316.689	855.81
316.919	831.81
317.148	830.81
317.377	819.81
317.607	838.81
317.836	808.81
318.065	841.81
318.295	834.81
318.524	853.81
318.753	815.81
318.983	815.81
319.212	829.81
319.441	806.81
319.67	838.81
319.9	828.81
320.129	836.81
320.358	841.81
320.587	830.81
320.816	842.81
321.046	864.81
321.275	867.81
321.504	883.81
321.733	854.81
321.962	824.81
322.191	863.81
322.42	886.81
322.649	882.81
322.878	852.81
323.108	876.81
323.337	869.81
323.566	875.81
323.795	883.81
324.024	879.81
324.253	896.81
324.482	882.81
324.71	909.81
324.939	880.81
325.168	895.81
325.397	894.81
325.626	902.81
325.855	906.81
326.084	871.81
326.313	891.81
326.542	928.81
326.77	926.81
326.999	908.81
327.228	935.81
327.457	926.81
327.686	932.81
327.914	924.81
328.143	948.81
328.372	927.81
328.6	905.81
328.829	908.81
329.058	932.81
329.287	899.81
329.515	909.81
329.744	950.81
329.972	929.81
330.201	963.81
330.43	947.81
330.658	960.81
330.887	963.81
331.115	956.81
331.344	978.81
331.572	981.81
331.801	1013.81
332.03	989.81
332.258	1020.81
332.486	1024.81
332.715	1027.81
332.943	1047.81
333.172	1067.81
333.4	1063.81
333.629	1102.81
333.857	1096.81
334.085	1123.81
334.314	1115.81
334.542	1132.81
334.771	1133.81
334.999	1133.81
335.227	1102.81
335.455	1111.81
335.684	1104.81
335.912	1122.81
336.14	1100.81
336.369	1094.81
336.597	1087.81
336.825	1116.81
337.053	1105.81
337.281	1119.81
337.51	1083.81
337.738	1092.81
337.966	1101.81
338.194	1102.81
338.422	1051.81
338.65	1054.81
338.878	1033.81
339.106	1058.81
339.334	1052.81
339.562	1037.81
339.79	1030.81
340.018	980.81
340.246	989.81
340.474	1035.81
340.702	1014.81
340.93	1007.81
341.158	1004.81
341.386	1048.81
341.614	1063.81
341.842	1035.81
342.07	1008.81
342.298	982.81
342.526	989.81
342.754	1004.81
342.981	994.81
343.209	1000.81
343.437	1074.81
343.665	1082.81
343.893	1131.81
344.12	1131.81
344.348	1124.81
344.576	1091.81
344.804	1076.81
345.031	1033.81
345.259	1021.81
345.487	1030.81
345.714	1013.81
345.942	1055.81
346.17	1034.81
346.397	1014.81
346.625	973.81
346.853	945.81
347.08	961.81
347.308	999.81
347.535	973.81
347.763	985.81
347.99	969.81
348.218	930.81
348.445	976.81
348.673	942.81
348.9	976.81
349.128	972.81
349.355	975.81
349.583	979.81
349.81	942.81
350.037	946.81
350.265	923.81
350.492	934.81
350.72	962.81
350.947	938.81
351.174	972.81
351.402	969.81
351.629	985.81
351.856	984.81
352.083	961.81
352.311	960.81
352.538	1010.81
352.765	1011.81
352.992	940.81
353.22	930.81
353.447	897.81
353.674	918.81
353.901	902.81
354.128	928.81
354.355	928.81
354.583	930.81
354.81	900.81
355.037	936.81
355.264	892.81
355.491	950.81
355.718	913.81
355.945	916.81
356.172	941.81
356.399	963.81
356.626	950.81
356.853	992.81
357.08	932.81
357.307	930.81
357.534	932.81
357.761	923.81
357.988	940.81
358.215	949.81
358.441	912.81
358.668	933.81
358.895	956.81
359.122	941.81
359.349	915.81
359.576	918.81
359.802	931.81
360.029	947.81
360.256	952.81
360.483	940.81
360.709	923.81
360.936	944.81
361.163	948.81
361.39	959.81
361.616	960.81
361.843	952.81
362.07	1028.81
362.296	1012.81
362.523	938.81
362.749	930.81
362.976	906.81
363.203	941.81
363.429	942.81
363.656	952.81
363.882	933.81
364.109	939.81
364.335	952.81
364.562	934.81
364.788	931.81
365.015	933.81
365.241	943.81
365.468	944.81
365.694	963.81
365.92	936.81
366.147	929.81
366.373	987.81
366.599	945.81
366.826	948.81
367.052	932.81
367.278	926.81
367.505	963.81
367.731	970.81
367.957	954.81
368.184	952.81
368.41	947.81
368.636	931.81
368.862	990.81
369.089	950.81
369.315	944.81
369.541	977.81
369.767	982.81
369.993	966.81
370.219	965.81
370.445	965.81
370.672	1003.81
370.898	1006.81
371.124	999.81
371.35	1030.81
371.576	982.81
371.802	1012.81
372.028	1008.81
372.254	1024.81
372.48	1030.81
372.706	1033.81
372.932	1001.81
373.158	1025.81
373.384	1016.81
373.61	1002.81
373.835	1029.81
374.061	1018.81
374.287	983.81
374.513	1041.81
374.739	1045.81
374.965	1036.81
375.191	1068.81
375.416	1065.81
375.642	1059.81
375.868	1051.81
376.094	1060.81
376.319	1016.81
376.545	1001.81
376.771	1032.81
376.997	1013.81
377.222	1018.81
377.448	1019.81
377.674	1002.81
377.899	1018.81
378.125	1000.81
378.35	1010.81
378.576	983.81
378.802	1011.81
379.027	974.81
379.253	994.81
379.478	987.81
379.704	979.81
379.929	977.81
380.155	994.81
380.38	985.81
380.606	1003.81
380.831	1014.81
381.057	998.81
381.282	981.81
381.507	997.81
381.733	1011.81
381.958	1006.81
382.184	1009.81
382.409	1026.81
382.634	1043.81
382.86	1026.81
383.085	1065.81
383.31	1057.81
383.535	1085.81
383.761	1048.81
383.986	1056.81
384.211	1087.81
384.436	1099.81
384.662	1068.81
384.887	1138.81
385.112	1111.81
385.337	1157.81
385.562	1154.81
385.787	1128.81
386.013	1150.81
386.238	1150.81
386.463	1175.81
386.688	1178.81
386.913	1150.81
387.138	1159.81
387.363	1178.81
387.588	1129.81
387.813	1169.81
388.038	1152.81
388.263	1148.81
388.488	1136.81
388.713	1165.81
388.938	1164.81
389.163	1178.81
389.387	1169.81
389.612	1123.81
389.837	1166.81
390.062	1150.81
390.287	1157.81
390.512	1179.81
390.736	1187.81
390.961	1196.81
391.186	1213.81
391.411	1234.81
391.636	1214.81
391.86	1250.81
392.085	1271.81
392.31	1258.81
392.534	1253.81
392.759	1271.81
392.984	1248.81
393.208	1213.81
393.433	1226.81
393.658	1226.81
393.882	1236.81
394.107	1231.81
394.331	1204.81
394.556	1227.81
394.78	1242.81
395.005	1233.81
395.229	1248.81
395.454	1259.81
395.678	1253.81
395.903	1278.81
396.127	1276.81
396.352	1249.81
396.576	1266.81
396.801	1251.81
397.025	1268.81
397.249	1305.81
397.474	1293.81
397.698	1274.81
397.922	1306.81
398.147	1300.81
398.371	1351.81
398.595	1379.81
398.82	1438.81
399.044	1466.81
399.268	1550.81
399.492	1647.81
399.717	1698.81
399.941	1751.81
400.165	1671.81
400.389	1647.81
400.613	1550.81
400.837	1500.81
401.062	1453.81
401.286	1432.81
401.51	1436.81
401.734	1424.81
401.958	1402.81
402.182	1402.81
402.406	1435.81
402.63	1407.81
402.854	1449.81
403.078	1439.81
403.302	1438.81
403.526	1429.81
403.75	1476.81
403.974	1487.81
404.198	1492.81
404.422	1478.81
404.645	1463.81
404.869	1419.81
405.093	1442.81
405.317	1467.81
405.541	1503.81
405.765	1520.81
405.988	1447.81
406.212	1514.81
406.436	1570.81
406.66	1574.81
406.883	1588.81
407.107	1635.81
407.331	1646.81
407.555	1677.81
407.778	1707.81
408.002	1660.81
408.226	1619.81
408.449	1628.81
408.673	1582.81
408.896	1571.81
409.12	1576.81
409.344	1574.81
409.567	1535.81
409.791	1544.81
410.014	1507.81
410.238	1518.81
410.461	1497.81
410.685	1540.81
410.908	1486.81
411.132	1531.81
411.355	1466.81
411.578	1454.81
411.802	1457.81
412.025	1468.81
412.249	1475.81
412.472	1436.81
412.695	1407.81
412.919	1419.81
413.142	1414.81
413.365	1425.81
413.589	1464.81
413.812	1421.81
414.035	1438.81
414.258	1449.81
414.482	1416.81
414.705	1414.81
414.928	1432.81
415.151	1407.81
415.374	1424.81
415.597	1400.81
415.821	1384.81
416.044	1369.81
416.267	1352.81
416.49	1366.81
416.713	1368.81
416.936	1394.81
417.159	1347.81
417.382	1378.81
417.605	1339.81
417.828	1360.81
418.051	1375.81
418.274	1365.81
418.497	1362.81
418.72	1378.81
418.943	1369.81
419.166	1456.81
419.389	1525.81
419.611	1483.81
419.834	1467.81
420.057	1422.81
420.28	1412.81
420.503	1341.81
420.726	1346.81
420.948	1376.81
421.171	1346.81
421.394	1368.81
421.617	1327.81
421.839	1366.81
422.062	1370.81
422.285	1323.81
422.507	1374.81
422.73	1348.81
422.953	1344.81
423.175	1365.81
423.398	1354.81
423.621	1368.81
423.843	1382.81
424.066	1421.81
424.288	1370.81
424.511	1348.81
424.733	1364.81
424.956	1341.81
425.178	1352.81
425.401	1383.81
425.623	1332.81
425.846	1309.81
426.068	1338.81
426.291	1314.81
426.513	1323.81
426.735	1303.81
426.958	1339.81
427.18	1292.81
427.402	1285.81
427.625	1264.81
427.847	1267.81
428.069	1295.81
428.292	1310.81
428.514	1294.81
428.736	1276.81
428.958	1276.81
429.181	1210.81
429.403	1261.81
429.625	1258.81
429.847	1240.81
430.069	1228.81
430.292	1261.81
430.514	1261.81
430.736	1239.81
430.958	1275.81
431.18	1261.81
431.402	1251.81
431.624	1242.81
431.846	1249.81
432.068	1250.81
432.29	1284.81
432.512	1247.81
432.734	1321.81
432.956	1305.81
433.178	1310.81
433.4	1316.81
433.622	1301.81
433.844	1324.81
434.066	1311.81
434.287	1331.81
434.509	1303.81
434.731	1365.81
434.953	1352.81
435.175	1371.81
435.397	1366.81
435.618	1310.81
435.84	1319.81
436.062	1323.81
436.284	1291.81
436.505	1275.81
436.727	1312.81
436.949	1300.81
437.17	1260.81
437.392	1267.81
437.614	1240.81
437.835	1172.81
438.057	1231.81
438.278	1236.81
438.5	1208.81
438.721	1190.81
438.943	1248.81
439.165	1210.81
439.386	1206.81
439.608	1267.81
439.829	1264.81
440.05	1253.81
440.272	1268.81
440.493	1272.81
440.715	1306.81
440.936	1290.81
441.158	1336.81
441.379	1347.81
441.6	1382.81
441.822	1352.81
442.043	1370.81
442.264	1335.81
442.486	1312.81
442.707	1351.81
442.928	1334.81
443.149	1321.81
443.371	1344.81
443.592	1407.81
443.813	1369.81
444.034	1362.81
444.255	1406.81
444.476	1414.81
444.698	1476.81
444.919	1461.81
445.14	1566.81
445.361	1484.81
445.582	1410.81
445.803	1348.81
446.024	1298.81
446.245	1316.81
446.466	1308.81
446.687	1301.81
446.908	1258.81
447.129	1245.81
447.35	1225.81
447.571	1218.81
447.792	1192.81
448.013	1195.81
448.234	1169.81
448.455	1175.81
448.675	1182.81
448.896	1164.81
449.117	1149.81
449.338	1167.81
449.559	1115.81
449.779	1156.81
450	1138.81
450.221	1149.81
450.442	1173.81
450.662	1132.81
450.883	1180.81
451.104	1170.81
451.324	1186.81
451.545	1179.81
451.766	1173.81
451.986	1128.81
452.207	1146.81
452.428	1120.81
452.648	1156.81
452.869	1140.81
453.089	1123.81
453.31	1136.81
453.53	1127.81
453.751	1128.81
453.971	1129.81
454.192	1132.81
454.412	1128.81
454.633	1121.81
454.853	1102.81
455.073	1050.81
455.294	1093.81
455.514	1108.81
455.734	1143.81
455.955	1096.81
456.175	1096.81
456.395	1056.81
456.616	1085.81
456.836	1090.81
457.056	1087.81
457.276	1098.81
457.497	1116.81
457.717	1128.81
457.937	1109.81
458.157	1142.81
458.377	1127.81
458.598	1154.81
458.818	1186.81
459.038	1189.81
459.258	1247.81
459.478	1278.81
459.698	1366.81
459.918	1356.81
460.138	1380.81
460.358	1344.81
460.578	1384.81
460.798	1448.81
461.018	1444.81
461.238	1397.81
461.458	1422.81
461.678	1396.81
461.898	1404.81
462.118	1437.81
462.338	1477.81
462.558	1481.81
462.777	1517.81
462.997	1622.81
463.217	1669.81
463.437	1693.81
463.657	1602.81
463.876	1589.81
464.096	1575.81
464.316	1551.81
464.536	1554.81
464.755	1524.81
464.975	1471.81
465.195	1391.81
465.414	1414.81
465.634	1314.81
465.854	1315.81
466.073	1292.81
466.293	1264.81
466.512	1233.81
466.732	1270.81
466.951	1225.81
467.171	1242.81
467.391	1216.81
467.61	1193.81
467.829	1210.81
468.049	1214.81
468.268	1160.81
468.488	1190.81
468.707	1203.81
468.927	1161.81
469.146	1180.81
469.365	1228.81
469.585	1198.81
469.804	1206.81
470.023	1214.81
470.243	1208.81
470.462	1233.81
470.681	1236.81
470.901	1211.81
471.12	1215.81
471.339	1232.81
471.558	1233.81
471.777	1210.81
471.997	1217.81
472.216	1173.81
472.435	1156.81
472.654	1170.81
472.873	1173.81
473.092	1185.81
473.311	1160.81
473.53	1161.81
473.749	1167.81
473.968	1182.81
474.187	1150.81
474.406	1183.81
474.625	1172.81
474.844	1190.81
475.063	1189.81
475.282	1226.81
475.501	1228.81
475.72	1221.81
475.939	1240.81
476.158	1247.81
476.377	1241.81
476.596	1260.81
476.814	1221.81
477.033	1241.81
477.252	1268.81
477.471	1252.81
477.69	1344.81
477.908	1337.81
478.127	1357.81
478.346	1366.81
478.564	1371.81
478.783	1414.81
479.002	1428.81
479.22	1462.81
479.439	1416.81
479.658	1445.81
479.876	1416.81
480.095	1452.81
480.313	1452.81
480.532	1497.81
480.751	1472.81
480.969	1483.81
481.188	1439.81
481.406	1418.81
481.624	1419.81
481.843	1417.81
482.061	1392.81
482.28	1384.81
482.498	1386.81
482.717	1359.81
482.935	1350.81
483.153	1405.81
483.372	1414.81
483.59	1447.81
483.808	1401.81
484.027	1412.81
484.245	1407.81
484.463	1366.81
484.681	1424.81
484.9	1376.81
485.118	1400.81
485.336	1443.81
485.554	1458.81
485.772	1376.81
485.99	1420.81
486.209	1444.81
486.427	1446.81
486.645	1418.81
486.863	1429.81
487.081	1405.81
487.299	1439.81
487.517	1445.81
487.735	1454.81
487.953	1469.81
488.171	1438.81
488.389	1471.81
488.607	1445.81
488.825	1442.81
489.043	1400.81
489.261	1403.81
489.479	1432.81
489.696	1387.81
489.914	1416.81
490.132	1432.81
490.35	1443.81
490.568	1468.81
490.786	1468.81
491.003	1460.81
491.221	1480.81
491.439	1468.81
491.657	1437.81
491.874	1442.81
492.092	1450.81
492.31	1479.81
492.527	1487.81
492.745	1470.81
492.963	1484.81
493.18	1467.81
493.398	1480.81
