Data from Ni(NO3)2@0.125M.TitratingCurve.Agarose3%dH2O.NegLispCup.LampEnergy10.LIBS07252019_HRD10591_18-09-30-568.txt Node
Date: Thu Jul 25 18:09:30 EDT 2019
User: cochatt
Spectrometer: HR+D1059
Trigger mode: 1
Integration Time (sec): 1.000000E-1
Scans to average: 1
Electric dark correction enabled: true
Nonlinearity correction enabled: false
Boxcar width: 0
XAxis mode: Wavelengths
Number of Pixels in Spectrum: 2048
>>>>>Begin Spectral Data<<<<<
223.165	-19.25
223.4	-19.25
223.635	-19.25
223.869	-18.25
224.104	-22.25
224.338	-18.25
224.573	-27.25
224.808	-8.25
225.042	-6.25
225.277	-7.25
225.511	-6.25
225.746	1.75
225.98	15.75
226.215	25.75
226.449	18.75
226.683	24.75
226.918	14.75
227.152	31.75
227.387	35.75
227.621	38.75
227.856	57.75
228.09	40.75
228.324	51.75
228.559	52.75
228.793	77.75
229.027	122.75
229.262	124.75
229.496	125.75
229.73	132.75
229.964	145.75
230.199	147.75
230.433	145.75
230.667	147.75
230.901	140.75
231.136	142.75
231.37	155.75
231.604	139.75
231.838	146.75
232.072	160.75
232.306	161.75
232.541	173.75
232.775	157.75
233.009	178.75
233.243	166.75
233.477	171.75
233.711	152.75
233.945	167.75
234.179	161.75
234.413	177.75
234.647	164.75
234.881	162.75
235.115	155.75
235.349	174.75
235.583	169.75
235.817	157.75
236.051	167.75
236.285	159.75
236.519	186.75
236.753	176.75
236.987	181.75
237.221	181.75
237.455	170.75
237.689	189.75
237.922	182.75
238.156	191.75
238.39	176.75
238.624	196.75
238.858	198.75
239.091	205.75
239.325	174.75
239.559	186.75
239.793	178.75
240.027	194.75
240.26	201.75
240.494	206.75
240.728	206.75
240.961	197.75
241.195	209.75
241.429	206.75
241.662	214.75
241.896	218.75
242.13	215.75
242.363	236.75
242.597	215.75
242.83	225.75
243.064	222.75
243.298	241.75
243.531	240.75
243.765	240.75
243.998	261.75
244.232	229.75
244.465	256.75
244.699	240.75
244.932	258.75
245.166	254.75
245.399	240.75
245.633	259.75
245.866	257.75
246.099	271.75
246.333	257.75
246.566	276.75
246.8	270.75
247.033	268.75
247.266	267.75
247.5	269.75
247.733	264.75
247.966	267.75
248.2	281.75
248.433	271.75
248.666	294.75
248.899	253.75
249.133	290.75
249.366	301.75
249.599	293.75
249.832	308.75
250.066	304.75
250.299	310.75
250.532	283.75
250.765	292.75
250.998	288.75
251.231	309.75
251.465	306.75
251.698	316.75
251.931	308.75
252.164	320.75
252.397	324.75
252.63	313.75
252.863	330.75
253.096	332.75
253.329	339.75
253.562	328.75
253.795	334.75
254.028	325.75
254.261	334.75
254.494	317.75
254.727	324.75
254.96	324.75
255.193	336.75
255.426	325.75
255.659	329.75
255.892	348.75
256.124	329.75
256.357	336.75
256.59	369.75
256.823	338.75
257.056	358.75
257.289	350.75
257.521	363.75
257.754	368.75
257.987	355.75
258.22	370.75
258.452	358.75
258.685	378.75
258.918	368.75
259.151	351.75
259.383	376.75
259.616	382.75
259.849	372.75
260.081	385.75
260.314	369.75
260.547	369.75
260.779	399.75
261.012	404.75
261.244	378.75
261.477	384.75
261.71	390.75
261.942	392.75
262.175	384.75
262.407	380.75
262.64	409.75
262.872	404.75
263.105	403.75
263.337	385.75
263.57	427.75
263.802	406.75
264.035	405.75
264.267	418.75
264.499	421.75
264.732	422.75
264.964	389.75
265.197	418.75
265.429	429.75
265.661	431.75
265.894	446.75
266.126	437.75
266.358	456.75
266.591	434.75
266.823	429.75
267.055	462.75
267.287	439.75
267.52	439.75
267.752	441.75
267.984	439.75
268.216	446.75
268.448	452.75
268.681	451.75
268.913	454.75
269.145	441.75
269.377	448.75
269.609	444.75
269.841	457.75
270.073	444.75
270.306	464.75
270.538	456.75
270.77	466.75
271.002	446.75
271.234	464.75
271.466	474.75
271.698	483.75
271.93	489.75
272.162	484.75
272.394	477.75
272.626	502.75
272.858	497.75
273.09	495.75
273.322	475.75
273.553	484.75
273.785	486.75
274.017	494.75
274.249	517.75
274.481	478.75
274.713	490.75
274.945	498.75
275.176	518.75
275.408	505.75
275.64	521.75
275.872	501.75
276.104	519.75
276.335	530.75
276.567	507.75
276.799	532.75
277.031	529.75
277.262	528.75
277.494	534.75
277.726	526.75
277.957	539.75
278.189	541.75
278.421	540.75
278.652	519.75
278.884	545.75
279.115	536.75
279.347	550.75
279.579	562.75
279.81	558.75
280.042	559.75
280.273	561.75
280.505	571.75
280.736	561.75
280.968	560.75
281.199	562.75
281.431	547.75
281.662	564.75
281.894	560.75
282.125	580.75
282.356	580.75
282.588	585.75
282.819	562.75
283.051	580.75
283.282	564.75
283.513	594.75
283.745	584.75
283.976	593.75
284.207	579.75
284.439	593.75
284.67	596.75
284.901	581.75
285.132	599.75
285.364	602.75
285.595	599.75
285.826	594.75
286.057	627.75
286.288	600.75
286.52	633.75
286.751	608.75
286.982	636.75
287.213	606.75
287.444	605.75
287.675	626.75
287.906	626.75
288.138	636.75
288.369	629.75
288.6	639.75
288.831	636.75
289.062	624.75
289.293	637.75
289.524	649.75
289.755	651.75
289.986	633.75
290.217	648.75
290.448	658.75
290.679	655.75
290.91	646.75
291.141	641.75
291.371	653.75
291.602	649.75
291.833	646.75
292.064	633.75
292.295	644.75
292.526	642.75
292.757	667.75
292.987	665.75
293.218	645.75
293.449	641.75
293.68	662.75
293.91	649.75
294.141	636.75
294.372	660.75
294.603	660.75
294.833	645.75
295.064	654.75
295.295	660.75
295.525	642.75
295.756	660.75
295.987	679.75
296.217	673.75
296.448	694.75
296.679	682.75
296.909	689.75
297.14	685.75
297.37	719.75
297.601	687.75
297.831	683.75
298.062	685.75
298.292	703.75
298.523	728.75
298.753	730.75
298.984	724.75
299.214	714.75
299.445	697.75
299.675	708.75
299.905	679.75
300.136	699.75
300.366	712.75
300.597	711.75
300.827	741.75
301.057	750.75
301.288	725.75
301.518	729.75
301.748	732.75
301.979	760.75
302.209	756.75
302.439	742.75
302.669	749.75
302.9	721.75
303.13	720.75
303.36	711.75
303.59	724.75
303.82	740.75
304.051	722.75
304.281	762.75
304.511	755.75
304.741	737.75
304.971	778.75
305.201	748.75
305.431	716.75
305.661	730.75
305.891	742.75
306.121	705.75
306.352	714.75
306.582	715.75
306.812	738.75
307.042	716.75
307.272	682.75
307.502	723.75
307.731	706.75
307.961	683.75
308.191	732.75
308.421	716.75
308.651	733.75
308.881	692.75
309.111	731.75
309.341	709.75
309.571	719.75
309.8	707.75
310.03	701.75
310.26	734.75
310.49	707.75
310.72	737.75
310.949	729.75
311.179	753.75
311.409	720.75
311.639	742.75
311.868	742.75
312.098	738.75
312.328	774.75
312.557	741.75
312.787	754.75
313.017	771.75
313.246	786.75
313.476	788.75
313.706	782.75
313.935	798.75
314.165	758.75
314.394	783.75
314.624	784.75
314.853	768.75
315.083	777.75
315.312	790.75
315.542	763.75
315.771	762.75
316.001	765.75
316.23	751.75
316.46	746.75
316.689	785.75
316.919	799.75
317.148	747.75
317.377	748.75
317.607	767.75
317.836	777.75
318.065	768.75
318.295	762.75
318.524	792.75
318.753	773.75
318.983	763.75
319.212	790.75
319.441	756.75
319.67	769.75
319.9	792.75
320.129	769.75
320.358	772.75
320.587	770.75
320.816	773.75
321.046	771.75
321.275	778.75
321.504	791.75
321.733	780.75
321.962	770.75
322.191	754.75
322.42	807.75
322.649	782.75
322.878	755.75
323.108	778.75
323.337	780.75
323.566	790.75
323.795	809.75
324.024	805.75
324.253	797.75
324.482	805.75
324.71	804.75
324.939	808.75
325.168	833.75
325.397	812.75
325.626	819.75
325.855	832.75
326.084	824.75
326.313	865.75
326.542	848.75
326.77	846.75
326.999	865.75
327.228	841.75
327.457	842.75
327.686	845.75
327.914	848.75
328.143	859.75
328.372	838.75
328.6	894.75
328.829	848.75
329.058	853.75
329.287	872.75
329.515	884.75
329.744	876.75
329.972	846.75
330.201	857.75
330.43	902.75
330.658	898.75
330.887	882.75
331.115	917.75
331.344	931.75
331.572	910.75
331.801	960.75
332.03	967.75
332.258	936.75
332.486	982.75
332.715	1050.75
332.943	1094.75
333.172	1157.75
333.4	1189.75
333.629	1201.75
333.857	1206.75
334.085	1177.75
334.314	1160.75
334.542	1100.75
334.771	1096.75
334.999	1099.75
335.227	1111.75
335.455	1090.75
335.684	1029.75
335.912	1041.75
336.14	1034.75
336.369	1066.75
336.597	1033.75
336.825	1018.75
337.053	1012.75
337.281	1038.75
337.51	974.75
337.738	1009.75
337.966	984.75
338.194	946.75
338.422	929.75
338.65	933.75
338.878	970.75
339.106	974.75
339.334	941.75
339.562	933.75
339.79	903.75
340.018	893.75
340.246	882.75
340.474	886.75
340.702	922.75
340.93	914.75
341.158	897.75
341.386	915.75
341.614	914.75
341.842	896.75
342.07	892.75
342.298	888.75
342.526	885.75
342.754	917.75
342.981	908.75
343.209	930.75
343.437	950.75
343.665	1033.75
343.893	1110.75
344.12	1156.75
344.348	1088.75
344.576	1040.75
344.804	993.75
345.031	952.75
345.259	930.75
345.487	905.75
345.714	920.75
345.942	902.75
346.17	894.75
346.397	889.75
346.625	875.75
346.853	878.75
347.08	878.75
347.308	874.75
347.535	882.75
347.763	886.75
347.99	869.75
348.218	881.75
348.445	896.75
348.673	873.75
348.9	854.75
349.128	867.75
349.355	861.75
349.583	860.75
349.81	888.75
350.037	849.75
350.265	856.75
350.492	821.75
350.72	838.75
350.947	834.75
351.174	852.75
351.402	854.75
351.629	846.75
351.856	850.75
352.083	836.75
352.311	863.75
352.538	836.75
352.765	844.75
352.992	825.75
353.22	830.75
353.447	819.75
353.674	837.75
353.901	870.75
354.128	840.75
354.355	828.75
354.583	840.75
354.81	833.75
355.037	842.75
355.264	820.75
355.491	845.75
355.718	853.75
355.945	862.75
356.172	841.75
356.399	855.75
356.626	846.75
356.853	827.75
357.08	848.75
357.307	857.75
357.534	858.75
357.761	864.75
357.988	854.75
358.215	825.75
358.441	810.75
358.668	864.75
358.895	842.75
359.122	847.75
359.349	864.75
359.576	864.75
359.802	838.75
360.029	855.75
360.256	826.75
360.483	838.75
360.709	845.75
360.936	846.75
361.163	797.75
361.39	836.75
361.616	836.75
361.843	805.75
362.07	849.75
362.296	845.75
362.523	852.75
362.749	841.75
362.976	818.75
363.203	829.75
363.429	810.75
363.656	826.75
363.882	828.75
364.109	829.75
364.335	834.75
364.562	813.75
364.788	827.75
365.015	848.75
365.241	848.75
365.468	844.75
365.694	844.75
365.92	860.75
366.147	846.75
366.373	856.75
366.599	850.75
366.826	822.75
367.052	837.75
367.278	839.75
367.505	836.75
367.731	831.75
367.957	813.75
368.184	847.75
368.41	858.75
368.636	837.75
368.862	838.75
369.089	839.75
369.315	852.75
369.541	857.75
369.767	872.75
369.993	864.75
370.219	852.75
370.445	890.75
370.672	886.75
370.898	892.75
371.124	886.75
371.35	909.75
371.576	939.75
371.802	913.75
372.028	913.75
372.254	915.75
372.48	931.75
372.706	958.75
372.932	954.75
373.158	920.75
373.384	934.75
373.61	926.75
373.835	910.75
374.061	900.75
374.287	938.75
374.513	949.75
374.739	976.75
374.965	989.75
375.191	1029.75
375.416	1007.75
375.642	965.75
375.868	981.75
376.094	951.75
376.319	948.75
376.545	954.75
376.771	934.75
376.997	924.75
377.222	945.75
377.448	904.75
377.674	892.75
377.899	905.75
378.125	903.75
378.35	890.75
378.576	899.75
378.802	894.75
379.027	891.75
379.253	904.75
379.478	895.75
379.704	895.75
379.929	901.75
380.155	887.75
380.38	940.75
380.606	931.75
380.831	897.75
381.057	919.75
381.282	903.75
381.507	920.75
381.733	929.75
381.958	923.75
382.184	924.75
382.409	926.75
382.634	933.75
382.86	961.75
383.085	982.75
383.31	968.75
383.535	1013.75
383.761	1020.75
383.986	1043.75
384.211	1066.75
384.436	1073.75
384.662	1082.75
384.887	1091.75
385.112	1115.75
385.337	1121.75
385.562	1088.75
385.787	1092.75
386.013	1136.75
386.238	1118.75
386.463	1125.75
386.688	1111.75
386.913	1102.75
387.138	1090.75
387.363	1085.75
387.588	1074.75
387.813	1074.75
388.038	1070.75
388.263	1099.75
388.488	1085.75
388.713	1076.75
388.938	1073.75
389.163	1058.75
389.387	1086.75
389.612	1056.75
389.837	1068.75
390.062	1033.75
390.287	1070.75
390.512	1060.75
390.736	1054.75
390.961	1104.75
391.186	1118.75
391.411	1132.75
391.636	1215.75
391.86	1225.75
392.085	1242.75
392.31	1222.75
392.534	1199.75
392.759	1206.75
392.984	1135.75
393.208	1163.75
393.433	1167.75
393.658	1155.75
393.882	1175.75
394.107	1185.75
394.331	1189.75
394.556	1187.75
394.78	1184.75
395.005	1204.75
395.229	1202.75
395.454	1202.75
395.678	1254.75
395.903	1258.75
396.127	1222.75
396.352	1179.75
396.576	1158.75
396.801	1167.75
397.025	1164.75
397.249	1171.75
397.474	1225.75
397.698	1212.75
397.922	1261.75
398.147	1231.75
398.371	1245.75
398.595	1270.75
398.82	1365.75
399.044	1456.75
399.268	1644.75
399.492	1869.75
399.717	2188.75
399.941	2144.75
400.165	1878.75
400.389	1700.75
400.613	1548.75
400.837	1472.75
401.062	1425.75
401.286	1372.75
401.51	1368.75
401.734	1358.75
401.958	1394.75
402.182	1420.75
402.406	1451.75
402.63	1428.75
402.854	1461.75
403.078	1526.75
403.302	1555.75
403.526	1556.75
403.75	1585.75
403.974	1655.75
404.198	1624.75
404.422	1670.75
404.645	1632.75
404.869	1599.75
405.093	1607.75
405.317	1544.75
405.541	1573.75
405.765	1536.75
405.988	1482.75
406.212	1521.75
406.436	1480.75
406.66	1576.75
406.883	1597.75
407.107	1650.75
407.331	1745.75
407.555	1845.75
407.778	1827.75
408.002	1757.75
408.226	1680.75
408.449	1648.75
408.673	1611.75
408.896	1580.75
409.12	1537.75
409.344	1584.75
409.567	1595.75
409.791	1610.75
410.014	1573.75
410.238	1545.75
410.461	1529.75
410.685	1521.75
410.908	1512.75
411.132	1478.75
411.355	1470.75
411.578	1449.75
411.802	1441.75
412.025	1447.75
412.249	1482.75
412.472	1458.75
412.695	1418.75
412.919	1376.75
413.142	1365.75
413.365	1385.75
413.589	1386.75
413.812	1373.75
414.035	1325.75
414.258	1376.75
414.482	1414.75
414.705	1434.75
414.928	1380.75
415.151	1418.75
415.374	1380.75
415.597	1410.75
415.821	1380.75
416.044	1325.75
416.267	1345.75
416.49	1361.75
416.713	1347.75
416.936	1394.75
417.159	1388.75
417.382	1393.75
417.605	1346.75
417.828	1405.75
418.051	1381.75
418.274	1361.75
418.497	1378.75
418.72	1409.75
418.943	1416.75
419.166	1506.75
419.389	1594.75
419.611	1540.75
419.834	1467.75
420.057	1446.75
420.28	1408.75
420.503	1358.75
420.726	1365.75
420.948	1345.75
421.171	1381.75
421.394	1383.75
421.617	1350.75
421.839	1419.75
422.062	1389.75
422.285	1383.75
422.507	1449.75
422.73	1422.75
422.953	1426.75
423.175	1464.75
423.398	1486.75
423.621	1485.75
423.843	1493.75
424.066	1495.75
424.288	1451.75
424.511	1445.75
424.733	1431.75
424.956	1386.75
425.178	1420.75
425.401	1369.75
425.623	1380.75
425.846	1323.75
426.068	1310.75
426.291	1340.75
426.513	1320.75
426.735	1281.75
426.958	1284.75
427.18	1250.75
427.402	1240.75
427.625	1232.75
427.847	1228.75
428.069	1200.75
428.292	1219.75
428.514	1226.75
428.736	1210.75
428.958	1256.75
429.181	1200.75
429.403	1162.75
429.625	1162.75
429.847	1180.75
430.069	1167.75
430.292	1196.75
430.514	1189.75
430.736	1191.75
430.958	1200.75
431.18	1183.75
431.402	1189.75
431.624	1188.75
431.846	1225.75
432.068	1228.75
432.29	1204.75
432.512	1203.75
432.734	1216.75
432.956	1243.75
433.178	1208.75
433.4	1205.75
433.622	1194.75
433.844	1210.75
434.066	1256.75
434.287	1264.75
434.509	1288.75
434.731	1365.75
434.953	1410.75
435.175	1404.75
435.397	1387.75
435.618	1297.75
435.84	1260.75
436.062	1249.75
436.284	1245.75
436.505	1181.75
436.727	1205.75
436.949	1237.75
437.17	1210.75
437.392	1190.75
437.614	1186.75
437.835	1168.75
438.057	1161.75
438.278	1156.75
438.5	1158.75
438.721	1162.75
438.943	1202.75
439.165	1164.75
439.386	1163.75
439.608	1203.75
439.829	1242.75
440.05	1241.75
440.272	1234.75
440.493	1204.75
440.715	1256.75
440.936	1266.75
441.158	1320.75
441.379	1351.75
441.6	1389.75
441.822	1410.75
442.043	1428.75
442.264	1366.75
442.486	1357.75
442.707	1347.75
442.928	1356.75
443.149	1352.75
443.371	1355.75
443.592	1370.75
443.813	1389.75
444.034	1378.75
444.255	1446.75
444.476	1530.75
444.698	1603.75
444.919	1708.75
445.14	1771.75
445.361	1547.75
445.582	1432.75
445.803	1341.75
446.024	1305.75
446.245	1268.75
446.466	1251.75
446.687	1212.75
446.908	1229.75
447.129	1180.75
447.35	1185.75
447.571	1191.75
447.792	1160.75
448.013	1177.75
448.234	1145.75
448.455	1137.75
448.675	1135.75
448.896	1122.75
449.117	1090.75
449.338	1095.75
449.559	1107.75
449.779	1081.75
450	1110.75
450.221	1109.75
450.442	1125.75
450.662	1112.75
450.883	1152.75
451.104	1146.75
451.324	1143.75
451.545	1116.75
451.766	1114.75
451.986	1129.75
452.207	1120.75
452.428	1108.75
452.648	1124.75
452.869	1100.75
453.089	1102.75
453.31	1084.75
453.53	1082.75
453.751	1073.75
453.971	1084.75
454.192	1074.75
454.412	1048.75
454.633	1050.75
454.853	1061.75
455.073	1038.75
455.294	1065.75
455.514	1067.75
455.734	1065.75
455.955	1001.75
456.175	1007.75
456.395	1008.75
456.616	1009.75
456.836	1032.75
457.056	1032.75
457.276	1036.75
457.497	1019.75
457.717	1034.75
457.937	1023.75
458.157	1029.75
458.377	1082.75
458.598	1080.75
458.818	1142.75
459.038	1146.75
459.258	1177.75
459.478	1216.75
459.698	1264.75
459.918	1264.75
460.138	1369.75
460.358	1452.75
460.578	1488.75
460.798	1471.75
461.018	1471.75
461.238	1449.75
461.458	1440.75
461.678	1406.75
461.898	1448.75
462.118	1474.75
462.338	1574.75
462.558	1633.75
462.777	1653.75
462.997	1801.75
463.217	1997.75
463.437	2003.75
463.657	1808.75
463.876	1673.75
464.096	1710.75
464.316	1704.75
464.536	1696.75
464.755	1623.75
464.975	1577.75
465.195	1502.75
465.414	1427.75
465.634	1336.75
465.854	1279.75
466.073	1268.75
466.293	1241.75
466.512	1210.75
466.732	1174.75
466.951	1172.75
467.171	1166.75
467.391	1187.75
467.61	1195.75
467.829	1150.75
468.049	1153.75
468.268	1120.75
468.488	1105.75
468.707	1094.75
468.927	1148.75
469.146	1152.75
469.365	1106.75
469.585	1124.75
469.804	1165.75
470.023	1166.75
470.243	1189.75
470.462	1218.75
470.681	1192.75
470.901	1221.75
471.12	1187.75
471.339	1178.75
471.558	1145.75
471.777	1132.75
471.997	1104.75
472.216	1120.75
472.435	1100.75
472.654	1104.75
472.873	1049.75
473.092	1080.75
473.311	1067.75
473.53	1073.75
473.749	1074.75
473.968	1076.75
474.187	1062.75
474.406	1078.75
474.625	1091.75
474.844	1071.75
475.063	1083.75
475.282	1092.75
475.501	1099.75
475.72	1114.75
475.939	1100.75
476.158	1106.75
476.377	1120.75
476.596	1137.75
476.814	1172.75
477.033	1118.75
477.252	1173.75
477.471	1183.75
477.69	1215.75
477.908	1260.75
478.127	1297.75
478.346	1315.75
478.564	1300.75
478.783	1345.75
479.002	1399.75
479.22	1363.75
479.439	1348.75
479.658	1338.75
479.876	1340.75
480.095	1387.75
480.313	1464.75
480.532	1487.75
480.751	1453.75
480.969	1400.75
481.188	1343.75
481.406	1319.75
481.624	1318.75
481.843	1243.75
482.061	1234.75
482.28	1240.75
482.498	1221.75
482.717	1251.75
482.935	1227.75
483.153	1239.75
483.372	1238.75
483.59	1248.75
483.808	1245.75
484.027	1216.75
484.245	1266.75
484.463	1254.75
484.681	1254.75
484.9	1299.75
485.118	1298.75
485.336	1293.75
485.554	1270.75
485.772	1298.75
485.99	1310.75
486.209	1337.75
486.427	1328.75
486.645	1293.75
486.863	1305.75
487.081	1315.75
487.299	1275.75
487.517	1293.75
487.735	1291.75
487.953	1322.75
488.171	1314.75
488.389	1303.75
488.607	1261.75
488.825	1261.75
489.043	1264.75
489.261	1244.75
489.479	1291.75
489.696	1294.75
489.914	1258.75
490.132	1293.75
490.35	1300.75
490.568	1302.75
490.786	1290.75
491.003	1322.75
491.221	1277.75
491.439	1316.75
491.657	1302.75
491.874	1314.75
492.092	1332.75
492.31	1306.75
492.527	1288.75
492.745	1339.75
492.963	1344.75
493.18	1371.75
493.398	1364.75
493.615	1357.75
493.833	1381.75
494.05	1353.75
494.268	1400.75
