Data from Ni(NO3)2@0.25M.TitratingCurve.Agarose3%dH2O.NegLispCup.LampEnergy10.LIBS07252019_HRD10591_18-04-36-566.txt Node
Date: Thu Jul 25 18:04:36 EDT 2019
User: cochatt
Spectrometer: HR+D1059
Trigger mode: 1
Integration Time (sec): 1.000000E-1
Scans to average: 1
Electric dark correction enabled: true
Nonlinearity correction enabled: false
Boxcar width: 0
XAxis mode: Wavelengths
Number of Pixels in Spectrum: 2048
>>>>>Begin Spectral Data<<<<<
223.165	-20.75
223.4	-20.75
223.635	-20.75
223.869	-23.75
224.104	-16.75
224.338	-17.75
224.573	-28.75
224.808	-16.75
225.042	-3.75
225.277	-2.75
225.511	-1.75
225.746	2.25
225.98	8.25
226.215	11.25
226.449	32.25
226.683	12.25
226.918	33.25
227.152	33.25
227.387	39.25
227.621	40.25
227.856	42.25
228.09	40.25
228.324	53.25
228.559	56.25
228.793	66.25
229.027	107.25
229.262	98.25
229.496	123.25
229.73	124.25
229.964	125.25
230.199	127.25
230.433	144.25
230.667	148.25
230.901	126.25
231.136	138.25
231.37	138.25
231.604	137.25
231.838	159.25
232.072	148.25
232.306	130.25
232.541	134.25
232.775	154.25
233.009	146.25
233.243	152.25
233.477	146.25
233.711	147.25
233.945	146.25
234.179	157.25
234.413	154.25
234.647	154.25
234.881	146.25
235.115	155.25
235.349	133.25
235.583	134.25
235.817	135.25
236.051	143.25
236.285	161.25
236.519	138.25
236.753	151.25
236.987	147.25
237.221	163.25
237.455	164.25
237.689	167.25
237.922	165.25
238.156	168.25
238.39	175.25
238.624	158.25
238.858	168.25
239.091	155.25
239.325	163.25
239.559	172.25
239.793	184.25
240.027	171.25
240.26	176.25
240.494	177.25
240.728	173.25
240.961	171.25
241.195	190.25
241.429	178.25
241.662	187.25
241.896	186.25
242.13	175.25
242.363	184.25
242.597	202.25
242.83	201.25
243.064	184.25
243.298	205.25
243.531	191.25
243.765	197.25
243.998	214.25
244.232	193.25
244.465	214.25
244.699	216.25
244.932	204.25
245.166	217.25
245.399	208.25
245.633	212.25
245.866	211.25
246.099	215.25
246.333	226.25
246.566	218.25
246.8	212.25
247.033	223.25
247.266	214.25
247.5	221.25
247.733	227.25
247.966	232.25
248.2	226.25
248.433	243.25
248.666	242.25
248.899	251.25
249.133	237.25
249.366	240.25
249.599	248.25
249.832	256.25
250.066	248.25
250.299	256.25
250.532	272.25
250.765	268.25
250.998	254.25
251.231	260.25
251.465	270.25
251.698	274.25
251.931	276.25
252.164	270.25
252.397	285.25
252.63	283.25
252.863	283.25
253.096	296.25
253.329	273.25
253.562	278.25
253.795	283.25
254.028	291.25
254.261	303.25
254.494	287.25
254.727	293.25
254.96	291.25
255.193	283.25
255.426	288.25
255.659	300.25
255.892	297.25
256.124	324.25
256.357	321.25
256.59	316.25
256.823	283.25
257.056	332.25
257.289	318.25
257.521	316.25
257.754	316.25
257.987	316.25
258.22	322.25
258.452	326.25
258.685	326.25
258.918	320.25
259.151	324.25
259.383	326.25
259.616	336.25
259.849	339.25
260.081	339.25
260.314	342.25
260.547	342.25
260.779	330.25
261.012	347.25
261.244	358.25
261.477	342.25
261.71	352.25
261.942	359.25
262.175	359.25
262.407	356.25
262.64	371.25
262.872	368.25
263.105	363.25
263.337	368.25
263.57	370.25
263.802	357.25
264.035	377.25
264.267	347.25
264.499	372.25
264.732	362.25
264.964	374.25
265.197	385.25
265.429	377.25
265.661	371.25
265.894	385.25
266.126	390.25
266.358	390.25
266.591	403.25
266.823	398.25
267.055	377.25
267.287	391.25
267.52	389.25
267.752	389.25
267.984	388.25
268.216	395.25
268.448	415.25
268.681	391.25
268.913	407.25
269.145	419.25
269.377	396.25
269.609	408.25
269.841	419.25
270.073	387.25
270.306	385.25
270.538	407.25
270.77	391.25
271.002	406.25
271.234	424.25
271.466	428.25
271.698	403.25
271.93	412.25
272.162	409.25
272.394	447.25
272.626	426.25
272.858	427.25
273.09	424.25
273.322	426.25
273.553	432.25
273.785	434.25
274.017	424.25
274.249	427.25
274.481	446.25
274.713	420.25
274.945	440.25
275.176	461.25
275.408	446.25
275.64	446.25
275.872	441.25
276.104	451.25
276.335	447.25
276.567	444.25
276.799	439.25
277.031	467.25
277.262	451.25
277.494	463.25
277.726	460.25
277.957	476.25
278.189	482.25
278.421	459.25
278.652	464.25
278.884	455.25
279.115	467.25
279.347	480.25
279.579	488.25
279.81	482.25
280.042	474.25
280.273	476.25
280.505	491.25
280.736	486.25
280.968	475.25
281.199	486.25
281.431	471.25
281.662	457.25
281.894	484.25
282.125	487.25
282.356	484.25
282.588	474.25
282.819	517.25
283.051	513.25
283.282	512.25
283.513	484.25
283.745	479.25
283.976	512.25
284.207	497.25
284.439	514.25
284.67	512.25
284.901	529.25
285.132	511.25
285.364	521.25
285.595	532.25
285.826	510.25
286.057	510.25
286.288	520.25
286.52	526.25
286.751	533.25
286.982	523.25
287.213	526.25
287.444	517.25
287.675	543.25
287.906	520.25
288.138	540.25
288.369	528.25
288.6	554.25
288.831	526.25
289.062	531.25
289.293	560.25
289.524	540.25
289.755	541.25
289.986	522.25
290.217	531.25
290.448	550.25
290.679	547.25
290.91	546.25
291.141	546.25
291.371	547.25
291.602	548.25
291.833	532.25
292.064	550.25
292.295	557.25
292.526	550.25
292.757	537.25
292.987	553.25
293.218	558.25
293.449	561.25
293.68	558.25
293.91	547.25
294.141	554.25
294.372	539.25
294.603	548.25
294.833	551.25
295.064	533.25
295.295	554.25
295.525	550.25
295.756	552.25
295.987	543.25
296.217	552.25
296.448	553.25
296.679	577.25
296.909	559.25
297.14	585.25
297.37	561.25
297.601	596.25
297.831	583.25
298.062	568.25
298.292	611.25
298.523	589.25
298.753	611.25
298.984	582.25
299.214	588.25
299.445	599.25
299.675	587.25
299.905	576.25
300.136	586.25
300.366	614.25
300.597	627.25
300.827	606.25
301.057	616.25
301.288	638.25
301.518	645.25
301.748	622.25
301.979	624.25
302.209	651.25
302.439	638.25
302.669	619.25
302.9	610.25
303.13	607.25
303.36	630.25
303.59	626.25
303.82	606.25
304.051	618.25
304.281	625.25
304.511	620.25
304.741	631.25
304.971	609.25
305.201	618.25
305.431	632.25
305.661	616.25
305.891	611.25
306.121	631.25
306.352	625.25
306.582	604.25
306.812	608.25
307.042	604.25
307.272	626.25
307.502	612.25
307.731	625.25
307.961	618.25
308.191	624.25
308.421	619.25
308.651	592.25
308.881	617.25
309.111	600.25
309.341	611.25
309.571	625.25
309.8	654.25
310.03	630.25
310.26	635.25
310.49	650.25
310.72	613.25
310.949	613.25
311.179	647.25
311.409	638.25
311.639	640.25
311.868	635.25
312.098	660.25
312.328	658.25
312.557	642.25
312.787	667.25
313.017	652.25
313.246	676.25
313.476	663.25
313.706	675.25
313.935	675.25
314.165	680.25
314.394	692.25
314.624	681.25
314.853	673.25
315.083	687.25
315.312	691.25
315.542	675.25
315.771	668.25
316.001	689.25
316.23	657.25
316.46	683.25
316.689	690.25
316.919	682.25
317.148	677.25
317.377	682.25
317.607	679.25
317.836	673.25
318.065	664.25
318.295	699.25
318.524	698.25
318.753	686.25
318.983	680.25
319.212	662.25
319.441	697.25
319.67	692.25
319.9	689.25
320.129	690.25
320.358	700.25
320.587	712.25
320.816	691.25
321.046	715.25
321.275	678.25
321.504	698.25
321.733	718.25
321.962	691.25
322.191	715.25
322.42	698.25
322.649	714.25
322.878	695.25
323.108	736.25
323.337	715.25
323.566	750.25
323.795	745.25
324.024	751.25
324.253	726.25
324.482	736.25
324.71	780.25
324.939	753.25
325.168	743.25
325.397	727.25
325.626	758.25
325.855	751.25
326.084	805.25
326.313	793.25
326.542	761.25
326.77	802.25
326.999	757.25
327.228	792.25
327.457	800.25
327.686	804.25
327.914	785.25
328.143	798.25
328.372	820.25
328.6	782.25
328.829	768.25
329.058	818.25
329.287	799.25
329.515	820.25
329.744	818.25
329.972	814.25
330.201	847.25
330.43	824.25
330.658	829.25
330.887	839.25
331.115	831.25
331.344	838.25
331.572	861.25
331.801	846.25
332.03	898.25
332.258	904.25
332.486	920.25
332.715	939.25
332.943	967.25
333.172	988.25
333.4	1051.25
333.629	1056.25
333.857	1067.25
334.085	1066.25
334.314	1050.25
334.542	1062.25
334.771	1077.25
334.999	1086.25
335.227	1033.25
335.455	1046.25
335.684	1040.25
335.912	1050.25
336.14	1002.25
336.369	1020.25
336.597	1022.25
336.825	1009.25
337.053	985.25
337.281	995.25
337.51	962.25
337.738	974.25
337.966	945.25
338.194	937.25
338.422	940.25
338.65	927.25
338.878	922.25
339.106	884.25
339.334	962.25
339.562	906.25
339.79	887.25
340.018	882.25
340.246	843.25
340.474	875.25
340.702	850.25
340.93	872.25
341.158	867.25
341.386	869.25
341.614	927.25
341.842	909.25
342.07	876.25
342.298	914.25
342.526	864.25
342.754	888.25
342.981	879.25
343.209	918.25
343.437	969.25
343.665	973.25
343.893	1003.25
344.12	1011.25
344.348	1052.25
344.576	1018.25
344.804	973.25
345.031	933.25
345.259	916.25
345.487	904.25
345.714	916.25
345.942	864.25
346.17	906.25
346.397	873.25
346.625	888.25
346.853	836.25
347.08	842.25
347.308	835.25
347.535	847.25
347.763	867.25
347.99	826.25
348.218	836.25
348.445	853.25
348.673	858.25
348.9	846.25
349.128	842.25
349.355	818.25
349.583	860.25
349.81	842.25
350.037	837.25
350.265	843.25
350.492	809.25
350.72	816.25
350.947	843.25
351.174	855.25
351.402	831.25
351.629	843.25
351.856	807.25
352.083	848.25
352.311	832.25
352.538	841.25
352.765	856.25
352.992	796.25
353.22	792.25
353.447	797.25
353.674	790.25
353.901	800.25
354.128	811.25
354.355	803.25
354.583	798.25
354.81	798.25
355.037	806.25
355.264	812.25
355.491	826.25
355.718	821.25
355.945	809.25
356.172	820.25
356.399	814.25
356.626	822.25
356.853	866.25
357.08	840.25
357.307	830.25
357.534	819.25
357.761	814.25
357.988	823.25
358.215	798.25
358.441	818.25
358.668	797.25
358.895	798.25
359.122	814.25
359.349	809.25
359.576	828.25
359.802	811.25
360.029	820.25
360.256	803.25
360.483	823.25
360.709	808.25
360.936	834.25
361.163	823.25
361.39	828.25
361.616	829.25
361.843	833.25
362.07	844.25
362.296	867.25
362.523	831.25
362.749	816.25
362.976	788.25
363.203	815.25
363.429	813.25
363.656	804.25
363.882	794.25
364.109	830.25
364.335	809.25
364.562	808.25
364.788	793.25
365.015	799.25
365.241	796.25
365.468	792.25
365.694	803.25
365.92	804.25
366.147	795.25
366.373	795.25
366.599	799.25
366.826	808.25
367.052	804.25
367.278	776.25
367.505	795.25
367.731	815.25
367.957	800.25
368.184	802.25
368.41	796.25
368.636	818.25
368.862	818.25
369.089	807.25
369.315	806.25
369.541	836.25
369.767	843.25
369.993	827.25
370.219	829.25
370.445	826.25
370.672	860.25
370.898	866.25
371.124	838.25
371.35	879.25
371.576	880.25
371.802	866.25
372.028	841.25
372.254	857.25
372.48	855.25
372.706	896.25
372.932	898.25
373.158	869.25
373.384	899.25
373.61	862.25
373.835	892.25
374.061	876.25
374.287	896.25
374.513	904.25
374.739	904.25
374.965	932.25
375.191	927.25
375.416	894.25
375.642	903.25
375.868	904.25
376.094	906.25
376.319	869.25
376.545	898.25
376.771	863.25
376.997	857.25
377.222	882.25
377.448	876.25
377.674	844.25
377.899	861.25
378.125	874.25
378.35	861.25
378.576	861.25
378.802	861.25
379.027	852.25
379.253	863.25
379.478	828.25
379.704	825.25
379.929	806.25
380.155	839.25
380.38	827.25
380.606	837.25
380.831	838.25
381.057	856.25
381.282	850.25
381.507	828.25
381.733	865.25
381.958	861.25
382.184	881.25
382.409	854.25
382.634	879.25
382.86	896.25
383.085	890.25
383.31	893.25
383.535	926.25
383.761	908.25
383.986	914.25
384.211	931.25
384.436	957.25
384.662	966.25
384.887	992.25
385.112	971.25
385.337	976.25
385.562	993.25
385.787	987.25
386.013	1009.25
386.238	997.25
386.463	1000.25
386.688	991.25
386.913	1007.25
387.138	991.25
387.363	1026.25
387.588	983.25
387.813	1024.25
388.038	1040.25
388.263	985.25
388.488	1020.25
388.713	1021.25
388.938	997.25
389.163	1000.25
389.387	1000.25
389.612	1015.25
389.837	958.25
390.062	988.25
390.287	983.25
390.512	1002.25
390.736	1049.25
390.961	1033.25
391.186	1045.25
391.411	1081.25
391.636	1088.25
391.86	1098.25
392.085	1131.25
392.31	1135.25
392.534	1108.25
392.759	1064.25
392.984	1097.25
393.208	1100.25
393.433	1086.25
393.658	1095.25
393.882	1068.25
394.107	1052.25
394.331	1078.25
394.556	1088.25
394.78	1078.25
395.005	1091.25
395.229	1087.25
395.454	1136.25
395.678	1158.25
395.903	1130.25
396.127	1123.25
396.352	1104.25
396.576	1123.25
396.801	1093.25
397.025	1108.25
397.249	1105.25
397.474	1152.25
397.698	1172.25
397.922	1179.25
398.147	1175.25
398.371	1218.25
398.595	1225.25
398.82	1307.25
399.044	1382.25
399.268	1456.25
399.492	1581.25
399.717	1733.25
399.941	1697.25
400.165	1648.25
400.389	1532.25
400.613	1480.25
400.837	1398.25
401.062	1377.25
401.286	1332.25
401.51	1350.25
401.734	1288.25
401.958	1320.25
402.182	1299.25
402.406	1332.25
402.63	1324.25
402.854	1351.25
403.078	1340.25
403.302	1353.25
403.526	1370.25
403.75	1372.25
403.974	1422.25
404.198	1387.25
404.422	1421.25
404.645	1420.25
404.869	1387.25
405.093	1388.25
405.317	1396.25
405.541	1408.25
405.765	1412.25
405.988	1392.25
406.212	1403.25
406.436	1406.25
406.66	1440.25
406.883	1417.25
407.107	1527.25
407.331	1600.25
407.555	1615.25
407.778	1650.25
408.002	1604.25
408.226	1558.25
408.449	1553.25
408.673	1520.25
408.896	1467.25
409.12	1422.25
409.344	1420.25
409.567	1430.25
409.791	1429.25
410.014	1411.25
410.238	1420.25
410.461	1392.25
410.685	1408.25
410.908	1387.25
411.132	1344.25
411.355	1360.25
411.578	1344.25
411.802	1374.25
412.025	1340.25
412.249	1375.25
412.472	1385.25
412.695	1359.25
412.919	1317.25
413.142	1353.25
413.365	1304.25
413.589	1295.25
413.812	1304.25
414.035	1291.25
414.258	1264.25
414.482	1323.25
414.705	1312.25
414.928	1332.25
415.151	1333.25
415.374	1313.25
415.597	1319.25
415.821	1268.25
416.044	1250.25
416.267	1252.25
416.49	1270.25
416.713	1278.25
416.936	1270.25
417.159	1290.25
417.382	1265.25
417.605	1268.25
417.828	1289.25
418.051	1265.25
418.274	1281.25
418.497	1279.25
418.72	1327.25
418.943	1320.25
419.166	1386.25
419.389	1451.25
419.611	1440.25
419.834	1370.25
420.057	1344.25
420.28	1291.25
420.503	1291.25
420.726	1293.25
420.948	1272.25
421.171	1320.25
421.394	1292.25
421.617	1298.25
421.839	1271.25
422.062	1281.25
422.285	1288.25
422.507	1306.25
422.73	1299.25
422.953	1292.25
423.175	1318.25
423.398	1310.25
423.621	1327.25
423.843	1340.25
424.066	1323.25
424.288	1334.25
424.511	1310.25
424.733	1311.25
424.956	1323.25
425.178	1295.25
425.401	1258.25
425.623	1285.25
425.846	1250.25
426.068	1267.25
426.291	1266.25
426.513	1248.25
426.735	1243.25
426.958	1227.25
427.18	1227.25
427.402	1210.25
427.625	1202.25
427.847	1205.25
428.069	1207.25
428.292	1184.25
428.514	1186.25
428.736	1169.25
428.958	1208.25
429.181	1165.25
429.403	1140.25
429.625	1150.25
429.847	1157.25
430.069	1177.25
430.292	1159.25
430.514	1154.25
430.736	1142.25
430.958	1173.25
431.18	1155.25
431.402	1191.25
431.624	1143.25
431.846	1184.25
432.068	1188.25
432.29	1187.25
432.512	1179.25
432.734	1193.25
432.956	1209.25
433.178	1226.25
433.4	1180.25
433.622	1201.25
433.844	1243.25
434.066	1198.25
434.287	1218.25
434.509	1250.25
434.731	1270.25
434.953	1301.25
435.175	1307.25
435.397	1282.25
435.618	1252.25
435.84	1224.25
436.062	1228.25
436.284	1199.25
436.505	1180.25
436.727	1207.25
436.949	1164.25
437.17	1184.25
437.392	1175.25
437.614	1174.25
437.835	1132.25
438.057	1144.25
438.278	1124.25
438.5	1150.25
438.721	1136.25
438.943	1152.25
439.165	1142.25
439.386	1148.25
439.608	1182.25
439.829	1180.25
440.05	1179.25
440.272	1189.25
440.493	1166.25
440.715	1212.25
440.936	1216.25
441.158	1238.25
441.379	1248.25
441.6	1323.25
441.822	1309.25
442.043	1315.25
442.264	1286.25
442.486	1281.25
442.707	1293.25
442.928	1268.25
443.149	1286.25
443.371	1263.25
443.592	1292.25
443.813	1332.25
444.034	1343.25
444.255	1331.25
444.476	1422.25
444.698	1426.25
444.919	1469.25
445.14	1552.25
445.361	1492.25
445.582	1382.25
445.803	1300.25
446.024	1309.25
446.245	1269.25
446.466	1250.25
446.687	1228.25
446.908	1202.25
447.129	1203.25
447.35	1185.25
447.571	1190.25
447.792	1154.25
448.013	1122.25
448.234	1126.25
448.455	1128.25
448.675	1111.25
448.896	1141.25
449.117	1075.25
449.338	1096.25
449.559	1115.25
449.779	1089.25
450	1083.25
450.221	1109.25
450.442	1109.25
450.662	1105.25
450.883	1110.25
451.104	1130.25
451.324	1118.25
451.545	1126.25
451.766	1084.25
451.986	1042.25
452.207	1086.25
452.428	1074.25
452.648	1058.25
452.869	1066.25
453.089	1067.25
453.31	1061.25
453.53	1025.25
453.751	1021.25
453.971	1048.25
454.192	1047.25
454.412	992.25
454.633	1028.25
454.853	999.25
455.073	1036.25
455.294	1037.25
455.514	1020.25
455.734	1024.25
455.955	1018.25
456.175	997.25
456.395	1019.25
456.616	1032.25
456.836	1020.25
457.056	1025.25
457.276	984.25
457.497	1024.25
457.717	1026.25
457.937	1058.25
458.157	1048.25
458.377	1075.25
458.598	1074.25
458.818	1080.25
459.038	1142.25
459.258	1160.25
459.478	1207.25
459.698	1226.25
459.918	1252.25
460.138	1283.25
460.358	1312.25
460.578	1365.25
460.798	1395.25
461.018	1406.25
461.238	1354.25
461.458	1374.25
461.678	1359.25
461.898	1390.25
462.118	1402.25
462.338	1493.25
462.558	1482.25
462.777	1582.25
462.997	1615.25
463.217	1689.25
463.437	1739.25
463.657	1643.25
463.876	1632.25
464.096	1570.25
464.316	1578.25
464.536	1569.25
464.755	1527.25
464.975	1489.25
465.195	1434.25
465.414	1354.25
465.634	1282.25
465.854	1240.25
466.073	1230.25
466.293	1198.25
466.512	1172.25
466.732	1139.25
466.951	1153.25
467.171	1158.25
467.391	1138.25
467.61	1122.25
467.829	1135.25
468.049	1097.25
468.268	1080.25
468.488	1075.25
468.707	1061.25
468.927	1097.25
469.146	1108.25
469.365	1141.25
469.585	1122.25
469.804	1125.25
470.023	1138.25
470.243	1172.25
470.462	1174.25
470.681	1180.25
470.901	1170.25
471.12	1160.25
471.339	1151.25
471.558	1123.25
471.777	1139.25
471.997	1093.25
472.216	1092.25
472.435	1081.25
472.654	1073.25
472.873	1079.25
473.092	1095.25
473.311	1072.25
473.53	1079.25
473.749	1065.25
473.968	1065.25
474.187	1039.25
474.406	1038.25
474.625	1079.25
474.844	1082.25
475.063	1073.25
475.282	1063.25
475.501	1078.25
475.72	1060.25
475.939	1069.25
476.158	1113.25
476.377	1081.25
476.596	1143.25
476.814	1138.25
477.033	1130.25
477.252	1118.25
477.471	1160.25
477.69	1191.25
477.908	1228.25
478.127	1225.25
478.346	1269.25
478.564	1303.25
478.783	1280.25
479.002	1346.25
479.22	1320.25
479.439	1310.25
479.658	1342.25
479.876	1307.25
480.095	1306.25
480.313	1365.25
480.532	1364.25
480.751	1360.25
480.969	1313.25
481.188	1305.25
481.406	1276.25
481.624	1271.25
481.843	1211.25
482.061	1218.25
482.28	1216.25
482.498	1201.25
482.717	1190.25
482.935	1254.25
483.153	1236.25
483.372	1235.25
483.59	1236.25
483.808	1231.25
484.027	1216.25
484.245	1258.25
484.463	1243.25
484.681	1243.25
484.9	1289.25
485.118	1241.25
485.336	1264.25
485.554	1262.25
485.772	1251.25
485.99	1296.25
486.209	1267.25
486.427	1288.25
486.645	1296.25
486.863	1280.25
487.081	1276.25
487.299	1283.25
487.517	1280.25
487.735	1284.25
487.953	1295.25
488.171	1248.25
488.389	1288.25
488.607	1264.25
488.825	1222.25
489.043	1244.25
489.261	1265.25
489.479	1255.25
489.696	1257.25
489.914	1265.25
490.132	1275.25
490.35	1273.25
490.568	1280.25
490.786	1280.25
491.003	1284.25
491.221	1325.25
491.439	1306.25
491.657	1277.25
491.874	1315.25
492.092	1355.25
492.31	1326.25
492.527	1367.25
492.745	1342.25
492.963	1331.25
493.18	1354.25
493.398	1355.25
493.615	1381.25
493.833	1363.25
494.05	1361.25
494.268	1374.25
494.485	1389.25
494.703	1416.25
