Data from Ni(NO3)2@0.125M.TitratingCurve.Agarose3%dH2O.NegLispCup.LampEnergy10.LIBS07252019_HRD10591_18-08-27-567.txt Node
Date: Thu Jul 25 18:08:27 EDT 2019
User: cochatt
Spectrometer: HR+D1059
Trigger mode: 1
Integration Time (sec): 1.000000E-1
Scans to average: 1
Electric dark correction enabled: true
Nonlinearity correction enabled: false
Boxcar width: 0
XAxis mode: Wavelengths
Number of Pixels in Spectrum: 2048
>>>>>Begin Spectral Data<<<<<
223.165	-20.19
223.4	-20.19
223.635	-20.19
223.869	-10.19
224.104	-25.19
224.338	-10.19
224.573	-18.19
224.808	7.81
225.042	-16.19
225.277	-16.19
225.511	-2.19
225.746	-0.19
225.98	12.81
226.215	6.81
226.449	16.81
226.683	20.81
226.918	20.81
227.152	32.81
227.387	20.81
227.621	40.81
227.856	40.81
228.09	49.81
228.324	59.81
228.559	56.81
228.793	75.81
229.027	104.81
229.262	123.81
229.496	119.81
229.73	131.81
229.964	142.81
230.199	141.81
230.433	141.81
230.667	157.81
230.901	162.81
231.136	142.81
231.37	147.81
231.604	134.81
231.838	168.81
232.072	186.81
232.306	175.81
232.541	160.81
232.775	163.81
233.009	166.81
233.243	159.81
233.477	168.81
233.711	159.81
233.945	155.81
234.179	156.81
234.413	163.81
234.647	147.81
234.881	152.81
235.115	177.81
235.349	167.81
235.583	150.81
235.817	162.81
236.051	162.81
236.285	163.81
236.519	175.81
236.753	165.81
236.987	171.81
237.221	170.81
237.455	168.81
237.689	178.81
237.922	176.81
238.156	172.81
238.39	178.81
238.624	178.81
238.858	162.81
239.091	175.81
239.325	199.81
239.559	180.81
239.793	200.81
240.027	190.81
240.26	188.81
240.494	192.81
240.728	199.81
240.961	192.81
241.195	209.81
241.429	205.81
241.662	185.81
241.896	202.81
242.13	211.81
242.363	198.81
242.597	217.81
242.83	223.81
243.064	215.81
243.298	235.81
243.531	216.81
243.765	217.81
243.998	215.81
244.232	234.81
244.465	225.81
244.699	252.81
244.932	249.81
245.166	214.81
245.399	232.81
245.633	216.81
245.866	224.81
246.099	241.81
246.333	245.81
246.566	246.81
246.8	237.81
247.033	255.81
247.266	232.81
247.5	255.81
247.733	274.81
247.966	262.81
248.2	270.81
248.433	261.81
248.666	265.81
248.899	260.81
249.133	261.81
249.366	275.81
249.599	283.81
249.832	279.81
250.066	269.81
250.299	287.81
250.532	266.81
250.765	305.81
250.998	295.81
251.231	292.81
251.465	301.81
251.698	322.81
251.931	307.81
252.164	294.81
252.397	300.81
252.63	319.81
252.863	300.81
253.096	294.81
253.329	311.81
253.562	329.81
253.795	311.81
254.028	324.81
254.261	326.81
254.494	339.81
254.727	324.81
254.96	335.81
255.193	337.81
255.426	336.81
255.659	319.81
255.892	326.81
256.124	339.81
256.357	341.81
256.59	343.81
256.823	344.81
257.056	349.81
257.289	339.81
257.521	357.81
257.754	367.81
257.987	358.81
258.22	373.81
258.452	365.81
258.685	358.81
258.918	363.81
259.151	362.81
259.383	342.81
259.616	391.81
259.849	353.81
260.081	363.81
260.314	379.81
260.547	376.81
260.779	368.81
261.012	394.81
261.244	396.81
261.477	401.81
261.71	395.81
261.942	367.81
262.175	392.81
262.407	395.81
262.64	391.81
262.872	393.81
263.105	409.81
263.337	412.81
263.57	379.81
263.802	412.81
264.035	414.81
264.267	412.81
264.499	405.81
264.732	409.81
264.964	422.81
265.197	427.81
265.429	421.81
265.661	433.81
265.894	434.81
266.126	448.81
266.358	424.81
266.591	417.81
266.823	431.81
267.055	446.81
267.287	445.81
267.52	429.81
267.752	424.81
267.984	433.81
268.216	433.81
268.448	439.81
268.681	439.81
268.913	448.81
269.145	443.81
269.377	449.81
269.609	436.81
269.841	452.81
270.073	450.81
270.306	440.81
270.538	438.81
270.77	446.81
271.002	447.81
271.234	447.81
271.466	443.81
271.698	462.81
271.93	452.81
272.162	466.81
272.394	454.81
272.626	455.81
272.858	469.81
273.09	459.81
273.322	465.81
273.553	458.81
273.785	470.81
274.017	475.81
274.249	489.81
274.481	491.81
274.713	492.81
274.945	489.81
275.176	496.81
275.408	478.81
275.64	492.81
275.872	497.81
276.104	480.81
276.335	488.81
276.567	503.81
276.799	482.81
277.031	505.81
277.262	515.81
277.494	493.81
277.726	517.81
277.957	521.81
278.189	516.81
278.421	493.81
278.652	520.81
278.884	503.81
279.115	521.81
279.347	524.81
279.579	513.81
279.81	507.81
280.042	515.81
280.273	539.81
280.505	541.81
280.736	539.81
280.968	523.81
281.199	532.81
281.431	538.81
281.662	540.81
281.894	533.81
282.125	549.81
282.356	545.81
282.588	547.81
282.819	534.81
283.051	556.81
283.282	545.81
283.513	570.81
283.745	541.81
283.976	537.81
284.207	557.81
284.439	581.81
284.67	583.81
284.901	575.81
285.132	569.81
285.364	573.81
285.595	571.81
285.826	592.81
286.057	602.81
286.288	574.81
286.52	580.81
286.751	591.81
286.982	596.81
287.213	583.81
287.444	597.81
287.675	567.81
287.906	576.81
288.138	605.81
288.369	617.81
288.6	618.81
288.831	609.81
289.062	569.81
289.293	578.81
289.524	608.81
289.755	601.81
289.986	612.81
290.217	614.81
290.448	615.81
290.679	619.81
290.91	603.81
291.141	620.81
291.371	582.81
291.602	617.81
291.833	598.81
292.064	611.81
292.295	616.81
292.526	600.81
292.757	616.81
292.987	617.81
293.218	592.81
293.449	633.81
293.68	618.81
293.91	627.81
294.141	608.81
294.372	597.81
294.603	612.81
294.833	600.81
295.064	600.81
295.295	609.81
295.525	615.81
295.756	628.81
295.987	625.81
296.217	638.81
296.448	639.81
296.679	652.81
296.909	640.81
297.14	617.81
297.37	630.81
297.601	641.81
297.831	652.81
298.062	651.81
298.292	667.81
298.523	681.81
298.753	689.81
298.984	653.81
299.214	671.81
299.445	685.81
299.675	674.81
299.905	665.81
300.136	643.81
300.366	697.81
300.597	695.81
300.827	721.81
301.057	710.81
301.288	688.81
301.518	714.81
301.748	706.81
301.979	708.81
302.209	711.81
302.439	726.81
302.669	696.81
302.9	680.81
303.13	678.81
303.36	677.81
303.59	693.81
303.82	694.81
304.051	716.81
304.281	716.81
304.511	688.81
304.741	695.81
304.971	708.81
305.201	706.81
305.431	694.81
305.661	711.81
305.891	696.81
306.121	682.81
306.352	680.81
306.582	690.81
306.812	706.81
307.042	684.81
307.272	707.81
307.502	697.81
307.731	697.81
307.961	680.81
308.191	661.81
308.421	651.81
308.651	687.81
308.881	665.81
309.111	668.81
309.341	687.81
309.571	680.81
309.8	676.81
310.03	712.81
310.26	687.81
310.49	700.81
310.72	678.81
310.949	697.81
311.179	695.81
311.409	701.81
311.639	723.81
311.868	700.81
312.098	711.81
312.328	731.81
312.557	713.81
312.787	706.81
313.017	719.81
313.246	708.81
313.476	739.81
313.706	751.81
313.935	746.81
314.165	751.81
314.394	746.81
314.624	728.81
314.853	737.81
315.083	738.81
315.312	738.81
315.542	722.81
315.771	740.81
316.001	737.81
316.23	731.81
316.46	735.81
316.689	755.81
316.919	735.81
317.148	737.81
317.377	751.81
317.607	743.81
317.836	727.81
318.065	735.81
318.295	717.81
318.524	725.81
318.753	728.81
318.983	725.81
319.212	732.81
319.441	741.81
319.67	742.81
319.9	760.81
320.129	753.81
320.358	746.81
320.587	775.81
320.816	756.81
321.046	752.81
321.275	753.81
321.504	758.81
321.733	750.81
321.962	768.81
322.191	779.81
322.42	761.81
322.649	764.81
322.878	784.81
323.108	773.81
323.337	765.81
323.566	780.81
323.795	796.81
324.024	785.81
324.253	804.81
324.482	794.81
324.71	822.81
324.939	803.81
325.168	796.81
325.397	812.81
325.626	803.81
325.855	825.81
326.084	841.81
326.313	804.81
326.542	838.81
326.77	845.81
326.999	853.81
327.228	849.81
327.457	844.81
327.686	831.81
327.914	856.81
328.143	837.81
328.372	842.81
328.6	858.81
328.829	875.81
329.058	848.81
329.287	852.81
329.515	857.81
329.744	851.81
329.972	884.81
330.201	880.81
330.43	866.81
330.658	889.81
330.887	882.81
331.115	885.81
331.344	889.81
331.572	933.81
331.801	938.81
332.03	951.81
332.258	976.81
332.486	983.81
332.715	992.81
332.943	1087.81
333.172	1105.81
333.4	1129.81
333.629	1152.81
333.857	1171.81
334.085	1167.81
334.314	1175.81
334.542	1140.81
334.771	1137.81
334.999	1110.81
335.227	1104.81
335.455	1085.81
335.684	1072.81
335.912	1069.81
336.14	1103.81
336.369	1056.81
336.597	1071.81
336.825	1052.81
337.053	1051.81
337.281	1035.81
337.51	1033.81
337.738	1002.81
337.966	1009.81
338.194	1000.81
338.422	991.81
338.65	970.81
338.878	951.81
339.106	975.81
339.334	977.81
339.562	964.81
339.79	910.81
340.018	939.81
340.246	899.81
340.474	894.81
340.702	927.81
340.93	940.81
341.158	945.81
341.386	945.81
341.614	951.81
341.842	944.81
342.07	893.81
342.298	923.81
342.526	922.81
342.754	924.81
342.981	920.81
343.209	921.81
343.437	967.81
343.665	1040.81
343.893	1105.81
344.12	1156.81
344.348	1097.81
344.576	1049.81
344.804	1019.81
345.031	947.81
345.259	965.81
345.487	948.81
345.714	953.81
345.942	941.81
346.17	925.81
346.397	917.81
346.625	901.81
346.853	897.81
347.08	914.81
347.308	885.81
347.535	932.81
347.763	899.81
347.99	880.81
348.218	887.81
348.445	905.81
348.673	889.81
348.9	893.81
349.128	895.81
349.355	898.81
349.583	915.81
349.81	899.81
350.037	880.81
350.265	881.81
350.492	863.81
350.72	843.81
350.947	866.81
351.174	879.81
351.402	879.81
351.629	889.81
351.856	868.81
352.083	863.81
352.311	882.81
352.538	891.81
352.765	885.81
352.992	829.81
353.22	823.81
353.447	856.81
353.674	835.81
353.901	819.81
354.128	852.81
354.355	846.81
354.583	859.81
354.81	842.81
355.037	859.81
355.264	825.81
355.491	834.81
355.718	837.81
355.945	832.81
356.172	856.81
356.399	854.81
356.626	857.81
356.853	859.81
357.08	843.81
357.307	848.81
357.534	846.81
357.761	893.81
357.988	874.81
358.215	855.81
358.441	833.81
358.668	863.81
358.895	853.81
359.122	827.81
359.349	879.81
359.576	829.81
359.802	834.81
360.029	844.81
360.256	820.81
360.483	832.81
360.709	840.81
360.936	849.81
361.163	841.81
361.39	864.81
361.616	868.81
361.843	866.81
362.07	894.81
362.296	873.81
362.523	853.81
362.749	849.81
362.976	839.81
363.203	856.81
363.429	825.81
363.656	823.81
363.882	820.81
364.109	839.81
364.335	826.81
364.562	834.81
364.788	843.81
365.015	832.81
365.241	845.81
365.468	815.81
365.694	821.81
365.92	854.81
366.147	825.81
366.373	854.81
366.599	839.81
366.826	808.81
367.052	837.81
367.278	827.81
367.505	843.81
367.731	885.81
367.957	842.81
368.184	837.81
368.41	843.81
368.636	825.81
368.862	846.81
369.089	864.81
369.315	845.81
369.541	857.81
369.767	896.81
369.993	884.81
370.219	867.81
370.445	888.81
370.672	868.81
370.898	887.81
371.124	893.81
371.35	909.81
371.576	914.81
371.802	920.81
372.028	916.81
372.254	893.81
372.48	887.81
372.706	935.81
372.932	955.81
373.158	952.81
373.384	916.81
373.61	907.81
373.835	893.81
374.061	887.81
374.287	930.81
374.513	961.81
374.739	948.81
374.965	975.81
375.191	987.81
375.416	987.81
375.642	944.81
375.868	938.81
376.094	932.81
376.319	927.81
376.545	895.81
376.771	908.81
376.997	900.81
377.222	919.81
377.448	927.81
377.674	882.81
377.899	889.81
378.125	897.81
378.35	893.81
378.576	909.81
378.802	892.81
379.027	893.81
379.253	881.81
379.478	880.81
379.704	877.81
379.929	901.81
380.155	887.81
380.38	897.81
380.606	891.81
380.831	896.81
381.057	916.81
381.282	870.81
381.507	901.81
381.733	921.81
381.958	884.81
382.184	903.81
382.409	930.81
382.634	932.81
382.86	916.81
383.085	907.81
383.31	963.81
383.535	964.81
383.761	986.81
383.986	1001.81
384.211	1001.81
384.436	1023.81
384.662	1031.81
384.887	1055.81
385.112	1068.81
385.337	1058.81
385.562	1058.81
385.787	1058.81
386.013	1091.81
386.238	1056.81
386.463	1050.81
386.688	1085.81
386.913	1067.81
387.138	1071.81
387.363	1043.81
387.588	1062.81
387.813	1071.81
388.038	1061.81
388.263	1065.81
388.488	1058.81
388.713	1054.81
388.938	1055.81
389.163	1056.81
389.387	1032.81
389.612	1038.81
389.837	1021.81
390.062	1021.81
390.287	1062.81
390.512	1020.81
390.736	1081.81
390.961	1089.81
391.186	1090.81
391.411	1094.81
391.636	1138.81
391.86	1195.81
392.085	1207.81
392.31	1225.81
392.534	1159.81
392.759	1142.81
392.984	1137.81
393.208	1128.81
393.433	1154.81
393.658	1128.81
393.882	1106.81
394.107	1106.81
394.331	1132.81
394.556	1129.81
394.78	1144.81
395.005	1171.81
395.229	1169.81
395.454	1160.81
395.678	1196.81
395.903	1193.81
396.127	1181.81
396.352	1173.81
396.576	1162.81
396.801	1108.81
397.025	1156.81
397.249	1161.81
397.474	1200.81
397.698	1190.81
397.922	1228.81
398.147	1192.81
398.371	1237.81
398.595	1249.81
398.82	1343.81
399.044	1452.81
399.268	1580.81
399.492	1763.81
399.717	2055.81
399.941	2008.81
400.165	1827.81
400.389	1643.81
400.613	1539.81
400.837	1439.81
401.062	1357.81
401.286	1368.81
401.51	1385.81
401.734	1379.81
401.958	1380.81
402.182	1426.81
402.406	1400.81
402.63	1424.81
402.854	1445.81
403.078	1483.81
403.302	1516.81
403.526	1534.81
403.75	1541.81
403.974	1574.81
404.198	1555.81
404.422	1564.81
404.645	1540.81
404.869	1532.81
405.093	1562.81
405.317	1514.81
405.541	1510.81
405.765	1505.81
405.988	1479.81
406.212	1505.81
406.436	1498.81
406.66	1515.81
406.883	1546.81
407.107	1653.81
407.331	1710.81
407.555	1773.81
407.778	1753.81
408.002	1717.81
408.226	1681.81
408.449	1673.81
408.673	1591.81
408.896	1526.81
409.12	1497.81
409.344	1526.81
409.567	1491.81
409.791	1536.81
410.014	1549.81
410.238	1520.81
410.461	1484.81
410.685	1487.81
410.908	1462.81
411.132	1449.81
411.355	1387.81
411.578	1432.81
411.802	1413.81
412.025	1419.81
412.249	1439.81
412.472	1463.81
412.695	1380.81
412.919	1382.81
413.142	1363.81
413.365	1373.81
413.589	1402.81
413.812	1355.81
414.035	1349.81
414.258	1358.81
414.482	1359.81
414.705	1395.81
414.928	1399.81
415.151	1403.81
415.374	1372.81
415.597	1380.81
415.821	1343.81
416.044	1352.81
416.267	1321.81
416.49	1348.81
416.713	1323.81
416.936	1348.81
417.159	1345.81
417.382	1344.81
417.605	1339.81
417.828	1359.81
418.051	1359.81
418.274	1370.81
418.497	1338.81
418.72	1450.81
418.943	1404.81
419.166	1475.81
419.389	1556.81
419.611	1509.81
419.834	1485.81
420.057	1400.81
420.28	1366.81
420.503	1350.81
420.726	1354.81
420.948	1315.81
421.171	1352.81
421.394	1367.81
421.617	1362.81
421.839	1393.81
422.062	1377.81
422.285	1383.81
422.507	1378.81
422.73	1391.81
422.953	1383.81
423.175	1442.81
423.398	1460.81
423.621	1449.81
423.843	1432.81
424.066	1477.81
424.288	1448.81
424.511	1455.81
424.733	1442.81
424.956	1409.81
425.178	1432.81
425.401	1383.81
425.623	1350.81
425.846	1353.81
426.068	1298.81
426.291	1352.81
426.513	1290.81
426.735	1263.81
426.958	1297.81
427.18	1273.81
427.402	1221.81
427.625	1256.81
427.847	1240.81
428.069	1205.81
428.292	1244.81
428.514	1235.81
428.736	1185.81
428.958	1224.81
429.181	1190.81
429.403	1216.81
429.625	1188.81
429.847	1171.81
430.069	1178.81
430.292	1192.81
430.514	1169.81
430.736	1188.81
430.958	1216.81
431.18	1188.81
431.402	1199.81
431.624	1187.81
431.846	1209.81
432.068	1252.81
432.29	1251.81
432.512	1217.81
432.734	1266.81
432.956	1252.81
433.178	1290.81
433.4	1228.81
433.622	1254.81
433.844	1245.81
434.066	1263.81
434.287	1257.81
434.509	1266.81
434.731	1311.81
434.953	1378.81
435.175	1430.81
435.397	1395.81
435.618	1357.81
435.84	1257.81
436.062	1247.81
436.284	1212.81
436.505	1261.81
436.727	1235.81
436.949	1235.81
437.17	1182.81
437.392	1192.81
437.614	1208.81
437.835	1202.81
438.057	1185.81
438.278	1172.81
438.5	1169.81
438.721	1166.81
438.943	1174.81
439.165	1184.81
439.386	1186.81
439.608	1228.81
439.829	1237.81
440.05	1216.81
440.272	1259.81
440.493	1277.81
440.715	1235.81
440.936	1319.81
441.158	1307.81
441.379	1336.81
441.6	1383.81
441.822	1428.81
442.043	1409.81
442.264	1405.81
442.486	1357.81
442.707	1367.81
442.928	1351.81
443.149	1346.81
443.371	1363.81
443.592	1400.81
443.813	1414.81
444.034	1440.81
444.255	1491.81
444.476	1511.81
444.698	1643.81
444.919	1723.81
445.14	1741.81
445.361	1616.81
445.582	1468.81
445.803	1367.81
446.024	1313.81
446.245	1283.81
446.466	1275.81
446.687	1256.81
446.908	1258.81
447.129	1252.81
447.35	1213.81
447.571	1243.81
447.792	1147.81
448.013	1167.81
448.234	1151.81
448.455	1155.81
448.675	1157.81
448.896	1135.81
449.117	1112.81
449.338	1123.81
449.559	1078.81
449.779	1077.81
450	1100.81
450.221	1141.81
450.442	1167.81
450.662	1140.81
450.883	1135.81
451.104	1191.81
451.324	1199.81
451.545	1148.81
451.766	1170.81
451.986	1143.81
452.207	1132.81
452.428	1124.81
452.648	1118.81
452.869	1112.81
453.089	1100.81
453.31	1109.81
453.53	1095.81
453.751	1136.81
453.971	1107.81
454.192	1100.81
454.412	1073.81
454.633	1061.81
454.853	1079.81
455.073	1056.81
455.294	1066.81
455.514	1057.81
455.734	1056.81
455.955	1043.81
456.175	1082.81
456.395	1053.81
456.616	1036.81
456.836	1056.81
457.056	1048.81
457.276	1022.81
457.497	1083.81
457.717	1071.81
457.937	1055.81
458.157	1083.81
458.377	1080.81
458.598	1112.81
458.818	1114.81
459.038	1184.81
459.258	1188.81
459.478	1238.81
459.698	1301.81
459.918	1341.81
460.138	1424.81
460.358	1455.81
460.578	1470.81
460.798	1504.81
461.018	1492.81
461.238	1467.81
461.458	1451.81
461.678	1440.81
461.898	1485.81
462.118	1484.81
462.338	1585.81
462.558	1629.81
462.777	1699.81
462.997	1856.81
463.217	1970.81
463.437	1979.81
463.657	1827.81
463.876	1769.81
464.096	1729.81
464.316	1755.81
464.536	1721.81
464.755	1666.81
464.975	1624.81
465.195	1520.81
465.414	1431.81
465.634	1335.81
465.854	1276.81
466.073	1284.81
466.293	1263.81
466.512	1227.81
466.732	1199.81
466.951	1226.81
467.171	1189.81
467.391	1188.81
467.61	1181.81
467.829	1195.81
468.049	1167.81
468.268	1137.81
468.488	1145.81
468.707	1144.81
468.927	1129.81
469.146	1169.81
469.365	1147.81
469.585	1179.81
469.804	1203.81
470.023	1219.81
470.243	1237.81
470.462	1244.81
470.681	1247.81
470.901	1237.81
471.12	1220.81
471.339	1192.81
471.558	1181.81
471.777	1160.81
471.997	1141.81
472.216	1133.81
472.435	1137.81
472.654	1104.81
472.873	1105.81
473.092	1134.81
473.311	1141.81
473.53	1109.81
473.749	1101.81
473.968	1108.81
474.187	1122.81
474.406	1090.81
474.625	1130.81
474.844	1137.81
475.063	1142.81
475.282	1121.81
475.501	1141.81
475.72	1140.81
475.939	1130.81
476.158	1182.81
476.377	1181.81
476.596	1208.81
476.814	1165.81
477.033	1196.81
477.252	1203.81
477.471	1236.81
477.69	1243.81
477.908	1296.81
478.127	1289.81
478.346	1323.81
478.564	1368.81
478.783	1410.81
479.002	1443.81
479.22	1456.81
479.439	1444.81
479.658	1431.81
479.876	1413.81
480.095	1413.81
480.313	1493.81
480.532	1535.81
480.751	1505.81
480.969	1489.81
481.188	1374.81
481.406	1355.81
481.624	1321.81
481.843	1290.81
482.061	1304.81
482.28	1321.81
482.498	1304.81
482.717	1297.81
482.935	1285.81
483.153	1268.81
483.372	1305.81
483.59	1310.81
483.808	1295.81
484.027	1251.81
484.245	1307.81
484.463	1309.81
484.681	1320.81
484.9	1314.81
485.118	1307.81
485.336	1320.81
485.554	1349.81
485.772	1339.81
485.99	1356.81
486.209	1388.81
486.427	1358.81
486.645	1363.81
486.863	1343.81
487.081	1357.81
487.299	1356.81
487.517	1328.81
487.735	1338.81
487.953	1336.81
488.171	1352.81
488.389	1352.81
488.607	1306.81
488.825	1315.81
489.043	1316.81
489.261	1292.81
489.479	1327.81
489.696	1336.81
489.914	1288.81
490.132	1355.81
490.35	1348.81
490.568	1359.81
490.786	1350.81
491.003	1388.81
491.221	1387.81
491.439	1336.81
491.657	1367.81
491.874	1381.81
492.092	1359.81
492.31	1405.81
492.527	1411.81
492.745	1378.81
492.963	1396.81
493.18	1393.81
493.398	1421.81
493.615	1409.81
493.833	1416.81
494.05	1431.81
494.268	1443.81
