Data from Ni(NO3)2@0.125M.TitratingCurve.Agarose3%dH2O.NegLispCup.LampEnergy10.LIBS07252019_HRD10591_18-08-44-567.txt Node
Date: Thu Jul 25 18:08:44 EDT 2019
User: cochatt
Spectrometer: HR+D1059
Trigger mode: 1
Integration Time (sec): 1.000000E-1
Scans to average: 1
Electric dark correction enabled: true
Nonlinearity correction enabled: false
Boxcar width: 0
XAxis mode: Wavelengths
Number of Pixels in Spectrum: 2048
>>>>>Begin Spectral Data<<<<<
223.165	-16.69
223.4	-16.69
223.635	-16.69
223.869	-7.69
224.104	-15.69
224.338	-20.69
224.573	-6.69
224.808	-13.69
225.042	-5.69
225.277	-5.69
225.511	-13.69
225.746	3.31
225.98	0.31
226.215	19.31
226.449	10.31
226.683	12.31
226.918	23.31
227.152	37.31
227.387	42.31
227.621	33.31
227.856	42.31
228.09	41.31
228.324	55.31
228.559	49.31
228.793	62.31
229.027	106.31
229.262	133.31
229.496	122.31
229.73	133.31
229.964	139.31
230.199	137.31
230.433	139.31
230.667	142.31
230.901	131.31
231.136	145.31
231.37	161.31
231.604	154.31
231.838	151.31
232.072	153.31
232.306	149.31
232.541	159.31
232.775	151.31
233.009	141.31
233.243	150.31
233.477	148.31
233.711	141.31
233.945	136.31
234.179	152.31
234.413	149.31
234.647	152.31
234.881	141.31
235.115	157.31
235.349	145.31
235.583	148.31
235.817	135.31
236.051	166.31
236.285	152.31
236.519	151.31
236.753	161.31
236.987	155.31
237.221	151.31
237.455	157.31
237.689	165.31
237.922	157.31
238.156	160.31
238.39	168.31
238.624	169.31
238.858	169.31
239.091	156.31
239.325	159.31
239.559	180.31
239.793	177.31
240.027	183.31
240.26	159.31
240.494	170.31
240.728	162.31
240.961	194.31
241.195	194.31
241.429	194.31
241.662	193.31
241.896	191.31
242.13	189.31
242.363	201.31
242.597	202.31
242.83	201.31
243.064	202.31
243.298	205.31
243.531	223.31
243.765	219.31
243.998	197.31
244.232	212.31
244.465	202.31
244.699	200.31
244.932	206.31
245.166	207.31
245.399	244.31
245.633	215.31
245.866	214.31
246.099	221.31
246.333	221.31
246.566	213.31
246.8	226.31
247.033	241.31
247.266	228.31
247.5	231.31
247.733	234.31
247.966	235.31
248.2	225.31
248.433	238.31
248.666	227.31
248.899	238.31
249.133	234.31
249.366	236.31
249.599	254.31
249.832	232.31
250.066	241.31
250.299	245.31
250.532	260.31
250.765	262.31
250.998	260.31
251.231	249.31
251.465	288.31
251.698	271.31
251.931	252.31
252.164	272.31
252.397	266.31
252.63	275.31
252.863	271.31
253.096	281.31
253.329	289.31
253.562	267.31
253.795	268.31
254.028	284.31
254.261	266.31
254.494	323.31
254.727	293.31
254.96	286.31
255.193	279.31
255.426	269.31
255.659	289.31
255.892	299.31
256.124	290.31
256.357	302.31
256.59	285.31
256.823	318.31
257.056	314.31
257.289	317.31
257.521	301.31
257.754	314.31
257.987	311.31
258.22	308.31
258.452	310.31
258.685	322.31
258.918	314.31
259.151	317.31
259.383	330.31
259.616	319.31
259.849	322.31
260.081	312.31
260.314	344.31
260.547	335.31
260.779	312.31
261.012	352.31
261.244	368.31
261.477	343.31
261.71	345.31
261.942	347.31
262.175	332.31
262.407	343.31
262.64	356.31
262.872	369.31
263.105	338.31
263.337	339.31
263.57	363.31
263.802	386.31
264.035	351.31
264.267	353.31
264.499	361.31
264.732	362.31
264.964	359.31
265.197	372.31
265.429	341.31
265.661	358.31
265.894	372.31
266.126	359.31
266.358	354.31
266.591	346.31
266.823	375.31
267.055	383.31
267.287	384.31
267.52	365.31
267.752	383.31
267.984	376.31
268.216	384.31
268.448	370.31
268.681	397.31
268.913	379.31
269.145	382.31
269.377	362.31
269.609	387.31
269.841	388.31
270.073	385.31
270.306	385.31
270.538	393.31
270.77	389.31
271.002	391.31
271.234	389.31
271.466	398.31
271.698	395.31
271.93	411.31
272.162	422.31
272.394	409.31
272.626	389.31
272.858	393.31
273.09	406.31
273.322	412.31
273.553	414.31
273.785	405.31
274.017	417.31
274.249	416.31
274.481	399.31
274.713	422.31
274.945	418.31
275.176	434.31
275.408	430.31
275.64	413.31
275.872	407.31
276.104	434.31
276.335	432.31
276.567	426.31
276.799	439.31
277.031	427.31
277.262	427.31
277.494	429.31
277.726	439.31
277.957	458.31
278.189	459.31
278.421	460.31
278.652	442.31
278.884	458.31
279.115	452.31
279.347	458.31
279.579	459.31
279.81	446.31
280.042	461.31
280.273	456.31
280.505	467.31
280.736	471.31
280.968	468.31
281.199	474.31
281.431	462.31
281.662	470.31
281.894	463.31
282.125	476.31
282.356	494.31
282.588	481.31
282.819	462.31
283.051	497.31
283.282	474.31
283.513	492.31
283.745	477.31
283.976	488.31
284.207	493.31
284.439	499.31
284.67	483.31
284.901	482.31
285.132	512.31
285.364	485.31
285.595	487.31
285.826	501.31
286.057	504.31
286.288	501.31
286.52	511.31
286.751	504.31
286.982	498.31
287.213	526.31
287.444	500.31
287.675	503.31
287.906	502.31
288.138	505.31
288.369	523.31
288.6	509.31
288.831	514.31
289.062	523.31
289.293	500.31
289.524	513.31
289.755	533.31
289.986	519.31
290.217	503.31
290.448	554.31
290.679	528.31
290.91	534.31
291.141	501.31
291.371	539.31
291.602	537.31
291.833	535.31
292.064	543.31
292.295	544.31
292.526	546.31
292.757	518.31
292.987	524.31
293.218	485.31
293.449	530.31
293.68	545.31
293.91	524.31
294.141	528.31
294.372	540.31
294.603	530.31
294.833	551.31
295.064	543.31
295.295	564.31
295.525	517.31
295.756	557.31
295.987	564.31
296.217	555.31
296.448	543.31
296.679	546.31
296.909	546.31
297.14	566.31
297.37	555.31
297.601	556.31
297.831	583.31
298.062	577.31
298.292	589.31
298.523	596.31
298.753	586.31
298.984	599.31
299.214	587.31
299.445	581.31
299.675	575.31
299.905	596.31
300.136	570.31
300.366	575.31
300.597	572.31
300.827	591.31
301.057	604.31
301.288	601.31
301.518	601.31
301.748	597.31
301.979	601.31
302.209	591.31
302.439	602.31
302.669	600.31
302.9	594.31
303.13	589.31
303.36	607.31
303.59	597.31
303.82	593.31
304.051	612.31
304.281	578.31
304.511	582.31
304.741	594.31
304.971	605.31
305.201	604.31
305.431	609.31
305.661	587.31
305.891	604.31
306.121	583.31
306.352	587.31
306.582	572.31
306.812	587.31
307.042	585.31
307.272	592.31
307.502	583.31
307.731	582.31
307.961	590.31
308.191	587.31
308.421	599.31
308.651	581.31
308.881	574.31
309.111	604.31
309.341	574.31
309.571	562.31
309.8	593.31
310.03	595.31
310.26	618.31
310.49	602.31
310.72	591.31
310.949	593.31
311.179	582.31
311.409	605.31
311.639	582.31
311.868	591.31
312.098	598.31
312.328	606.31
312.557	594.31
312.787	600.31
313.017	629.31
313.246	613.31
313.476	631.31
313.706	661.31
313.935	633.31
314.165	616.31
314.394	643.31
314.624	625.31
314.853	611.31
315.083	626.31
315.312	609.31
315.542	611.31
315.771	619.31
316.001	628.31
316.23	625.31
316.46	608.31
316.689	611.31
316.919	638.31
317.148	614.31
317.377	631.31
317.607	606.31
317.836	617.31
318.065	609.31
318.295	639.31
318.524	613.31
318.753	609.31
318.983	613.31
319.212	614.31
319.441	595.31
319.67	630.31
319.9	630.31
320.129	633.31
320.358	609.31
320.587	611.31
320.816	623.31
321.046	610.31
321.275	641.31
321.504	621.31
321.733	632.31
321.962	649.31
322.191	633.31
322.42	647.31
322.649	654.31
322.878	636.31
323.108	636.31
323.337	652.31
323.566	650.31
323.795	662.31
324.024	668.31
324.253	637.31
324.482	660.31
324.71	676.31
324.939	671.31
325.168	694.31
325.397	669.31
325.626	683.31
325.855	671.31
326.084	718.31
326.313	715.31
326.542	728.31
326.77	711.31
326.999	680.31
327.228	685.31
327.457	717.31
327.686	696.31
327.914	714.31
328.143	697.31
328.372	691.31
328.6	718.31
328.829	714.31
329.058	702.31
329.287	717.31
329.515	709.31
329.744	725.31
329.972	714.31
330.201	691.31
330.43	733.31
330.658	727.31
330.887	733.31
331.115	746.31
331.344	734.31
331.572	771.31
331.801	771.31
332.03	769.31
332.258	796.31
332.486	816.31
332.715	828.31
332.943	852.31
333.172	882.31
333.4	945.31
333.629	967.31
333.857	948.31
334.085	918.31
334.314	956.31
334.542	914.31
334.771	906.31
334.999	886.31
335.227	905.31
335.455	869.31
335.684	887.31
335.912	886.31
336.14	866.31
336.369	879.31
336.597	880.31
336.825	881.31
337.053	891.31
337.281	884.31
337.51	840.31
337.738	827.31
337.966	818.31
338.194	817.31
338.422	791.31
338.65	775.31
338.878	776.31
339.106	794.31
339.334	780.31
339.562	760.31
339.79	769.31
340.018	780.31
340.246	743.31
340.474	764.31
340.702	745.31
340.93	754.31
341.158	765.31
341.386	801.31
341.614	820.31
341.842	769.31
342.07	730.31
342.298	737.31
342.526	732.31
342.754	749.31
342.981	750.31
343.209	775.31
343.437	807.31
343.665	864.31
343.893	917.31
344.12	929.31
344.348	926.31
344.576	882.31
344.804	849.31
345.031	807.31
345.259	772.31
345.487	777.31
345.714	769.31
345.942	748.31
346.17	758.31
346.397	773.31
346.625	751.31
346.853	757.31
347.08	731.31
347.308	755.31
347.535	769.31
347.763	767.31
347.99	742.31
348.218	766.31
348.445	754.31
348.673	761.31
348.9	741.31
349.128	740.31
349.355	725.31
349.583	758.31
349.81	725.31
350.037	713.31
350.265	694.31
350.492	708.31
350.72	707.31
350.947	697.31
351.174	699.31
351.402	722.31
351.629	732.31
351.856	706.31
352.083	730.31
352.311	741.31
352.538	735.31
352.765	746.31
352.992	713.31
353.22	683.31
353.447	710.31
353.674	686.31
353.901	702.31
354.128	700.31
354.355	691.31
354.583	732.31
354.81	707.31
355.037	708.31
355.264	689.31
355.491	705.31
355.718	711.31
355.945	715.31
356.172	690.31
356.399	731.31
356.626	733.31
356.853	713.31
357.08	723.31
357.307	709.31
357.534	701.31
357.761	684.31
357.988	706.31
358.215	707.31
358.441	711.31
358.668	679.31
358.895	711.31
359.122	697.31
359.349	719.31
359.576	707.31
359.802	727.31
360.029	715.31
360.256	700.31
360.483	717.31
360.709	674.31
360.936	700.31
361.163	697.31
361.39	714.31
361.616	710.31
361.843	708.31
362.07	719.31
362.296	725.31
362.523	684.31
362.749	691.31
362.976	675.31
363.203	681.31
363.429	710.31
363.656	691.31
363.882	694.31
364.109	673.31
364.335	678.31
364.562	684.31
364.788	687.31
365.015	690.31
365.241	677.31
365.468	677.31
365.694	691.31
365.92	689.31
366.147	697.31
366.373	709.31
366.599	699.31
366.826	675.31
367.052	683.31
367.278	720.31
367.505	695.31
367.731	706.31
367.957	686.31
368.184	713.31
368.41	688.31
368.636	699.31
368.862	703.31
369.089	711.31
369.315	716.31
369.541	715.31
369.767	724.31
369.993	713.31
370.219	704.31
370.445	729.31
370.672	731.31
370.898	721.31
371.124	722.31
371.35	747.31
371.576	768.31
371.802	748.31
372.028	765.31
372.254	749.31
372.48	752.31
372.706	776.31
372.932	758.31
373.158	785.31
373.384	750.31
373.61	748.31
373.835	757.31
374.061	745.31
374.287	740.31
374.513	744.31
374.739	792.31
374.965	803.31
375.191	821.31
375.416	846.31
375.642	787.31
375.868	789.31
376.094	777.31
376.319	763.31
376.545	744.31
376.771	763.31
376.997	746.31
377.222	774.31
377.448	748.31
377.674	740.31
377.899	710.31
378.125	742.31
378.35	731.31
378.576	747.31
378.802	763.31
379.027	744.31
379.253	748.31
379.478	724.31
379.704	716.31
379.929	734.31
380.155	743.31
380.38	747.31
380.606	787.31
380.831	738.31
381.057	765.31
381.282	735.31
381.507	747.31
381.733	756.31
381.958	749.31
382.184	755.31
382.409	747.31
382.634	769.31
382.86	775.31
383.085	795.31
383.31	795.31
383.535	841.31
383.761	813.31
383.986	853.31
384.211	855.31
384.436	875.31
384.662	887.31
384.887	871.31
385.112	881.31
385.337	901.31
385.562	896.31
385.787	902.31
386.013	940.31
386.238	910.31
386.463	902.31
386.688	895.31
386.913	879.31
387.138	867.31
387.363	857.31
387.588	874.31
387.813	887.31
388.038	888.31
388.263	891.31
388.488	884.31
388.713	874.31
388.938	864.31
389.163	856.31
389.387	871.31
389.612	858.31
389.837	846.31
390.062	871.31
390.287	839.31
390.512	871.31
390.736	866.31
390.961	867.31
391.186	893.31
391.411	919.31
391.636	936.31
391.86	953.31
392.085	999.31
392.31	999.31
392.534	954.31
392.759	947.31
392.984	962.31
393.208	925.31
393.433	946.31
393.658	935.31
393.882	922.31
394.107	910.31
394.331	948.31
394.556	927.31
394.78	934.31
395.005	953.31
395.229	966.31
395.454	1007.31
395.678	999.31
395.903	997.31
396.127	968.31
396.352	936.31
396.576	954.31
396.801	932.31
397.025	942.31
397.249	949.31
397.474	993.31
397.698	966.31
397.922	994.31
398.147	989.31
398.371	990.31
398.595	1030.31
398.82	1045.31
399.044	1143.31
399.268	1289.31
399.492	1469.31
399.717	1669.31
399.941	1663.31
400.165	1453.31
400.389	1326.31
400.613	1207.31
400.837	1158.31
401.062	1096.31
401.286	1099.31
401.51	1114.31
401.734	1097.31
401.958	1099.31
402.182	1131.31
402.406	1135.31
402.63	1181.31
402.854	1155.31
403.078	1188.31
403.302	1234.31
403.526	1225.31
403.75	1277.31
403.974	1278.31
404.198	1245.31
404.422	1301.31
404.645	1281.31
404.869	1258.31
405.093	1244.31
405.317	1219.31
405.541	1244.31
405.765	1215.31
405.988	1182.31
406.212	1213.31
406.436	1223.31
406.66	1254.31
406.883	1254.31
407.107	1361.31
407.331	1414.31
407.555	1453.31
407.778	1441.31
408.002	1419.31
408.226	1371.31
408.449	1324.31
408.673	1288.31
408.896	1301.31
409.12	1258.31
409.344	1261.31
409.567	1257.31
409.791	1256.31
410.014	1265.31
410.238	1259.31
410.461	1242.31
410.685	1211.31
410.908	1195.31
411.132	1190.31
411.355	1126.31
411.578	1163.31
411.802	1121.31
412.025	1159.31
412.249	1212.31
412.472	1193.31
412.695	1114.31
412.919	1137.31
413.142	1132.31
413.365	1120.31
413.589	1114.31
413.812	1087.31
414.035	1092.31
414.258	1114.31
414.482	1121.31
414.705	1115.31
414.928	1144.31
415.151	1131.31
415.374	1106.31
415.597	1122.31
415.821	1077.31
416.044	1082.31
416.267	1085.31
416.49	1067.31
416.713	1076.31
416.936	1101.31
417.159	1088.31
417.382	1091.31
417.605	1086.31
417.828	1103.31
418.051	1121.31
418.274	1107.31
418.497	1115.31
418.72	1157.31
418.943	1137.31
419.166	1220.31
419.389	1294.31
419.611	1288.31
419.834	1228.31
420.057	1191.31
420.28	1177.31
420.503	1109.31
420.726	1112.31
420.948	1098.31
421.171	1097.31
421.394	1101.31
421.617	1137.31
421.839	1126.31
422.062	1108.31
422.285	1106.31
422.507	1148.31
422.73	1159.31
422.953	1153.31
423.175	1173.31
423.398	1181.31
423.621	1178.31
423.843	1235.31
424.066	1203.31
424.288	1194.31
424.511	1177.31
424.733	1166.31
424.956	1152.31
425.178	1143.31
425.401	1119.31
425.623	1128.31
425.846	1095.31
426.068	1085.31
426.291	1060.31
426.513	1065.31
426.735	1061.31
426.958	1055.31
427.18	1022.31
427.402	1022.31
427.625	1037.31
427.847	1025.31
428.069	1017.31
428.292	1028.31
428.514	1036.31
428.736	1014.31
428.958	1031.31
429.181	1000.31
429.403	964.31
429.625	983.31
429.847	970.31
430.069	994.31
430.292	972.31
430.514	1029.31
430.736	1007.31
430.958	982.31
431.18	988.31
431.402	1002.31
431.624	1001.31
431.846	1037.31
432.068	1014.31
432.29	1041.31
432.512	1025.31
432.734	996.31
432.956	1014.31
433.178	1050.31
433.4	1017.31
433.622	1040.31
433.844	1033.31
434.066	1052.31
434.287	1061.31
434.509	1092.31
434.731	1091.31
434.953	1151.31
435.175	1178.31
435.397	1130.31
435.618	1069.31
435.84	1094.31
436.062	1041.31
436.284	1022.31
436.505	999.31
436.727	1040.31
436.949	1021.31
437.17	1023.31
437.392	1011.31
437.614	998.31
437.835	992.31
438.057	967.31
438.278	951.31
438.5	978.31
438.721	977.31
438.943	995.31
439.165	1027.31
439.386	996.31
439.608	1028.31
439.829	994.31
440.05	1049.31
440.272	1034.31
440.493	1051.31
440.715	1046.31
440.936	1040.31
441.158	1089.31
441.379	1125.31
441.6	1162.31
441.822	1191.31
442.043	1179.31
442.264	1117.31
442.486	1131.31
442.707	1123.31
442.928	1147.31
443.149	1156.31
443.371	1143.31
443.592	1177.31
443.813	1168.31
444.034	1198.31
444.255	1221.31
444.476	1254.31
444.698	1354.31
444.919	1369.31
445.14	1495.31
445.361	1347.31
445.582	1205.31
445.803	1136.31
446.024	1108.31
446.245	1095.31
446.466	1063.31
446.687	1039.31
446.908	1057.31
447.129	1042.31
447.35	993.31
447.571	997.31
447.792	980.31
448.013	990.31
448.234	956.31
448.455	961.31
448.675	961.31
448.896	950.31
449.117	943.31
449.338	935.31
449.559	952.31
449.779	933.31
450	917.31
450.221	958.31
450.442	967.31
450.662	957.31
450.883	975.31
451.104	1031.31
451.324	979.31
451.545	976.31
451.766	972.31
451.986	968.31
452.207	965.31
452.428	950.31
452.648	974.31
452.869	930.31
453.089	941.31
453.31	962.31
453.53	951.31
453.751	928.31
453.971	922.31
454.192	918.31
454.412	902.31
454.633	912.31
454.853	902.31
455.073	895.31
455.294	891.31
455.514	892.31
455.734	897.31
455.955	895.31
456.175	918.31
456.395	873.31
456.616	877.31
456.836	884.31
457.056	894.31
457.276	871.31
457.497	881.31
457.717	886.31
457.937	902.31
458.157	914.31
458.377	908.31
458.598	982.31
458.818	974.31
459.038	962.31
459.258	1001.31
459.478	1079.31
459.698	1074.31
459.918	1099.31
460.138	1141.31
460.358	1215.31
460.578	1220.31
460.798	1249.31
461.018	1257.31
461.238	1214.31
461.458	1210.31
461.678	1212.31
461.898	1230.31
462.118	1229.31
462.338	1304.31
462.558	1324.31
462.777	1371.31
462.997	1521.31
463.217	1640.31
463.437	1685.31
463.657	1556.31
463.876	1453.31
464.096	1436.31
464.316	1440.31
464.536	1463.31
464.755	1405.31
464.975	1353.31
465.195	1247.31
465.414	1205.31
465.634	1106.31
465.854	1124.31
466.073	1070.31
466.293	1068.31
466.512	1027.31
466.732	1001.31
466.951	1017.31
467.171	1004.31
467.391	1022.31
467.61	960.31
467.829	993.31
468.049	976.31
468.268	957.31
468.488	964.31
468.707	955.31
468.927	985.31
469.146	961.31
469.365	970.31
469.585	978.31
469.804	989.31
470.023	1005.31
470.243	1028.31
470.462	1051.31
470.681	1063.31
470.901	1036.31
471.12	1029.31
471.339	1011.31
471.558	1019.31
471.777	999.31
471.997	978.31
472.216	970.31
472.435	974.31
472.654	927.31
472.873	913.31
473.092	919.31
473.311	919.31
473.53	938.31
473.749	942.31
473.968	939.31
474.187	900.31
474.406	914.31
474.625	971.31
474.844	964.31
475.063	956.31
475.282	940.31
475.501	960.31
475.72	921.31
475.939	956.31
476.158	966.31
476.377	986.31
476.596	974.31
476.814	998.31
477.033	1003.31
477.252	1009.31
477.471	1045.31
477.69	1058.31
477.908	1091.31
478.127	1113.31
478.346	1124.31
478.564	1145.31
478.783	1161.31
479.002	1234.31
479.22	1203.31
479.439	1165.31
479.658	1142.31
479.876	1177.31
480.095	1178.31
480.313	1219.31
480.532	1262.31
480.751	1255.31
480.969	1224.31
481.188	1171.31
481.406	1133.31
481.624	1099.31
481.843	1092.31
482.061	1061.31
482.28	1071.31
482.498	1095.31
482.717	1053.31
482.935	1090.31
483.153	1081.31
483.372	1106.31
483.59	1102.31
483.808	1090.31
484.027	1103.31
484.245	1075.31
484.463	1082.31
484.681	1089.31
484.9	1098.31
485.118	1115.31
485.336	1140.31
485.554	1124.31
485.772	1165.31
485.99	1149.31
486.209	1152.31
486.427	1125.31
486.645	1144.31
486.863	1166.31
487.081	1107.31
487.299	1146.31
487.517	1143.31
487.735	1131.31
487.953	1139.31
488.171	1139.31
488.389	1147.31
488.607	1118.31
488.825	1090.31
489.043	1095.31
489.261	1095.31
489.479	1093.31
489.696	1086.31
489.914	1142.31
490.132	1133.31
490.35	1135.31
490.568	1139.31
490.786	1144.31
491.003	1134.31
491.221	1157.31
491.439	1153.31
491.657	1163.31
491.874	1154.31
492.092	1178.31
492.31	1157.31
492.527	1182.31
492.745	1191.31
492.963	1200.31
493.18	1166.31
493.398	1194.31
493.615	1163.31
493.833	1194.31
494.05	1194.31
494.268	1213.31
494.485	1217.31
494.703	1204.31
494.92	1218.31
495.138	1213.31
495.355	1199.31
495.573	1233.31
495.79	1191.31
496.008	1193.31
496.225	1187.31
496.442	1221.31
496.66	1268.31
496.877	1245.31
