Data from Ni(NO3)2@0.0625M.TitratingCurve.Agarose3%dH2O.NegLispCup.LampEnergy10.LIBS07252019_HRD10591_18-13-20-568.txt Node
Date: Thu Jul 25 18:13:20 EDT 2019
User: cochatt
Spectrometer: HR+D1059
Trigger mode: 1
Integration Time (sec): 1.000000E-1
Scans to average: 1
Electric dark correction enabled: true
Nonlinearity correction enabled: false
Boxcar width: 0
XAxis mode: Wavelengths
Number of Pixels in Spectrum: 2048
>>>>>Begin Spectral Data<<<<<
223.165	-10.69
223.4	-10.69
223.635	-10.69
223.869	-16.69
224.104	-20.69
224.338	-12.69
224.573	-20.69
224.808	-22.69
225.042	-18.69
225.277	-0.69
225.511	11.31
225.746	8.31
225.98	-3.69
226.215	21.31
226.449	14.31
226.683	22.31
226.918	19.31
227.152	30.31
227.387	32.31
227.621	28.31
227.856	48.31
228.09	38.31
228.324	39.31
228.559	59.31
228.793	57.31
229.027	93.31
229.262	86.31
229.496	100.31
229.73	115.31
229.964	115.31
230.199	130.31
230.433	119.31
230.667	124.31
230.901	112.31
231.136	127.31
231.37	123.31
231.604	113.31
231.838	129.31
232.072	122.31
232.306	119.31
232.541	135.31
232.775	136.31
233.009	123.31
233.243	116.31
233.477	129.31
233.711	120.31
233.945	126.31
234.179	135.31
234.413	127.31
234.647	152.31
234.881	138.31
235.115	132.31
235.349	133.31
235.583	133.31
235.817	141.31
236.051	126.31
236.285	127.31
236.519	160.31
236.753	133.31
236.987	149.31
237.221	145.31
237.455	137.31
237.689	139.31
237.922	123.31
238.156	149.31
238.39	131.31
238.624	149.31
238.858	154.31
239.091	144.31
239.325	141.31
239.559	155.31
239.793	145.31
240.027	134.31
240.26	167.31
240.494	148.31
240.728	155.31
240.961	155.31
241.195	153.31
241.429	160.31
241.662	147.31
241.896	166.31
242.13	161.31
242.363	152.31
242.597	156.31
242.83	155.31
243.064	163.31
243.298	170.31
243.531	172.31
243.765	172.31
243.998	171.31
244.232	155.31
244.465	173.31
244.699	169.31
244.932	180.31
245.166	181.31
245.399	186.31
245.633	174.31
245.866	182.31
246.099	175.31
246.333	189.31
246.566	187.31
246.8	193.31
247.033	179.31
247.266	189.31
247.5	201.31
247.733	216.31
247.966	190.31
248.2	191.31
248.433	202.31
248.666	202.31
248.899	198.31
249.133	183.31
249.366	206.31
249.599	208.31
249.832	219.31
250.066	204.31
250.299	215.31
250.532	210.31
250.765	227.31
250.998	217.31
251.231	198.31
251.465	201.31
251.698	213.31
251.931	203.31
252.164	209.31
252.397	209.31
252.63	211.31
252.863	215.31
253.096	212.31
253.329	224.31
253.562	215.31
253.795	230.31
254.028	211.31
254.261	237.31
254.494	241.31
254.727	226.31
254.96	235.31
255.193	225.31
255.426	235.31
255.659	231.31
255.892	234.31
256.124	245.31
256.357	228.31
256.59	250.31
256.823	263.31
257.056	235.31
257.289	244.31
257.521	236.31
257.754	249.31
257.987	257.31
258.22	256.31
258.452	244.31
258.685	229.31
258.918	229.31
259.151	253.31
259.383	247.31
259.616	260.31
259.849	259.31
260.081	254.31
260.314	255.31
260.547	267.31
260.779	260.31
261.012	280.31
261.244	255.31
261.477	273.31
261.71	261.31
261.942	264.31
262.175	276.31
262.407	266.31
262.64	264.31
262.872	257.31
263.105	269.31
263.337	270.31
263.57	271.31
263.802	263.31
264.035	260.31
264.267	283.31
264.499	260.31
264.732	273.31
264.964	259.31
265.197	284.31
265.429	295.31
265.661	297.31
265.894	282.31
266.126	302.31
266.358	293.31
266.591	290.31
266.823	272.31
267.055	288.31
267.287	309.31
267.52	292.31
267.752	293.31
267.984	296.31
268.216	302.31
268.448	299.31
268.681	279.31
268.913	296.31
269.145	296.31
269.377	304.31
269.609	299.31
269.841	307.31
270.073	303.31
270.306	291.31
270.538	301.31
270.77	307.31
271.002	297.31
271.234	301.31
271.466	311.31
271.698	299.31
271.93	340.31
272.162	291.31
272.394	307.31
272.626	324.31
272.858	301.31
273.09	316.31
273.322	309.31
273.553	324.31
273.785	327.31
274.017	320.31
274.249	322.31
274.481	332.31
274.713	320.31
274.945	328.31
275.176	335.31
275.408	324.31
275.64	329.31
275.872	330.31
276.104	324.31
276.335	321.31
276.567	340.31
276.799	349.31
277.031	359.31
277.262	341.31
277.494	337.31
277.726	344.31
277.957	331.31
278.189	352.31
278.421	342.31
278.652	338.31
278.884	348.31
279.115	354.31
279.347	369.31
279.579	340.31
279.81	351.31
280.042	353.31
280.273	344.31
280.505	356.31
280.736	363.31
280.968	355.31
281.199	365.31
281.431	368.31
281.662	352.31
281.894	367.31
282.125	367.31
282.356	364.31
282.588	361.31
282.819	392.31
283.051	379.31
283.282	381.31
283.513	373.31
283.745	386.31
283.976	364.31
284.207	379.31
284.439	389.31
284.67	372.31
284.901	392.31
285.132	365.31
285.364	390.31
285.595	394.31
285.826	394.31
286.057	388.31
286.288	395.31
286.52	399.31
286.751	390.31
286.982	394.31
287.213	400.31
287.444	415.31
287.675	402.31
287.906	385.31
288.138	399.31
288.369	397.31
288.6	416.31
288.831	403.31
289.062	410.31
289.293	421.31
289.524	440.31
289.755	405.31
289.986	401.31
290.217	419.31
290.448	418.31
290.679	411.31
290.91	426.31
291.141	412.31
291.371	401.31
291.602	434.31
291.833	434.31
292.064	416.31
292.295	420.31
292.526	424.31
292.757	418.31
292.987	398.31
293.218	386.31
293.449	426.31
293.68	409.31
293.91	409.31
294.141	421.31
294.372	420.31
294.603	426.31
294.833	416.31
295.064	420.31
295.295	443.31
295.525	429.31
295.756	419.31
295.987	412.31
296.217	424.31
296.448	420.31
296.679	447.31
296.909	450.31
297.14	436.31
297.37	450.31
297.601	453.31
297.831	426.31
298.062	454.31
298.292	466.31
298.523	468.31
298.753	481.31
298.984	457.31
299.214	465.31
299.445	451.31
299.675	438.31
299.905	471.31
300.136	474.31
300.366	469.31
300.597	450.31
300.827	463.31
301.057	480.31
301.288	449.31
301.518	474.31
301.748	473.31
301.979	476.31
302.209	484.31
302.439	487.31
302.669	468.31
302.9	480.31
303.13	483.31
303.36	477.31
303.59	479.31
303.82	485.31
304.051	469.31
304.281	461.31
304.511	474.31
304.741	459.31
304.971	463.31
305.201	461.31
305.431	468.31
305.661	478.31
305.891	469.31
306.121	479.31
306.352	477.31
306.582	473.31
306.812	451.31
307.042	488.31
307.272	464.31
307.502	448.31
307.731	501.31
307.961	461.31
308.191	456.31
308.421	459.31
308.651	459.31
308.881	467.31
309.111	472.31
309.341	453.31
309.571	449.31
309.8	498.31
310.03	466.31
310.26	456.31
310.49	454.31
310.72	460.31
310.949	468.31
311.179	462.31
311.409	466.31
311.639	481.31
311.868	467.31
312.098	483.31
312.328	491.31
312.557	478.31
312.787	489.31
313.017	489.31
313.246	485.31
313.476	502.31
313.706	509.31
313.935	500.31
314.165	522.31
314.394	516.31
314.624	492.31
314.853	506.31
315.083	488.31
315.312	513.31
315.542	501.31
315.771	473.31
316.001	471.31
316.23	469.31
316.46	490.31
316.689	489.31
316.919	491.31
317.148	496.31
317.377	483.31
317.607	491.31
317.836	485.31
318.065	497.31
318.295	509.31
318.524	496.31
318.753	490.31
318.983	505.31
319.212	485.31
319.441	501.31
319.67	509.31
319.9	500.31
320.129	479.31
320.358	474.31
320.587	487.31
320.816	493.31
321.046	480.31
321.275	507.31
321.504	492.31
321.733	506.31
321.962	511.31
322.191	500.31
322.42	504.31
322.649	510.31
322.878	501.31
323.108	496.31
323.337	507.31
323.566	502.31
323.795	504.31
324.024	517.31
324.253	500.31
324.482	506.31
324.71	489.31
324.939	524.31
325.168	513.31
325.397	527.31
325.626	536.31
325.855	508.31
326.084	526.31
326.313	547.31
326.542	536.31
326.77	561.31
326.999	525.31
327.228	551.31
327.457	532.31
327.686	536.31
327.914	529.31
328.143	546.31
328.372	556.31
328.6	545.31
328.829	545.31
329.058	537.31
329.287	537.31
329.515	549.31
329.744	562.31
329.972	550.31
330.201	569.31
330.43	552.31
330.658	544.31
330.887	547.31
331.115	537.31
331.344	582.31
331.572	571.31
331.801	616.31
332.03	619.31
332.258	628.31
332.486	637.31
332.715	654.31
332.943	669.31
333.172	711.31
333.4	721.31
333.629	741.31
333.857	734.31
334.085	732.31
334.314	717.31
334.542	698.31
334.771	698.31
334.999	690.31
335.227	691.31
335.455	654.31
335.684	663.31
335.912	656.31
336.14	691.31
336.369	647.31
336.597	667.31
336.825	655.31
337.053	642.31
337.281	638.31
337.51	639.31
337.738	616.31
337.966	613.31
338.194	620.31
338.422	629.31
338.65	575.31
338.878	600.31
339.106	594.31
339.334	586.31
339.562	608.31
339.79	572.31
340.018	569.31
340.246	580.31
340.474	565.31
340.702	576.31
340.93	581.31
341.158	588.31
341.386	576.31
341.614	583.31
341.842	550.31
342.07	547.31
342.298	584.31
342.526	550.31
342.754	589.31
342.981	570.31
343.209	590.31
343.437	602.31
343.665	638.31
343.893	671.31
344.12	704.31
344.348	676.31
344.576	633.31
344.804	627.31
345.031	595.31
345.259	604.31
345.487	605.31
345.714	593.31
345.942	566.31
346.17	559.31
346.397	542.31
346.625	578.31
346.853	541.31
347.08	545.31
347.308	567.31
347.535	542.31
347.763	576.31
347.99	582.31
348.218	582.31
348.445	581.31
348.673	549.31
348.9	547.31
349.128	552.31
349.355	564.31
349.583	564.31
349.81	551.31
350.037	561.31
350.265	539.31
350.492	537.31
350.72	521.31
350.947	537.31
351.174	528.31
351.402	530.31
351.629	523.31
351.856	522.31
352.083	552.31
352.311	539.31
352.538	553.31
352.765	524.31
352.992	519.31
353.22	522.31
353.447	540.31
353.674	535.31
353.901	535.31
354.128	508.31
354.355	543.31
354.583	551.31
354.81	530.31
355.037	544.31
355.264	541.31
355.491	532.31
355.718	544.31
355.945	542.31
356.172	554.31
356.399	541.31
356.626	540.31
356.853	563.31
357.08	541.31
357.307	533.31
357.534	531.31
357.761	529.31
357.988	529.31
358.215	549.31
358.441	526.31
358.668	541.31
358.895	545.31
359.122	561.31
359.349	524.31
359.576	541.31
359.802	533.31
360.029	539.31
360.256	548.31
360.483	551.31
360.709	535.31
360.936	563.31
361.163	551.31
361.39	518.31
361.616	543.31
361.843	541.31
362.07	543.31
362.296	539.31
362.523	533.31
362.749	548.31
362.976	555.31
363.203	541.31
363.429	530.31
363.656	538.31
363.882	561.31
364.109	552.31
364.335	539.31
364.562	505.31
364.788	536.31
365.015	531.31
365.241	548.31
365.468	535.31
365.694	545.31
365.92	536.31
366.147	514.31
366.373	541.31
366.599	533.31
366.826	543.31
367.052	533.31
367.278	541.31
367.505	529.31
367.731	566.31
367.957	548.31
368.184	557.31
368.41	549.31
368.636	542.31
368.862	545.31
369.089	549.31
369.315	569.31
369.541	555.31
369.767	570.31
369.993	560.31
370.219	568.31
370.445	556.31
370.672	541.31
370.898	582.31
371.124	571.31
371.35	580.31
371.576	599.31
371.802	580.31
372.028	577.31
372.254	588.31
372.48	613.31
372.706	591.31
372.932	597.31
373.158	604.31
373.384	577.31
373.61	596.31
373.835	577.31
374.061	596.31
374.287	598.31
374.513	591.31
374.739	602.31
374.965	641.31
375.191	653.31
375.416	640.31
375.642	629.31
375.868	653.31
376.094	628.31
376.319	593.31
376.545	586.31
376.771	577.31
376.997	595.31
377.222	587.31
377.448	572.31
377.674	591.31
377.899	582.31
378.125	603.31
378.35	550.31
378.576	573.31
378.802	583.31
379.027	576.31
379.253	566.31
379.478	548.31
379.704	593.31
379.929	575.31
380.155	561.31
380.38	555.31
380.606	580.31
380.831	581.31
381.057	579.31
381.282	573.31
381.507	576.31
381.733	582.31
381.958	605.31
382.184	601.31
382.409	624.31
382.634	595.31
382.86	629.31
383.085	625.31
383.31	655.31
383.535	636.31
383.761	646.31
383.986	644.31
384.211	695.31
384.436	682.31
384.662	689.31
384.887	691.31
385.112	683.31
385.337	716.31
385.562	707.31
385.787	695.31
386.013	737.31
386.238	728.31
386.463	715.31
386.688	710.31
386.913	686.31
387.138	682.31
387.363	681.31
387.588	683.31
387.813	679.31
388.038	693.31
388.263	683.31
388.488	707.31
388.713	684.31
388.938	695.31
389.163	644.31
389.387	681.31
389.612	671.31
389.837	661.31
390.062	696.31
390.287	673.31
390.512	672.31
390.736	688.31
390.961	722.31
391.186	713.31
391.411	732.31
391.636	759.31
391.86	798.31
392.085	810.31
392.31	786.31
392.534	787.31
392.759	760.31
392.984	714.31
393.208	739.31
393.433	757.31
393.658	726.31
393.882	704.31
394.107	739.31
394.331	752.31
394.556	747.31
394.78	775.31
395.005	739.31
395.229	728.31
395.454	779.31
395.678	791.31
395.903	804.31
396.127	795.31
396.352	771.31
396.576	737.31
396.801	737.31
397.025	749.31
397.249	770.31
397.474	793.31
397.698	792.31
397.922	794.31
398.147	776.31
398.371	806.31
398.595	799.31
398.82	864.31
399.044	908.31
399.268	1019.31
399.492	1187.31
399.717	1377.31
399.941	1360.31
400.165	1186.31
400.389	1056.31
400.613	959.31
400.837	898.31
401.062	879.31
401.286	881.31
401.51	872.31
401.734	872.31
401.958	881.31
402.182	866.31
402.406	877.31
402.63	900.31
402.854	958.31
403.078	947.31
403.302	945.31
403.526	996.31
403.75	1041.31
403.974	1060.31
404.198	1050.31
404.422	1041.31
404.645	1011.31
404.869	1012.31
405.093	1023.31
405.317	955.31
405.541	998.31
405.765	930.31
405.988	954.31
406.212	974.31
406.436	923.31
406.66	976.31
406.883	994.31
407.107	1092.31
407.331	1114.31
407.555	1124.31
407.778	1140.31
408.002	1132.31
408.226	1052.31
408.449	1042.31
408.673	1003.31
408.896	1012.31
409.12	991.31
409.344	1011.31
409.567	993.31
409.791	1001.31
410.014	999.31
410.238	954.31
410.461	959.31
410.685	972.31
410.908	953.31
411.132	952.31
411.355	923.31
411.578	931.31
411.802	935.31
412.025	932.31
412.249	916.31
412.472	943.31
412.695	891.31
412.919	900.31
413.142	892.31
413.365	888.31
413.589	874.31
413.812	887.31
414.035	862.31
414.258	897.31
414.482	888.31
414.705	914.31
414.928	911.31
415.151	895.31
415.374	897.31
415.597	884.31
415.821	872.31
416.044	853.31
416.267	839.31
416.49	835.31
416.713	857.31
416.936	858.31
417.159	879.31
417.382	840.31
417.605	870.31
417.828	866.31
418.051	893.31
418.274	894.31
418.497	875.31
418.72	885.31
418.943	869.31
419.166	977.31
419.389	1010.31
419.611	976.31
419.834	931.31
420.057	924.31
420.28	880.31
420.503	864.31
420.726	867.31
420.948	865.31
421.171	870.31
421.394	861.31
421.617	849.31
421.839	892.31
422.062	883.31
422.285	872.31
422.507	889.31
422.73	909.31
422.953	930.31
423.175	936.31
423.398	927.31
423.621	936.31
423.843	940.31
424.066	956.31
424.288	934.31
424.511	901.31
424.733	893.31
424.956	885.31
425.178	874.31
425.401	865.31
425.623	883.31
425.846	827.31
426.068	834.31
426.291	811.31
426.513	812.31
426.735	808.31
426.958	789.31
427.18	761.31
427.402	795.31
427.625	785.31
427.847	773.31
428.069	783.31
428.292	775.31
428.514	769.31
428.736	783.31
428.958	771.31
429.181	764.31
429.403	758.31
429.625	747.31
429.847	749.31
430.069	754.31
430.292	738.31
430.514	751.31
430.736	772.31
430.958	750.31
431.18	765.31
431.402	757.31
431.624	761.31
431.846	757.31
432.068	768.31
432.29	816.31
432.512	764.31
432.734	778.31
432.956	789.31
433.178	793.31
433.4	763.31
433.622	798.31
433.844	780.31
434.066	774.31
434.287	799.31
434.509	831.31
434.731	845.31
434.953	845.31
435.175	881.31
435.397	867.31
435.618	842.31
435.84	783.31
436.062	792.31
436.284	764.31
436.505	756.31
436.727	754.31
436.949	784.31
437.17	776.31
437.392	757.31
437.614	752.31
437.835	730.31
438.057	730.31
438.278	722.31
438.5	768.31
438.721	740.31
438.943	746.31
439.165	756.31
439.386	755.31
439.608	767.31
439.829	773.31
440.05	795.31
440.272	789.31
440.493	788.31
440.715	789.31
440.936	809.31
441.158	809.31
441.379	848.31
441.6	881.31
441.822	912.31
442.043	893.31
442.264	856.31
442.486	847.31
442.707	856.31
442.928	842.31
443.149	873.31
443.371	887.31
443.592	876.31
443.813	879.31
444.034	876.31
444.255	903.31
444.476	937.31
444.698	1023.31
444.919	1073.31
445.14	1110.31
445.361	996.31
445.582	914.31
445.803	831.31
446.024	823.31
446.245	799.31
446.466	789.31
446.687	803.31
446.908	778.31
447.129	783.31
447.35	765.31
447.571	734.31
447.792	729.31
448.013	733.31
448.234	724.31
448.455	711.31
448.675	714.31
448.896	716.31
449.117	692.31
449.338	720.31
449.559	695.31
449.779	684.31
450	684.31
450.221	699.31
450.442	731.31
450.662	713.31
450.883	720.31
451.104	763.31
451.324	731.31
451.545	727.31
451.766	717.31
451.986	728.31
452.207	741.31
452.428	720.31
452.648	714.31
452.869	698.31
453.089	706.31
453.31	704.31
453.53	737.31
453.751	694.31
453.971	682.31
454.192	701.31
454.412	663.31
454.633	690.31
454.853	663.31
455.073	653.31
455.294	682.31
455.514	688.31
455.734	685.31
455.955	671.31
456.175	665.31
456.395	676.31
456.616	662.31
456.836	676.31
457.056	677.31
457.276	653.31
457.497	663.31
457.717	649.31
457.937	676.31
458.157	698.31
458.377	674.31
458.598	717.31
458.818	731.31
459.038	729.31
459.258	745.31
459.478	804.31
459.698	801.31
459.918	795.31
460.138	881.31
460.358	919.31
460.578	903.31
460.798	935.31
461.018	940.31
461.238	911.31
461.458	908.31
461.678	909.31
461.898	903.31
462.118	938.31
462.338	993.31
462.558	988.31
462.777	1038.31
462.997	1151.31
463.217	1227.31
463.437	1264.31
463.657	1104.31
463.876	1059.31
464.096	1067.31
464.316	1062.31
464.536	1113.31
464.755	1044.31
464.975	1014.31
465.195	933.31
465.414	923.31
465.634	835.31
465.854	795.31
466.073	791.31
466.293	789.31
466.512	773.31
466.732	741.31
466.951	753.31
467.171	722.31
467.391	746.31
467.61	733.31
467.829	753.31
468.049	744.31
468.268	730.31
468.488	709.31
468.707	723.31
468.927	723.31
469.146	708.31
469.365	709.31
469.585	728.31
469.804	760.31
470.023	773.31
470.243	768.31
470.462	778.31
470.681	773.31
470.901	779.31
471.12	768.31
471.339	759.31
471.558	724.31
471.777	735.31
471.997	725.31
472.216	706.31
472.435	715.31
472.654	702.31
472.873	673.31
473.092	669.31
473.311	690.31
473.53	671.31
473.749	689.31
473.968	715.31
474.187	699.31
474.406	669.31
474.625	685.31
474.844	688.31
475.063	698.31
475.282	706.31
475.501	703.31
475.72	733.31
475.939	722.31
476.158	730.31
476.377	712.31
476.596	723.31
476.814	714.31
477.033	711.31
477.252	773.31
477.471	755.31
477.69	771.31
477.908	777.31
478.127	840.31
478.346	841.31
478.564	859.31
478.783	860.31
479.002	888.31
479.22	870.31
479.439	875.31
479.658	897.31
479.876	873.31
480.095	855.31
480.313	925.31
480.532	957.31
480.751	945.31
480.969	865.31
481.188	857.31
481.406	866.31
481.624	797.31
481.843	805.31
482.061	832.31
482.28	799.31
482.498	807.31
482.717	747.31
482.935	787.31
483.153	776.31
483.372	804.31
483.59	801.31
483.808	775.31
484.027	776.31
484.245	789.31
484.463	784.31
484.681	780.31
484.9	815.31
485.118	815.31
485.336	836.31
485.554	821.31
485.772	833.31
485.99	831.31
486.209	828.31
486.427	833.31
486.645	815.31
486.863	832.31
487.081	827.31
487.299	828.31
487.517	851.31
487.735	827.31
487.953	855.31
488.171	816.31
488.389	837.31
488.607	818.31
488.825	801.31
489.043	795.31
489.261	801.31
489.479	801.31
489.696	821.31
489.914	840.31
490.132	798.31
490.35	832.31
490.568	831.31
490.786	806.31
491.003	827.31
491.221	846.31
491.439	838.31
491.657	853.31
491.874	864.31
492.092	829.31
492.31	837.31
492.527	850.31
492.745	846.31
492.963	855.31
493.18	852.31
493.398	883.31
493.615	899.31
493.833	857.31
494.05	878.31
494.268	876.31
494.485	872.31
494.703	854.31
494.92	905.31
495.138	861.31
495.355	868.31
495.573	857.31
495.79	891.31
496.008	875.31
496.225	868.31
496.442	909.31
496.66	900.31
496.877	935.31
497.094	920.31
497.312	955.31
497.529	955.31
497.746	987.31
497.963	1018.31
498.181	1102.31
498.398	1100.31
498.615	1177.31
498.832	1236.31
499.049	1330.31
499.267	1443.31
499.484	1632.31
499.701	1761.31
499.918	1961.31
500.135	2287.31
500.352	2698.31
500.569	2775.31
500.786	2785.31
