Data from Ni(NO3)2@0.125M.TitratingCurve.Agarose3%dH2O.NegLispCup.LampEnergy10.LIBS07252019_HRD10591_18-08-35-569.txt Node
Date: Thu Jul 25 18:08:35 EDT 2019
User: cochatt
Spectrometer: HR+D1059
Trigger mode: 1
Integration Time (sec): 1.000000E-1
Scans to average: 1
Electric dark correction enabled: true
Nonlinearity correction enabled: false
Boxcar width: 0
XAxis mode: Wavelengths
Number of Pixels in Spectrum: 2048
>>>>>Begin Spectral Data<<<<<
223.165	-21.12
223.4	-21.12
223.635	-21.12
223.869	-8.12
224.104	-29.12
224.338	-13.12
224.573	-11.12
224.808	-10.12
225.042	-4.12
225.277	-6.12
225.511	-14.12
225.746	3.88
225.98	6.88
226.215	14.88
226.449	16.88
226.683	9.88
226.918	29.88
227.152	34.88
227.387	32.88
227.621	38.88
227.856	44.88
228.09	46.88
228.324	50.88
228.559	51.88
228.793	60.88
229.027	99.88
229.262	109.88
229.496	103.88
229.73	120.88
229.964	116.88
230.199	136.88
230.433	112.88
230.667	126.88
230.901	144.88
231.136	130.88
231.37	137.88
231.604	129.88
231.838	135.88
232.072	138.88
232.306	157.88
232.541	135.88
232.775	138.88
233.009	144.88
233.243	125.88
233.477	130.88
233.711	130.88
233.945	129.88
234.179	136.88
234.413	146.88
234.647	141.88
234.881	134.88
235.115	152.88
235.349	134.88
235.583	145.88
235.817	145.88
236.051	150.88
236.285	148.88
236.519	149.88
236.753	165.88
236.987	163.88
237.221	153.88
237.455	142.88
237.689	158.88
237.922	148.88
238.156	136.88
238.39	153.88
238.624	151.88
238.858	147.88
239.091	164.88
239.325	161.88
239.559	148.88
239.793	165.88
240.027	168.88
240.26	170.88
240.494	172.88
240.728	169.88
240.961	162.88
241.195	188.88
241.429	176.88
241.662	153.88
241.896	168.88
242.13	192.88
242.363	165.88
242.597	182.88
242.83	156.88
243.064	169.88
243.298	183.88
243.531	174.88
243.765	186.88
243.998	197.88
244.232	176.88
244.465	191.88
244.699	185.88
244.932	188.88
245.166	210.88
245.399	202.88
245.633	201.88
245.866	176.88
246.099	201.88
246.333	208.88
246.566	208.88
246.8	189.88
247.033	216.88
247.266	196.88
247.5	210.88
247.733	218.88
247.966	209.88
248.2	221.88
248.433	229.88
248.666	224.88
248.899	230.88
249.133	244.88
249.366	219.88
249.599	221.88
249.832	242.88
250.066	210.88
250.299	233.88
250.532	217.88
250.765	219.88
250.998	238.88
251.231	254.88
251.465	245.88
251.698	256.88
251.931	252.88
252.164	254.88
252.397	255.88
252.63	258.88
252.863	259.88
253.096	265.88
253.329	267.88
253.562	256.88
253.795	262.88
254.028	253.88
254.261	245.88
254.494	267.88
254.727	270.88
254.96	269.88
255.193	264.88
255.426	276.88
255.659	272.88
255.892	290.88
256.124	296.88
256.357	280.88
256.59	280.88
256.823	273.88
257.056	292.88
257.289	290.88
257.521	281.88
257.754	299.88
257.987	301.88
258.22	291.88
258.452	311.88
258.685	299.88
258.918	306.88
259.151	300.88
259.383	296.88
259.616	301.88
259.849	305.88
260.081	312.88
260.314	313.88
260.547	310.88
260.779	314.88
261.012	313.88
261.244	333.88
261.477	315.88
261.71	314.88
261.942	307.88
262.175	321.88
262.407	317.88
262.64	309.88
262.872	314.88
263.105	319.88
263.337	336.88
263.57	316.88
263.802	338.88
264.035	327.88
264.267	325.88
264.499	329.88
264.732	334.88
264.964	333.88
265.197	354.88
265.429	329.88
265.661	326.88
265.894	353.88
266.126	347.88
266.358	338.88
266.591	353.88
266.823	348.88
267.055	352.88
267.287	346.88
267.52	356.88
267.752	365.88
267.984	352.88
268.216	342.88
268.448	336.88
268.681	338.88
268.913	353.88
269.145	364.88
269.377	369.88
269.609	360.88
269.841	349.88
270.073	360.88
270.306	346.88
270.538	346.88
270.77	363.88
271.002	356.88
271.234	378.88
271.466	392.88
271.698	371.88
271.93	372.88
272.162	357.88
272.394	361.88
272.626	334.88
272.858	361.88
273.09	363.88
273.322	357.88
273.553	384.88
273.785	380.88
274.017	391.88
274.249	374.88
274.481	373.88
274.713	385.88
274.945	402.88
275.176	412.88
275.408	422.88
275.64	397.88
275.872	381.88
276.104	404.88
276.335	399.88
276.567	405.88
276.799	405.88
277.031	386.88
277.262	388.88
277.494	389.88
277.726	412.88
277.957	414.88
278.189	410.88
278.421	414.88
278.652	403.88
278.884	406.88
279.115	400.88
279.347	425.88
279.579	419.88
279.81	409.88
280.042	404.88
280.273	402.88
280.505	422.88
280.736	411.88
280.968	394.88
281.199	413.88
281.431	404.88
281.662	445.88
281.894	454.88
282.125	429.88
282.356	421.88
282.588	441.88
282.819	421.88
283.051	425.88
283.282	423.88
283.513	437.88
283.745	426.88
283.976	431.88
284.207	444.88
284.439	441.88
284.67	449.88
284.901	449.88
285.132	439.88
285.364	451.88
285.595	471.88
285.826	448.88
286.057	452.88
286.288	440.88
286.52	461.88
286.751	444.88
286.982	450.88
287.213	443.88
287.444	453.88
287.675	432.88
287.906	452.88
288.138	451.88
288.369	468.88
288.6	454.88
288.831	449.88
289.062	450.88
289.293	452.88
289.524	468.88
289.755	461.88
289.986	454.88
290.217	442.88
290.448	463.88
290.679	488.88
290.91	473.88
291.141	477.88
291.371	483.88
291.602	475.88
291.833	464.88
292.064	461.88
292.295	465.88
292.526	474.88
292.757	459.88
292.987	460.88
293.218	459.88
293.449	482.88
293.68	477.88
293.91	487.88
294.141	472.88
294.372	457.88
294.603	477.88
294.833	465.88
295.064	477.88
295.295	472.88
295.525	494.88
295.756	472.88
295.987	491.88
296.217	499.88
296.448	482.88
296.679	493.88
296.909	499.88
297.14	493.88
297.37	508.88
297.601	515.88
297.831	500.88
298.062	508.88
298.292	504.88
298.523	525.88
298.753	538.88
298.984	517.88
299.214	498.88
299.445	519.88
299.675	510.88
299.905	525.88
300.136	508.88
300.366	541.88
300.597	534.88
300.827	563.88
301.057	528.88
301.288	534.88
301.518	556.88
301.748	540.88
301.979	538.88
302.209	538.88
302.439	499.88
302.669	526.88
302.9	528.88
303.13	533.88
303.36	532.88
303.59	545.88
303.82	534.88
304.051	551.88
304.281	543.88
304.511	539.88
304.741	529.88
304.971	535.88
305.201	552.88
305.431	538.88
305.661	564.88
305.891	540.88
306.121	540.88
306.352	512.88
306.582	541.88
306.812	512.88
307.042	536.88
307.272	516.88
307.502	526.88
307.731	518.88
307.961	528.88
308.191	537.88
308.421	515.88
308.651	503.88
308.881	533.88
309.111	516.88
309.341	520.88
309.571	518.88
309.8	516.88
310.03	548.88
310.26	556.88
310.49	567.88
310.72	532.88
310.949	546.88
311.179	524.88
311.409	534.88
311.639	529.88
311.868	535.88
312.098	546.88
312.328	548.88
312.557	536.88
312.787	533.88
313.017	542.88
313.246	566.88
313.476	592.88
313.706	589.88
313.935	580.88
314.165	576.88
314.394	580.88
314.624	575.88
314.853	565.88
315.083	570.88
315.312	565.88
315.542	570.88
315.771	572.88
316.001	566.88
316.23	562.88
316.46	555.88
316.689	564.88
316.919	566.88
317.148	554.88
317.377	540.88
317.607	571.88
317.836	560.88
318.065	568.88
318.295	573.88
318.524	579.88
318.753	570.88
318.983	559.88
319.212	558.88
319.441	558.88
319.67	600.88
319.9	572.88
320.129	584.88
320.358	569.88
320.587	586.88
320.816	604.88
321.046	562.88
321.275	570.88
321.504	575.88
321.733	574.88
321.962	576.88
322.191	585.88
322.42	598.88
322.649	594.88
322.878	577.88
323.108	578.88
323.337	614.88
323.566	595.88
323.795	610.88
324.024	598.88
324.253	597.88
324.482	592.88
324.71	615.88
324.939	611.88
325.168	613.88
325.397	598.88
325.626	612.88
325.855	638.88
326.084	650.88
326.313	670.88
326.542	647.88
326.77	682.88
326.999	650.88
327.228	650.88
327.457	662.88
327.686	626.88
327.914	653.88
328.143	651.88
328.372	636.88
328.6	659.88
328.829	677.88
329.058	652.88
329.287	661.88
329.515	663.88
329.744	652.88
329.972	647.88
330.201	679.88
330.43	676.88
330.658	674.88
330.887	700.88
331.115	694.88
331.344	683.88
331.572	666.88
331.801	737.88
332.03	722.88
332.258	743.88
332.486	764.88
332.715	798.88
332.943	795.88
333.172	835.88
333.4	830.88
333.629	858.88
333.857	880.88
334.085	892.88
334.314	870.88
334.542	868.88
334.771	865.88
334.999	862.88
335.227	836.88
335.455	842.88
335.684	836.88
335.912	835.88
336.14	815.88
336.369	808.88
336.597	839.88
336.825	824.88
337.053	814.88
337.281	842.88
337.51	798.88
337.738	781.88
337.966	746.88
338.194	794.88
338.422	786.88
338.65	744.88
338.878	732.88
339.106	770.88
339.334	760.88
339.562	758.88
339.79	708.88
340.018	719.88
340.246	737.88
340.474	715.88
340.702	721.88
340.93	724.88
341.158	733.88
341.386	753.88
341.614	784.88
341.842	752.88
342.07	723.88
342.298	713.88
342.526	717.88
342.754	719.88
342.981	708.88
343.209	741.88
343.437	766.88
343.665	822.88
343.893	838.88
344.12	880.88
344.348	846.88
344.576	841.88
344.804	807.88
345.031	755.88
345.259	742.88
345.487	754.88
345.714	740.88
345.942	732.88
346.17	765.88
346.397	736.88
346.625	735.88
346.853	712.88
347.08	697.88
347.308	688.88
347.535	717.88
347.763	721.88
347.99	719.88
348.218	708.88
348.445	713.88
348.673	706.88
348.9	701.88
349.128	722.88
349.355	715.88
349.583	722.88
349.81	690.88
350.037	675.88
350.265	690.88
350.492	654.88
350.72	689.88
350.947	687.88
351.174	680.88
351.402	716.88
351.629	708.88
351.856	703.88
352.083	686.88
352.311	697.88
352.538	732.88
352.765	734.88
352.992	701.88
353.22	666.88
353.447	659.88
353.674	664.88
353.901	648.88
354.128	657.88
354.355	645.88
354.583	647.88
354.81	665.88
355.037	681.88
355.264	666.88
355.491	664.88
355.718	650.88
355.945	666.88
356.172	706.88
356.399	680.88
356.626	650.88
356.853	692.88
357.08	692.88
357.307	672.88
357.534	654.88
357.761	667.88
357.988	673.88
358.215	678.88
358.441	658.88
358.668	658.88
358.895	669.88
359.122	668.88
359.349	677.88
359.576	650.88
359.802	658.88
360.029	676.88
360.256	659.88
360.483	672.88
360.709	676.88
360.936	674.88
361.163	687.88
361.39	653.88
361.616	658.88
361.843	674.88
362.07	708.88
362.296	691.88
362.523	684.88
362.749	667.88
362.976	654.88
363.203	649.88
363.429	662.88
363.656	661.88
363.882	639.88
364.109	648.88
364.335	657.88
364.562	664.88
364.788	648.88
365.015	641.88
365.241	634.88
365.468	641.88
365.694	644.88
365.92	652.88
366.147	632.88
366.373	641.88
366.599	664.88
366.826	662.88
367.052	654.88
367.278	673.88
367.505	656.88
367.731	652.88
367.957	654.88
368.184	655.88
368.41	660.88
368.636	661.88
368.862	654.88
369.089	658.88
369.315	685.88
369.541	660.88
369.767	699.88
369.993	656.88
370.219	687.88
370.445	666.88
370.672	689.88
370.898	675.88
371.124	668.88
371.35	708.88
371.576	714.88
371.802	702.88
372.028	702.88
372.254	695.88
372.48	721.88
372.706	711.88
372.932	711.88
373.158	739.88
373.384	700.88
373.61	685.88
373.835	702.88
374.061	704.88
374.287	669.88
374.513	718.88
374.739	733.88
374.965	759.88
375.191	745.88
375.416	754.88
375.642	707.88
375.868	725.88
376.094	716.88
376.319	721.88
376.545	726.88
376.771	725.88
376.997	688.88
377.222	716.88
377.448	685.88
377.674	685.88
377.899	681.88
378.125	700.88
378.35	685.88
378.576	690.88
378.802	677.88
379.027	684.88
379.253	668.88
379.478	672.88
379.704	692.88
379.929	705.88
380.155	701.88
380.38	689.88
380.606	679.88
380.831	669.88
381.057	690.88
381.282	673.88
381.507	690.88
381.733	709.88
381.958	710.88
382.184	717.88
382.409	697.88
382.634	695.88
382.86	705.88
383.085	744.88
383.31	749.88
383.535	747.88
383.761	759.88
383.986	749.88
384.211	756.88
384.436	766.88
384.662	786.88
384.887	801.88
385.112	791.88
385.337	812.88
385.562	821.88
385.787	796.88
386.013	823.88
386.238	820.88
386.463	844.88
386.688	818.88
386.913	808.88
387.138	802.88
387.363	821.88
387.588	796.88
387.813	810.88
388.038	820.88
388.263	802.88
388.488	809.88
388.713	800.88
388.938	800.88
389.163	802.88
389.387	792.88
389.612	780.88
389.837	784.88
390.062	777.88
390.287	764.88
390.512	792.88
390.736	805.88
390.961	792.88
391.186	802.88
391.411	839.88
391.636	872.88
391.86	887.88
392.085	901.88
392.31	890.88
392.534	892.88
392.759	849.88
392.984	832.88
393.208	854.88
393.433	849.88
393.658	849.88
393.882	830.88
394.107	833.88
394.331	869.88
394.556	850.88
394.78	882.88
395.005	862.88
395.229	866.88
395.454	872.88
395.678	911.88
395.903	895.88
396.127	883.88
396.352	866.88
396.576	857.88
396.801	841.88
397.025	858.88
397.249	863.88
397.474	873.88
397.698	894.88
397.922	924.88
398.147	890.88
398.371	926.88
398.595	934.88
398.82	989.88
399.044	1042.88
399.268	1131.88
399.492	1282.88
399.717	1399.88
399.941	1420.88
400.165	1301.88
400.389	1204.88
400.613	1152.88
400.837	1072.88
401.062	1020.88
401.286	1013.88
401.51	1004.88
401.734	996.88
401.958	1029.88
402.182	1012.88
402.406	1055.88
402.63	1069.88
402.854	1069.88
403.078	1065.88
403.302	1097.88
403.526	1110.88
403.75	1121.88
403.974	1145.88
404.198	1125.88
404.422	1122.88
404.645	1114.88
404.869	1122.88
405.093	1128.88
405.317	1107.88
405.541	1097.88
405.765	1106.88
405.988	1094.88
406.212	1089.88
406.436	1108.88
406.66	1106.88
406.883	1152.88
407.107	1210.88
407.331	1246.88
407.555	1255.88
407.778	1264.88
408.002	1266.88
408.226	1261.88
408.449	1195.88
408.673	1145.88
408.896	1129.88
409.12	1139.88
409.344	1147.88
409.567	1108.88
409.791	1137.88
410.014	1122.88
410.238	1117.88
410.461	1101.88
410.685	1090.88
410.908	1110.88
411.132	1071.88
411.355	1044.88
411.578	1041.88
411.802	1065.88
412.025	1032.88
412.249	1077.88
412.472	1067.88
412.695	1052.88
412.919	1011.88
413.142	998.88
413.365	1040.88
413.589	1027.88
413.812	1014.88
414.035	1008.88
414.258	997.88
414.482	1054.88
414.705	1019.88
414.928	1037.88
415.151	1040.88
415.374	1042.88
415.597	988.88
415.821	987.88
416.044	1010.88
416.267	1011.88
416.49	997.88
416.713	1011.88
416.936	1001.88
417.159	1002.88
417.382	978.88
417.605	996.88
417.828	1016.88
418.051	1015.88
418.274	1032.88
418.497	1010.88
418.72	1025.88
418.943	1041.88
419.166	1109.88
419.389	1205.88
419.611	1167.88
419.834	1101.88
420.057	1048.88
420.28	1031.88
420.503	1018.88
420.726	1033.88
420.948	1019.88
421.171	1023.88
421.394	1009.88
421.617	1035.88
421.839	1028.88
422.062	1022.88
422.285	991.88
422.507	1058.88
422.73	1034.88
422.953	1031.88
423.175	1061.88
423.398	1057.88
423.621	1050.88
423.843	1064.88
424.066	1111.88
424.288	1077.88
424.511	1082.88
424.733	1035.88
424.956	1034.88
425.178	1053.88
425.401	1035.88
425.623	1035.88
425.846	1005.88
426.068	995.88
426.291	992.88
426.513	996.88
426.735	983.88
426.958	982.88
427.18	962.88
427.402	953.88
427.625	972.88
427.847	926.88
428.069	920.88
428.292	969.88
428.514	947.88
428.736	939.88
428.958	948.88
429.181	920.88
429.403	904.88
429.625	944.88
429.847	911.88
430.069	948.88
430.292	956.88
430.514	908.88
430.736	917.88
430.958	893.88
431.18	924.88
431.402	941.88
431.624	916.88
431.846	951.88
432.068	956.88
432.29	986.88
432.512	965.88
432.734	982.88
432.956	916.88
433.178	932.88
433.4	948.88
433.622	980.88
433.844	956.88
434.066	971.88
434.287	985.88
434.509	1024.88
434.731	1008.88
434.953	1032.88
435.175	1094.88
435.397	1072.88
435.618	1014.88
435.84	969.88
436.062	963.88
436.284	955.88
436.505	978.88
436.727	969.88
436.949	965.88
437.17	940.88
437.392	949.88
437.614	922.88
437.835	884.88
438.057	898.88
438.278	914.88
438.5	916.88
438.721	924.88
438.943	942.88
439.165	939.88
439.386	945.88
439.608	967.88
439.829	966.88
440.05	978.88
440.272	958.88
440.493	979.88
440.715	964.88
440.936	987.88
441.158	1002.88
441.379	1034.88
441.6	1060.88
441.822	1088.88
442.043	1094.88
442.264	1061.88
442.486	1033.88
442.707	1046.88
442.928	1032.88
443.149	1057.88
443.371	1054.88
443.592	1094.88
443.813	1079.88
444.034	1080.88
444.255	1111.88
444.476	1191.88
444.698	1212.88
444.919	1268.88
445.14	1385.88
445.361	1268.88
445.582	1152.88
445.803	1070.88
446.024	1038.88
446.245	1033.88
446.466	1020.88
446.687	980.88
446.908	994.88
447.129	951.88
447.35	902.88
447.571	933.88
447.792	921.88
448.013	903.88
448.234	908.88
448.455	914.88
448.675	914.88
448.896	907.88
449.117	876.88
449.338	876.88
449.559	872.88
449.779	869.88
450	894.88
450.221	904.88
450.442	906.88
450.662	909.88
450.883	898.88
451.104	945.88
451.324	914.88
451.545	894.88
451.766	889.88
451.986	912.88
452.207	894.88
452.428	898.88
452.648	886.88
452.869	844.88
453.089	820.88
453.31	886.88
453.53	857.88
453.751	854.88
453.971	869.88
454.192	881.88
454.412	876.88
454.633	845.88
454.853	852.88
455.073	847.88
455.294	837.88
455.514	839.88
455.734	853.88
455.955	844.88
456.175	860.88
456.395	820.88
456.616	827.88
456.836	831.88
457.056	841.88
457.276	825.88
457.497	825.88
457.717	830.88
457.937	839.88
458.157	865.88
458.377	848.88
458.598	871.88
458.818	898.88
459.038	903.88
459.258	916.88
459.478	1003.88
459.698	1028.88
459.918	1024.88
460.138	1066.88
460.358	1140.88
460.578	1116.88
460.798	1146.88
461.018	1188.88
461.238	1143.88
461.458	1140.88
461.678	1134.88
461.898	1174.88
462.118	1173.88
462.338	1235.88
462.558	1230.88
462.777	1280.88
462.997	1400.88
463.217	1462.88
463.437	1515.88
463.657	1410.88
463.876	1382.88
464.096	1348.88
464.316	1301.88
464.536	1334.88
464.755	1323.88
464.975	1214.88
465.195	1172.88
465.414	1076.88
465.634	1067.88
465.854	1026.88
466.073	978.88
466.293	980.88
466.512	948.88
466.732	945.88
466.951	935.88
467.171	934.88
467.391	937.88
467.61	937.88
467.829	933.88
468.049	939.88
468.268	912.88
468.488	902.88
468.707	921.88
468.927	885.88
469.146	910.88
469.365	902.88
469.585	894.88
469.804	950.88
470.023	963.88
470.243	965.88
470.462	972.88
470.681	966.88
470.901	987.88
471.12	963.88
471.339	926.88
471.558	908.88
471.777	918.88
471.997	930.88
472.216	917.88
472.435	899.88
472.654	891.88
472.873	872.88
473.092	882.88
473.311	872.88
473.53	883.88
473.749	896.88
473.968	896.88
474.187	875.88
474.406	896.88
474.625	887.88
474.844	894.88
475.063	907.88
475.282	883.88
475.501	903.88
475.72	906.88
475.939	899.88
476.158	909.88
476.377	932.88
476.596	951.88
476.814	941.88
477.033	940.88
477.252	954.88
477.471	995.88
477.69	1036.88
477.908	1012.88
478.127	1055.88
478.346	1030.88
478.564	1075.88
478.783	1092.88
479.002	1102.88
479.22	1127.88
479.439	1117.88
479.658	1119.88
479.876	1096.88
480.095	1118.88
480.313	1168.88
480.532	1179.88
480.751	1139.88
480.969	1118.88
481.188	1069.88
481.406	1064.88
481.624	1058.88
481.843	1000.88
482.061	1029.88
482.28	1008.88
482.498	990.88
482.717	998.88
482.935	998.88
483.153	1006.88
483.372	1062.88
483.59	1055.88
483.808	1015.88
484.027	995.88
484.245	1034.88
484.463	1036.88
484.681	1040.88
484.9	1054.88
485.118	1065.88
485.336	1047.88
485.554	1076.88
485.772	1078.88
485.99	1084.88
486.209	1114.88
486.427	1048.88
486.645	1091.88
486.863	1091.88
487.081	1050.88
487.299	1064.88
487.517	1024.88
487.735	1123.88
487.953	1107.88
488.171	1098.88
488.389	1076.88
488.607	1066.88
488.825	1016.88
489.043	1063.88
489.261	1047.88
489.479	1059.88
489.696	1064.88
489.914	1076.88
490.132	1061.88
490.35	1076.88
490.568	1060.88
490.786	1102.88
491.003	1092.88
491.221	1075.88
491.439	1087.88
491.657	1129.88
491.874	1112.88
492.092	1113.88
492.31	1117.88
492.527	1125.88
492.745	1097.88
492.963	1147.88
493.18	1108.88
493.398	1093.88
493.615	1117.88
493.833	1133.88
494.05	1105.88
494.268	1138.88
494.485	1125.88
494.703	1143.88
494.92	1150.88
495.138	1153.88
495.355	1163.88
495.573	1142.88
495.79	1131.88
496.008	1167.88
496.225	1166.88
496.442	1160.88
496.66	1178.88
496.877	1227.88
497.094	1214.88
497.312	1276.88
497.529	1295.88
497.746	1316.88
497.963	1316.88
