Data from Ni(NO3)2@0.25M.TitratingCurve.Agarose3%dH2O.NegLispCup.LampEnergy10.LIBS07252019_HRD10591_18-04-50-566.txt Node
Date: Thu Jul 25 18:04:50 EDT 2019
User: cochatt
Spectrometer: HR+D1059
Trigger mode: 1
Integration Time (sec): 1.000000E-1
Scans to average: 1
Electric dark correction enabled: true
Nonlinearity correction enabled: false
Boxcar width: 0
XAxis mode: Wavelengths
Number of Pixels in Spectrum: 2048
>>>>>Begin Spectral Data<<<<<
223.165	-24
223.4	-24
223.635	-24
223.869	-10
224.104	-16
224.338	-21
224.573	-8
224.808	-8
225.042	1
225.277	-5
225.511	-6
225.746	-2
225.98	2
226.215	9
226.449	16
226.683	8
226.918	21
227.152	43
227.387	26
227.621	45
227.856	43
228.09	52
228.324	42
228.559	76
228.793	64
229.027	75
229.262	85
229.496	84
229.73	70
229.964	94
230.199	86
230.433	85
230.667	110
230.901	93
231.136	84
231.37	95
231.604	85
231.838	91
232.072	93
232.306	98
232.541	101
232.775	93
233.009	97
233.243	105
233.477	107
233.711	86
233.945	112
234.179	104
234.413	92
234.647	100
234.881	106
235.115	102
235.349	94
235.583	85
235.817	84
236.051	98
236.285	97
236.519	83
236.753	109
236.987	92
237.221	92
237.455	98
237.689	88
237.922	87
238.156	107
238.39	88
238.624	83
238.858	100
239.091	99
239.325	101
239.559	105
239.793	93
240.027	101
240.26	91
240.494	104
240.728	85
240.961	87
241.195	112
241.429	88
241.662	80
241.896	99
242.13	100
242.363	114
242.597	99
242.83	112
243.064	104
243.298	94
243.531	108
243.765	90
243.998	98
244.232	99
244.465	94
244.699	104
244.932	100
245.166	112
245.399	98
245.633	104
245.866	117
246.099	112
246.333	109
246.566	121
246.8	113
247.033	122
247.266	125
247.5	112
247.733	116
247.966	99
248.2	126
248.433	110
248.666	120
248.899	120
249.133	117
249.366	135
249.599	124
249.832	120
250.066	129
250.299	142
250.532	116
250.765	129
250.998	144
251.231	134
251.465	145
251.698	140
251.931	136
252.164	139
252.397	144
252.63	140
252.863	130
253.096	144
253.329	140
253.562	146
253.795	149
254.028	143
254.261	134
254.494	166
254.727	153
254.96	148
255.193	160
255.426	144
255.659	151
255.892	155
256.124	156
256.357	160
256.59	180
256.823	150
257.056	160
257.289	160
257.521	161
257.754	161
257.987	165
258.22	151
258.452	168
258.685	165
258.918	153
259.151	173
259.383	170
259.616	172
259.849	161
260.081	183
260.314	176
260.547	179
260.779	178
261.012	182
261.244	171
261.477	171
261.71	183
261.942	188
262.175	176
262.407	173
262.64	176
262.872	185
263.105	163
263.337	188
263.57	176
263.802	198
264.035	193
264.267	183
264.499	194
264.732	190
264.964	202
265.197	201
265.429	194
265.661	195
265.894	190
266.126	189
266.358	189
266.591	186
266.823	180
267.055	201
267.287	188
267.52	199
267.752	203
267.984	212
268.216	197
268.448	206
268.681	189
268.913	203
269.145	188
269.377	214
269.609	200
269.841	220
270.073	200
270.306	194
270.538	197
270.77	204
271.002	198
271.234	202
271.466	198
271.698	197
271.93	218
272.162	201
272.394	201
272.626	193
272.858	209
273.09	202
273.322	216
273.553	194
273.785	201
274.017	204
274.249	192
274.481	209
274.713	204
274.945	213
275.176	202
275.408	205
275.64	218
275.872	212
276.104	203
276.335	212
276.567	204
276.799	211
277.031	206
277.262	216
277.494	214
277.726	221
277.957	198
278.189	216
278.421	225
278.652	202
278.884	212
279.115	229
279.347	211
279.579	239
279.81	211
280.042	240
280.273	220
280.505	220
280.736	227
280.968	225
281.199	216
281.431	214
281.662	228
281.894	236
282.125	213
282.356	220
282.588	221
282.819	216
283.051	227
283.282	212
283.513	225
283.745	229
283.976	213
284.207	229
284.439	226
284.67	238
284.901	217
285.132	223
285.364	208
285.595	237
285.826	234
286.057	232
286.288	236
286.52	232
286.751	228
286.982	225
287.213	232
287.444	223
287.675	239
287.906	218
288.138	234
288.369	243
288.6	222
288.831	226
289.062	254
289.293	233
289.524	207
289.755	218
289.986	250
290.217	218
290.448	220
290.679	213
290.91	253
291.141	220
291.371	226
291.602	218
291.833	220
292.064	216
292.295	218
292.526	237
292.757	231
292.987	233
293.218	227
293.449	226
293.68	236
293.91	213
294.141	202
294.372	228
294.603	243
294.833	221
295.064	243
295.295	232
295.525	217
295.756	228
295.987	228
296.217	220
296.448	224
296.679	247
296.909	250
297.14	236
297.37	263
297.601	229
297.831	233
298.062	232
298.292	234
298.523	256
298.753	241
298.984	252
299.214	245
299.445	226
299.675	231
299.905	242
300.136	222
300.366	250
300.597	236
300.827	256
301.057	269
301.288	263
301.518	257
301.748	246
301.979	249
302.209	248
302.439	252
302.669	243
302.9	243
303.13	243
303.36	235
303.59	236
303.82	249
304.051	259
304.281	241
304.511	259
304.741	265
304.971	270
305.201	274
305.431	260
305.661	268
305.891	261
306.121	255
306.352	265
306.582	270
306.812	278
307.042	268
307.272	260
307.502	276
307.731	262
307.961	256
308.191	260
308.421	270
308.651	259
308.881	280
309.111	251
309.341	277
309.571	257
309.8	271
310.03	270
310.26	288
310.49	283
310.72	268
310.949	283
311.179	271
311.409	263
311.639	279
311.868	298
312.098	286
312.328	279
312.557	284
312.787	281
313.017	291
313.246	297
313.476	284
313.706	306
313.935	298
314.165	278
314.394	312
314.624	302
314.853	300
315.083	304
315.312	315
315.542	317
315.771	310
316.001	306
316.23	292
316.46	313
316.689	304
316.919	305
317.148	314
317.377	305
317.607	306
317.836	293
318.065	314
318.295	299
318.524	315
318.753	324
318.983	305
319.212	330
319.441	312
319.67	312
319.9	313
320.129	334
320.358	327
320.587	334
320.816	322
321.046	342
321.275	349
321.504	348
321.733	352
321.962	351
322.191	323
322.42	327
322.649	358
322.878	358
323.108	362
323.337	363
323.566	347
323.795	370
324.024	355
324.253	356
324.482	366
324.71	355
324.939	394
325.168	377
325.397	353
325.626	368
325.855	388
326.084	396
326.313	388
326.542	388
326.77	386
326.999	413
327.228	386
327.457	396
327.686	399
327.914	397
328.143	417
328.372	395
328.6	388
328.829	400
329.058	408
329.287	397
329.515	420
329.744	413
329.972	425
330.201	405
330.43	407
330.658	425
330.887	446
331.115	442
331.344	449
331.572	452
331.801	465
332.03	467
332.258	467
332.486	457
332.715	465
332.943	478
333.172	506
333.4	493
333.629	500
333.857	485
334.085	512
334.314	525
334.542	500
334.771	494
334.999	534
335.227	505
335.455	516
335.684	519
335.912	522
336.14	512
336.369	508
336.597	501
336.825	513
337.053	524
337.281	503
337.51	512
337.738	503
337.966	464
338.194	480
338.422	505
338.65	501
338.878	493
339.106	484
339.334	485
339.562	463
339.79	467
340.018	459
340.246	473
340.474	475
340.702	479
340.93	465
341.158	470
341.386	491
341.614	472
341.842	480
342.07	458
342.298	494
342.526	468
342.754	465
342.981	480
343.209	480
343.437	480
343.665	508
343.893	524
344.12	523
344.348	500
344.576	492
344.804	516
345.031	484
345.259	498
345.487	477
345.714	486
345.942	486
346.17	496
346.397	487
346.625	475
346.853	466
347.08	454
347.308	462
347.535	477
347.763	470
347.99	456
348.218	473
348.445	456
348.673	444
348.9	448
349.128	450
349.355	467
349.583	470
349.81	452
350.037	463
350.265	460
350.492	438
350.72	441
350.947	470
351.174	458
351.402	437
351.629	472
351.856	459
352.083	459
352.311	466
352.538	477
352.765	455
352.992	440
353.22	452
353.447	441
353.674	420
353.901	444
354.128	429
354.355	452
354.583	434
354.81	426
355.037	444
355.264	461
355.491	443
355.718	435
355.945	436
356.172	444
356.399	437
356.626	449
356.853	465
357.08	450
357.307	462
357.534	433
357.761	440
357.988	461
358.215	438
358.441	453
358.668	427
358.895	445
359.122	446
359.349	454
359.576	442
359.802	445
360.029	437
360.256	456
360.483	459
360.709	434
360.936	440
361.163	448
361.39	437
361.616	430
361.843	423
362.07	479
362.296	452
362.523	427
362.749	420
362.976	440
363.203	443
363.429	416
363.656	432
363.882	429
364.109	440
364.335	438
364.562	427
364.788	444
365.015	450
365.241	423
365.468	434
365.694	444
365.92	437
366.147	435
366.373	425
366.599	414
366.826	439
367.052	435
367.278	448
367.505	454
367.731	437
367.957	433
368.184	429
368.41	446
368.636	436
368.862	432
369.089	428
369.315	440
369.541	437
369.767	462
369.993	443
370.219	455
370.445	453
370.672	459
370.898	437
371.124	436
371.35	431
371.576	455
371.802	453
372.028	465
372.254	428
372.48	437
372.706	460
372.932	470
373.158	450
373.384	468
373.61	445
373.835	432
374.061	427
374.287	468
374.513	443
374.739	457
374.965	461
375.191	475
375.416	481
375.642	468
375.868	463
376.094	448
376.319	447
376.545	428
376.771	462
376.997	436
377.222	439
377.448	436
377.674	438
377.899	447
378.125	436
378.35	433
378.576	446
378.802	428
379.027	408
379.253	421
379.478	430
379.704	417
379.929	445
380.155	431
380.38	422
380.606	432
380.831	430
381.057	446
381.282	418
381.507	416
381.733	440
381.958	420
382.184	452
382.409	449
382.634	441
382.86	414
383.085	434
383.31	439
383.535	458
383.761	461
383.986	468
384.211	457
384.436	478
384.662	452
384.887	469
385.112	489
385.337	478
385.562	486
385.787	484
386.013	501
386.238	489
386.463	491
386.688	476
386.913	480
387.138	485
387.363	478
387.588	492
387.813	470
388.038	488
388.263	498
388.488	496
388.713	474
388.938	474
389.163	496
389.387	492
389.612	465
389.837	487
390.062	492
390.287	492
390.512	491
390.736	477
390.961	488
391.186	508
391.411	505
391.636	505
391.86	524
392.085	543
392.31	511
392.534	503
392.759	517
392.984	490
393.208	520
393.433	520
393.658	526
393.882	492
394.107	485
394.331	497
394.556	498
394.78	513
395.005	500
395.229	514
395.454	528
395.678	524
395.903	547
396.127	524
396.352	509
396.576	525
396.801	540
397.025	524
397.249	529
397.474	562
397.698	537
397.922	551
398.147	547
398.371	575
398.595	586
398.82	577
399.044	615
399.268	655
399.492	706
399.717	735
399.941	717
400.165	688
400.389	676
400.613	658
400.837	633
401.062	613
401.286	609
401.51	612
401.734	605
401.958	595
402.182	630
402.406	612
402.63	582
402.854	592
403.078	615
403.302	596
403.526	620
403.75	621
403.974	642
404.198	636
404.422	645
404.645	627
404.869	617
405.093	642
405.317	613
405.541	639
405.765	636
405.988	640
406.212	642
406.436	657
406.66	672
406.883	660
407.107	678
407.331	682
407.555	694
407.778	696
408.002	678
408.226	673
408.449	693
408.673	671
408.896	668
409.12	673
409.344	686
409.567	663
409.791	658
410.014	675
410.238	637
410.461	661
410.685	637
410.908	650
411.132	661
411.355	634
411.578	624
411.802	641
412.025	642
412.249	633
412.472	626
412.695	597
412.919	598
413.142	624
413.365	653
413.589	642
413.812	652
414.035	602
414.258	617
414.482	643
414.705	627
414.928	606
415.151	616
415.374	617
415.597	628
415.821	603
416.044	602
416.267	610
416.49	617
416.713	604
416.936	621
417.159	609
417.382	606
417.605	609
417.828	604
418.051	605
418.274	618
418.497	635
418.72	626
418.943	625
419.166	665
419.389	704
419.611	678
419.834	674
420.057	654
420.28	617
420.503	631
420.726	638
420.948	637
421.171	626
421.394	629
421.617	620
421.839	621
422.062	637
422.285	618
422.507	646
422.73	627
422.953	640
423.175	633
423.398	613
423.621	640
423.843	652
424.066	654
424.288	645
424.511	632
424.733	652
424.956	646
425.178	657
425.401	648
425.623	642
425.846	647
426.068	593
426.291	630
426.513	625
426.735	612
426.958	635
427.18	635
427.402	636
427.625	603
427.847	636
428.069	621
428.292	584
428.514	606
428.736	613
428.958	609
429.181	616
429.403	619
429.625	607
429.847	592
430.069	632
430.292	619
430.514	603
430.736	624
430.958	604
431.18	621
431.402	622
431.624	632
431.846	625
432.068	617
432.29	602
432.512	602
432.734	617
432.956	630
433.178	650
433.4	617
433.622	636
433.844	647
434.066	643
434.287	640
434.509	644
434.731	646
434.953	669
435.175	668
435.397	669
435.618	626
435.84	633
436.062	626
436.284	622
436.505	620
436.727	657
436.949	646
437.17	626
437.392	629
437.614	596
437.835	600
438.057	609
438.278	609
438.5	581
438.721	606
438.943	631
439.165	604
439.386	616
439.608	630
439.829	628
440.05	616
440.272	622
440.493	634
440.715	626
440.936	653
441.158	650
441.379	652
441.6	683
441.822	704
442.043	668
442.264	678
442.486	658
442.707	664
442.928	693
443.149	693
443.371	661
443.592	675
443.813	689
444.034	696
444.255	704
444.476	693
444.698	700
444.919	728
445.14	831
445.361	754
445.582	714
445.803	694
446.024	677
446.245	678
446.466	654
446.687	656
446.908	644
447.129	643
447.35	656
447.571	633
447.792	613
448.013	634
448.234	608
448.455	622
448.675	587
448.896	612
449.117	583
449.338	594
449.559	616
449.779	572
450	595
450.221	559
450.442	590
450.662	596
450.883	580
451.104	616
451.324	587
451.545	599
451.766	597
451.986	580
452.207	574
452.428	592
452.648	576
452.869	569
453.089	554
453.31	602
453.53	572
453.751	567
453.971	554
454.192	554
454.412	563
454.633	538
454.853	575
455.073	588
455.294	556
455.514	568
455.734	559
455.955	552
456.175	557
456.395	573
456.616	577
456.836	579
457.056	572
457.276	570
457.497	584
457.717	582
457.937	557
458.157	562
458.377	601
458.598	565
458.818	596
459.038	588
459.258	600
459.478	610
459.698	629
459.918	642
460.138	660
460.358	658
460.578	703
460.798	692
461.018	710
461.238	699
461.458	716
461.678	691
461.898	730
462.118	747
462.338	752
462.558	745
462.777	778
462.997	789
463.217	800
463.437	836
463.657	799
463.876	797
464.096	779
464.316	776
464.536	780
464.755	778
464.975	729
465.195	697
465.414	681
465.634	699
465.854	655
466.073	662
466.293	648
466.512	633
466.732	609
466.951	644
467.171	637
467.391	639
467.61	628
467.829	648
468.049	619
468.268	628
468.488	597
468.707	603
468.927	607
469.146	596
469.365	634
469.585	616
469.804	620
470.023	617
470.243	632
470.462	625
470.681	623
470.901	635
471.12	615
471.339	630
471.558	610
471.777	619
471.997	618
472.216	606
472.435	584
472.654	616
472.873	608
473.092	605
473.311	604
473.53	600
473.749	602
473.968	627
474.187	594
474.406	597
474.625	619
474.844	603
475.063	600
475.282	594
475.501	620
475.72	592
475.939	624
476.158	629
476.377	636
476.596	630
476.814	653
477.033	659
477.252	640
477.471	651
477.69	660
477.908	681
478.127	683
478.346	688
478.564	707
478.783	738
479.002	715
479.22	709
479.439	695
479.658	718
479.876	702
480.095	723
480.313	766
480.532	754
480.751	721
480.969	701
481.188	697
481.406	712
481.624	696
481.843	660
482.061	689
482.28	698
482.498	685
482.717	684
482.935	699
483.153	720
483.372	717
483.59	717
483.808	719
484.027	718
484.245	721
484.463	733
484.681	715
484.9	715
485.118	715
485.336	717
485.554	736
485.772	703
485.99	697
486.209	742
486.427	731
486.645	712
486.863	702
487.081	742
487.299	744
487.517	735
487.735	708
487.953	741
488.171	754
488.389	750
488.607	701
488.825	716
489.043	744
489.261	740
489.479	740
489.696	709
489.914	731
490.132	752
490.35	744
490.568	752
490.786	738
491.003	757
491.221	750
491.439	783
491.657	770
491.874	772
492.092	778
492.31	794
492.527	804
492.745	775
492.963	770
493.18	790
493.398	773
493.615	797
493.833	790
494.05	788
494.268	793
494.485	798
494.703	797
494.92	792
495.138	814
495.355	830
495.573	820
495.79	794
496.008	812
496.225	827
496.442	846
496.66	836
496.877	857
497.094	848
497.312	867
497.529	880
497.746	923
497.963	926
498.181	931
498.398	974
498.615	973
498.832	1033
499.049	1124
499.267	1149
499.484	1224
499.701	1271
499.918	1286
500.135	1408
500.352	1487
500.569	1534
500.786	1525
501.003	1461
501.22	1405
501.437	1292
501.654	1238
501.871	1187
502.088	1128
502.305	1052
502.522	1031
502.739	1033
502.956	972
503.172	957
503.389	937
503.606	920
503.823	869
504.04	873
504.256	873
504.473	874
504.69	854
504.907	854
505.123	841
505.34	811
505.557	793
505.773	781
505.99	778
506.207	760
506.423	755
506.64	720
506.856	721
507.073	698
507.289	709
507.506	692
507.722	719
507.939	717
508.155	697
508.372	680
508.588	694
508.805	676
509.021	681
509.238	677
509.454	677
509.67	654
509.887	652
510.103	672
510.319	647
510.536	646
510.752	630
510.968	635
511.184	650
511.401	638
511.617	627
511.833	640
512.049	646
512.265	650
512.481	656
512.698	652
512.914	648
513.13	634
513.346	642
513.562	642
513.778	641
513.994	655
514.21	625
514.426	654
514.642	646
514.858	667
515.074	649
515.29	681
515.506	643
515.721	688
515.937	678
516.153	656
516.369	681
516.585	695
516.801	692
517.016	733
517.232	752
517.448	740
517.664	782
517.879	750
518.095	764
518.311	740
518.527	754
518.742	715
518.958	702
519.173	705
519.389	673
519.605	691
519.82	676
520.036	674
520.251	640
520.467	641
520.682	638
520.898	622
521.113	628
521.329	614
521.544	608
521.76	615
521.975	617
522.19	603
522.406	617
522.621	622
522.836	616
523.052	634
523.267	630
523.482	601
523.698	594
523.913	614
524.128	606
524.343	594
524.559	598
524.774	585
524.989	597
525.204	608
525.419	586
525.634	594
525.849	580
526.064	594
526.28	577
526.495	576
526.71	583
526.925	596
527.14	576
527.355	591
527.57	581
527.785	566
527.999	598
528.214	578
528.429	577
528.644	605
528.859	590
529.074	589
529.289	595
529.503	599
529.718	604
529.933	570
530.148	594
530.363	566
530.577	558
530.792	570
531.007	592
531.221	564
531.436	560
531.651	568
531.865	573
532.08	571
532.295	566
532.509	580
532.724	562
532.938	546
533.153	580
533.367	586
533.582	560
533.796	568
534.011	567
534.225	573
534.44	547
534.654	572
534.868	557
535.083	576
535.297	578
535.511	547
535.726	559
535.94	557
536.154	555
536.369	538
536.583	541
536.797	519
537.011	547
537.225	530
537.44	542
537.654	541
537.868	534
538.082	531
538.296	529
538.51	523
538.724	530
538.938	530
539.153	554
539.367	548
539.581	539
539.795	529
540.009	530
540.222	535
540.436	551
540.65	502
540.864	545
541.078	533
541.292	534
541.506	541
541.72	562
541.934	562
542.147	562
542.361	561
542.575	515
542.789	524
543.002	530
543.216	523
543.43	517
543.644	525
543.857	538
544.071	530
544.285	521
544.498	566
544.712	539
544.925	547
545.139	520
545.352	546
545.566	538
545.779	536
545.993	541
546.206	558
546.42	524
546.633	533
546.847	533
547.06	538
547.274	548
547.487	542
547.7	561
547.914	544
548.127	562
548.34	551
548.554	558
548.767	536
548.98	554
549.193	546
549.407	562
549.62	528
549.833	542
550.046	526
550.259	545
550.473	528
550.686	563
550.899	552
551.112	526
551.325	517
551.538	525
551.751	515
551.964	523
552.177	535
552.39	554
552.603	548
552.816	556
553.029	550
553.242	574
553.455	577
553.667	560
553.88	569
554.093	538
554.306	540
554.519	536
554.732	538
554.944	503
555.157	513
555.37	488
555.583	512
555.795	509
556.008	475
556.221	474
556.433	483
556.646	502
556.859	470
557.071	470
557.284	477
557.496	474
557.709	499
557.921	474
558.134	472
558.346	471
558.559	463
558.771	492
558.984	482
559.196	462
559.409	456
559.621	453
559.833	452
560.046	454
560.258	458
560.47	453
560.683	449
560.895	455
561.107	454
561.32	437
561.532	435
561.744	461
561.956	441
562.168	468
562.381	450
562.593	467
562.805	466
563.017	459
563.229	462
563.441	462
563.653	476
