Data from Ni(NO3)2Standard.Agarose3%.GreenCap.LampEnergy5.5.E.O_HRD10591_14-40-52-187.txt Node
Date: Mon Jul 22 14:40:52 EDT 2019
User: cochatt
Spectrometer: HR+D1059
Trigger mode: 1
Integration Time (sec): 1.000000E-1
Scans to average: 1
Electric dark correction enabled: true
Nonlinearity correction enabled: false
Boxcar width: 0
XAxis mode: Wavelengths
Number of Pixels in Spectrum: 2048
>>>>>Begin Spectral Data<<<<<
223.165	-13.31
223.4	-13.31
223.635	-13.31
223.869	-14.31
224.104	-13.31
224.338	-18.31
224.573	6.69
224.808	-6.31
225.042	-6.31
225.277	4.69
225.511	-2.31
225.746	-6.31
225.98	-1.31
226.215	3.69
226.449	4.69
226.683	5.69
226.918	26.69
227.152	29.69
227.387	26.69
227.621	44.69
227.856	42.69
228.09	44.69
228.324	56.69
228.559	55.69
228.793	63.69
229.027	47.69
229.262	63.69
229.496	57.69
229.73	66.69
229.964	67.69
230.199	72.69
230.433	82.69
230.667	79.69
230.901	84.69
231.136	83.69
231.37	83.69
231.604	86.69
231.838	82.69
232.072	87.69
232.306	76.69
232.541	82.69
232.775	81.69
233.009	79.69
233.243	83.69
233.477	85.69
233.711	70.69
233.945	92.69
234.179	100.69
234.413	85.69
234.647	73.69
234.881	83.69
235.115	75.69
235.349	79.69
235.583	76.69
235.817	83.69
236.051	83.69
236.285	84.69
236.519	83.69
236.753	76.69
236.987	82.69
237.221	77.69
237.455	82.69
237.689	79.69
237.922	57.69
238.156	94.69
238.39	70.69
238.624	83.69
238.858	91.69
239.091	85.69
239.325	86.69
239.559	84.69
239.793	78.69
240.027	72.69
240.26	89.69
240.494	92.69
240.728	86.69
240.961	68.69
241.195	75.69
241.429	65.69
241.662	75.69
241.896	78.69
242.13	75.69
242.363	86.69
242.597	74.69
242.83	75.69
243.064	78.69
243.298	83.69
243.531	79.69
243.765	73.69
243.998	78.69
244.232	78.69
244.465	85.69
244.699	86.69
244.932	65.69
245.166	71.69
245.399	79.69
245.633	78.69
245.866	79.69
246.099	70.69
246.333	66.69
246.566	67.69
246.8	81.69
247.033	68.69
247.266	75.69
247.5	86.69
247.733	91.69
247.966	95.69
248.2	77.69
248.433	93.69
248.666	69.69
248.899	76.69
249.133	76.69
249.366	73.69
249.599	74.69
249.832	83.69
250.066	77.69
250.299	76.69
250.532	77.69
250.765	72.69
250.998	77.69
251.231	88.69
251.465	89.69
251.698	84.69
251.931	95.69
252.164	72.69
252.397	83.69
252.63	82.69
252.863	80.69
253.096	85.69
253.329	78.69
253.562	83.69
253.795	63.69
254.028	76.69
254.261	91.69
254.494	90.69
254.727	76.69
254.96	86.69
255.193	85.69
255.426	79.69
255.659	80.69
255.892	95.69
256.124	69.69
256.357	82.69
256.59	79.69
256.823	81.69
257.056	85.69
257.289	65.69
257.521	77.69
257.754	82.69
257.987	75.69
258.22	76.69
258.452	79.69
258.685	78.69
258.918	83.69
259.151	71.69
259.383	83.69
259.616	78.69
259.849	90.69
260.081	72.69
260.314	75.69
260.547	86.69
260.779	79.69
261.012	79.69
261.244	91.69
261.477	78.69
261.71	86.69
261.942	84.69
262.175	94.69
262.407	83.69
262.64	74.69
262.872	87.69
263.105	80.69
263.337	84.69
263.57	96.69
263.802	93.69
264.035	77.69
264.267	97.69
264.499	79.69
264.732	69.69
264.964	70.69
265.197	85.69
265.429	93.69
265.661	76.69
265.894	87.69
266.126	76.69
266.358	76.69
266.591	101.69
266.823	92.69
267.055	89.69
267.287	76.69
267.52	83.69
267.752	88.69
267.984	85.69
268.216	87.69
268.448	91.69
268.681	82.69
268.913	69.69
269.145	73.69
269.377	80.69
269.609	82.69
269.841	75.69
270.073	88.69
270.306	81.69
270.538	85.69
270.77	70.69
271.002	79.69
271.234	85.69
271.466	92.69
271.698	86.69
271.93	96.69
272.162	99.69
272.394	82.69
272.626	83.69
272.858	78.69
273.09	66.69
273.322	65.69
273.553	78.69
273.785	71.69
274.017	78.69
274.249	80.69
274.481	91.69
274.713	80.69
274.945	78.69
275.176	94.69
275.408	66.69
275.64	77.69
275.872	83.69
276.104	88.69
276.335	80.69
276.567	78.69
276.799	78.69
277.031	77.69
277.262	90.69
277.494	90.69
277.726	88.69
277.957	90.69
278.189	68.69
278.421	94.69
278.652	81.69
278.884	83.69
279.115	75.69
279.347	100.69
279.579	79.69
279.81	87.69
280.042	85.69
280.273	90.69
280.505	77.69
280.736	91.69
280.968	96.69
281.199	70.69
281.431	93.69
281.662	79.69
281.894	71.69
282.125	83.69
282.356	101.69
282.588	102.69
282.819	77.69
283.051	81.69
283.282	89.69
283.513	91.69
283.745	89.69
283.976	79.69
284.207	74.69
284.439	81.69
284.67	81.69
284.901	90.69
285.132	94.69
285.364	86.69
285.595	79.69
285.826	86.69
286.057	99.69
286.288	86.69
286.52	85.69
286.751	85.69
286.982	85.69
287.213	84.69
287.444	84.69
287.675	75.69
287.906	92.69
288.138	95.69
288.369	88.69
288.6	75.69
288.831	76.69
289.062	91.69
289.293	68.69
289.524	88.69
289.755	86.69
289.986	91.69
290.217	86.69
290.448	89.69
290.679	82.69
290.91	86.69
291.141	80.69
291.371	94.69
291.602	86.69
291.833	90.69
292.064	102.69
292.295	75.69
292.526	97.69
292.757	89.69
292.987	102.69
293.218	87.69
293.449	86.69
293.68	77.69
293.91	88.69
294.141	95.69
294.372	91.69
294.603	89.69
294.833	91.69
295.064	94.69
295.295	91.69
295.525	87.69
295.756	84.69
295.987	91.69
296.217	85.69
296.448	87.69
296.679	85.69
296.909	82.69
297.14	84.69
297.37	91.69
297.601	90.69
297.831	93.69
298.062	80.69
298.292	94.69
298.523	93.69
298.753	93.69
298.984	84.69
299.214	85.69
299.445	93.69
299.675	71.69
299.905	101.69
300.136	85.69
300.366	85.69
300.597	79.69
300.827	89.69
301.057	82.69
301.288	92.69
301.518	95.69
301.748	73.69
301.979	86.69
302.209	95.69
302.439	89.69
302.669	79.69
302.9	87.69
303.13	83.69
303.36	85.69
303.59	100.69
303.82	90.69
304.051	90.69
304.281	88.69
304.511	102.69
304.741	86.69
304.971	86.69
305.201	76.69
305.431	89.69
305.661	98.69
305.891	74.69
306.121	85.69
306.352	93.69
306.582	92.69
306.812	91.69
307.042	94.69
307.272	86.69
307.502	74.69
307.731	77.69
307.961	80.69
308.191	79.69
308.421	86.69
308.651	108.69
308.881	95.69
309.111	75.69
309.341	81.69
309.571	93.69
309.8	87.69
310.03	103.69
310.26	85.69
310.49	96.69
310.72	79.69
310.949	93.69
311.179	89.69
311.409	82.69
311.639	83.69
311.868	103.69
312.098	84.69
312.328	86.69
312.557	92.69
312.787	86.69
313.017	90.69
313.246	90.69
313.476	86.69
313.706	78.69
313.935	84.69
314.165	90.69
314.394	83.69
314.624	95.69
314.853	90.69
315.083	80.69
315.312	100.69
315.542	91.69
315.771	83.69
316.001	71.69
316.23	73.69
316.46	91.69
316.689	74.69
316.919	77.69
317.148	97.69
317.377	83.69
317.607	78.69
317.836	82.69
318.065	91.69
318.295	101.69
318.524	87.69
318.753	79.69
318.983	79.69
319.212	99.69
319.441	96.69
319.67	81.69
319.9	89.69
320.129	89.69
320.358	80.69
320.587	87.69
320.816	92.69
321.046	90.69
321.275	83.69
321.504	88.69
321.733	77.69
321.962	93.69
322.191	92.69
322.42	92.69
322.649	92.69
322.878	94.69
323.108	81.69
323.337	88.69
323.566	87.69
323.795	90.69
324.024	94.69
324.253	89.69
324.482	96.69
324.71	81.69
324.939	85.69
325.168	80.69
325.397	89.69
325.626	84.69
325.855	86.69
326.084	85.69
326.313	81.69
326.542	87.69
326.77	95.69
326.999	79.69
327.228	79.69
327.457	84.69
327.686	83.69
327.914	83.69
328.143	84.69
328.372	89.69
328.6	92.69
328.829	88.69
329.058	95.69
329.287	84.69
329.515	77.69
329.744	87.69
329.972	90.69
330.201	82.69
330.43	88.69
330.658	101.69
330.887	86.69
331.115	91.69
331.344	95.69
331.572	88.69
331.801	83.69
332.03	108.69
332.258	100.69
332.486	94.69
332.715	86.69
332.943	89.69
333.172	89.69
333.4	90.69
333.629	92.69
333.857	98.69
334.085	88.69
334.314	86.69
334.542	82.69
334.771	98.69
334.999	84.69
335.227	70.69
335.455	92.69
335.684	93.69
335.912	92.69
336.14	98.69
336.369	95.69
336.597	82.69
336.825	101.69
337.053	96.69
337.281	94.69
337.51	92.69
337.738	83.69
337.966	81.69
338.194	74.69
338.422	85.69
338.65	103.69
338.878	84.69
339.106	82.69
339.334	83.69
339.562	77.69
339.79	82.69
340.018	95.69
340.246	92.69
340.474	92.69
340.702	94.69
340.93	78.69
341.158	84.69
341.386	91.69
341.614	94.69
341.842	93.69
342.07	89.69
342.298	77.69
342.526	90.69
342.754	100.69
342.981	91.69
343.209	89.69
343.437	102.69
343.665	89.69
343.893	83.69
344.12	86.69
344.348	84.69
344.576	84.69
344.804	81.69
345.031	89.69
345.259	76.69
345.487	82.69
345.714	90.69
345.942	99.69
346.17	77.69
346.397	97.69
346.625	83.69
346.853	79.69
347.08	78.69
347.308	94.69
347.535	92.69
347.763	92.69
347.99	85.69
348.218	84.69
348.445	89.69
348.673	73.69
348.9	85.69
349.128	101.69
349.355	77.69
349.583	89.69
349.81	95.69
350.037	99.69
350.265	83.69
350.492	99.69
350.72	87.69
350.947	82.69
351.174	93.69
351.402	90.69
351.629	77.69
351.856	90.69
352.083	75.69
352.311	89.69
352.538	98.69
352.765	88.69
352.992	94.69
353.22	104.69
353.447	86.69
353.674	83.69
353.901	84.69
354.128	94.69
354.355	80.69
354.583	91.69
354.81	82.69
355.037	85.69
355.264	77.69
355.491	86.69
355.718	92.69
355.945	86.69
356.172	92.69
356.399	80.69
356.626	98.69
356.853	90.69
357.08	86.69
357.307	78.69
357.534	89.69
357.761	82.69
357.988	90.69
358.215	89.69
358.441	84.69
358.668	73.69
358.895	80.69
359.122	92.69
359.349	87.69
359.576	77.69
359.802	85.69
360.029	99.69
360.256	85.69
360.483	83.69
360.709	86.69
360.936	88.69
361.163	74.69
361.39	69.69
361.616	76.69
361.843	88.69
362.07	81.69
362.296	73.69
362.523	81.69
362.749	88.69
362.976	95.69
363.203	94.69
363.429	81.69
363.656	95.69
363.882	85.69
364.109	92.69
364.335	82.69
364.562	87.69
364.788	97.69
365.015	83.69
365.241	91.69
365.468	81.69
365.694	85.69
365.92	88.69
366.147	92.69
366.373	92.69
366.599	82.69
366.826	94.69
367.052	88.69
367.278	89.69
367.505	93.69
367.731	107.69
367.957	82.69
368.184	91.69
368.41	88.69
368.636	78.69
368.862	100.69
369.089	82.69
369.315	87.69
369.541	89.69
369.767	84.69
369.993	93.69
370.219	85.69
370.445	85.69
370.672	74.69
370.898	101.69
371.124	73.69
371.35	85.69
371.576	88.69
371.802	83.69
372.028	90.69
372.254	101.69
372.48	77.69
372.706	83.69
372.932	100.69
373.158	97.69
373.384	101.69
373.61	90.69
373.835	85.69
374.061	89.69
374.287	99.69
374.513	81.69
374.739	90.69
374.965	77.69
375.191	95.69
375.416	89.69
375.642	85.69
375.868	81.69
376.094	85.69
376.319	86.69
376.545	78.69
376.771	71.69
376.997	79.69
377.222	84.69
377.448	84.69
377.674	98.69
377.899	81.69
378.125	73.69
378.35	95.69
378.576	80.69
378.802	79.69
379.027	92.69
379.253	88.69
379.478	83.69
379.704	77.69
379.929	80.69
380.155	86.69
380.38	68.69
380.606	80.69
380.831	86.69
381.057	85.69
381.282	88.69
381.507	93.69
381.733	87.69
381.958	80.69
382.184	81.69
382.409	78.69
382.634	88.69
382.86	86.69
383.085	91.69
383.31	97.69
383.535	92.69
383.761	79.69
383.986	84.69
384.211	85.69
384.436	66.69
384.662	92.69
384.887	90.69
385.112	79.69
385.337	87.69
385.562	92.69
385.787	92.69
386.013	88.69
386.238	82.69
386.463	86.69
386.688	100.69
386.913	88.69
387.138	87.69
387.363	84.69
387.588	84.69
387.813	79.69
388.038	101.69
388.263	91.69
388.488	86.69
388.713	64.69
388.938	74.69
389.163	94.69
389.387	79.69
389.612	82.69
389.837	84.69
390.062	85.69
390.287	83.69
390.512	98.69
390.736	79.69
390.961	78.69
391.186	91.69
391.411	86.69
391.636	86.69
391.86	90.69
392.085	95.69
392.31	94.69
392.534	82.69
392.759	88.69
392.984	75.69
393.208	85.69
393.433	86.69
393.658	97.69
393.882	83.69
394.107	78.69
394.331	71.69
394.556	64.69
394.78	83.69
395.005	92.69
395.229	86.69
395.454	86.69
395.678	83.69
395.903	88.69
396.127	82.69
396.352	93.69
396.576	84.69
396.801	92.69
397.025	79.69
397.249	79.69
397.474	93.69
397.698	78.69
397.922	89.69
398.147	85.69
398.371	70.69
398.595	97.69
398.82	87.69
399.044	89.69
399.268	73.69
399.492	100.69
399.717	95.69
399.941	77.69
400.165	92.69
400.389	79.69
400.613	87.69
400.837	91.69
401.062	87.69
401.286	86.69
401.51	83.69
401.734	88.69
401.958	89.69
402.182	85.69
402.406	82.69
402.63	72.69
402.854	93.69
403.078	77.69
403.302	85.69
403.526	88.69
403.75	94.69
403.974	76.69
404.198	91.69
404.422	84.69
404.645	81.69
404.869	90.69
405.093	93.69
405.317	99.69
405.541	87.69
405.765	91.69
405.988	100.69
406.212	94.69
406.436	88.69
406.66	81.69
406.883	75.69
407.107	85.69
407.331	92.69
407.555	94.69
407.778	90.69
408.002	79.69
408.226	103.69
408.449	86.69
408.673	86.69
408.896	88.69
409.12	88.69
409.344	87.69
409.567	70.69
409.791	83.69
410.014	86.69
410.238	98.69
410.461	93.69
410.685	78.69
410.908	83.69
411.132	79.69
411.355	74.69
411.578	85.69
411.802	87.69
412.025	88.69
412.249	91.69
412.472	86.69
412.695	83.69
412.919	84.69
413.142	82.69
413.365	91.69
413.589	75.69
413.812	91.69
414.035	93.69
414.258	86.69
414.482	91.69
414.705	90.69
414.928	93.69
415.151	86.69
415.374	84.69
415.597	71.69
415.821	80.69
416.044	71.69
416.267	74.69
416.49	92.69
416.713	71.69
416.936	93.69
417.159	89.69
417.382	98.69
417.605	67.69
417.828	87.69
418.051	83.69
418.274	97.69
418.497	84.69
418.72	77.69
418.943	86.69
419.166	82.69
419.389	88.69
419.611	92.69
419.834	83.69
420.057	79.69
420.28	69.69
420.503	88.69
420.726	91.69
420.948	95.69
421.171	99.69
421.394	97.69
421.617	78.69
421.839	89.69
422.062	89.69
422.285	79.69
422.507	99.69
422.73	85.69
422.953	85.69
423.175	91.69
423.398	89.69
423.621	92.69
423.843	97.69
424.066	77.69
424.288	83.69
424.511	72.69
424.733	98.69
424.956	82.69
425.178	86.69
425.401	80.69
425.623	85.69
425.846	98.69
426.068	87.69
426.291	78.69
426.513	95.69
426.735	90.69
426.958	75.69
427.18	90.69
427.402	98.69
427.625	84.69
427.847	90.69
428.069	90.69
428.292	84.69
428.514	85.69
428.736	77.69
428.958	87.69
429.181	86.69
429.403	82.69
429.625	87.69
429.847	89.69
430.069	67.69
430.292	85.69
430.514	90.69
430.736	87.69
430.958	84.69
431.18	89.69
431.402	96.69
431.624	89.69
431.846	92.69
432.068	88.69
432.29	69.69
432.512	78.69
432.734	84.69
432.956	84.69
433.178	85.69
433.4	90.69
433.622	89.69
433.844	67.69
434.066	79.69
434.287	73.69
434.509	104.69
434.731	86.69
434.953	90.69
435.175	100.69
435.397	81.69
435.618	93.69
435.84	88.69
436.062	85.69
436.284	80.69
436.505	85.69
436.727	88.69
436.949	94.69
437.17	93.69
437.392	85.69
437.614	84.69
437.835	89.69
438.057	87.69
438.278	88.69
438.5	91.69
438.721	80.69
438.943	90.69
439.165	89.69
439.386	82.69
439.608	95.69
439.829	83.69
440.05	93.69
440.272	81.69
440.493	107.69
440.715	76.69
440.936	90.69
441.158	74.69
441.379	87.69
441.6	84.69
441.822	94.69
442.043	89.69
442.264	84.69
442.486	94.69
442.707	83.69
442.928	93.69
443.149	81.69
443.371	88.69
443.592	92.69
443.813	89.69
444.034	87.69
444.255	94.69
444.476	91.69
444.698	98.69
444.919	94.69
445.14	180.69
445.361	151.69
445.582	86.69
445.803	77.69
446.024	85.69
446.245	72.69
446.466	87.69
446.687	87.69
446.908	97.69
447.129	89.69
447.35	93.69
447.571	69.69
447.792	87.69
448.013	86.69
448.234	96.69
448.455	79.69
448.675	83.69
448.896	82.69
449.117	86.69
449.338	93.69
449.559	88.69
449.779	76.69
450	88.69
450.221	89.69
450.442	85.69
450.662	78.69
450.883	74.69
451.104	98.69
451.324	81.69
451.545	81.69
451.766	75.69
451.986	80.69
452.207	75.69
452.428	87.69
452.648	87.69
452.869	87.69
453.089	89.69
453.31	82.69
453.53	106.69
453.751	73.69
453.971	83.69
454.192	76.69
454.412	84.69
454.633	94.69
454.853	86.69
455.073	77.69
455.294	107.69
455.514	83.69
455.734	93.69
455.955	89.69
456.175	86.69
456.395	85.69
456.616	89.69
456.836	92.69
457.056	87.69
457.276	78.69
457.497	79.69
457.717	83.69
457.937	86.69
458.157	86.69
458.377	86.69
458.598	75.69
458.818	75.69
459.038	87.69
459.258	108.69
459.478	84.69
459.698	100.69
459.918	105.69
460.138	71.69
460.358	90.69
460.578	89.69
460.798	87.69
461.018	87.69
461.238	86.69
461.458	74.69
461.678	81.69
461.898	82.69
462.118	90.69
462.338	88.69
462.558	94.69
462.777	96.69
462.997	90.69
463.217	92.69
463.437	83.69
463.657	81.69
463.876	93.69
464.096	88.69
464.316	79.69
464.536	93.69
464.755	79.69
464.975	86.69
465.195	80.69
465.414	71.69
465.634	69.69
465.854	97.69
466.073	92.69
466.293	102.69
466.512	84.69
466.732	88.69
466.951	93.69
467.171	75.69
467.391	83.69
467.61	94.69
467.829	81.69
468.049	101.69
468.268	74.69
468.488	78.69
468.707	93.69
468.927	99.69
469.146	90.69
469.365	92.69
469.585	76.69
469.804	86.69
470.023	78.69
470.243	88.69
470.462	91.69
470.681	85.69
470.901	87.69
471.12	94.69
471.339	88.69
471.558	86.69
471.777	79.69
471.997	80.69
472.216	99.69
472.435	83.69
472.654	92.69
472.873	82.69
473.092	95.69
473.311	94.69
473.53	94.69
473.749	83.69
473.968	85.69
474.187	88.69
474.406	95.69
474.625	100.69
474.844	86.69
475.063	83.69
475.282	89.69
475.501	74.69
475.72	91.69
475.939	85.69
476.158	82.69
476.377	99.69
476.596	86.69
476.814	88.69
477.033	75.69
477.252	95.69
477.471	92.69
477.69	104.69
477.908	103.69
478.127	87.69
478.346	95.69
478.564	73.69
478.783	85.69
479.002	96.69
479.22	74.69
479.439	98.69
479.658	78.69
479.876	82.69
480.095	81.69
480.313	84.69
480.532	88.69
480.751	94.69
480.969	92.69
481.188	89.69
481.406	87.69
481.624	77.69
481.843	94.69
482.061	105.69
482.28	95.69
482.498	80.69
482.717	95.69
482.935	93.69
483.153	82.69
483.372	94.69
483.59	94.69
483.808	101.69
484.027	90.69
484.245	91.69
484.463	79.69
484.681	91.69
484.9	85.69
485.118	101.69
485.336	97.69
485.554	86.69
485.772	85.69
485.99	78.69
486.209	89.69
486.427	89.69
486.645	86.69
486.863	108.69
487.081	97.69
487.299	89.69
487.517	106.69
487.735	86.69
487.953	101.69
488.171	97.69
488.389	86.69
488.607	88.69
488.825	88.69
489.043	92.69
489.261	88.69
489.479	86.69
489.696	103.69
489.914	101.69
490.132	81.69
490.35	107.69
490.568	91.69
490.786	90.69
491.003	87.69
491.221	100.69
491.439	102.69
491.657	91.69
491.874	103.69
492.092	91.69
492.31	127.69
492.527	101.69
492.745	106.69
492.963	95.69
493.18	84.69
493.398	102.69
493.615	99.69
493.833	91.69
494.05	87.69
494.268	98.69
494.485	94.69
494.703	91.69
494.92	92.69
495.138	92.69
495.355	105.69
495.573	114.69
495.79	105.69
496.008	83.69
496.225	110.69
496.442	98.69
496.66	98.69
496.877	98.69
497.094	106.69
497.312	88.69
497.529	101.69
497.746	102.69
497.963	108.69
498.181	99.69
498.398	96.69
498.615	91.69
498.832	90.69
499.049	90.69
499.267	106.69
499.484	106.69
499.701	88.69
499.918	98.69
500.135	110.69
500.352	105.69
500.569	114.69
500.786	103.69
501.003	104.69
501.22	112.69
501.437	110.69
501.654	115.69
501.871	101.69
502.088	113.69
502.305	98.69
502.522	94.69
502.739	92.69
502.956	89.69
503.172	111.69
503.389	105.69
503.606	102.69
503.823	103.69
504.04	91.69
504.256	121.69
504.473	105.69
504.69	90.69
504.907	92.69
505.123	95.69
505.34	98.69
505.557	92.69
505.773	103.69
505.99	80.69
506.207	102.69
506.423	89.69
506.64	87.69
506.856	102.69
507.073	96.69
507.289	114.69
507.506	97.69
507.722	75.69
507.939	95.69
508.155	106.69
508.372	95.69
508.588	88.69
508.805	81.69
509.021	88.69
509.238	96.69
509.454	101.69
509.67	97.69
509.887	100.69
510.103	85.69
510.319	79.69
510.536	94.69
510.752	90.69
510.968	89.69
511.184	99.69
511.401	92.69
511.617	89.69
511.833	82.69
512.049	94.69
512.265	98.69
512.481	89.69
512.698	82.69
512.914	80.69
513.13	103.69
513.346	85.69
513.562	100.69
513.778	103.69
513.994	103.69
514.21	74.69
514.426	81.69
514.642	103.69
514.858	85.69
515.074	96.69
515.29	80.69
515.506	78.69
515.721	90.69
515.937	91.69
516.153	104.69
516.369	113.69
516.585	85.69
516.801	94.69
517.016	97.69
517.232	93.69
517.448	98.69
517.664	91.69
517.879	109.69
518.095	101.69
