Data from Ni(NO3)2@0.0625M.TitratingCurve.Agarose3%dH2O.NegLispCup.LampEnergy10.LIBS07252019_HRD10591_18-13-56-569.txt Node
Date: Thu Jul 25 18:13:56 EDT 2019
User: cochatt
Spectrometer: HR+D1059
Trigger mode: 1
Integration Time (sec): 1.000000E-1
Scans to average: 1
Electric dark correction enabled: true
Nonlinearity correction enabled: false
Boxcar width: 0
XAxis mode: Wavelengths
Number of Pixels in Spectrum: 2048
>>>>>Begin Spectral Data<<<<<
223.165	-27.75
223.4	-27.75
223.635	-27.75
223.869	-22.75
224.104	-12.75
224.338	-11.75
224.573	-20.75
224.808	-38.75
225.042	8.25
225.277	4.25
225.511	2.25
225.746	8.25
225.98	13.25
226.215	9.25
226.449	-1.75
226.683	19.25
226.918	36.25
227.152	35.25
227.387	23.25
227.621	47.25
227.856	51.25
228.09	33.25
228.324	59.25
228.559	57.25
228.793	65.25
229.027	90.25
229.262	107.25
229.496	107.25
229.73	109.25
229.964	120.25
230.199	120.25
230.433	111.25
230.667	120.25
230.901	119.25
231.136	122.25
231.37	122.25
231.604	116.25
231.838	139.25
232.072	141.25
232.306	132.25
232.541	132.25
232.775	127.25
233.009	131.25
233.243	135.25
233.477	127.25
233.711	123.25
233.945	129.25
234.179	136.25
234.413	146.25
234.647	141.25
234.881	147.25
235.115	135.25
235.349	120.25
235.583	131.25
235.817	144.25
236.051	127.25
236.285	135.25
236.519	142.25
236.753	131.25
236.987	162.25
237.221	147.25
237.455	139.25
237.689	159.25
237.922	141.25
238.156	141.25
238.39	166.25
238.624	133.25
238.858	145.25
239.091	139.25
239.325	162.25
239.559	162.25
239.793	148.25
240.027	182.25
240.26	159.25
240.494	163.25
240.728	162.25
240.961	160.25
241.195	150.25
241.429	167.25
241.662	166.25
241.896	166.25
242.13	164.25
242.363	171.25
242.597	177.25
242.83	185.25
243.064	167.25
243.298	155.25
243.531	144.25
243.765	173.25
243.998	187.25
244.232	180.25
244.465	170.25
244.699	186.25
244.932	199.25
245.166	191.25
245.399	182.25
245.633	197.25
245.866	183.25
246.099	194.25
246.333	183.25
246.566	173.25
246.8	179.25
247.033	195.25
247.266	186.25
247.5	196.25
247.733	185.25
247.966	207.25
248.2	199.25
248.433	203.25
248.666	196.25
248.899	220.25
249.133	211.25
249.366	195.25
249.599	216.25
249.832	204.25
250.066	210.25
250.299	214.25
250.532	189.25
250.765	201.25
250.998	205.25
251.231	220.25
251.465	224.25
251.698	236.25
251.931	244.25
252.164	227.25
252.397	220.25
252.63	224.25
252.863	222.25
253.096	221.25
253.329	239.25
253.562	228.25
253.795	224.25
254.028	235.25
254.261	230.25
254.494	230.25
254.727	228.25
254.96	234.25
255.193	228.25
255.426	242.25
255.659	254.25
255.892	247.25
256.124	240.25
256.357	235.25
256.59	233.25
256.823	231.25
257.056	258.25
257.289	251.25
257.521	263.25
257.754	277.25
257.987	243.25
258.22	239.25
258.452	253.25
258.685	269.25
258.918	255.25
259.151	256.25
259.383	252.25
259.616	255.25
259.849	265.25
260.081	244.25
260.314	256.25
260.547	267.25
260.779	259.25
261.012	250.25
261.244	285.25
261.477	283.25
261.71	273.25
261.942	288.25
262.175	275.25
262.407	272.25
262.64	296.25
262.872	298.25
263.105	298.25
263.337	287.25
263.57	282.25
263.802	281.25
264.035	281.25
264.267	291.25
264.499	296.25
264.732	280.25
264.964	294.25
265.197	301.25
265.429	295.25
265.661	297.25
265.894	286.25
266.126	293.25
266.358	297.25
266.591	275.25
266.823	304.25
267.055	320.25
267.287	296.25
267.52	316.25
267.752	303.25
267.984	309.25
268.216	300.25
268.448	323.25
268.681	297.25
268.913	300.25
269.145	309.25
269.377	316.25
269.609	301.25
269.841	304.25
270.073	293.25
270.306	338.25
270.538	323.25
270.77	303.25
271.002	323.25
271.234	339.25
271.466	326.25
271.698	326.25
271.93	323.25
272.162	329.25
272.394	325.25
272.626	328.25
272.858	325.25
273.09	333.25
273.322	319.25
273.553	336.25
273.785	336.25
274.017	349.25
274.249	324.25
274.481	364.25
274.713	335.25
274.945	352.25
275.176	333.25
275.408	348.25
275.64	331.25
275.872	351.25
276.104	347.25
276.335	345.25
276.567	361.25
276.799	362.25
277.031	338.25
277.262	347.25
277.494	377.25
277.726	367.25
277.957	368.25
278.189	369.25
278.421	360.25
278.652	351.25
278.884	391.25
279.115	362.25
279.347	367.25
279.579	374.25
279.81	359.25
280.042	369.25
280.273	371.25
280.505	407.25
280.736	372.25
280.968	369.25
281.199	357.25
281.431	385.25
281.662	387.25
281.894	402.25
282.125	381.25
282.356	394.25
282.588	376.25
282.819	403.25
283.051	385.25
283.282	396.25
283.513	392.25
283.745	409.25
283.976	401.25
284.207	398.25
284.439	387.25
284.67	404.25
284.901	407.25
285.132	413.25
285.364	405.25
285.595	400.25
285.826	408.25
286.057	434.25
286.288	395.25
286.52	401.25
286.751	413.25
286.982	418.25
287.213	421.25
287.444	414.25
287.675	420.25
287.906	433.25
288.138	421.25
288.369	423.25
288.6	425.25
288.831	439.25
289.062	410.25
289.293	433.25
289.524	415.25
289.755	444.25
289.986	412.25
290.217	429.25
290.448	426.25
290.679	458.25
290.91	436.25
291.141	439.25
291.371	457.25
291.602	445.25
291.833	451.25
292.064	447.25
292.295	431.25
292.526	428.25
292.757	443.25
292.987	448.25
293.218	447.25
293.449	435.25
293.68	427.25
293.91	426.25
294.141	445.25
294.372	420.25
294.603	433.25
294.833	462.25
295.064	456.25
295.295	448.25
295.525	433.25
295.756	449.25
295.987	464.25
296.217	446.25
296.448	469.25
296.679	437.25
296.909	454.25
297.14	456.25
297.37	452.25
297.601	469.25
297.831	454.25
298.062	472.25
298.292	487.25
298.523	496.25
298.753	470.25
298.984	476.25
299.214	469.25
299.445	465.25
299.675	457.25
299.905	474.25
300.136	482.25
300.366	468.25
300.597	461.25
300.827	511.25
301.057	502.25
301.288	499.25
301.518	482.25
301.748	491.25
301.979	493.25
302.209	509.25
302.439	516.25
302.669	481.25
302.9	495.25
303.13	483.25
303.36	507.25
303.59	500.25
303.82	489.25
304.051	511.25
304.281	497.25
304.511	507.25
304.741	492.25
304.971	483.25
305.201	506.25
305.431	490.25
305.661	479.25
305.891	493.25
306.121	490.25
306.352	495.25
306.582	466.25
306.812	470.25
307.042	476.25
307.272	488.25
307.502	478.25
307.731	488.25
307.961	485.25
308.191	488.25
308.421	498.25
308.651	489.25
308.881	487.25
309.111	476.25
309.341	486.25
309.571	496.25
309.8	487.25
310.03	497.25
310.26	505.25
310.49	482.25
310.72	507.25
310.949	494.25
311.179	490.25
311.409	477.25
311.639	487.25
311.868	493.25
312.098	485.25
312.328	489.25
312.557	492.25
312.787	485.25
313.017	517.25
313.246	527.25
313.476	529.25
313.706	526.25
313.935	537.25
314.165	536.25
314.394	532.25
314.624	530.25
314.853	532.25
315.083	514.25
315.312	521.25
315.542	507.25
315.771	520.25
316.001	513.25
316.23	513.25
316.46	509.25
316.689	525.25
316.919	508.25
317.148	508.25
317.377	507.25
317.607	514.25
317.836	491.25
318.065	530.25
318.295	515.25
318.524	525.25
318.753	525.25
318.983	503.25
319.212	512.25
319.441	489.25
319.67	516.25
319.9	517.25
320.129	508.25
320.358	524.25
320.587	509.25
320.816	513.25
321.046	505.25
321.275	529.25
321.504	511.25
321.733	520.25
321.962	527.25
322.191	531.25
322.42	533.25
322.649	512.25
322.878	521.25
323.108	518.25
323.337	526.25
323.566	538.25
323.795	519.25
324.024	542.25
324.253	526.25
324.482	520.25
324.71	519.25
324.939	561.25
325.168	541.25
325.397	537.25
325.626	538.25
325.855	556.25
326.084	561.25
326.313	589.25
326.542	571.25
326.77	584.25
326.999	573.25
327.228	554.25
327.457	553.25
327.686	553.25
327.914	589.25
328.143	571.25
328.372	571.25
328.6	560.25
328.829	543.25
329.058	556.25
329.287	575.25
329.515	572.25
329.744	599.25
329.972	542.25
330.201	577.25
330.43	585.25
330.658	581.25
330.887	572.25
331.115	603.25
331.344	588.25
331.572	596.25
331.801	616.25
332.03	619.25
332.258	643.25
332.486	665.25
332.715	665.25
332.943	696.25
333.172	731.25
333.4	773.25
333.629	777.25
333.857	773.25
334.085	781.25
334.314	733.25
334.542	742.25
334.771	717.25
334.999	736.25
335.227	741.25
335.455	705.25
335.684	701.25
335.912	674.25
336.14	677.25
336.369	671.25
336.597	710.25
336.825	706.25
337.053	701.25
337.281	659.25
337.51	663.25
337.738	643.25
337.966	635.25
338.194	626.25
338.422	623.25
338.65	653.25
338.878	637.25
339.106	623.25
339.334	614.25
339.562	605.25
339.79	617.25
340.018	602.25
340.246	610.25
340.474	616.25
340.702	584.25
340.93	629.25
341.158	613.25
341.386	590.25
341.614	599.25
341.842	620.25
342.07	596.25
342.298	595.25
342.526	593.25
342.754	579.25
342.981	613.25
343.209	624.25
343.437	647.25
343.665	691.25
343.893	728.25
344.12	759.25
344.348	719.25
344.576	703.25
344.804	665.25
345.031	617.25
345.259	604.25
345.487	622.25
345.714	628.25
345.942	613.25
346.17	617.25
346.397	588.25
346.625	582.25
346.853	580.25
347.08	584.25
347.308	577.25
347.535	568.25
347.763	564.25
347.99	584.25
348.218	591.25
348.445	584.25
348.673	585.25
348.9	587.25
349.128	583.25
349.355	582.25
349.583	576.25
349.81	576.25
350.037	548.25
350.265	555.25
350.492	545.25
350.72	570.25
350.947	571.25
351.174	551.25
351.402	583.25
351.629	578.25
351.856	564.25
352.083	572.25
352.311	553.25
352.538	550.25
352.765	555.25
352.992	566.25
353.22	568.25
353.447	561.25
353.674	566.25
353.901	561.25
354.128	551.25
354.355	567.25
354.583	553.25
354.81	571.25
355.037	555.25
355.264	567.25
355.491	548.25
355.718	575.25
355.945	551.25
356.172	573.25
356.399	568.25
356.626	565.25
356.853	567.25
357.08	563.25
357.307	584.25
357.534	575.25
357.761	573.25
357.988	579.25
358.215	583.25
358.441	561.25
358.668	563.25
358.895	571.25
359.122	553.25
359.349	554.25
359.576	551.25
359.802	560.25
360.029	562.25
360.256	572.25
360.483	566.25
360.709	560.25
360.936	583.25
361.163	576.25
361.39	570.25
361.616	573.25
361.843	579.25
362.07	584.25
362.296	562.25
362.523	554.25
362.749	565.25
362.976	545.25
363.203	554.25
363.429	559.25
363.656	567.25
363.882	578.25
364.109	568.25
364.335	539.25
364.562	568.25
364.788	567.25
365.015	560.25
365.241	562.25
365.468	555.25
365.694	538.25
365.92	552.25
366.147	534.25
366.373	573.25
366.599	551.25
366.826	569.25
367.052	560.25
367.278	546.25
367.505	558.25
367.731	559.25
367.957	598.25
368.184	583.25
368.41	568.25
368.636	563.25
368.862	567.25
369.089	583.25
369.315	572.25
369.541	587.25
369.767	563.25
369.993	602.25
370.219	582.25
370.445	600.25
370.672	587.25
370.898	602.25
371.124	594.25
371.35	616.25
371.576	602.25
371.802	595.25
372.028	606.25
372.254	608.25
372.48	608.25
372.706	627.25
372.932	627.25
373.158	642.25
373.384	636.25
373.61	607.25
373.835	617.25
374.061	634.25
374.287	631.25
374.513	627.25
374.739	669.25
374.965	693.25
375.191	694.25
375.416	674.25
375.642	654.25
375.868	643.25
376.094	651.25
376.319	623.25
376.545	621.25
376.771	639.25
376.997	629.25
377.222	633.25
377.448	621.25
377.674	616.25
377.899	585.25
378.125	592.25
378.35	616.25
378.576	613.25
378.802	620.25
379.027	617.25
379.253	608.25
379.478	595.25
379.704	610.25
379.929	621.25
380.155	606.25
380.38	604.25
380.606	602.25
380.831	607.25
381.057	625.25
381.282	613.25
381.507	608.25
381.733	615.25
381.958	609.25
382.184	627.25
382.409	653.25
382.634	632.25
382.86	650.25
383.085	665.25
383.31	671.25
383.535	687.25
383.761	687.25
383.986	690.25
384.211	674.25
384.436	717.25
384.662	716.25
384.887	704.25
385.112	745.25
385.337	740.25
385.562	745.25
385.787	737.25
386.013	766.25
386.238	735.25
386.463	748.25
386.688	726.25
386.913	744.25
387.138	728.25
387.363	739.25
387.588	744.25
387.813	729.25
388.038	724.25
388.263	738.25
388.488	749.25
388.713	734.25
388.938	763.25
389.163	715.25
389.387	743.25
389.612	721.25
389.837	696.25
390.062	710.25
390.287	720.25
390.512	707.25
390.736	715.25
390.961	727.25
391.186	768.25
391.411	802.25
391.636	822.25
391.86	821.25
392.085	839.25
392.31	841.25
392.534	794.25
392.759	815.25
392.984	779.25
393.208	769.25
393.433	771.25
393.658	773.25
393.882	787.25
394.107	792.25
394.331	810.25
394.556	782.25
394.78	805.25
395.005	798.25
395.229	787.25
395.454	800.25
395.678	828.25
395.903	835.25
396.127	841.25
396.352	804.25
396.576	772.25
396.801	783.25
397.025	760.25
397.249	804.25
397.474	840.25
397.698	820.25
397.922	831.25
398.147	810.25
398.371	816.25
398.595	860.25
398.82	894.25
399.044	983.25
399.268	1105.25
399.492	1251.25
399.717	1413.25
399.941	1404.25
400.165	1231.25
400.389	1100.25
400.613	1029.25
400.837	982.25
401.062	946.25
401.286	925.25
401.51	900.25
401.734	934.25
401.958	940.25
402.182	953.25
402.406	988.25
402.63	959.25
402.854	979.25
403.078	1020.25
403.302	1028.25
403.526	1055.25
403.75	1077.25
403.974	1077.25
404.198	1078.25
404.422	1066.25
404.645	1069.25
404.869	1023.25
405.093	1065.25
405.317	1045.25
405.541	1003.25
405.765	1008.25
405.988	1019.25
406.212	1009.25
406.436	1023.25
406.66	1037.25
406.883	1064.25
407.107	1094.25
407.331	1182.25
407.555	1188.25
407.778	1176.25
408.002	1178.25
408.226	1141.25
408.449	1096.25
408.673	1077.25
408.896	1044.25
409.12	1059.25
409.344	1066.25
409.567	1053.25
409.791	1015.25
410.014	1079.25
410.238	1061.25
410.461	1039.25
410.685	1039.25
410.908	1020.25
411.132	1000.25
411.355	972.25
411.578	964.25
411.802	963.25
412.025	971.25
412.249	963.25
412.472	976.25
412.695	947.25
412.919	927.25
413.142	949.25
413.365	907.25
413.589	938.25
413.812	921.25
414.035	928.25
414.258	927.25
414.482	920.25
414.705	956.25
414.928	979.25
415.151	947.25
415.374	924.25
415.597	916.25
415.821	924.25
416.044	905.25
416.267	907.25
416.49	927.25
416.713	904.25
416.936	917.25
417.159	894.25
417.382	886.25
417.605	905.25
417.828	897.25
418.051	925.25
418.274	938.25
418.497	944.25
418.72	935.25
418.943	923.25
419.166	992.25
419.389	1051.25
419.611	1014.25
419.834	996.25
420.057	963.25
420.28	936.25
420.503	905.25
420.726	896.25
420.948	908.25
421.171	902.25
421.394	911.25
421.617	895.25
421.839	895.25
422.062	928.25
422.285	907.25
422.507	935.25
422.73	913.25
422.953	961.25
423.175	961.25
423.398	967.25
423.621	971.25
423.843	1009.25
424.066	990.25
424.288	984.25
424.511	943.25
424.733	931.25
424.956	955.25
425.178	934.25
425.401	901.25
425.623	941.25
425.846	865.25
426.068	875.25
426.291	871.25
426.513	848.25
426.735	872.25
426.958	849.25
427.18	843.25
427.402	833.25
427.625	843.25
427.847	817.25
428.069	815.25
428.292	819.25
428.514	806.25
428.736	804.25
428.958	812.25
429.181	765.25
429.403	795.25
429.625	796.25
429.847	777.25
430.069	785.25
430.292	793.25
430.514	784.25
430.736	774.25
430.958	808.25
431.18	777.25
431.402	780.25
431.624	808.25
431.846	806.25
432.068	847.25
432.29	848.25
432.512	809.25
432.734	812.25
432.956	802.25
433.178	819.25
433.4	787.25
433.622	808.25
433.844	826.25
434.066	813.25
434.287	817.25
434.509	872.25
434.731	883.25
434.953	949.25
435.175	916.25
435.397	919.25
435.618	877.25
435.84	849.25
436.062	815.25
436.284	812.25
436.505	804.25
436.727	815.25
436.949	825.25
437.17	828.25
437.392	798.25
437.614	782.25
437.835	795.25
438.057	769.25
438.278	766.25
438.5	776.25
438.721	788.25
438.943	783.25
439.165	808.25
439.386	767.25
439.608	821.25
439.829	796.25
440.05	815.25
440.272	791.25
440.493	805.25
440.715	841.25
440.936	839.25
441.158	855.25
441.379	883.25
441.6	921.25
441.822	926.25
442.043	931.25
442.264	880.25
442.486	887.25
442.707	916.25
442.928	901.25
443.149	884.25
443.371	892.25
443.592	915.25
443.813	907.25
444.034	916.25
444.255	949.25
444.476	1007.25
444.698	1058.25
444.919	1098.25
445.14	1147.25
445.361	1039.25
445.582	957.25
445.803	883.25
446.024	845.25
446.245	835.25
446.466	836.25
446.687	830.25
446.908	829.25
447.129	803.25
447.35	785.25
447.571	816.25
447.792	777.25
448.013	789.25
448.234	756.25
448.455	766.25
448.675	754.25
448.896	731.25
449.117	743.25
449.338	740.25
449.559	721.25
449.779	726.25
450	723.25
450.221	743.25
450.442	752.25
450.662	768.25
450.883	755.25
451.104	777.25
451.324	773.25
451.545	781.25
451.766	758.25
451.986	745.25
452.207	767.25
452.428	746.25
452.648	730.25
452.869	726.25
453.089	737.25
453.31	738.25
453.53	715.25
453.751	705.25
453.971	735.25
454.192	704.25
454.412	717.25
454.633	723.25
454.853	712.25
455.073	700.25
455.294	730.25
455.514	701.25
455.734	675.25
455.955	710.25
456.175	684.25
456.395	681.25
456.616	686.25
456.836	694.25
457.056	683.25
457.276	679.25
457.497	698.25
457.717	695.25
457.937	714.25
458.157	698.25
458.377	699.25
458.598	748.25
458.818	730.25
459.038	772.25
459.258	783.25
459.478	847.25
459.698	833.25
459.918	857.25
460.138	888.25
460.358	949.25
460.578	979.25
460.798	983.25
461.018	989.25
461.238	958.25
461.458	939.25
461.678	981.25
461.898	978.25
462.118	973.25
462.338	1027.25
462.558	1058.25
462.777	1113.25
462.997	1210.25
463.217	1303.25
463.437	1327.25
463.657	1199.25
463.876	1130.25
464.096	1129.25
464.316	1125.25
464.536	1122.25
464.755	1083.25
464.975	1025.25
465.195	984.25
465.414	943.25
465.634	861.25
465.854	867.25
466.073	800.25
466.293	830.25
466.512	826.25
466.732	803.25
466.951	789.25
467.171	795.25
467.391	781.25
467.61	785.25
467.829	802.25
468.049	771.25
468.268	732.25
468.488	743.25
468.707	743.25
468.927	761.25
469.146	753.25
469.365	740.25
469.585	741.25
469.804	784.25
470.023	811.25
470.243	793.25
470.462	793.25
470.681	805.25
470.901	811.25
471.12	807.25
471.339	776.25
471.558	761.25
471.777	763.25
471.997	725.25
472.216	729.25
472.435	754.25
472.654	723.25
472.873	714.25
473.092	738.25
473.311	695.25
473.53	723.25
473.749	713.25
473.968	713.25
474.187	713.25
474.406	720.25
474.625	707.25
474.844	705.25
475.063	715.25
475.282	748.25
475.501	721.25
475.72	744.25
475.939	761.25
476.158	776.25
476.377	716.25
476.596	768.25
476.814	764.25
477.033	752.25
477.252	822.25
477.471	823.25
477.69	823.25
477.908	810.25
478.127	873.25
478.346	874.25
478.564	913.25
478.783	865.25
479.002	895.25
479.22	926.25
479.439	919.25
479.658	911.25
479.876	919.25
480.095	915.25
480.313	963.25
480.532	991.25
480.751	971.25
480.969	945.25
481.188	914.25
481.406	885.25
481.624	831.25
481.843	852.25
482.061	838.25
482.28	839.25
482.498	811.25
482.717	805.25
482.935	797.25
483.153	832.25
483.372	835.25
483.59	840.25
483.808	838.25
484.027	824.25
484.245	820.25
484.463	845.25
484.681	868.25
484.9	843.25
485.118	865.25
485.336	853.25
485.554	868.25
485.772	869.25
485.99	863.25
486.209	895.25
486.427	891.25
486.645	871.25
486.863	872.25
487.081	873.25
487.299	876.25
487.517	883.25
487.735	890.25
487.953	866.25
488.171	879.25
488.389	850.25
488.607	858.25
488.825	860.25
489.043	836.25
489.261	851.25
489.479	859.25
489.696	872.25
489.914	871.25
490.132	859.25
490.35	858.25
490.568	860.25
490.786	853.25
491.003	883.25
491.221	848.25
491.439	871.25
491.657	887.25
491.874	879.25
492.092	860.25
492.31	874.25
492.527	885.25
492.745	897.25
492.963	884.25
493.18	885.25
493.398	859.25
493.615	921.25
493.833	893.25
494.05	909.25
494.268	898.25
494.485	934.25
494.703	908.25
494.92	903.25
495.138	924.25
495.355	915.25
495.573	943.25
495.79	930.25
496.008	945.25
496.225	957.25
496.442	941.25
496.66	966.25
496.877	963.25
497.094	991.25
497.312	982.25
497.529	1022.25
497.746	1029.25
497.963	1060.25
498.181	1128.25
498.398	1167.25
498.615	1222.25
498.832	1331.25
499.049	1402.25
499.267	1543.25
499.484	1683.25
499.701	1825.25
499.918	2053.25
500.135	2371.25
500.352	2759.25
500.569	2872.25
