Data from Ni(NO3)2@0.125M.TitratingCurve.Agarose3%dH2O.NegLispCup.LampEnergy10.LIBS07252019_HRD10591_18-11-07-568.txt Node
Date: Thu Jul 25 18:11:07 EDT 2019
User: cochatt
Spectrometer: HR+D1059
Trigger mode: 1
Integration Time (sec): 1.000000E-1
Scans to average: 1
Electric dark correction enabled: true
Nonlinearity correction enabled: false
Boxcar width: 0
XAxis mode: Wavelengths
Number of Pixels in Spectrum: 2048
>>>>>Begin Spectral Data<<<<<
223.165	-10.56
223.4	-10.56
223.635	-10.56
223.869	-12.56
224.104	-23.56
224.338	-18.56
224.573	-4.56
224.808	-24.56
225.042	7.44
225.277	-2.56
225.511	-12.56
225.746	8.44
225.98	10.44
226.215	2.44
226.449	14.44
226.683	18.44
226.918	18.44
227.152	29.44
227.387	29.44
227.621	33.44
227.856	29.44
228.09	46.44
228.324	51.44
228.559	58.44
228.793	64.44
229.027	84.44
229.262	108.44
229.496	91.44
229.73	111.44
229.964	94.44
230.199	82.44
230.433	111.44
230.667	104.44
230.901	116.44
231.136	95.44
231.37	108.44
231.604	115.44
231.838	112.44
232.072	122.44
232.306	117.44
232.541	118.44
232.775	127.44
233.009	121.44
233.243	139.44
233.477	113.44
233.711	122.44
233.945	133.44
234.179	125.44
234.413	131.44
234.647	117.44
234.881	139.44
235.115	138.44
235.349	117.44
235.583	133.44
235.817	119.44
236.051	135.44
236.285	106.44
236.519	127.44
236.753	118.44
236.987	135.44
237.221	138.44
237.455	123.44
237.689	121.44
237.922	128.44
238.156	133.44
238.39	128.44
238.624	133.44
238.858	142.44
239.091	123.44
239.325	134.44
239.559	160.44
239.793	132.44
240.027	125.44
240.26	130.44
240.494	125.44
240.728	145.44
240.961	140.44
241.195	137.44
241.429	129.44
241.662	145.44
241.896	137.44
242.13	136.44
242.363	149.44
242.597	160.44
242.83	154.44
243.064	147.44
243.298	157.44
243.531	147.44
243.765	155.44
243.998	156.44
244.232	152.44
244.465	163.44
244.699	151.44
244.932	161.44
245.166	164.44
245.399	168.44
245.633	171.44
245.866	155.44
246.099	181.44
246.333	170.44
246.566	181.44
246.8	181.44
247.033	151.44
247.266	167.44
247.5	177.44
247.733	167.44
247.966	163.44
248.2	180.44
248.433	188.44
248.666	167.44
248.899	178.44
249.133	190.44
249.366	184.44
249.599	189.44
249.832	187.44
250.066	200.44
250.299	210.44
250.532	191.44
250.765	189.44
250.998	173.44
251.231	193.44
251.465	188.44
251.698	204.44
251.931	201.44
252.164	198.44
252.397	203.44
252.63	204.44
252.863	201.44
253.096	204.44
253.329	201.44
253.562	206.44
253.795	223.44
254.028	206.44
254.261	216.44
254.494	186.44
254.727	215.44
254.96	222.44
255.193	212.44
255.426	215.44
255.659	198.44
255.892	215.44
256.124	222.44
256.357	214.44
256.59	222.44
256.823	208.44
257.056	221.44
257.289	219.44
257.521	231.44
257.754	233.44
257.987	237.44
258.22	217.44
258.452	222.44
258.685	238.44
258.918	221.44
259.151	223.44
259.383	232.44
259.616	225.44
259.849	235.44
260.081	234.44
260.314	238.44
260.547	240.44
260.779	237.44
261.012	242.44
261.244	263.44
261.477	254.44
261.71	231.44
261.942	238.44
262.175	242.44
262.407	239.44
262.64	246.44
262.872	257.44
263.105	251.44
263.337	256.44
263.57	255.44
263.802	240.44
264.035	257.44
264.267	244.44
264.499	258.44
264.732	248.44
264.964	248.44
265.197	269.44
265.429	266.44
265.661	255.44
265.894	259.44
266.126	253.44
266.358	265.44
266.591	260.44
266.823	259.44
267.055	250.44
267.287	258.44
267.52	258.44
267.752	279.44
267.984	268.44
268.216	255.44
268.448	263.44
268.681	274.44
268.913	258.44
269.145	281.44
269.377	278.44
269.609	258.44
269.841	293.44
270.073	263.44
270.306	273.44
270.538	285.44
270.77	265.44
271.002	264.44
271.234	262.44
271.466	267.44
271.698	283.44
271.93	290.44
272.162	275.44
272.394	281.44
272.626	280.44
272.858	279.44
273.09	287.44
273.322	271.44
273.553	275.44
273.785	288.44
274.017	267.44
274.249	302.44
274.481	319.44
274.713	298.44
274.945	293.44
275.176	294.44
275.408	299.44
275.64	295.44
275.872	279.44
276.104	285.44
276.335	310.44
276.567	303.44
276.799	306.44
277.031	307.44
277.262	303.44
277.494	309.44
277.726	311.44
277.957	328.44
278.189	314.44
278.421	292.44
278.652	309.44
278.884	316.44
279.115	315.44
279.347	325.44
279.579	323.44
279.81	307.44
280.042	303.44
280.273	333.44
280.505	311.44
280.736	310.44
280.968	309.44
281.199	335.44
281.431	336.44
281.662	329.44
281.894	324.44
282.125	325.44
282.356	338.44
282.588	330.44
282.819	338.44
283.051	350.44
283.282	361.44
283.513	340.44
283.745	352.44
283.976	353.44
284.207	344.44
284.439	335.44
284.67	339.44
284.901	349.44
285.132	330.44
285.364	339.44
285.595	353.44
285.826	371.44
286.057	337.44
286.288	341.44
286.52	367.44
286.751	366.44
286.982	361.44
287.213	345.44
287.444	362.44
287.675	365.44
287.906	365.44
288.138	359.44
288.369	355.44
288.6	368.44
288.831	370.44
289.062	384.44
289.293	351.44
289.524	360.44
289.755	377.44
289.986	383.44
290.217	355.44
290.448	370.44
290.679	369.44
290.91	386.44
291.141	378.44
291.371	373.44
291.602	373.44
291.833	368.44
292.064	338.44
292.295	381.44
292.526	385.44
292.757	365.44
292.987	399.44
293.218	378.44
293.449	368.44
293.68	358.44
293.91	347.44
294.141	377.44
294.372	367.44
294.603	373.44
294.833	396.44
295.064	392.44
295.295	371.44
295.525	384.44
295.756	379.44
295.987	393.44
296.217	399.44
296.448	399.44
296.679	393.44
296.909	389.44
297.14	408.44
297.37	387.44
297.601	405.44
297.831	421.44
298.062	408.44
298.292	405.44
298.523	419.44
298.753	439.44
298.984	400.44
299.214	392.44
299.445	397.44
299.675	407.44
299.905	421.44
300.136	400.44
300.366	407.44
300.597	393.44
300.827	408.44
301.057	422.44
301.288	413.44
301.518	420.44
301.748	425.44
301.979	407.44
302.209	411.44
302.439	420.44
302.669	428.44
302.9	433.44
303.13	423.44
303.36	395.44
303.59	400.44
303.82	408.44
304.051	439.44
304.281	401.44
304.511	421.44
304.741	398.44
304.971	417.44
305.201	416.44
305.431	419.44
305.661	423.44
305.891	404.44
306.121	408.44
306.352	420.44
306.582	414.44
306.812	413.44
307.042	406.44
307.272	430.44
307.502	415.44
307.731	409.44
307.961	399.44
308.191	393.44
308.421	399.44
308.651	406.44
308.881	409.44
309.111	425.44
309.341	392.44
309.571	414.44
309.8	412.44
310.03	399.44
310.26	413.44
310.49	422.44
310.72	403.44
310.949	401.44
311.179	396.44
311.409	412.44
311.639	423.44
311.868	414.44
312.098	431.44
312.328	428.44
312.557	423.44
312.787	421.44
313.017	432.44
313.246	426.44
313.476	426.44
313.706	443.44
313.935	443.44
314.165	435.44
314.394	459.44
314.624	421.44
314.853	438.44
315.083	434.44
315.312	433.44
315.542	423.44
315.771	445.44
316.001	438.44
316.23	455.44
316.46	421.44
316.689	426.44
316.919	425.44
317.148	430.44
317.377	409.44
317.607	434.44
317.836	417.44
318.065	429.44
318.295	426.44
318.524	439.44
318.753	437.44
318.983	411.44
319.212	414.44
319.441	431.44
319.67	422.44
319.9	415.44
320.129	432.44
320.358	435.44
320.587	425.44
320.816	441.44
321.046	411.44
321.275	430.44
321.504	437.44
321.733	419.44
321.962	412.44
322.191	460.44
322.42	435.44
322.649	442.44
322.878	429.44
323.108	429.44
323.337	437.44
323.566	451.44
323.795	440.44
324.024	423.44
324.253	429.44
324.482	436.44
324.71	445.44
324.939	446.44
325.168	439.44
325.397	446.44
325.626	451.44
325.855	460.44
326.084	448.44
326.313	459.44
326.542	463.44
326.77	473.44
326.999	458.44
327.228	480.44
327.457	447.44
327.686	471.44
327.914	462.44
328.143	472.44
328.372	461.44
328.6	473.44
328.829	476.44
329.058	486.44
329.287	499.44
329.515	468.44
329.744	467.44
329.972	489.44
330.201	482.44
330.43	459.44
330.658	487.44
330.887	480.44
331.115	477.44
331.344	503.44
331.572	485.44
331.801	504.44
332.03	517.44
332.258	529.44
332.486	550.44
332.715	552.44
332.943	580.44
333.172	627.44
333.4	651.44
333.629	665.44
333.857	650.44
334.085	629.44
334.314	615.44
334.542	618.44
334.771	602.44
334.999	597.44
335.227	570.44
335.455	588.44
335.684	599.44
335.912	577.44
336.14	564.44
336.369	581.44
336.597	579.44
336.825	581.44
337.053	579.44
337.281	576.44
337.51	550.44
337.738	524.44
337.966	529.44
338.194	537.44
338.422	509.44
338.65	507.44
338.878	497.44
339.106	514.44
339.334	525.44
339.562	506.44
339.79	519.44
340.018	508.44
340.246	496.44
340.474	490.44
340.702	499.44
340.93	503.44
341.158	520.44
341.386	498.44
341.614	506.44
341.842	491.44
342.07	485.44
342.298	481.44
342.526	495.44
342.754	483.44
342.981	493.44
343.209	504.44
343.437	529.44
343.665	567.44
343.893	610.44
344.12	638.44
344.348	618.44
344.576	552.44
344.804	575.44
345.031	539.44
345.259	531.44
345.487	506.44
345.714	492.44
345.942	509.44
346.17	507.44
346.397	499.44
346.625	481.44
346.853	509.44
347.08	504.44
347.308	507.44
347.535	507.44
347.763	478.44
347.99	497.44
348.218	488.44
348.445	495.44
348.673	480.44
348.9	501.44
349.128	482.44
349.355	472.44
349.583	473.44
349.81	485.44
350.037	465.44
350.265	461.44
350.492	481.44
350.72	473.44
350.947	468.44
351.174	467.44
351.402	460.44
351.629	461.44
351.856	470.44
352.083	459.44
352.311	462.44
352.538	455.44
352.765	449.44
352.992	458.44
353.22	464.44
353.447	471.44
353.674	479.44
353.901	477.44
354.128	474.44
354.355	458.44
354.583	469.44
354.81	484.44
355.037	473.44
355.264	461.44
355.491	469.44
355.718	471.44
355.945	464.44
356.172	455.44
356.399	467.44
356.626	481.44
356.853	464.44
357.08	476.44
357.307	466.44
357.534	485.44
357.761	467.44
357.988	486.44
358.215	447.44
358.441	478.44
358.668	461.44
358.895	458.44
359.122	471.44
359.349	461.44
359.576	448.44
359.802	464.44
360.029	481.44
360.256	481.44
360.483	472.44
360.709	480.44
360.936	471.44
361.163	455.44
361.39	476.44
361.616	464.44
361.843	455.44
362.07	482.44
362.296	482.44
362.523	458.44
362.749	454.44
362.976	464.44
363.203	457.44
363.429	448.44
363.656	469.44
363.882	445.44
364.109	450.44
364.335	439.44
364.562	455.44
364.788	451.44
365.015	453.44
365.241	483.44
365.468	454.44
365.694	457.44
365.92	461.44
366.147	458.44
366.373	451.44
366.599	434.44
366.826	479.44
367.052	480.44
367.278	481.44
367.505	461.44
367.731	466.44
367.957	462.44
368.184	470.44
368.41	472.44
368.636	460.44
368.862	482.44
369.089	487.44
369.315	481.44
369.541	465.44
369.767	500.44
369.993	491.44
370.219	485.44
370.445	490.44
370.672	482.44
370.898	488.44
371.124	489.44
371.35	496.44
371.576	526.44
371.802	521.44
372.028	480.44
372.254	520.44
372.48	499.44
372.706	508.44
372.932	525.44
373.158	538.44
373.384	507.44
373.61	509.44
373.835	505.44
374.061	537.44
374.287	493.44
374.513	529.44
374.739	523.44
374.965	562.44
375.191	600.44
375.416	569.44
375.642	552.44
375.868	542.44
376.094	531.44
376.319	504.44
376.545	520.44
376.771	510.44
376.997	522.44
377.222	522.44
377.448	496.44
377.674	501.44
377.899	510.44
378.125	502.44
378.35	489.44
378.576	488.44
378.802	501.44
379.027	501.44
379.253	501.44
379.478	467.44
379.704	506.44
379.929	509.44
380.155	502.44
380.38	464.44
380.606	498.44
380.831	490.44
381.057	489.44
381.282	510.44
381.507	498.44
381.733	514.44
381.958	528.44
382.184	503.44
382.409	547.44
382.634	549.44
382.86	513.44
383.085	554.44
383.31	552.44
383.535	583.44
383.761	578.44
383.986	558.44
384.211	608.44
384.436	601.44
384.662	612.44
384.887	625.44
385.112	636.44
385.337	602.44
385.562	599.44
385.787	599.44
386.013	606.44
386.238	613.44
386.463	602.44
386.688	610.44
386.913	627.44
387.138	593.44
387.363	597.44
387.588	591.44
387.813	606.44
388.038	598.44
388.263	599.44
388.488	622.44
388.713	608.44
388.938	607.44
389.163	605.44
389.387	588.44
389.612	566.44
389.837	565.44
390.062	589.44
390.287	606.44
390.512	586.44
390.736	575.44
390.961	612.44
391.186	635.44
391.411	643.44
391.636	670.44
391.86	680.44
392.085	699.44
392.31	671.44
392.534	667.44
392.759	633.44
392.984	630.44
393.208	608.44
393.433	647.44
393.658	646.44
393.882	635.44
394.107	670.44
394.331	654.44
394.556	659.44
394.78	675.44
395.005	659.44
395.229	660.44
395.454	663.44
395.678	703.44
395.903	693.44
396.127	655.44
396.352	637.44
396.576	648.44
396.801	613.44
397.025	641.44
397.249	666.44
397.474	687.44
397.698	691.44
397.922	657.44
398.147	662.44
398.371	671.44
398.595	673.44
398.82	736.44
399.044	789.44
399.268	891.44
399.492	1031.44
399.717	1152.44
399.941	1184.44
400.165	1018.44
400.389	893.44
400.613	817.44
400.837	792.44
401.062	762.44
401.286	755.44
401.51	777.44
401.734	749.44
401.958	726.44
402.182	753.44
402.406	799.44
402.63	819.44
402.854	807.44
403.078	853.44
403.302	853.44
403.526	862.44
403.75	890.44
403.974	897.44
404.198	883.44
404.422	934.44
404.645	899.44
404.869	859.44
405.093	862.44
405.317	849.44
405.541	837.44
405.765	810.44
405.988	803.44
406.212	802.44
406.436	851.44
406.66	846.44
406.883	851.44
407.107	948.44
407.331	951.44
407.555	1001.44
407.778	1031.44
408.002	961.44
408.226	931.44
408.449	909.44
408.673	889.44
408.896	871.44
409.12	835.44
409.344	868.44
409.567	877.44
409.791	905.44
410.014	905.44
410.238	896.44
410.461	842.44
410.685	851.44
410.908	854.44
411.132	839.44
411.355	776.44
411.578	816.44
411.802	809.44
412.025	792.44
412.249	808.44
412.472	791.44
412.695	753.44
412.919	765.44
413.142	755.44
413.365	762.44
413.589	758.44
413.812	763.44
414.035	744.44
414.258	745.44
414.482	752.44
414.705	775.44
414.928	773.44
415.151	767.44
415.374	769.44
415.597	749.44
415.821	755.44
416.044	749.44
416.267	751.44
416.49	739.44
416.713	731.44
416.936	745.44
417.159	741.44
417.382	752.44
417.605	753.44
417.828	749.44
418.051	780.44
418.274	753.44
418.497	727.44
418.72	802.44
418.943	787.44
419.166	833.44
419.389	885.44
419.611	835.44
419.834	819.44
420.057	808.44
420.28	801.44
420.503	743.44
420.726	749.44
420.948	754.44
421.171	762.44
421.394	747.44
421.617	785.44
421.839	747.44
422.062	746.44
422.285	779.44
422.507	779.44
422.73	781.44
422.953	802.44
423.175	814.44
423.398	799.44
423.621	819.44
423.843	837.44
424.066	834.44
424.288	831.44
424.511	830.44
424.733	794.44
424.956	811.44
425.178	760.44
425.401	765.44
425.623	763.44
425.846	729.44
426.068	732.44
426.291	721.44
426.513	744.44
426.735	720.44
426.958	747.44
427.18	721.44
427.402	713.44
427.625	698.44
427.847	685.44
428.069	694.44
428.292	682.44
428.514	663.44
428.736	708.44
428.958	666.44
429.181	691.44
429.403	656.44
429.625	663.44
429.847	679.44
430.069	650.44
430.292	662.44
430.514	667.44
430.736	687.44
430.958	674.44
431.18	671.44
431.402	658.44
431.624	671.44
431.846	659.44
432.068	706.44
432.29	703.44
432.512	680.44
432.734	695.44
432.956	683.44
433.178	661.44
433.4	720.44
433.622	682.44
433.844	695.44
434.066	707.44
434.287	700.44
434.509	711.44
434.731	743.44
434.953	775.44
435.175	804.44
435.397	760.44
435.618	715.44
435.84	682.44
436.062	690.44
436.284	698.44
436.505	678.44
436.727	699.44
436.949	698.44
437.17	681.44
437.392	680.44
437.614	674.44
437.835	649.44
438.057	667.44
438.278	663.44
438.5	653.44
438.721	667.44
438.943	679.44
439.165	687.44
439.386	653.44
439.608	707.44
439.829	704.44
440.05	723.44
440.272	708.44
440.493	683.44
440.715	689.44
440.936	730.44
441.158	719.44
441.379	759.44
441.6	771.44
441.822	791.44
442.043	792.44
442.264	774.44
442.486	747.44
442.707	745.44
442.928	756.44
443.149	779.44
443.371	771.44
443.592	782.44
443.813	797.44
444.034	820.44
444.255	830.44
444.476	837.44
444.698	953.44
444.919	944.44
445.14	1031.44
445.361	886.44
445.582	813.44
445.803	777.44
446.024	759.44
446.245	708.44
446.466	710.44
446.687	711.44
446.908	720.44
447.129	692.44
447.35	688.44
447.571	666.44
447.792	649.44
448.013	658.44
448.234	649.44
448.455	652.44
448.675	665.44
448.896	641.44
449.117	613.44
449.338	639.44
449.559	615.44
449.779	645.44
450	651.44
450.221	653.44
450.442	636.44
450.662	650.44
450.883	676.44
451.104	680.44
451.324	678.44
451.545	658.44
451.766	652.44
451.986	637.44
452.207	655.44
452.428	667.44
452.648	645.44
452.869	633.44
453.089	622.44
453.31	645.44
453.53	643.44
453.751	623.44
453.971	613.44
454.192	645.44
454.412	591.44
454.633	625.44
454.853	613.44
455.073	603.44
455.294	597.44
455.514	611.44
455.734	588.44
455.955	605.44
456.175	616.44
456.395	571.44
456.616	581.44
456.836	601.44
457.056	605.44
457.276	573.44
457.497	605.44
457.717	586.44
457.937	587.44
458.157	606.44
458.377	593.44
458.598	633.44
458.818	628.44
459.038	666.44
459.258	667.44
459.478	682.44
459.698	706.44
459.918	726.44
460.138	742.44
460.358	787.44
460.578	815.44
460.798	826.44
461.018	832.44
461.238	819.44
461.458	805.44
461.678	825.44
461.898	822.44
462.118	820.44
462.338	877.44
462.558	901.44
462.777	904.44
462.997	1036.44
463.217	1121.44
463.437	1151.44
463.657	1037.44
463.876	949.44
464.096	972.44
464.316	965.44
464.536	987.44
464.755	956.44
464.975	885.44
465.195	847.44
465.414	803.44
465.634	773.44
465.854	737.44
466.073	709.44
466.293	698.44
466.512	681.44
466.732	659.44
466.951	675.44
467.171	651.44
467.391	682.44
467.61	661.44
467.829	667.44
468.049	659.44
468.268	669.44
468.488	628.44
468.707	630.44
468.927	632.44
469.146	645.44
469.365	642.44
469.585	651.44
469.804	656.44
470.023	685.44
470.243	698.44
470.462	708.44
470.681	690.44
470.901	685.44
471.12	696.44
471.339	672.44
471.558	659.44
471.777	634.44
471.997	656.44
472.216	665.44
472.435	622.44
472.654	625.44
472.873	613.44
473.092	618.44
473.311	613.44
473.53	614.44
473.749	609.44
473.968	629.44
474.187	625.44
474.406	622.44
474.625	614.44
474.844	609.44
475.063	629.44
475.282	642.44
475.501	646.44
475.72	630.44
475.939	637.44
476.158	639.44
476.377	641.44
476.596	617.44
476.814	657.44
477.033	648.44
477.252	661.44
477.471	663.44
477.69	687.44
477.908	706.44
478.127	722.44
478.346	715.44
478.564	743.44
478.783	775.44
479.002	777.44
479.22	788.44
479.439	778.44
479.658	763.44
479.876	782.44
480.095	771.44
480.313	841.44
480.532	841.44
480.751	852.44
480.969	787.44
481.188	763.44
481.406	749.44
481.624	716.44
481.843	702.44
482.061	715.44
482.28	708.44
482.498	694.44
482.717	678.44
482.935	718.44
483.153	682.44
483.372	686.44
483.59	702.44
483.808	716.44
484.027	709.44
484.245	713.44
484.463	713.44
484.681	739.44
484.9	729.44
485.118	729.44
485.336	725.44
485.554	745.44
485.772	750.44
485.99	769.44
486.209	754.44
486.427	775.44
486.645	762.44
486.863	773.44
487.081	770.44
487.299	760.44
487.517	750.44
487.735	747.44
487.953	738.44
488.171	715.44
488.389	731.44
488.607	719.44
488.825	717.44
489.043	739.44
489.261	723.44
489.479	735.44
489.696	763.44
489.914	762.44
490.132	737.44
490.35	727.44
490.568	729.44
490.786	742.44
491.003	739.44
491.221	738.44
491.439	744.44
491.657	725.44
491.874	749.44
492.092	780.44
492.31	755.44
492.527	774.44
492.745	770.44
492.963	733.44
493.18	773.44
493.398	776.44
493.615	778.44
493.833	796.44
494.05	794.44
494.268	791.44
494.485	799.44
494.703	793.44
494.92	777.44
495.138	790.44
495.355	777.44
495.573	775.44
495.79	783.44
496.008	782.44
496.225	811.44
496.442	813.44
496.66	806.44
496.877	804.44
497.094	851.44
497.312	854.44
497.529	885.44
497.746	879.44
497.963	890.44
498.181	948.44
498.398	997.44
498.615	1005.44
498.832	1113.44
499.049	1164.44
499.267	1314.44
499.484	1411.44
499.701	1615.44
499.918	1810.44
500.135	2075.44
500.352	2425.44
500.569	2571.44
500.786	2519.44
501.003	2292.44
501.22	2019.44
