Data from Ni(NO3)2@0.25M.TitratingCurve.Agarose3%dH2O.NegLispCup.LampEnergy10.LIBS07252019_HRD10591_18-05-24-566.txt Node
Date: Thu Jul 25 18:05:24 EDT 2019
User: cochatt
Spectrometer: HR+D1059
Trigger mode: 1
Integration Time (sec): 1.000000E-1
Scans to average: 1
Electric dark correction enabled: true
Nonlinearity correction enabled: false
Boxcar width: 0
XAxis mode: Wavelengths
Number of Pixels in Spectrum: 2048
>>>>>Begin Spectral Data<<<<<
223.165	-26.38
223.4	-26.38
223.635	-26.38
223.869	-9.38
224.104	-9.38
224.338	-11.38
224.573	-14.38
224.808	-9.38
225.042	2.62
225.277	0.62
225.511	-8.38
225.746	-0.38
225.98	1.62
226.215	-4.38
226.449	10.62
226.683	27.62
226.918	35.62
227.152	14.62
227.387	30.62
227.621	17.62
227.856	26.62
228.09	46.62
228.324	49.62
228.559	54.62
228.793	78.62
229.027	85.62
229.262	104.62
229.496	101.62
229.73	109.62
229.964	105.62
230.199	127.62
230.433	120.62
230.667	120.62
230.901	122.62
231.136	127.62
231.37	126.62
231.604	136.62
231.838	128.62
232.072	126.62
232.306	133.62
232.541	122.62
232.775	120.62
233.009	125.62
233.243	136.62
233.477	120.62
233.711	136.62
233.945	129.62
234.179	122.62
234.413	131.62
234.647	133.62
234.881	146.62
235.115	141.62
235.349	139.62
235.583	144.62
235.817	139.62
236.051	129.62
236.285	122.62
236.519	137.62
236.753	135.62
236.987	142.62
237.221	138.62
237.455	144.62
237.689	145.62
237.922	129.62
238.156	148.62
238.39	135.62
238.624	140.62
238.858	142.62
239.091	157.62
239.325	141.62
239.559	153.62
239.793	153.62
240.027	151.62
240.26	152.62
240.494	148.62
240.728	161.62
240.961	156.62
241.195	165.62
241.429	165.62
241.662	167.62
241.896	169.62
242.13	170.62
242.363	166.62
242.597	175.62
242.83	170.62
243.064	169.62
243.298	167.62
243.531	198.62
243.765	193.62
243.998	207.62
244.232	183.62
244.465	194.62
244.699	182.62
244.932	188.62
245.166	189.62
245.399	191.62
245.633	218.62
245.866	201.62
246.099	193.62
246.333	200.62
246.566	196.62
246.8	210.62
247.033	211.62
247.266	203.62
247.5	220.62
247.733	231.62
247.966	220.62
248.2	228.62
248.433	227.62
248.666	232.62
248.899	226.62
249.133	217.62
249.366	238.62
249.599	237.62
249.832	227.62
250.066	248.62
250.299	239.62
250.532	221.62
250.765	264.62
250.998	262.62
251.231	254.62
251.465	266.62
251.698	247.62
251.931	261.62
252.164	252.62
252.397	255.62
252.63	265.62
252.863	281.62
253.096	273.62
253.329	276.62
253.562	269.62
253.795	284.62
254.028	285.62
254.261	291.62
254.494	290.62
254.727	270.62
254.96	285.62
255.193	278.62
255.426	295.62
255.659	306.62
255.892	280.62
256.124	306.62
256.357	291.62
256.59	292.62
256.823	303.62
257.056	330.62
257.289	312.62
257.521	320.62
257.754	331.62
257.987	322.62
258.22	314.62
258.452	317.62
258.685	315.62
258.918	325.62
259.151	319.62
259.383	340.62
259.616	319.62
259.849	347.62
260.081	350.62
260.314	349.62
260.547	340.62
260.779	329.62
261.012	347.62
261.244	368.62
261.477	336.62
261.71	345.62
261.942	342.62
262.175	342.62
262.407	357.62
262.64	344.62
262.872	360.62
263.105	365.62
263.337	356.62
263.57	368.62
263.802	354.62
264.035	368.62
264.267	374.62
264.499	350.62
264.732	373.62
264.964	378.62
265.197	366.62
265.429	374.62
265.661	386.62
265.894	383.62
266.126	384.62
266.358	408.62
266.591	391.62
266.823	391.62
267.055	384.62
267.287	389.62
267.52	383.62
267.752	394.62
267.984	402.62
268.216	397.62
268.448	384.62
268.681	418.62
268.913	403.62
269.145	388.62
269.377	400.62
269.609	411.62
269.841	403.62
270.073	398.62
270.306	386.62
270.538	400.62
270.77	412.62
271.002	403.62
271.234	396.62
271.466	395.62
271.698	415.62
271.93	415.62
272.162	410.62
272.394	429.62
272.626	432.62
272.858	417.62
273.09	417.62
273.322	413.62
273.553	407.62
273.785	446.62
274.017	412.62
274.249	437.62
274.481	436.62
274.713	416.62
274.945	445.62
275.176	438.62
275.408	429.62
275.64	445.62
275.872	433.62
276.104	429.62
276.335	426.62
276.567	436.62
276.799	446.62
277.031	452.62
277.262	445.62
277.494	454.62
277.726	435.62
277.957	445.62
278.189	452.62
278.421	453.62
278.652	436.62
278.884	454.62
279.115	466.62
279.347	464.62
279.579	461.62
279.81	452.62
280.042	459.62
280.273	476.62
280.505	484.62
280.736	458.62
280.968	473.62
281.199	461.62
281.431	471.62
281.662	477.62
281.894	481.62
282.125	464.62
282.356	474.62
282.588	480.62
282.819	465.62
283.051	504.62
283.282	493.62
283.513	505.62
283.745	482.62
283.976	514.62
284.207	472.62
284.439	475.62
284.67	486.62
284.901	508.62
285.132	480.62
285.364	479.62
285.595	489.62
285.826	485.62
286.057	506.62
286.288	502.62
286.52	525.62
286.751	502.62
286.982	505.62
287.213	513.62
287.444	522.62
287.675	514.62
287.906	508.62
288.138	499.62
288.369	498.62
288.6	525.62
288.831	538.62
289.062	515.62
289.293	507.62
289.524	514.62
289.755	517.62
289.986	506.62
290.217	524.62
290.448	525.62
290.679	516.62
290.91	513.62
291.141	514.62
291.371	499.62
291.602	524.62
291.833	505.62
292.064	532.62
292.295	517.62
292.526	513.62
292.757	526.62
292.987	528.62
293.218	516.62
293.449	529.62
293.68	519.62
293.91	534.62
294.141	520.62
294.372	531.62
294.603	512.62
294.833	552.62
295.064	529.62
295.295	519.62
295.525	531.62
295.756	519.62
295.987	532.62
296.217	565.62
296.448	551.62
296.679	538.62
296.909	565.62
297.14	551.62
297.37	558.62
297.601	548.62
297.831	546.62
298.062	548.62
298.292	551.62
298.523	568.62
298.753	572.62
298.984	559.62
299.214	572.62
299.445	565.62
299.675	562.62
299.905	566.62
300.136	579.62
300.366	565.62
300.597	563.62
300.827	572.62
301.057	582.62
301.288	584.62
301.518	577.62
301.748	584.62
301.979	582.62
302.209	570.62
302.439	586.62
302.669	586.62
302.9	580.62
303.13	583.62
303.36	596.62
303.59	597.62
303.82	591.62
304.051	587.62
304.281	612.62
304.511	590.62
304.741	580.62
304.971	604.62
305.201	595.62
305.431	582.62
305.661	616.62
305.891	584.62
306.121	578.62
306.352	588.62
306.582	598.62
306.812	574.62
307.042	568.62
307.272	589.62
307.502	596.62
307.731	596.62
307.961	592.62
308.191	595.62
308.421	565.62
308.651	570.62
308.881	566.62
309.111	607.62
309.341	593.62
309.571	599.62
309.8	597.62
310.03	604.62
310.26	627.62
310.49	630.62
310.72	639.62
310.949	628.62
311.179	633.62
311.409	627.62
311.639	626.62
311.868	632.62
312.098	609.62
312.328	616.62
312.557	624.62
312.787	602.62
313.017	648.62
313.246	622.62
313.476	639.62
313.706	658.62
313.935	671.62
314.165	649.62
314.394	670.62
314.624	656.62
314.853	648.62
315.083	659.62
315.312	694.62
315.542	679.62
315.771	661.62
316.001	674.62
316.23	672.62
316.46	648.62
316.689	674.62
316.919	634.62
317.148	674.62
317.377	672.62
317.607	686.62
317.836	669.62
318.065	677.62
318.295	653.62
318.524	680.62
318.753	673.62
318.983	672.62
319.212	708.62
319.441	653.62
319.67	670.62
319.9	673.62
320.129	677.62
320.358	681.62
320.587	705.62
320.816	692.62
321.046	690.62
321.275	706.62
321.504	694.62
321.733	709.62
321.962	718.62
322.191	716.62
322.42	710.62
322.649	728.62
322.878	687.62
323.108	725.62
323.337	749.62
323.566	760.62
323.795	734.62
324.024	750.62
324.253	725.62
324.482	739.62
324.71	754.62
324.939	766.62
325.168	753.62
325.397	767.62
325.626	773.62
325.855	750.62
326.084	790.62
326.313	806.62
326.542	778.62
326.77	826.62
326.999	816.62
327.228	810.62
327.457	797.62
327.686	791.62
327.914	787.62
328.143	836.62
328.372	804.62
328.6	778.62
328.829	854.62
329.058	822.62
329.287	808.62
329.515	827.62
329.744	846.62
329.972	831.62
330.201	860.62
330.43	861.62
330.658	840.62
330.887	861.62
331.115	857.62
331.344	865.62
331.572	880.62
331.801	859.62
332.03	886.62
332.258	940.62
332.486	918.62
332.715	951.62
332.943	975.62
333.172	977.62
333.4	1010.62
333.629	1026.62
333.857	1015.62
334.085	994.62
334.314	1039.62
334.542	1040.62
334.771	1048.62
334.999	1049.62
335.227	1044.62
335.455	1015.62
335.684	1019.62
335.912	1021.62
336.14	1008.62
336.369	996.62
336.597	1010.62
336.825	1016.62
337.053	985.62
337.281	1001.62
337.51	994.62
337.738	947.62
337.966	968.62
338.194	979.62
338.422	944.62
338.65	948.62
338.878	923.62
339.106	938.62
339.334	935.62
339.562	952.62
339.79	922.62
340.018	889.62
340.246	928.62
340.474	912.62
340.702	893.62
340.93	908.62
341.158	928.62
341.386	899.62
341.614	932.62
341.842	925.62
342.07	906.62
342.298	909.62
342.526	885.62
342.754	896.62
342.981	916.62
343.209	945.62
343.437	943.62
343.665	971.62
343.893	1032.62
344.12	1073.62
344.348	1009.62
344.576	999.62
344.804	1010.62
345.031	951.62
345.259	958.62
345.487	937.62
345.714	922.62
345.942	926.62
346.17	918.62
346.397	928.62
346.625	871.62
346.853	896.62
347.08	860.62
347.308	876.62
347.535	867.62
347.763	880.62
347.99	853.62
348.218	873.62
348.445	856.62
348.673	849.62
348.9	847.62
349.128	868.62
349.355	862.62
349.583	887.62
349.81	857.62
350.037	849.62
350.265	845.62
350.492	836.62
350.72	836.62
350.947	841.62
351.174	862.62
351.402	863.62
351.629	895.62
351.856	824.62
352.083	845.62
352.311	832.62
352.538	846.62
352.765	874.62
352.992	854.62
353.22	808.62
353.447	810.62
353.674	857.62
353.901	846.62
354.128	824.62
354.355	809.62
354.583	808.62
354.81	840.62
355.037	837.62
355.264	833.62
355.491	823.62
355.718	821.62
355.945	832.62
356.172	854.62
356.399	837.62
356.626	845.62
356.853	846.62
357.08	848.62
357.307	854.62
357.534	856.62
357.761	835.62
357.988	831.62
358.215	820.62
358.441	814.62
358.668	827.62
358.895	842.62
359.122	821.62
359.349	802.62
359.576	835.62
359.802	849.62
360.029	826.62
360.256	820.62
360.483	822.62
360.709	830.62
360.936	876.62
361.163	835.62
361.39	842.62
361.616	842.62
361.843	845.62
362.07	859.62
362.296	877.62
362.523	832.62
362.749	856.62
362.976	833.62
363.203	822.62
363.429	840.62
363.656	832.62
363.882	809.62
364.109	825.62
364.335	825.62
364.562	829.62
364.788	821.62
365.015	836.62
365.241	837.62
365.468	812.62
365.694	831.62
365.92	808.62
366.147	824.62
366.373	823.62
366.599	817.62
366.826	837.62
367.052	824.62
367.278	852.62
367.505	838.62
367.731	868.62
367.957	838.62
368.184	848.62
368.41	816.62
368.636	821.62
368.862	845.62
369.089	841.62
369.315	822.62
369.541	853.62
369.767	842.62
369.993	846.62
370.219	866.62
370.445	883.62
370.672	867.62
370.898	876.62
371.124	881.62
371.35	882.62
371.576	865.62
371.802	873.62
372.028	890.62
372.254	908.62
372.48	902.62
372.706	907.62
372.932	904.62
373.158	876.62
373.384	887.62
373.61	870.62
373.835	866.62
374.061	857.62
374.287	886.62
374.513	910.62
374.739	893.62
374.965	936.62
375.191	938.62
375.416	950.62
375.642	916.62
375.868	920.62
376.094	923.62
376.319	888.62
376.545	895.62
376.771	876.62
376.997	870.62
377.222	851.62
377.448	896.62
377.674	878.62
377.899	856.62
378.125	848.62
378.35	862.62
378.576	869.62
378.802	850.62
379.027	881.62
379.253	850.62
379.478	832.62
379.704	880.62
379.929	869.62
380.155	828.62
380.38	860.62
380.606	855.62
380.831	855.62
381.057	868.62
381.282	872.62
381.507	871.62
381.733	882.62
381.958	860.62
382.184	866.62
382.409	862.62
382.634	896.62
382.86	882.62
383.085	900.62
383.31	895.62
383.535	906.62
383.761	917.62
383.986	917.62
384.211	942.62
384.436	942.62
384.662	941.62
384.887	982.62
385.112	959.62
385.337	981.62
385.562	973.62
385.787	969.62
386.013	999.62
386.238	1000.62
386.463	986.62
386.688	1000.62
386.913	1009.62
387.138	988.62
387.363	999.62
387.588	983.62
387.813	994.62
388.038	991.62
388.263	1026.62
388.488	1005.62
388.713	1015.62
388.938	989.62
389.163	974.62
389.387	1015.62
389.612	996.62
389.837	982.62
390.062	967.62
390.287	964.62
390.512	1024.62
390.736	1004.62
390.961	1010.62
391.186	1034.62
391.411	1021.62
391.636	1076.62
391.86	1074.62
392.085	1106.62
392.31	1109.62
392.534	1083.62
392.759	1073.62
392.984	1052.62
393.208	1068.62
393.433	1038.62
393.658	1040.62
393.882	1053.62
394.107	1038.62
394.331	1025.62
394.556	1023.62
394.78	1047.62
395.005	1056.62
395.229	1082.62
395.454	1065.62
395.678	1096.62
395.903	1105.62
396.127	1113.62
396.352	1115.62
396.576	1096.62
396.801	1070.62
397.025	1080.62
397.249	1107.62
397.474	1127.62
397.698	1120.62
397.922	1121.62
398.147	1129.62
398.371	1179.62
398.595	1181.62
398.82	1204.62
399.044	1326.62
399.268	1372.62
399.492	1508.62
399.717	1609.62
399.941	1585.62
400.165	1562.62
400.389	1449.62
400.613	1396.62
400.837	1352.62
401.062	1283.62
401.286	1264.62
401.51	1285.62
401.734	1250.62
401.958	1278.62
402.182	1290.62
402.406	1234.62
402.63	1262.62
402.854	1265.62
403.078	1303.62
403.302	1284.62
403.526	1331.62
403.75	1316.62
403.974	1321.62
404.198	1334.62
404.422	1311.62
404.645	1299.62
404.869	1315.62
405.093	1331.62
405.317	1331.62
405.541	1339.62
405.765	1318.62
405.988	1310.62
406.212	1316.62
406.436	1365.62
406.66	1408.62
406.883	1360.62
407.107	1442.62
407.331	1470.62
407.555	1528.62
407.778	1485.62
408.002	1489.62
408.226	1457.62
408.449	1507.62
408.673	1432.62
408.896	1422.62
409.12	1397.62
409.344	1429.62
409.567	1354.62
409.791	1357.62
410.014	1375.62
410.238	1350.62
410.461	1360.62
410.685	1336.62
410.908	1320.62
411.132	1317.62
411.355	1266.62
411.578	1321.62
411.802	1310.62
412.025	1325.62
412.249	1345.62
412.472	1302.62
412.695	1274.62
412.919	1255.62
413.142	1272.62
413.365	1281.62
413.589	1301.62
413.812	1275.62
414.035	1247.62
414.258	1278.62
414.482	1288.62
414.705	1246.62
414.928	1237.62
415.151	1299.62
415.374	1289.62
415.597	1250.62
415.821	1207.62
416.044	1242.62
416.267	1221.62
416.49	1223.62
416.713	1240.62
416.936	1239.62
417.159	1220.62
417.382	1230.62
417.605	1221.62
417.828	1212.62
418.051	1229.62
418.274	1237.62
418.497	1227.62
418.72	1253.62
418.943	1239.62
419.166	1315.62
419.389	1403.62
419.611	1400.62
419.834	1314.62
420.057	1284.62
420.28	1308.62
420.503	1223.62
420.726	1238.62
420.948	1231.62
421.171	1245.62
421.394	1236.62
421.617	1247.62
421.839	1220.62
422.062	1212.62
422.285	1206.62
422.507	1280.62
422.73	1262.62
422.953	1248.62
423.175	1261.62
423.398	1278.62
423.621	1276.62
423.843	1287.62
424.066	1276.62
424.288	1262.62
424.511	1275.62
424.733	1257.62
424.956	1284.62
425.178	1252.62
425.401	1258.62
425.623	1293.62
425.846	1243.62
426.068	1250.62
426.291	1217.62
426.513	1225.62
426.735	1214.62
426.958	1217.62
427.18	1171.62
427.402	1196.62
427.625	1174.62
427.847	1176.62
428.069	1162.62
428.292	1206.62
428.514	1150.62
428.736	1178.62
428.958	1183.62
429.181	1146.62
429.403	1152.62
429.625	1154.62
429.847	1139.62
430.069	1140.62
430.292	1147.62
430.514	1140.62
430.736	1200.62
430.958	1148.62
431.18	1152.62
431.402	1147.62
431.624	1155.62
431.846	1184.62
432.068	1177.62
432.29	1190.62
432.512	1134.62
432.734	1197.62
432.956	1175.62
433.178	1208.62
433.4	1168.62
433.622	1215.62
433.844	1221.62
434.066	1208.62
434.287	1204.62
434.509	1209.62
434.731	1289.62
434.953	1271.62
435.175	1256.62
435.397	1277.62
435.618	1231.62
435.84	1222.62
436.062	1184.62
436.284	1191.62
436.505	1158.62
436.727	1200.62
436.949	1196.62
437.17	1175.62
437.392	1128.62
437.614	1181.62
437.835	1121.62
438.057	1162.62
438.278	1154.62
438.5	1128.62
438.721	1172.62
438.943	1141.62
439.165	1129.62
439.386	1127.62
439.608	1144.62
439.829	1160.62
440.05	1216.62
440.272	1185.62
440.493	1191.62
440.715	1220.62
440.936	1203.62
441.158	1240.62
441.379	1246.62
441.6	1277.62
441.822	1262.62
442.043	1281.62
442.264	1262.62
442.486	1229.62
442.707	1274.62
442.928	1253.62
443.149	1278.62
443.371	1240.62
443.592	1242.62
443.813	1327.62
444.034	1304.62
444.255	1318.62
444.476	1365.62
444.698	1392.62
444.919	1388.62
445.14	1496.62
445.361	1392.62
445.582	1347.62
445.803	1285.62
446.024	1247.62
446.245	1236.62
446.466	1247.62
446.687	1184.62
446.908	1199.62
447.129	1173.62
447.35	1169.62
447.571	1143.62
447.792	1128.62
448.013	1142.62
448.234	1098.62
448.455	1097.62
448.675	1103.62
448.896	1105.62
449.117	1073.62
449.338	1088.62
449.559	1076.62
449.779	1071.62
450	1085.62
450.221	1076.62
450.442	1109.62
450.662	1097.62
450.883	1104.62
451.104	1088.62
451.324	1084.62
451.545	1085.62
451.766	1095.62
451.986	1096.62
452.207	1061.62
452.428	1074.62
452.648	1076.62
452.869	1065.62
453.089	1012.62
453.31	1032.62
453.53	1032.62
453.751	1028.62
453.971	1024.62
454.192	1020.62
454.412	1024.62
454.633	1056.62
454.853	1040.62
455.073	1033.62
455.294	1004.62
455.514	1015.62
455.734	1016.62
455.955	1043.62
456.175	998.62
456.395	1005.62
456.616	976.62
456.836	1012.62
457.056	1019.62
457.276	1024.62
457.497	1052.62
457.717	1025.62
457.937	1035.62
458.157	1056.62
458.377	1074.62
458.598	1078.62
458.818	1103.62
459.038	1118.62
459.258	1146.62
459.478	1170.62
459.698	1184.62
459.918	1231.62
460.138	1257.62
460.358	1275.62
460.578	1342.62
460.798	1360.62
461.018	1353.62
461.238	1349.62
461.458	1340.62
461.678	1336.62
461.898	1355.62
462.118	1368.62
462.338	1437.62
462.558	1481.62
462.777	1498.62
462.997	1548.62
463.217	1660.62
463.437	1680.62
463.657	1596.62
463.876	1582.62
464.096	1517.62
464.316	1527.62
464.536	1490.62
464.755	1491.62
464.975	1410.62
465.195	1397.62
465.414	1314.62
465.634	1265.62
465.854	1243.62
466.073	1218.62
466.293	1175.62
466.512	1166.62
466.732	1168.62
466.951	1164.62
467.171	1109.62
467.391	1154.62
467.61	1166.62
467.829	1138.62
468.049	1120.62
468.268	1143.62
468.488	1115.62
468.707	1086.62
468.927	1106.62
469.146	1093.62
469.365	1114.62
469.585	1134.62
469.804	1144.62
470.023	1174.62
470.243	1146.62
470.462	1139.62
470.681	1176.62
470.901	1174.62
471.12	1161.62
471.339	1143.62
471.558	1141.62
471.777	1134.62
471.997	1124.62
472.216	1096.62
472.435	1102.62
472.654	1082.62
472.873	1077.62
473.092	1073.62
473.311	1098.62
473.53	1112.62
473.749	1074.62
473.968	1066.62
474.187	1081.62
474.406	1079.62
474.625	1094.62
474.844	1084.62
475.063	1086.62
475.282	1128.62
475.501	1138.62
475.72	1121.62
475.939	1127.62
476.158	1126.62
476.377	1141.62
476.596	1116.62
476.814	1154.62
477.033	1166.62
477.252	1161.62
477.471	1170.62
477.69	1215.62
477.908	1240.62
478.127	1239.62
478.346	1289.62
478.564	1300.62
478.783	1296.62
479.002	1338.62
479.22	1350.62
479.439	1313.62
479.658	1325.62
479.876	1344.62
480.095	1336.62
480.313	1391.62
480.532	1378.62
480.751	1352.62
480.969	1347.62
481.188	1353.62
481.406	1307.62
481.624	1284.62
481.843	1288.62
482.061	1253.62
482.28	1269.62
482.498	1244.62
482.717	1254.62
482.935	1271.62
483.153	1300.62
483.372	1247.62
483.59	1286.62
483.808	1260.62
484.027	1280.62
484.245	1280.62
484.463	1285.62
484.681	1307.62
484.9	1280.62
485.118	1313.62
485.336	1313.62
485.554	1325.62
485.772	1308.62
485.99	1350.62
486.209	1318.62
486.427	1286.62
486.645	1321.62
486.863	1333.62
487.081	1314.62
487.299	1349.62
487.517	1312.62
487.735	1302.62
487.953	1310.62
488.171	1342.62
488.389	1357.62
488.607	1318.62
488.825	1275.62
489.043	1274.62
489.261	1302.62
489.479	1295.62
489.696	1303.62
489.914	1299.62
490.132	1300.62
490.35	1300.62
490.568	1361.62
490.786	1359.62
491.003	1341.62
491.221	1358.62
491.439	1361.62
491.657	1356.62
491.874	1346.62
492.092	1368.62
492.31	1389.62
492.527	1378.62
492.745	1370.62
492.963	1375.62
493.18	1386.62
493.398	1383.62
493.615	1389.62
493.833	1414.62
494.05	1407.62
494.268	1390.62
494.485	1415.62
494.703	1409.62
494.92	1405.62
