Data from Ni(NO3)2@0.5M.TitratingCurve.Agarose3%dH2O.NegLispCup.LampEnergy10.LIBS07252019_HRD10591_17-59-06-564.txt Node
Date: Thu Jul 25 17:59:06 EDT 2019
User: cochatt
Spectrometer: HR+D1059
Trigger mode: 1
Integration Time (sec): 1.000000E-1
Scans to average: 1
Electric dark correction enabled: true
Nonlinearity correction enabled: false
Boxcar width: 0
XAxis mode: Wavelengths
Number of Pixels in Spectrum: 2048
>>>>>Begin Spectral Data<<<<<
223.165	-16.5
223.4	-16.5
223.635	-16.5
223.869	-16.5
224.104	-11.5
224.338	-22.5
224.573	-14.5
224.808	-14.5
225.042	9.5
225.277	-3.5
225.511	1.5
225.746	-6.5
225.98	10.5
226.215	1.5
226.449	19.5
226.683	15.5
226.918	29.5
227.152	18.5
227.387	31.5
227.621	24.5
227.856	51.5
228.09	46.5
228.324	61.5
228.559	48.5
228.793	65.5
229.027	116.5
229.262	141.5
229.496	138.5
229.73	161.5
229.964	176.5
230.199	218.5
230.433	218.5
230.667	197.5
230.901	194.5
231.136	169.5
231.37	159.5
231.604	182.5
231.838	233.5
232.072	230.5
232.306	204.5
232.541	179.5
232.775	178.5
233.009	168.5
233.243	173.5
233.477	154.5
233.711	161.5
233.945	173.5
234.179	181.5
234.413	172.5
234.647	187.5
234.881	180.5
235.115	186.5
235.349	180.5
235.583	159.5
235.817	166.5
236.051	161.5
236.285	169.5
236.519	159.5
236.753	184.5
236.987	159.5
237.221	181.5
237.455	176.5
237.689	198.5
237.922	193.5
238.156	183.5
238.39	169.5
238.624	159.5
238.858	188.5
239.091	191.5
239.325	208.5
239.559	211.5
239.793	215.5
240.027	223.5
240.26	195.5
240.494	197.5
240.728	195.5
240.961	194.5
241.195	192.5
241.429	198.5
241.662	206.5
241.896	248.5
242.13	235.5
242.363	220.5
242.597	220.5
242.83	211.5
243.064	225.5
243.298	198.5
243.531	220.5
243.765	229.5
243.998	230.5
244.232	224.5
244.465	245.5
244.699	228.5
244.932	231.5
245.166	214.5
245.399	226.5
245.633	208.5
245.866	231.5
246.099	237.5
246.333	223.5
246.566	234.5
246.8	243.5
247.033	250.5
247.266	257.5
247.5	255.5
247.733	243.5
247.966	262.5
248.2	259.5
248.433	261.5
248.666	254.5
248.899	251.5
249.133	272.5
249.366	270.5
249.599	281.5
249.832	276.5
250.066	285.5
250.299	275.5
250.532	274.5
250.765	282.5
250.998	291.5
251.231	326.5
251.465	338.5
251.698	312.5
251.931	275.5
252.164	295.5
252.397	280.5
252.63	299.5
252.863	285.5
253.096	293.5
253.329	279.5
253.562	303.5
253.795	291.5
254.028	300.5
254.261	324.5
254.494	298.5
254.727	324.5
254.96	324.5
255.193	298.5
255.426	314.5
255.659	323.5
255.892	324.5
256.124	336.5
256.357	320.5
256.59	308.5
256.823	318.5
257.056	338.5
257.289	317.5
257.521	334.5
257.754	318.5
257.987	339.5
258.22	352.5
258.452	344.5
258.685	327.5
258.918	335.5
259.151	345.5
259.383	339.5
259.616	354.5
259.849	372.5
260.081	371.5
260.314	356.5
260.547	340.5
260.779	356.5
261.012	361.5
261.244	360.5
261.477	370.5
261.71	372.5
261.942	373.5
262.175	392.5
262.407	371.5
262.64	357.5
262.872	403.5
263.105	379.5
263.337	387.5
263.57	396.5
263.802	372.5
264.035	394.5
264.267	380.5
264.499	386.5
264.732	364.5
264.964	399.5
265.197	381.5
265.429	378.5
265.661	412.5
265.894	407.5
266.126	407.5
266.358	409.5
266.591	412.5
266.823	420.5
267.055	393.5
267.287	407.5
267.52	395.5
267.752	416.5
267.984	408.5
268.216	417.5
268.448	424.5
268.681	416.5
268.913	450.5
269.145	423.5
269.377	412.5
269.609	455.5
269.841	440.5
270.073	427.5
270.306	433.5
270.538	427.5
270.77	431.5
271.002	435.5
271.234	420.5
271.466	457.5
271.698	443.5
271.93	437.5
272.162	441.5
272.394	453.5
272.626	452.5
272.858	442.5
273.09	450.5
273.322	450.5
273.553	472.5
273.785	462.5
274.017	469.5
274.249	456.5
274.481	476.5
274.713	460.5
274.945	485.5
275.176	459.5
275.408	471.5
275.64	471.5
275.872	461.5
276.104	486.5
276.335	480.5
276.567	491.5
276.799	485.5
277.031	482.5
277.262	489.5
277.494	489.5
277.726	488.5
277.957	500.5
278.189	511.5
278.421	488.5
278.652	487.5
278.884	507.5
279.115	502.5
279.347	504.5
279.579	521.5
279.81	501.5
280.042	494.5
280.273	517.5
280.505	513.5
280.736	522.5
280.968	498.5
281.199	509.5
281.431	533.5
281.662	537.5
281.894	519.5
282.125	513.5
282.356	531.5
282.588	527.5
282.819	506.5
283.051	521.5
283.282	537.5
283.513	548.5
283.745	529.5
283.976	538.5
284.207	543.5
284.439	548.5
284.67	554.5
284.901	539.5
285.132	535.5
285.364	542.5
285.595	544.5
285.826	552.5
286.057	554.5
286.288	559.5
286.52	548.5
286.751	563.5
286.982	573.5
287.213	555.5
287.444	555.5
287.675	580.5
287.906	578.5
288.138	560.5
288.369	571.5
288.6	572.5
288.831	575.5
289.062	591.5
289.293	548.5
289.524	568.5
289.755	581.5
289.986	577.5
290.217	583.5
290.448	566.5
290.679	564.5
290.91	579.5
291.141	559.5
291.371	601.5
291.602	589.5
291.833	581.5
292.064	580.5
292.295	596.5
292.526	584.5
292.757	584.5
292.987	571.5
293.218	563.5
293.449	571.5
293.68	587.5
293.91	555.5
294.141	595.5
294.372	572.5
294.603	616.5
294.833	582.5
295.064	605.5
295.295	579.5
295.525	583.5
295.756	603.5
295.987	608.5
296.217	605.5
296.448	620.5
296.679	596.5
296.909	608.5
297.14	605.5
297.37	620.5
297.601	607.5
297.831	611.5
298.062	635.5
298.292	645.5
298.523	652.5
298.753	633.5
298.984	629.5
299.214	599.5
299.445	620.5
299.675	633.5
299.905	631.5
300.136	649.5
300.366	667.5
300.597	656.5
300.827	667.5
301.057	688.5
301.288	650.5
301.518	683.5
301.748	649.5
301.979	675.5
302.209	651.5
302.439	654.5
302.669	698.5
302.9	670.5
303.13	663.5
303.36	680.5
303.59	676.5
303.82	666.5
304.051	692.5
304.281	658.5
304.511	676.5
304.741	710.5
304.971	679.5
305.201	684.5
305.431	732.5
305.661	708.5
305.891	699.5
306.121	679.5
306.352	671.5
306.582	646.5
306.812	664.5
307.042	692.5
307.272	688.5
307.502	697.5
307.731	682.5
307.961	699.5
308.191	654.5
308.421	672.5
308.651	693.5
308.881	687.5
309.111	688.5
309.341	676.5
309.571	699.5
309.8	712.5
310.03	713.5
310.26	758.5
310.49	737.5
310.72	720.5
310.949	697.5
311.179	720.5
311.409	681.5
311.639	722.5
311.868	717.5
312.098	702.5
312.328	729.5
312.557	717.5
312.787	719.5
313.017	730.5
313.246	736.5
313.476	759.5
313.706	752.5
313.935	753.5
314.165	741.5
314.394	730.5
314.624	745.5
314.853	727.5
315.083	744.5
315.312	742.5
315.542	732.5
315.771	738.5
316.001	747.5
316.23	721.5
316.46	768.5
316.689	732.5
316.919	770.5
317.148	777.5
317.377	756.5
317.607	769.5
317.836	762.5
318.065	736.5
318.295	754.5
318.524	773.5
318.753	751.5
318.983	763.5
319.212	775.5
319.441	793.5
319.67	784.5
319.9	764.5
320.129	772.5
320.358	769.5
320.587	775.5
320.816	789.5
321.046	780.5
321.275	785.5
321.504	782.5
321.733	801.5
321.962	780.5
322.191	807.5
322.42	808.5
322.649	806.5
322.878	793.5
323.108	788.5
323.337	795.5
323.566	826.5
323.795	839.5
324.024	810.5
324.253	830.5
324.482	827.5
324.71	810.5
324.939	828.5
325.168	829.5
325.397	828.5
325.626	831.5
325.855	810.5
326.084	823.5
326.313	809.5
326.542	828.5
326.77	854.5
326.999	818.5
327.228	852.5
327.457	813.5
327.686	848.5
327.914	851.5
328.143	857.5
328.372	884.5
328.6	832.5
328.829	853.5
329.058	850.5
329.287	848.5
329.515	843.5
329.744	863.5
329.972	847.5
330.201	885.5
330.43	863.5
330.658	882.5
330.887	879.5
331.115	895.5
331.344	868.5
331.572	895.5
331.801	906.5
332.03	901.5
332.258	917.5
332.486	910.5
332.715	956.5
332.943	931.5
333.172	888.5
333.4	932.5
333.629	929.5
333.857	947.5
334.085	960.5
334.314	963.5
334.542	982.5
334.771	982.5
334.999	983.5
335.227	964.5
335.455	985.5
335.684	959.5
335.912	975.5
336.14	960.5
336.369	1001.5
336.597	988.5
336.825	1013.5
337.053	997.5
337.281	996.5
337.51	965.5
337.738	984.5
337.966	979.5
338.194	973.5
338.422	1013.5
338.65	923.5
338.878	947.5
339.106	979.5
339.334	1033.5
339.562	974.5
339.79	925.5
340.018	954.5
340.246	961.5
340.474	914.5
340.702	922.5
340.93	905.5
341.158	935.5
341.386	985.5
341.614	1027.5
341.842	1001.5
342.07	909.5
342.298	947.5
342.526	945.5
342.754	928.5
342.981	920.5
343.209	946.5
343.437	997.5
343.665	979.5
343.893	989.5
344.12	989.5
344.348	995.5
344.576	1011.5
344.804	1005.5
345.031	977.5
345.259	964.5
345.487	972.5
345.714	963.5
345.942	996.5
346.17	1010.5
346.397	995.5
346.625	929.5
346.853	895.5
347.08	901.5
347.308	900.5
347.535	922.5
347.763	909.5
347.99	892.5
348.218	910.5
348.445	899.5
348.673	897.5
348.9	912.5
349.128	915.5
349.355	917.5
349.583	944.5
349.81	899.5
350.037	869.5
350.265	899.5
350.492	913.5
350.72	893.5
350.947	899.5
351.174	908.5
351.402	946.5
351.629	971.5
351.856	943.5
352.083	899.5
352.311	940.5
352.538	987.5
352.765	951.5
352.992	891.5
353.22	846.5
353.447	866.5
353.674	840.5
353.901	870.5
354.128	849.5
354.355	843.5
354.583	852.5
354.81	885.5
355.037	874.5
355.264	851.5
355.491	837.5
355.718	843.5
355.945	869.5
356.172	857.5
356.399	873.5
356.626	901.5
356.853	925.5
357.08	884.5
357.307	900.5
357.534	886.5
357.761	877.5
357.988	886.5
358.215	867.5
358.441	854.5
358.668	876.5
358.895	858.5
359.122	868.5
359.349	895.5
359.576	893.5
359.802	890.5
360.029	910.5
360.256	894.5
360.483	886.5
360.709	890.5
360.936	886.5
361.163	866.5
361.39	865.5
361.616	880.5
361.843	940.5
362.07	958.5
362.296	922.5
362.523	899.5
362.749	886.5
362.976	898.5
363.203	895.5
363.429	899.5
363.656	892.5
363.882	880.5
364.109	878.5
364.335	844.5
364.562	883.5
364.788	868.5
365.015	869.5
365.241	850.5
365.468	885.5
365.694	883.5
365.92	898.5
366.147	879.5
366.373	895.5
366.599	906.5
366.826	879.5
367.052	851.5
367.278	905.5
367.505	909.5
367.731	900.5
367.957	880.5
368.184	901.5
368.41	884.5
368.636	902.5
368.862	894.5
369.089	883.5
369.315	904.5
369.541	926.5
369.767	933.5
369.993	910.5
370.219	926.5
370.445	913.5
370.672	943.5
370.898	923.5
371.124	916.5
371.35	956.5
371.576	957.5
371.802	921.5
372.028	936.5
372.254	953.5
372.48	950.5
372.706	964.5
372.932	956.5
373.158	925.5
373.384	927.5
373.61	955.5
373.835	945.5
374.061	964.5
374.287	1000.5
374.513	945.5
374.739	955.5
374.965	992.5
375.191	942.5
375.416	982.5
375.642	973.5
375.868	971.5
376.094	960.5
376.319	921.5
376.545	963.5
376.771	951.5
376.997	943.5
377.222	956.5
377.448	925.5
377.674	919.5
377.899	944.5
378.125	927.5
378.35	935.5
378.576	921.5
378.802	924.5
379.027	930.5
379.253	923.5
379.478	937.5
379.704	917.5
379.929	933.5
380.155	908.5
380.38	917.5
380.606	937.5
380.831	923.5
381.057	940.5
381.282	921.5
381.507	955.5
381.733	955.5
381.958	960.5
382.184	945.5
382.409	936.5
382.634	943.5
382.86	949.5
383.085	982.5
383.31	987.5
383.535	981.5
383.761	985.5
383.986	997.5
384.211	993.5
384.436	976.5
384.662	1016.5
384.887	1012.5
385.112	1010.5
385.337	997.5
385.562	1043.5
385.787	1025.5
386.013	1051.5
386.238	1057.5
386.463	1045.5
386.688	1053.5
386.913	1037.5
387.138	1049.5
387.363	1043.5
387.588	1041.5
387.813	1022.5
388.038	1041.5
388.263	1025.5
388.488	1059.5
388.713	1070.5
388.938	1049.5
389.163	1071.5
389.387	1051.5
389.612	1062.5
389.837	1050.5
390.062	1028.5
390.287	1053.5
390.512	1050.5
390.736	1078.5
390.961	1058.5
391.186	1065.5
391.411	1072.5
391.636	1107.5
391.86	1103.5
392.085	1106.5
392.31	1093.5
392.534	1100.5
392.759	1101.5
392.984	1099.5
393.208	1091.5
393.433	1079.5
393.658	1072.5
393.882	1088.5
394.107	1133.5
394.331	1116.5
394.556	1107.5
394.78	1119.5
395.005	1111.5
395.229	1107.5
395.454	1094.5
395.678	1114.5
395.903	1116.5
396.127	1106.5
396.352	1132.5
396.576	1115.5
396.801	1139.5
397.025	1114.5
397.249	1160.5
397.474	1145.5
397.698	1177.5
397.922	1177.5
398.147	1170.5
398.371	1191.5
398.595	1204.5
398.82	1238.5
399.044	1248.5
399.268	1285.5
399.492	1322.5
399.717	1360.5
399.941	1428.5
400.165	1375.5
400.389	1341.5
400.613	1302.5
400.837	1273.5
401.062	1291.5
401.286	1248.5
401.51	1237.5
401.734	1231.5
401.958	1236.5
402.182	1224.5
402.406	1220.5
402.63	1239.5
402.854	1250.5
403.078	1228.5
403.302	1188.5
403.526	1232.5
403.75	1216.5
403.974	1259.5
404.198	1257.5
404.422	1255.5
404.645	1244.5
404.869	1230.5
405.093	1288.5
405.317	1264.5
405.541	1291.5
405.765	1272.5
405.988	1290.5
406.212	1288.5
406.436	1344.5
406.66	1320.5
406.883	1344.5
407.107	1352.5
407.331	1392.5
407.555	1432.5
407.778	1387.5
408.002	1412.5
408.226	1379.5
408.449	1415.5
408.673	1365.5
408.896	1357.5
409.12	1335.5
409.344	1323.5
409.567	1330.5
409.791	1329.5
410.014	1311.5
410.238	1292.5
410.461	1290.5
410.685	1282.5
410.908	1290.5
411.132	1318.5
411.355	1256.5
411.578	1279.5
411.802	1291.5
412.025	1260.5
412.249	1293.5
412.472	1299.5
412.695	1265.5
412.919	1265.5
413.142	1236.5
413.365	1260.5
413.589	1243.5
413.812	1217.5
414.035	1245.5
414.258	1236.5
414.482	1246.5
414.705	1239.5
414.928	1244.5
415.151	1244.5
415.374	1235.5
415.597	1237.5
415.821	1191.5
416.044	1205.5
416.267	1175.5
416.49	1189.5
416.713	1199.5
416.936	1186.5
417.159	1201.5
417.382	1171.5
417.605	1178.5
417.828	1177.5
418.051	1197.5
418.274	1191.5
418.497	1207.5
418.72	1197.5
418.943	1188.5
419.166	1263.5
419.389	1335.5
419.611	1303.5
419.834	1235.5
420.057	1211.5
420.28	1207.5
420.503	1167.5
420.726	1188.5
420.948	1190.5
421.171	1159.5
421.394	1142.5
421.617	1132.5
421.839	1125.5
422.062	1196.5
422.285	1156.5
422.507	1175.5
422.73	1159.5
422.953	1210.5
423.175	1167.5
423.398	1182.5
423.621	1182.5
423.843	1188.5
424.066	1202.5
424.288	1194.5
424.511	1186.5
424.733	1147.5
424.956	1152.5
425.178	1158.5
425.401	1172.5
425.623	1190.5
425.846	1197.5
426.068	1153.5
426.291	1175.5
426.513	1163.5
426.735	1179.5
426.958	1169.5
427.18	1129.5
427.402	1100.5
427.625	1167.5
427.847	1143.5
428.069	1139.5
428.292	1170.5
428.514	1120.5
428.736	1127.5
428.958	1134.5
429.181	1131.5
429.403	1132.5
429.625	1135.5
429.847	1123.5
430.069	1109.5
430.292	1171.5
430.514	1121.5
430.736	1134.5
430.958	1157.5
431.18	1151.5
431.402	1135.5
431.624	1133.5
431.846	1122.5
432.068	1109.5
432.29	1172.5
432.512	1193.5
432.734	1137.5
432.956	1171.5
433.178	1183.5
433.4	1199.5
433.622	1170.5
433.844	1207.5
434.066	1154.5
434.287	1209.5
434.509	1181.5
434.731	1174.5
434.953	1199.5
435.175	1236.5
435.397	1237.5
435.618	1186.5
435.84	1185.5
436.062	1157.5
436.284	1179.5
436.505	1155.5
436.727	1143.5
436.949	1149.5
437.17	1185.5
437.392	1167.5
437.614	1139.5
437.835	1135.5
438.057	1119.5
438.278	1091.5
438.5	1100.5
438.721	1109.5
438.943	1132.5
439.165	1125.5
439.386	1142.5
439.608	1111.5
439.829	1127.5
440.05	1117.5
440.272	1136.5
440.493	1159.5
440.715	1202.5
440.936	1164.5
441.158	1162.5
441.379	1204.5
441.6	1204.5
441.822	1219.5
442.043	1201.5
442.264	1209.5
442.486	1217.5
442.707	1185.5
442.928	1172.5
443.149	1239.5
443.371	1235.5
443.592	1286.5
443.813	1264.5
444.034	1194.5
444.255	1226.5
444.476	1227.5
444.698	1275.5
444.919	1294.5
445.14	1393.5
445.361	1333.5
445.582	1235.5
445.803	1228.5
446.024	1157.5
446.245	1166.5
446.466	1159.5
446.687	1152.5
446.908	1165.5
447.129	1125.5
447.35	1115.5
447.571	1100.5
447.792	1089.5
448.013	1077.5
448.234	1068.5
448.455	1086.5
448.675	1088.5
448.896	1074.5
449.117	1041.5
449.338	1055.5
449.559	1033.5
449.779	1044.5
450	1040.5
450.221	1056.5
450.442	1049.5
450.662	1054.5
450.883	1069.5
451.104	1096.5
451.324	1065.5
451.545	1043.5
451.766	1057.5
451.986	1013.5
452.207	1015.5
452.428	1012.5
452.648	1012.5
452.869	1015.5
453.089	1016.5
453.31	1064.5
453.53	1005.5
453.751	1023.5
453.971	1033.5
454.192	1027.5
454.412	1088.5
454.633	1029.5
454.853	1001.5
455.073	1021.5
455.294	1063.5
455.514	1045.5
455.734	1089.5
455.955	1058.5
456.175	1074.5
456.395	1001.5
456.616	1023.5
456.836	1008.5
457.056	999.5
457.276	992.5
457.497	1058.5
457.717	1045.5
457.937	1078.5
458.157	1043.5
458.377	1061.5
458.598	1037.5
458.818	1043.5
459.038	1062.5
459.258	1119.5
459.478	1205.5
459.698	1307.5
459.918	1261.5
460.138	1279.5
460.358	1212.5
460.578	1229.5
460.798	1268.5
461.018	1324.5
461.238	1245.5
461.458	1201.5
461.678	1223.5
461.898	1263.5
462.118	1228.5
462.338	1283.5
462.558	1307.5
462.777	1370.5
462.997	1426.5
463.217	1430.5
463.437	1450.5
463.657	1450.5
463.876	1386.5
464.096	1319.5
464.316	1335.5
464.536	1329.5
464.755	1305.5
464.975	1252.5
465.195	1239.5
465.414	1237.5
465.634	1177.5
465.854	1178.5
466.073	1161.5
466.293	1128.5
466.512	1104.5
466.732	1120.5
466.951	1151.5
467.171	1139.5
467.391	1145.5
467.61	1101.5
467.829	1069.5
468.049	1097.5
468.268	1077.5
468.488	1075.5
468.707	1090.5
468.927	1112.5
469.146	1107.5
469.365	1122.5
469.585	1106.5
469.804	1117.5
470.023	1104.5
470.243	1085.5
470.462	1106.5
470.681	1122.5
470.901	1127.5
471.12	1101.5
471.339	1107.5
471.558	1134.5
471.777	1139.5
471.997	1122.5
472.216	1119.5
472.435	1074.5
472.654	1088.5
472.873	1068.5
473.092	1065.5
473.311	1088.5
473.53	1090.5
473.749	1119.5
473.968	1077.5
474.187	1105.5
474.406	1103.5
474.625	1145.5
474.844	1144.5
475.063	1113.5
475.282	1159.5
475.501	1137.5
475.72	1099.5
475.939	1125.5
476.158	1159.5
476.377	1145.5
476.596	1158.5
476.814	1155.5
477.033	1173.5
477.252	1195.5
477.471	1212.5
477.69	1194.5
477.908	1224.5
478.127	1233.5
478.346	1209.5
478.564	1250.5
478.783	1275.5
479.002	1316.5
479.22	1343.5
479.439	1323.5
479.658	1305.5
479.876	1275.5
480.095	1291.5
480.313	1299.5
480.532	1319.5
480.751	1333.5
480.969	1327.5
481.188	1303.5
481.406	1294.5
481.624	1282.5
481.843	1298.5
482.061	1260.5
482.28	1300.5
482.498	1307.5
482.717	1289.5
482.935	1337.5
483.153	1339.5
483.372	1364.5
483.59	1391.5
483.808	1364.5
484.027	1308.5
484.245	1305.5
484.463	1319.5
484.681	1315.5
484.9	1353.5
485.118	1338.5
485.336	1314.5
485.554	1340.5
485.772	1305.5
485.99	1300.5
486.209	1319.5
486.427	1324.5
486.645	1344.5
486.863	1348.5
487.081	1337.5
487.299	1281.5
487.517	1332.5
487.735	1381.5
487.953	1371.5
488.171	1360.5
488.389	1354.5
488.607	1340.5
488.825	1327.5
489.043	1319.5
489.261	1314.5
489.479	1343.5
489.696	1312.5
489.914	1336.5
490.132	1361.5
490.35	1361.5
490.568	1382.5
490.786	1341.5
491.003	1332.5
491.221	1363.5
491.439	1367.5
491.657	1386.5
491.874	1371.5
492.092	1406.5
492.31	1367.5
492.527	1373.5
492.745	1384.5
492.963	1348.5
493.18	1375.5
493.398	1361.5
493.615	1409.5
493.833	1395.5
494.05	1420.5
494.268	1426.5
494.485	1404.5
494.703	1409.5
494.92	1426.5
495.138	1428.5
495.355	1408.5
495.573	1420.5
495.79	1459.5
496.008	1440.5
496.225	1447.5
496.442	1437.5
496.66	1464.5
496.877	1455.5
497.094	1468.5
497.312	1477.5
497.529	1507.5
497.746	1534.5
497.963	1557.5
498.181	1613.5
498.398	1620.5
498.615	1690.5
498.832	1746.5
499.049	1795.5
499.267	1849.5
499.484	1896.5
499.701	1977.5
499.918	2066.5
500.135	2141.5
500.352	2227.5
500.569	2263.5
500.786	2271.5
501.003	2226.5
501.22	2166.5
501.437	2076.5
501.654	1949.5
501.871	1910.5
502.088	1869.5
502.305	1790.5
502.522	1797.5
502.739	1698.5
502.956	1633.5
503.172	1577.5
503.389	1526.5
503.606	1548.5
503.823	1499.5
504.04	1520.5
504.256	1479.5
504.473	1454.5
504.69	1445.5
504.907	1427.5
505.123	1399.5
505.34	1368.5
505.557	1361.5
505.773	1354.5
505.99	1309.5
506.207	1280.5
506.423	1337.5
506.64	1269.5
506.856	1252.5
507.073	1234.5
507.289	1239.5
507.506	1255.5
507.722	1211.5
507.939	1235.5
508.155	1218.5
508.372	1197.5
508.588	1186.5
508.805	1181.5
509.021	1149.5
509.238	1159.5
509.454	1161.5
509.67	1170.5
509.887	1175.5
510.103	1153.5
510.319	1092.5
510.536	1137.5
510.752	1103.5
510.968	1159.5
511.184	1139.5
