Data from Ni(NO3)2@0.0625M.TitratingCurve.Agarose3%dH2O.NegLispCup.LampEnergy10.LIBS07252019_HRD10591_18-15-59-569.txt Node
Date: Thu Jul 25 18:15:59 EDT 2019
User: cochatt
Spectrometer: HR+D1059
Trigger mode: 1
Integration Time (sec): 1.000000E-1
Scans to average: 1
Electric dark correction enabled: true
Nonlinearity correction enabled: false
Boxcar width: 0
XAxis mode: Wavelengths
Number of Pixels in Spectrum: 2048
>>>>>Begin Spectral Data<<<<<
223.165	-13.25
223.4	-13.25
223.635	-13.25
223.869	-23.25
224.104	-22.25
224.338	-22.25
224.573	-14.25
224.808	-9.25
225.042	-7.25
225.277	-5.25
225.511	-5.25
225.746	-3.25
225.98	14.75
226.215	13.75
226.449	23.75
226.683	22.75
226.918	20.75
227.152	29.75
227.387	54.75
227.621	41.75
227.856	44.75
228.09	45.75
228.324	41.75
228.559	54.75
228.793	57.75
229.027	78.75
229.262	116.75
229.496	106.75
229.73	106.75
229.964	118.75
230.199	122.75
230.433	120.75
230.667	110.75
230.901	130.75
231.136	107.75
231.37	107.75
231.604	118.75
231.838	124.75
232.072	127.75
232.306	140.75
232.541	133.75
232.775	133.75
233.009	138.75
233.243	136.75
233.477	128.75
233.711	123.75
233.945	134.75
234.179	130.75
234.413	120.75
234.647	128.75
234.881	123.75
235.115	124.75
235.349	135.75
235.583	129.75
235.817	128.75
236.051	123.75
236.285	134.75
236.519	128.75
236.753	143.75
236.987	117.75
237.221	142.75
237.455	134.75
237.689	128.75
237.922	146.75
238.156	143.75
238.39	153.75
238.624	133.75
238.858	135.75
239.091	149.75
239.325	120.75
239.559	156.75
239.793	138.75
240.027	160.75
240.26	154.75
240.494	143.75
240.728	149.75
240.961	151.75
241.195	150.75
241.429	160.75
241.662	169.75
241.896	162.75
242.13	141.75
242.363	154.75
242.597	170.75
242.83	161.75
243.064	155.75
243.298	162.75
243.531	184.75
243.765	169.75
243.998	172.75
244.232	157.75
244.465	167.75
244.699	171.75
244.932	173.75
245.166	162.75
245.399	180.75
245.633	180.75
245.866	182.75
246.099	168.75
246.333	195.75
246.566	180.75
246.8	163.75
247.033	176.75
247.266	173.75
247.5	187.75
247.733	184.75
247.966	194.75
248.2	191.75
248.433	192.75
248.666	186.75
248.899	184.75
249.133	186.75
249.366	192.75
249.599	197.75
249.832	188.75
250.066	200.75
250.299	194.75
250.532	183.75
250.765	190.75
250.998	202.75
251.231	185.75
251.465	205.75
251.698	202.75
251.931	195.75
252.164	208.75
252.397	207.75
252.63	208.75
252.863	204.75
253.096	205.75
253.329	229.75
253.562	209.75
253.795	219.75
254.028	201.75
254.261	216.75
254.494	219.75
254.727	207.75
254.96	209.75
255.193	210.75
255.426	197.75
255.659	214.75
255.892	230.75
256.124	229.75
256.357	206.75
256.59	216.75
256.823	222.75
257.056	223.75
257.289	225.75
257.521	233.75
257.754	224.75
257.987	232.75
258.22	228.75
258.452	234.75
258.685	242.75
258.918	217.75
259.151	231.75
259.383	237.75
259.616	233.75
259.849	232.75
260.081	236.75
260.314	235.75
260.547	249.75
260.779	236.75
261.012	235.75
261.244	234.75
261.477	261.75
261.71	270.75
261.942	245.75
262.175	252.75
262.407	252.75
262.64	263.75
262.872	249.75
263.105	255.75
263.337	265.75
263.57	259.75
263.802	261.75
264.035	270.75
264.267	262.75
264.499	270.75
264.732	260.75
264.964	263.75
265.197	266.75
265.429	267.75
265.661	277.75
265.894	268.75
266.126	263.75
266.358	281.75
266.591	263.75
266.823	285.75
267.055	277.75
267.287	283.75
267.52	271.75
267.752	285.75
267.984	277.75
268.216	276.75
268.448	288.75
268.681	268.75
268.913	276.75
269.145	290.75
269.377	290.75
269.609	277.75
269.841	281.75
270.073	289.75
270.306	281.75
270.538	294.75
270.77	266.75
271.002	294.75
271.234	280.75
271.466	282.75
271.698	281.75
271.93	309.75
272.162	287.75
272.394	294.75
272.626	295.75
272.858	299.75
273.09	274.75
273.322	306.75
273.553	293.75
273.785	298.75
274.017	290.75
274.249	312.75
274.481	314.75
274.713	309.75
274.945	318.75
275.176	328.75
275.408	320.75
275.64	319.75
275.872	312.75
276.104	314.75
276.335	317.75
276.567	317.75
276.799	317.75
277.031	313.75
277.262	333.75
277.494	329.75
277.726	313.75
277.957	352.75
278.189	306.75
278.421	346.75
278.652	350.75
278.884	341.75
279.115	338.75
279.347	316.75
279.579	323.75
279.81	329.75
280.042	321.75
280.273	342.75
280.505	320.75
280.736	331.75
280.968	343.75
281.199	351.75
281.431	350.75
281.662	339.75
281.894	345.75
282.125	352.75
282.356	349.75
282.588	346.75
282.819	372.75
283.051	352.75
283.282	335.75
283.513	368.75
283.745	368.75
283.976	367.75
284.207	362.75
284.439	356.75
284.67	350.75
284.901	360.75
285.132	347.75
285.364	365.75
285.595	374.75
285.826	374.75
286.057	362.75
286.288	365.75
286.52	382.75
286.751	373.75
286.982	395.75
287.213	384.75
287.444	387.75
287.675	382.75
287.906	379.75
288.138	378.75
288.369	387.75
288.6	380.75
288.831	388.75
289.062	390.75
289.293	386.75
289.524	381.75
289.755	380.75
289.986	390.75
290.217	385.75
290.448	390.75
290.679	395.75
290.91	397.75
291.141	395.75
291.371	380.75
291.602	384.75
291.833	393.75
292.064	398.75
292.295	389.75
292.526	420.75
292.757	388.75
292.987	397.75
293.218	389.75
293.449	376.75
293.68	398.75
293.91	401.75
294.141	404.75
294.372	399.75
294.603	393.75
294.833	397.75
295.064	382.75
295.295	393.75
295.525	409.75
295.756	416.75
295.987	404.75
296.217	406.75
296.448	395.75
296.679	408.75
296.909	408.75
297.14	432.75
297.37	424.75
297.601	441.75
297.831	425.75
298.062	438.75
298.292	422.75
298.523	439.75
298.753	444.75
298.984	452.75
299.214	430.75
299.445	420.75
299.675	396.75
299.905	421.75
300.136	424.75
300.366	425.75
300.597	438.75
300.827	451.75
301.057	443.75
301.288	453.75
301.518	461.75
301.748	446.75
301.979	466.75
302.209	468.75
302.439	459.75
302.669	459.75
302.9	468.75
303.13	441.75
303.36	441.75
303.59	456.75
303.82	444.75
304.051	468.75
304.281	450.75
304.511	444.75
304.741	469.75
304.971	454.75
305.201	462.75
305.431	450.75
305.661	440.75
305.891	444.75
306.121	434.75
306.352	441.75
306.582	436.75
306.812	432.75
307.042	428.75
307.272	426.75
307.502	444.75
307.731	450.75
307.961	440.75
308.191	438.75
308.421	445.75
308.651	425.75
308.881	429.75
309.111	420.75
309.341	452.75
309.571	439.75
309.8	448.75
310.03	466.75
310.26	454.75
310.49	453.75
310.72	444.75
310.949	461.75
311.179	451.75
311.409	462.75
311.639	445.75
311.868	475.75
312.098	429.75
312.328	446.75
312.557	470.75
312.787	468.75
313.017	468.75
313.246	481.75
313.476	476.75
313.706	472.75
313.935	480.75
314.165	488.75
314.394	488.75
314.624	486.75
314.853	467.75
315.083	485.75
315.312	464.75
315.542	470.75
315.771	462.75
316.001	452.75
316.23	475.75
316.46	460.75
316.689	455.75
316.919	467.75
317.148	462.75
317.377	436.75
317.607	433.75
317.836	443.75
318.065	448.75
318.295	478.75
318.524	455.75
318.753	464.75
318.983	472.75
319.212	468.75
319.441	470.75
319.67	446.75
319.9	459.75
320.129	460.75
320.358	493.75
320.587	467.75
320.816	467.75
321.046	469.75
321.275	483.75
321.504	493.75
321.733	476.75
321.962	456.75
322.191	470.75
322.42	469.75
322.649	465.75
322.878	457.75
323.108	480.75
323.337	496.75
323.566	472.75
323.795	457.75
324.024	498.75
324.253	459.75
324.482	471.75
324.71	467.75
324.939	485.75
325.168	491.75
325.397	481.75
325.626	501.75
325.855	501.75
326.084	533.75
326.313	517.75
326.542	512.75
326.77	538.75
326.999	506.75
327.228	498.75
327.457	509.75
327.686	490.75
327.914	510.75
328.143	516.75
328.372	526.75
328.6	511.75
328.829	496.75
329.058	509.75
329.287	509.75
329.515	496.75
329.744	500.75
329.972	541.75
330.201	521.75
330.43	508.75
330.658	522.75
330.887	529.75
331.115	508.75
331.344	523.75
331.572	566.75
331.801	562.75
332.03	567.75
332.258	566.75
332.486	584.75
332.715	600.75
332.943	619.75
333.172	662.75
333.4	683.75
333.629	676.75
333.857	701.75
334.085	658.75
334.314	673.75
334.542	647.75
334.771	628.75
334.999	643.75
335.227	633.75
335.455	670.75
335.684	650.75
335.912	645.75
336.14	615.75
336.369	626.75
336.597	634.75
336.825	609.75
337.053	606.75
337.281	598.75
337.51	612.75
337.738	590.75
337.966	582.75
338.194	588.75
338.422	546.75
338.65	532.75
338.878	544.75
339.106	564.75
339.334	574.75
339.562	562.75
339.79	532.75
340.018	534.75
340.246	530.75
340.474	537.75
340.702	534.75
340.93	552.75
341.158	544.75
341.386	540.75
341.614	567.75
341.842	529.75
342.07	541.75
342.298	522.75
342.526	538.75
342.754	550.75
342.981	537.75
343.209	536.75
343.437	599.75
343.665	596.75
343.893	640.75
344.12	684.75
344.348	629.75
344.576	604.75
344.804	581.75
345.031	560.75
345.259	540.75
345.487	540.75
345.714	541.75
345.942	526.75
346.17	547.75
346.397	552.75
346.625	530.75
346.853	543.75
347.08	529.75
347.308	524.75
347.535	552.75
347.763	538.75
347.99	554.75
348.218	564.75
348.445	506.75
348.673	530.75
348.9	510.75
349.128	529.75
349.355	522.75
349.583	529.75
349.81	507.75
350.037	512.75
350.265	507.75
350.492	495.75
350.72	498.75
350.947	506.75
351.174	541.75
351.402	529.75
351.629	524.75
351.856	513.75
352.083	499.75
352.311	514.75
352.538	516.75
352.765	519.75
352.992	510.75
353.22	500.75
353.447	506.75
353.674	492.75
353.901	501.75
354.128	486.75
354.355	495.75
354.583	502.75
354.81	509.75
355.037	515.75
355.264	502.75
355.491	492.75
355.718	513.75
355.945	517.75
356.172	493.75
356.399	508.75
356.626	508.75
356.853	523.75
357.08	499.75
357.307	501.75
357.534	500.75
357.761	525.75
357.988	516.75
358.215	495.75
358.441	504.75
358.668	497.75
358.895	520.75
359.122	508.75
359.349	503.75
359.576	509.75
359.802	504.75
360.029	517.75
360.256	501.75
360.483	489.75
360.709	507.75
360.936	517.75
361.163	516.75
361.39	499.75
361.616	505.75
361.843	502.75
362.07	510.75
362.296	506.75
362.523	491.75
362.749	503.75
362.976	517.75
363.203	509.75
363.429	499.75
363.656	506.75
363.882	483.75
364.109	512.75
364.335	503.75
364.562	509.75
364.788	502.75
365.015	516.75
365.241	512.75
365.468	505.75
365.694	487.75
365.92	488.75
366.147	506.75
366.373	517.75
366.599	530.75
366.826	501.75
367.052	506.75
367.278	506.75
367.505	500.75
367.731	512.75
367.957	517.75
368.184	524.75
368.41	504.75
368.636	526.75
368.862	526.75
369.089	529.75
369.315	510.75
369.541	536.75
369.767	526.75
369.993	530.75
370.219	501.75
370.445	555.75
370.672	551.75
370.898	538.75
371.124	552.75
371.35	556.75
371.576	545.75
371.802	538.75
372.028	550.75
372.254	549.75
372.48	566.75
372.706	594.75
372.932	567.75
373.158	591.75
373.384	574.75
373.61	571.75
373.835	554.75
374.061	550.75
374.287	556.75
374.513	557.75
374.739	577.75
374.965	605.75
375.191	632.75
375.416	636.75
375.642	614.75
375.868	593.75
376.094	580.75
376.319	572.75
376.545	568.75
376.771	558.75
376.997	567.75
377.222	553.75
377.448	576.75
377.674	580.75
377.899	555.75
378.125	542.75
378.35	549.75
378.576	543.75
378.802	534.75
379.027	540.75
379.253	569.75
379.478	555.75
379.704	527.75
379.929	549.75
380.155	566.75
380.38	552.75
380.606	566.75
380.831	535.75
381.057	562.75
381.282	567.75
381.507	562.75
381.733	572.75
381.958	588.75
382.184	567.75
382.409	569.75
382.634	576.75
382.86	584.75
383.085	595.75
383.31	603.75
383.535	629.75
383.761	623.75
383.986	636.75
384.211	616.75
384.436	634.75
384.662	642.75
384.887	644.75
385.112	670.75
385.337	658.75
385.562	675.75
385.787	673.75
386.013	686.75
386.238	676.75
386.463	676.75
386.688	661.75
386.913	643.75
387.138	652.75
387.363	645.75
387.588	660.75
387.813	654.75
388.038	636.75
388.263	654.75
388.488	670.75
388.713	654.75
388.938	655.75
389.163	636.75
389.387	652.75
389.612	653.75
389.837	627.75
390.062	630.75
390.287	633.75
390.512	642.75
390.736	662.75
390.961	648.75
391.186	696.75
391.411	697.75
391.636	704.75
391.86	727.75
392.085	733.75
392.31	736.75
392.534	726.75
392.759	707.75
392.984	692.75
393.208	695.75
393.433	704.75
393.658	709.75
393.882	707.75
394.107	699.75
394.331	717.75
394.556	686.75
394.78	714.75
395.005	710.75
395.229	699.75
395.454	729.75
395.678	738.75
395.903	738.75
396.127	721.75
396.352	681.75
396.576	671.75
396.801	676.75
397.025	681.75
397.249	685.75
397.474	728.75
397.698	733.75
397.922	742.75
398.147	721.75
398.371	746.75
398.595	723.75
398.82	785.75
399.044	869.75
399.268	947.75
399.492	1091.75
399.717	1222.75
399.941	1198.75
400.165	1052.75
400.389	989.75
400.613	896.75
400.837	862.75
401.062	814.75
401.286	822.75
401.51	795.75
401.734	832.75
401.958	830.75
402.182	822.75
402.406	843.75
402.63	862.75
402.854	884.75
403.078	887.75
403.302	928.75
403.526	924.75
403.75	928.75
403.974	981.75
404.198	960.75
404.422	936.75
404.645	948.75
404.869	940.75
405.093	951.75
405.317	924.75
405.541	915.75
405.765	921.75
405.988	891.75
406.212	886.75
406.436	856.75
406.66	906.75
406.883	923.75
407.107	971.75
407.331	1036.75
407.555	1085.75
407.778	1068.75
408.002	1052.75
408.226	1017.75
408.449	970.75
408.673	972.75
408.896	944.75
409.12	925.75
409.344	975.75
409.567	936.75
409.791	950.75
410.014	936.75
410.238	923.75
410.461	901.75
410.685	914.75
410.908	895.75
411.132	876.75
411.355	853.75
411.578	810.75
411.802	867.75
412.025	866.75
412.249	867.75
412.472	856.75
412.695	849.75
412.919	818.75
413.142	811.75
413.365	827.75
413.589	832.75
413.812	831.75
414.035	824.75
414.258	842.75
414.482	802.75
414.705	835.75
414.928	824.75
415.151	846.75
415.374	811.75
415.597	842.75
415.821	754.75
416.044	797.75
416.267	785.75
416.49	780.75
416.713	792.75
416.936	821.75
417.159	796.75
417.382	811.75
417.605	780.75
417.828	804.75
418.051	848.75
418.274	795.75
418.497	816.75
418.72	828.75
418.943	845.75
419.166	889.75
419.389	940.75
419.611	906.75
419.834	833.75
420.057	850.75
420.28	812.75
420.503	793.75
420.726	806.75
420.948	790.75
421.171	781.75
421.394	814.75
421.617	801.75
421.839	823.75
422.062	818.75
422.285	803.75
422.507	827.75
422.73	852.75
422.953	837.75
423.175	837.75
423.398	882.75
423.621	830.75
423.843	862.75
424.066	852.75
424.288	873.75
424.511	861.75
424.733	837.75
424.956	837.75
425.178	836.75
425.401	833.75
425.623	804.75
425.846	779.75
426.068	764.75
426.291	758.75
426.513	762.75
426.735	769.75
426.958	765.75
427.18	721.75
427.402	728.75
427.625	755.75
427.847	740.75
428.069	724.75
428.292	745.75
428.514	710.75
428.736	738.75
428.958	747.75
429.181	711.75
429.403	689.75
429.625	712.75
429.847	692.75
430.069	709.75
430.292	730.75
430.514	701.75
430.736	719.75
430.958	723.75
431.18	724.75
431.402	757.75
431.624	710.75
431.846	731.75
432.068	722.75
432.29	741.75
432.512	695.75
432.734	734.75
432.956	758.75
433.178	728.75
433.4	738.75
433.622	736.75
433.844	731.75
434.066	737.75
434.287	759.75
434.509	792.75
434.731	800.75
434.953	832.75
435.175	824.75
435.397	816.75
435.618	764.75
435.84	748.75
436.062	701.75
436.284	726.75
436.505	714.75
436.727	740.75
436.949	714.75
437.17	756.75
437.392	708.75
437.614	713.75
437.835	661.75
438.057	668.75
438.278	682.75
438.5	685.75
438.721	674.75
438.943	709.75
439.165	710.75
439.386	712.75
439.608	706.75
439.829	738.75
440.05	706.75
440.272	736.75
440.493	726.75
440.715	717.75
440.936	757.75
441.158	781.75
441.379	798.75
441.6	809.75
441.822	822.75
442.043	829.75
442.264	827.75
442.486	802.75
442.707	831.75
442.928	801.75
443.149	812.75
443.371	801.75
443.592	801.75
443.813	828.75
444.034	823.75
444.255	865.75
444.476	888.75
444.698	938.75
444.919	997.75
445.14	1037.75
445.361	915.75
445.582	867.75
445.803	827.75
446.024	804.75
446.245	760.75
446.466	747.75
446.687	706.75
446.908	739.75
447.129	712.75
447.35	716.75
447.571	705.75
447.792	667.75
448.013	671.75
448.234	682.75
448.455	691.75
448.675	685.75
448.896	669.75
449.117	655.75
449.338	670.75
449.559	644.75
449.779	672.75
450	673.75
450.221	683.75
450.442	685.75
450.662	676.75
450.883	696.75
451.104	727.75
451.324	697.75
451.545	685.75
451.766	715.75
451.986	690.75
452.207	653.75
452.428	677.75
452.648	694.75
452.869	660.75
453.089	662.75
453.31	658.75
453.53	649.75
453.751	660.75
453.971	636.75
454.192	678.75
454.412	640.75
454.633	636.75
454.853	631.75
455.073	643.75
455.294	655.75
455.514	640.75
455.734	631.75
455.955	625.75
456.175	621.75
456.395	638.75
456.616	656.75
456.836	625.75
457.056	618.75
457.276	605.75
457.497	630.75
457.717	628.75
457.937	617.75
458.157	644.75
458.377	637.75
458.598	630.75
458.818	665.75
459.038	672.75
459.258	706.75
459.478	724.75
459.698	741.75
459.918	796.75
460.138	800.75
460.358	852.75
460.578	840.75
460.798	857.75
461.018	861.75
461.238	856.75
461.458	842.75
461.678	850.75
461.898	854.75
462.118	878.75
462.338	907.75
462.558	944.75
462.777	956.75
462.997	1064.75
463.217	1167.75
463.437	1164.75
463.657	1093.75
463.876	1009.75
464.096	1016.75
464.316	994.75
464.536	1014.75
464.755	963.75
464.975	924.75
465.195	859.75
465.414	813.75
465.634	802.75
465.854	755.75
466.073	759.75
466.293	719.75
466.512	706.75
466.732	714.75
466.951	746.75
467.171	722.75
467.391	702.75
467.61	689.75
467.829	690.75
468.049	706.75
468.268	654.75
468.488	677.75
468.707	664.75
468.927	678.75
469.146	677.75
469.365	708.75
469.585	681.75
469.804	730.75
470.023	706.75
470.243	707.75
470.462	733.75
470.681	745.75
470.901	737.75
471.12	706.75
471.339	693.75
471.558	701.75
471.777	665.75
471.997	668.75
472.216	670.75
472.435	681.75
472.654	646.75
472.873	662.75
473.092	666.75
473.311	648.75
473.53	668.75
473.749	662.75
473.968	659.75
474.187	666.75
474.406	642.75
474.625	663.75
474.844	666.75
475.063	662.75
475.282	670.75
475.501	667.75
475.72	698.75
475.939	678.75
476.158	669.75
476.377	696.75
476.596	696.75
476.814	704.75
477.033	686.75
477.252	717.75
477.471	743.75
477.69	727.75
477.908	750.75
478.127	782.75
478.346	748.75
478.564	806.75
478.783	821.75
479.002	785.75
479.22	838.75
479.439	827.75
479.658	814.75
479.876	815.75
480.095	819.75
480.313	841.75
480.532	917.75
480.751	864.75
480.969	850.75
481.188	828.75
481.406	813.75
481.624	793.75
481.843	771.75
482.061	770.75
482.28	733.75
482.498	784.75
482.717	779.75
482.935	753.75
483.153	760.75
483.372	778.75
483.59	791.75
483.808	770.75
484.027	753.75
484.245	772.75
484.463	764.75
484.681	785.75
484.9	796.75
485.118	786.75
485.336	806.75
485.554	805.75
485.772	812.75
485.99	788.75
486.209	833.75
486.427	818.75
486.645	824.75
486.863	811.75
487.081	810.75
487.299	824.75
487.517	792.75
487.735	788.75
487.953	794.75
488.171	796.75
488.389	817.75
488.607	773.75
488.825	763.75
489.043	781.75
489.261	806.75
489.479	781.75
489.696	813.75
489.914	797.75
490.132	813.75
490.35	785.75
490.568	796.75
490.786	816.75
491.003	799.75
491.221	824.75
491.439	812.75
491.657	792.75
491.874	782.75
492.092	810.75
492.31	803.75
492.527	824.75
492.745	835.75
492.963	821.75
493.18	835.75
493.398	814.75
493.615	840.75
493.833	825.75
494.05	821.75
494.268	835.75
494.485	846.75
494.703	843.75
494.92	829.75
495.138	848.75
495.355	833.75
495.573	844.75
495.79	838.75
496.008	854.75
496.225	834.75
496.442	865.75
496.66	867.75
496.877	866.75
497.094	892.75
497.312	906.75
497.529	904.75
497.746	933.75
497.963	939.75
498.181	975.75
498.398	1048.75
498.615	1097.75
498.832	1186.75
499.049	1253.75
499.267	1393.75
499.484	1496.75
499.701	1623.75
499.918	1812.75
500.135	2108.75
500.352	2377.75
500.569	2474.75
500.786	2429.75
501.003	2281.75
501.22	2031.75
