Data from Ni(NO3)2@0.0625M.TitratingCurve.Agarose3%dH2O.NegLispCup.LampEnergy10.LIBS07252019_HRD10591_18-13-05-568.txt Node
Date: Thu Jul 25 18:13:05 EDT 2019
User: cochatt
Spectrometer: HR+D1059
Trigger mode: 1
Integration Time (sec): 1.000000E-1
Scans to average: 1
Electric dark correction enabled: true
Nonlinearity correction enabled: false
Boxcar width: 0
XAxis mode: Wavelengths
Number of Pixels in Spectrum: 2048
>>>>>Begin Spectral Data<<<<<
223.165	-15.56
223.4	-15.56
223.635	-15.56
223.869	-31.56
224.104	-18.56
224.338	-1.56
224.573	-21.56
224.808	-14.56
225.042	-7.56
225.277	-4.56
225.511	6.44
225.746	8.44
225.98	19.44
226.215	9.44
226.449	10.44
226.683	27.44
226.918	22.44
227.152	11.44
227.387	15.44
227.621	31.44
227.856	54.44
228.09	40.44
228.324	42.44
228.559	72.44
228.793	74.44
229.027	104.44
229.262	108.44
229.496	92.44
229.73	114.44
229.964	116.44
230.199	118.44
230.433	110.44
230.667	116.44
230.901	96.44
231.136	118.44
231.37	113.44
231.604	117.44
231.838	118.44
232.072	133.44
232.306	131.44
232.541	138.44
232.775	117.44
233.009	121.44
233.243	128.44
233.477	132.44
233.711	124.44
233.945	131.44
234.179	146.44
234.413	145.44
234.647	140.44
234.881	136.44
235.115	124.44
235.349	123.44
235.583	133.44
235.817	141.44
236.051	131.44
236.285	128.44
236.519	131.44
236.753	128.44
236.987	138.44
237.221	125.44
237.455	142.44
237.689	147.44
237.922	145.44
238.156	124.44
238.39	130.44
238.624	134.44
238.858	152.44
239.091	146.44
239.325	128.44
239.559	148.44
239.793	146.44
240.027	154.44
240.26	148.44
240.494	141.44
240.728	141.44
240.961	146.44
241.195	165.44
241.429	178.44
241.662	164.44
241.896	172.44
242.13	170.44
242.363	163.44
242.597	180.44
242.83	171.44
243.064	152.44
243.298	157.44
243.531	176.44
243.765	170.44
243.998	176.44
244.232	179.44
244.465	182.44
244.699	170.44
244.932	186.44
245.166	186.44
245.399	187.44
245.633	188.44
245.866	196.44
246.099	181.44
246.333	188.44
246.566	182.44
246.8	197.44
247.033	189.44
247.266	195.44
247.5	200.44
247.733	188.44
247.966	184.44
248.2	210.44
248.433	198.44
248.666	185.44
248.899	192.44
249.133	208.44
249.366	187.44
249.599	188.44
249.832	185.44
250.066	197.44
250.299	222.44
250.532	198.44
250.765	210.44
250.998	217.44
251.231	219.44
251.465	230.44
251.698	220.44
251.931	224.44
252.164	220.44
252.397	214.44
252.63	227.44
252.863	225.44
253.096	225.44
253.329	218.44
253.562	230.44
253.795	220.44
254.028	211.44
254.261	229.44
254.494	227.44
254.727	233.44
254.96	243.44
255.193	216.44
255.426	231.44
255.659	224.44
255.892	235.44
256.124	222.44
256.357	224.44
256.59	212.44
256.823	236.44
257.056	228.44
257.289	243.44
257.521	248.44
257.754	241.44
257.987	233.44
258.22	252.44
258.452	237.44
258.685	233.44
258.918	240.44
259.151	233.44
259.383	262.44
259.616	252.44
259.849	252.44
260.081	258.44
260.314	264.44
260.547	267.44
260.779	258.44
261.012	269.44
261.244	262.44
261.477	266.44
261.71	260.44
261.942	262.44
262.175	260.44
262.407	251.44
262.64	284.44
262.872	262.44
263.105	274.44
263.337	254.44
263.57	275.44
263.802	279.44
264.035	284.44
264.267	265.44
264.499	274.44
264.732	286.44
264.964	297.44
265.197	274.44
265.429	282.44
265.661	273.44
265.894	286.44
266.126	283.44
266.358	292.44
266.591	296.44
266.823	304.44
267.055	280.44
267.287	293.44
267.52	293.44
267.752	273.44
267.984	286.44
268.216	289.44
268.448	292.44
268.681	295.44
268.913	309.44
269.145	294.44
269.377	294.44
269.609	288.44
269.841	298.44
270.073	308.44
270.306	309.44
270.538	306.44
270.77	296.44
271.002	293.44
271.234	304.44
271.466	315.44
271.698	302.44
271.93	320.44
272.162	305.44
272.394	300.44
272.626	327.44
272.858	333.44
273.09	320.44
273.322	335.44
273.553	321.44
273.785	317.44
274.017	314.44
274.249	312.44
274.481	309.44
274.713	317.44
274.945	320.44
275.176	336.44
275.408	350.44
275.64	335.44
275.872	319.44
276.104	335.44
276.335	334.44
276.567	331.44
276.799	315.44
277.031	344.44
277.262	330.44
277.494	347.44
277.726	347.44
277.957	349.44
278.189	340.44
278.421	341.44
278.652	355.44
278.884	345.44
279.115	348.44
279.347	348.44
279.579	344.44
279.81	347.44
280.042	358.44
280.273	357.44
280.505	343.44
280.736	356.44
280.968	371.44
281.199	364.44
281.431	364.44
281.662	373.44
281.894	368.44
282.125	366.44
282.356	374.44
282.588	384.44
282.819	386.44
283.051	395.44
283.282	393.44
283.513	387.44
283.745	354.44
283.976	379.44
284.207	395.44
284.439	392.44
284.67	405.44
284.901	416.44
285.132	394.44
285.364	382.44
285.595	399.44
285.826	404.44
286.057	391.44
286.288	401.44
286.52	424.44
286.751	380.44
286.982	403.44
287.213	404.44
287.444	390.44
287.675	404.44
287.906	408.44
288.138	423.44
288.369	398.44
288.6	412.44
288.831	410.44
289.062	414.44
289.293	405.44
289.524	412.44
289.755	418.44
289.986	416.44
290.217	413.44
290.448	417.44
290.679	422.44
290.91	448.44
291.141	423.44
291.371	428.44
291.602	418.44
291.833	410.44
292.064	428.44
292.295	415.44
292.526	424.44
292.757	430.44
292.987	428.44
293.218	420.44
293.449	447.44
293.68	451.44
293.91	416.44
294.141	423.44
294.372	437.44
294.603	445.44
294.833	420.44
295.064	445.44
295.295	446.44
295.525	427.44
295.756	445.44
295.987	440.44
296.217	448.44
296.448	465.44
296.679	431.44
296.909	438.44
297.14	451.44
297.37	452.44
297.601	449.44
297.831	458.44
298.062	474.44
298.292	464.44
298.523	478.44
298.753	482.44
298.984	454.44
299.214	459.44
299.445	466.44
299.675	464.44
299.905	461.44
300.136	461.44
300.366	471.44
300.597	479.44
300.827	473.44
301.057	473.44
301.288	500.44
301.518	471.44
301.748	475.44
301.979	491.44
302.209	484.44
302.439	493.44
302.669	477.44
302.9	460.44
303.13	462.44
303.36	480.44
303.59	475.44
303.82	482.44
304.051	485.44
304.281	478.44
304.511	464.44
304.741	479.44
304.971	487.44
305.201	459.44
305.431	473.44
305.661	462.44
305.891	461.44
306.121	472.44
306.352	474.44
306.582	476.44
306.812	473.44
307.042	462.44
307.272	471.44
307.502	448.44
307.731	456.44
307.961	461.44
308.191	471.44
308.421	476.44
308.651	464.44
308.881	461.44
309.111	462.44
309.341	459.44
309.571	490.44
309.8	467.44
310.03	484.44
310.26	479.44
310.49	469.44
310.72	474.44
310.949	478.44
311.179	463.44
311.409	478.44
311.639	472.44
311.868	476.44
312.098	482.44
312.328	503.44
312.557	485.44
312.787	510.44
313.017	513.44
313.246	491.44
313.476	505.44
313.706	523.44
313.935	499.44
314.165	521.44
314.394	513.44
314.624	513.44
314.853	499.44
315.083	512.44
315.312	499.44
315.542	522.44
315.771	504.44
316.001	510.44
316.23	507.44
316.46	497.44
316.689	500.44
316.919	512.44
317.148	505.44
317.377	488.44
317.607	506.44
317.836	500.44
318.065	486.44
318.295	512.44
318.524	501.44
318.753	484.44
318.983	494.44
319.212	485.44
319.441	502.44
319.67	518.44
319.9	497.44
320.129	512.44
320.358	493.44
320.587	497.44
320.816	517.44
321.046	526.44
321.275	506.44
321.504	509.44
321.733	510.44
321.962	521.44
322.191	510.44
322.42	516.44
322.649	520.44
322.878	542.44
323.108	523.44
323.337	520.44
323.566	528.44
323.795	551.44
324.024	560.44
324.253	520.44
324.482	525.44
324.71	530.44
324.939	522.44
325.168	549.44
325.397	525.44
325.626	526.44
325.855	513.44
326.084	531.44
326.313	541.44
326.542	549.44
326.77	578.44
326.999	547.44
327.228	547.44
327.457	540.44
327.686	561.44
327.914	541.44
328.143	572.44
328.372	555.44
328.6	537.44
328.829	553.44
329.058	549.44
329.287	562.44
329.515	550.44
329.744	566.44
329.972	582.44
330.201	576.44
330.43	563.44
330.658	598.44
330.887	576.44
331.115	571.44
331.344	620.44
331.572	597.44
331.801	613.44
332.03	632.44
332.258	630.44
332.486	671.44
332.715	656.44
332.943	684.44
333.172	733.44
333.4	774.44
333.629	770.44
333.857	761.44
334.085	757.44
334.314	711.44
334.542	721.44
334.771	718.44
334.999	713.44
335.227	706.44
335.455	713.44
335.684	689.44
335.912	688.44
336.14	688.44
336.369	661.44
336.597	693.44
336.825	682.44
337.053	682.44
337.281	643.44
337.51	649.44
337.738	632.44
337.966	630.44
338.194	632.44
338.422	614.44
338.65	619.44
338.878	630.44
339.106	602.44
339.334	629.44
339.562	615.44
339.79	595.44
340.018	587.44
340.246	588.44
340.474	587.44
340.702	607.44
340.93	604.44
341.158	609.44
341.386	609.44
341.614	610.44
341.842	576.44
342.07	603.44
342.298	590.44
342.526	580.44
342.754	581.44
342.981	613.44
343.209	596.44
343.437	626.44
343.665	676.44
343.893	734.44
344.12	758.44
344.348	710.44
344.576	676.44
344.804	649.44
345.031	600.44
345.259	605.44
345.487	590.44
345.714	576.44
345.942	579.44
346.17	603.44
346.397	588.44
346.625	584.44
346.853	581.44
347.08	562.44
347.308	571.44
347.535	578.44
347.763	591.44
347.99	597.44
348.218	587.44
348.445	608.44
348.673	568.44
348.9	568.44
349.128	599.44
349.355	557.44
349.583	584.44
349.81	595.44
350.037	558.44
350.265	555.44
350.492	539.44
350.72	549.44
350.947	557.44
351.174	582.44
351.402	571.44
351.629	573.44
351.856	576.44
352.083	545.44
352.311	556.44
352.538	555.44
352.765	564.44
352.992	556.44
353.22	564.44
353.447	553.44
353.674	562.44
353.901	572.44
354.128	536.44
354.355	541.44
354.583	565.44
354.81	543.44
355.037	549.44
355.264	560.44
355.491	560.44
355.718	565.44
355.945	562.44
356.172	544.44
356.399	547.44
356.626	563.44
356.853	562.44
357.08	557.44
357.307	567.44
357.534	568.44
357.761	560.44
357.988	560.44
358.215	557.44
358.441	574.44
358.668	565.44
358.895	551.44
359.122	558.44
359.349	555.44
359.576	560.44
359.802	573.44
360.029	560.44
360.256	560.44
360.483	546.44
360.709	544.44
360.936	574.44
361.163	566.44
361.39	559.44
361.616	560.44
361.843	580.44
362.07	568.44
362.296	564.44
362.523	562.44
362.749	565.44
362.976	556.44
363.203	558.44
363.429	536.44
363.656	549.44
363.882	546.44
364.109	534.44
364.335	544.44
364.562	558.44
364.788	556.44
365.015	544.44
365.241	568.44
365.468	549.44
365.694	548.44
365.92	554.44
366.147	532.44
366.373	560.44
366.599	558.44
366.826	560.44
367.052	552.44
367.278	568.44
367.505	567.44
367.731	573.44
367.957	546.44
368.184	560.44
368.41	548.44
368.636	573.44
368.862	568.44
369.089	566.44
369.315	564.44
369.541	565.44
369.767	552.44
369.993	557.44
370.219	585.44
370.445	581.44
370.672	603.44
370.898	600.44
371.124	605.44
371.35	622.44
371.576	588.44
371.802	630.44
372.028	600.44
372.254	617.44
372.48	617.44
372.706	627.44
372.932	646.44
373.158	634.44
373.384	608.44
373.61	601.44
373.835	613.44
374.061	591.44
374.287	612.44
374.513	610.44
374.739	656.44
374.965	651.44
375.191	655.44
375.416	662.44
375.642	640.44
375.868	628.44
376.094	638.44
376.319	613.44
376.545	619.44
376.771	604.44
376.997	626.44
377.222	620.44
377.448	628.44
377.674	594.44
377.899	602.44
378.125	571.44
378.35	604.44
378.576	604.44
378.802	596.44
379.027	599.44
379.253	627.44
379.478	610.44
379.704	603.44
379.929	600.44
380.155	594.44
380.38	599.44
380.606	607.44
380.831	579.44
381.057	618.44
381.282	587.44
381.507	601.44
381.733	617.44
381.958	611.44
382.184	629.44
382.409	643.44
382.634	631.44
382.86	667.44
383.085	654.44
383.31	655.44
383.535	669.44
383.761	675.44
383.986	684.44
384.211	701.44
384.436	710.44
384.662	729.44
384.887	745.44
385.112	719.44
385.337	724.44
385.562	736.44
385.787	722.44
386.013	742.44
386.238	758.44
386.463	741.44
386.688	738.44
386.913	750.44
387.138	721.44
387.363	721.44
387.588	717.44
387.813	732.44
388.038	715.44
388.263	715.44
388.488	715.44
388.713	733.44
388.938	715.44
389.163	723.44
389.387	703.44
389.612	720.44
389.837	690.44
390.062	700.44
390.287	704.44
390.512	700.44
390.736	724.44
390.961	742.44
391.186	733.44
391.411	766.44
391.636	806.44
391.86	824.44
392.085	826.44
392.31	812.44
392.534	796.44
392.759	798.44
392.984	781.44
393.208	758.44
393.433	752.44
393.658	786.44
393.882	785.44
394.107	812.44
394.331	804.44
394.556	805.44
394.78	788.44
395.005	796.44
395.229	791.44
395.454	810.44
395.678	822.44
395.903	806.44
396.127	804.44
396.352	773.44
396.576	782.44
396.801	758.44
397.025	769.44
397.249	789.44
397.474	801.44
397.698	818.44
397.922	811.44
398.147	813.44
398.371	834.44
398.595	844.44
398.82	892.44
399.044	954.44
399.268	1084.44
399.492	1282.44
399.717	1460.44
399.941	1371.44
400.165	1180.44
400.389	1070.44
400.613	1009.44
400.837	952.44
401.062	944.44
401.286	889.44
401.51	900.44
401.734	894.44
401.958	928.44
402.182	918.44
402.406	915.44
402.63	967.44
402.854	986.44
403.078	985.44
403.302	1008.44
403.526	1056.44
403.75	1095.44
403.974	1066.44
404.198	1071.44
404.422	1096.44
404.645	1085.44
404.869	1060.44
405.093	1005.44
405.317	1006.44
405.541	1012.44
405.765	1004.44
405.988	982.44
406.212	989.44
406.436	998.44
406.66	1030.44
406.883	1044.44
407.107	1115.44
407.331	1162.44
407.555	1210.44
407.778	1178.44
408.002	1137.44
408.226	1107.44
408.449	1095.44
408.673	1037.44
408.896	1024.44
409.12	1016.44
409.344	1039.44
409.567	1009.44
409.791	1005.44
410.014	1024.44
410.238	1015.44
410.461	1006.44
410.685	1011.44
410.908	994.44
411.132	991.44
411.355	972.44
411.578	941.44
411.802	928.44
412.025	928.44
412.249	984.44
412.472	923.44
412.695	951.44
412.919	944.44
413.142	929.44
413.365	893.44
413.589	913.44
413.812	930.44
414.035	908.44
414.258	930.44
414.482	931.44
414.705	928.44
414.928	910.44
415.151	920.44
415.374	900.44
415.597	882.44
415.821	918.44
416.044	869.44
416.267	873.44
416.49	861.44
416.713	884.44
416.936	878.44
417.159	885.44
417.382	868.44
417.605	872.44
417.828	899.44
418.051	932.44
418.274	891.44
418.497	885.44
418.72	929.44
418.943	900.44
419.166	968.44
419.389	1051.44
419.611	991.44
419.834	963.44
420.057	953.44
420.28	902.44
420.503	892.44
420.726	862.44
420.948	894.44
421.171	873.44
421.394	881.44
421.617	915.44
421.839	913.44
422.062	908.44
422.285	875.44
422.507	908.44
422.73	911.44
422.953	932.44
423.175	922.44
423.398	992.44
423.621	960.44
423.843	987.44
424.066	979.44
424.288	963.44
424.511	962.44
424.733	954.44
424.956	917.44
425.178	906.44
425.401	902.44
425.623	903.44
425.846	860.44
426.068	835.44
426.291	839.44
426.513	839.44
426.735	864.44
426.958	841.44
427.18	828.44
427.402	810.44
427.625	832.44
427.847	825.44
428.069	810.44
428.292	838.44
428.514	805.44
428.736	778.44
428.958	794.44
429.181	788.44
429.403	780.44
429.625	770.44
429.847	747.44
430.069	754.44
430.292	799.44
430.514	756.44
430.736	775.44
430.958	760.44
431.18	756.44
431.402	778.44
431.624	794.44
431.846	843.44
432.068	832.44
432.29	830.44
432.512	773.44
432.734	820.44
432.956	800.44
433.178	801.44
433.4	793.44
433.622	813.44
433.844	832.44
434.066	833.44
434.287	837.44
434.509	836.44
434.731	883.44
434.953	879.44
435.175	941.44
435.397	914.44
435.618	854.44
435.84	827.44
436.062	786.44
436.284	802.44
436.505	810.44
436.727	818.44
436.949	800.44
437.17	811.44
437.392	793.44
437.614	783.44
437.835	755.44
438.057	780.44
438.278	731.44
438.5	760.44
438.721	759.44
438.943	793.44
439.165	772.44
439.386	798.44
439.608	791.44
439.829	827.44
440.05	813.44
440.272	804.44
440.493	848.44
440.715	814.44
440.936	824.44
441.158	869.44
441.379	861.44
441.6	917.44
441.822	924.44
442.043	921.44
442.264	892.44
442.486	862.44
442.707	882.44
442.928	874.44
443.149	875.44
443.371	888.44
443.592	892.44
443.813	919.44
444.034	922.44
444.255	937.44
444.476	981.44
444.698	1023.44
444.919	1088.44
445.14	1160.44
445.361	1033.44
445.582	938.44
445.803	875.44
446.024	852.44
446.245	838.44
446.466	808.44
446.687	805.44
446.908	816.44
447.129	808.44
447.35	774.44
447.571	770.44
447.792	793.44
448.013	762.44
448.234	745.44
448.455	734.44
448.675	721.44
448.896	746.44
449.117	763.44
449.338	728.44
449.559	732.44
449.779	736.44
450	731.44
450.221	725.44
450.442	754.44
450.662	744.44
450.883	754.44
451.104	758.44
451.324	758.44
451.545	745.44
451.766	742.44
451.986	752.44
452.207	747.44
452.428	764.44
452.648	745.44
452.869	742.44
453.089	725.44
453.31	742.44
453.53	705.44
453.751	714.44
453.971	716.44
454.192	712.44
454.412	710.44
454.633	705.44
454.853	708.44
455.073	690.44
455.294	734.44
455.514	683.44
455.734	691.44
455.955	688.44
456.175	684.44
456.395	669.44
456.616	688.44
456.836	670.44
457.056	694.44
457.276	685.44
457.497	672.44
457.717	695.44
457.937	715.44
458.157	695.44
458.377	695.44
458.598	734.44
458.818	724.44
459.038	768.44
459.258	791.44
459.478	808.44
459.698	822.44
459.918	868.44
460.138	896.44
460.358	924.44
460.578	955.44
460.798	957.44
461.018	970.44
461.238	940.44
461.458	958.44
461.678	941.44
461.898	951.44
462.118	990.44
462.338	1003.44
462.558	1053.44
462.777	1074.44
462.997	1220.44
463.217	1305.44
463.437	1306.44
463.657	1170.44
463.876	1087.44
464.096	1116.44
464.316	1125.44
464.536	1126.44
464.755	1066.44
464.975	998.44
465.195	972.44
465.414	924.44
465.634	855.44
465.854	833.44
466.073	832.44
466.293	797.44
466.512	808.44
466.732	770.44
466.951	789.44
467.171	800.44
467.391	796.44
467.61	779.44
467.829	776.44
468.049	772.44
468.268	739.44
468.488	729.44
468.707	755.44
468.927	728.44
469.146	737.44
469.365	748.44
469.585	746.44
469.804	773.44
470.023	776.44
470.243	790.44
470.462	822.44
470.681	823.44
470.901	810.44
471.12	753.44
471.339	768.44
471.558	760.44
471.777	775.44
471.997	733.44
472.216	748.44
472.435	734.44
472.654	714.44
472.873	731.44
473.092	700.44
473.311	707.44
473.53	716.44
473.749	742.44
473.968	709.44
474.187	709.44
474.406	707.44
474.625	717.44
474.844	722.44
475.063	715.44
475.282	725.44
475.501	744.44
475.72	736.44
475.939	754.44
476.158	739.44
476.377	747.44
476.596	761.44
476.814	762.44
477.033	782.44
477.252	786.44
477.471	791.44
477.69	818.44
477.908	843.44
478.127	863.44
478.346	853.44
478.564	853.44
478.783	893.44
479.002	900.44
479.22	918.44
479.439	907.44
479.658	905.44
479.876	885.44
480.095	892.44
480.313	918.44
480.532	982.44
480.751	951.44
480.969	946.44
481.188	912.44
481.406	851.44
481.624	867.44
481.843	833.44
482.061	817.44
482.28	836.44
482.498	821.44
482.717	806.44
482.935	808.44
483.153	817.44
483.372	822.44
483.59	820.44
483.808	841.44
484.027	833.44
484.245	840.44
484.463	829.44
484.681	854.44
484.9	861.44
485.118	840.44
485.336	841.44
485.554	862.44
485.772	897.44
485.99	878.44
486.209	882.44
486.427	890.44
486.645	860.44
486.863	877.44
487.081	860.44
487.299	876.44
487.517	849.44
487.735	857.44
487.953	864.44
488.171	856.44
488.389	838.44
488.607	853.44
488.825	844.44
489.043	826.44
489.261	859.44
489.479	867.44
489.696	874.44
489.914	851.44
490.132	853.44
490.35	849.44
490.568	883.44
490.786	860.44
491.003	849.44
491.221	877.44
491.439	881.44
491.657	849.44
491.874	852.44
492.092	857.44
492.31	862.44
492.527	880.44
492.745	862.44
492.963	874.44
493.18	896.44
493.398	884.44
493.615	901.44
493.833	878.44
494.05	907.44
494.268	902.44
494.485	911.44
494.703	886.44
494.92	913.44
495.138	923.44
495.355	916.44
495.573	899.44
495.79	900.44
496.008	904.44
496.225	899.44
496.442	944.44
496.66	937.44
496.877	951.44
497.094	970.44
497.312	992.44
497.529	1001.44
497.746	1025.44
497.963	1086.44
498.181	1084.44
498.398	1152.44
498.615	1222.44
498.832	1313.44
499.049	1402.44
499.267	1485.44
499.484	1664.44
499.701	1852.44
499.918	2090.44
500.135	2408.44
500.352	2768.44
500.569	2827.44
