Data from Ni(NO3)2Standard.Agarose3%.GreenCap.LampEnergy5.5.E.O_HRD10591_14-41-35-188.txt Node
Date: Mon Jul 22 14:41:35 EDT 2019
User: cochatt
Spectrometer: HR+D1059
Trigger mode: 1
Integration Time (sec): 1.000000E-1
Scans to average: 1
Electric dark correction enabled: true
Nonlinearity correction enabled: false
Boxcar width: 0
XAxis mode: Wavelengths
Number of Pixels in Spectrum: 2048
>>>>>Begin Spectral Data<<<<<
223.165	-12.12
223.4	-12.12
223.635	-12.12
223.869	-19.12
224.104	-10.12
224.338	-7.12
224.573	-20.12
224.808	-19.12
225.042	-15.12
225.277	-18.12
225.511	3.88
225.746	-1.12
225.98	4.88
226.215	15.88
226.449	19.88
226.683	21.88
226.918	23.88
227.152	31.88
227.387	36.88
227.621	25.88
227.856	45.88
228.09	49.88
228.324	41.88
228.559	56.88
228.793	57.88
229.027	60.88
229.262	54.88
229.496	68.88
229.73	74.88
229.964	78.88
230.199	85.88
230.433	73.88
230.667	79.88
230.901	79.88
231.136	88.88
231.37	81.88
231.604	85.88
231.838	85.88
232.072	81.88
232.306	85.88
232.541	78.88
232.775	88.88
233.009	87.88
233.243	80.88
233.477	82.88
233.711	91.88
233.945	72.88
234.179	71.88
234.413	70.88
234.647	76.88
234.881	70.88
235.115	69.88
235.349	87.88
235.583	77.88
235.817	65.88
236.051	79.88
236.285	72.88
236.519	77.88
236.753	76.88
236.987	73.88
237.221	62.88
237.455	65.88
237.689	84.88
237.922	75.88
238.156	78.88
238.39	69.88
238.624	73.88
238.858	73.88
239.091	81.88
239.325	75.88
239.559	96.88
239.793	77.88
240.027	74.88
240.26	67.88
240.494	73.88
240.728	78.88
240.961	72.88
241.195	75.88
241.429	81.88
241.662	85.88
241.896	79.88
242.13	78.88
242.363	79.88
242.597	84.88
242.83	77.88
243.064	88.88
243.298	74.88
243.531	78.88
243.765	95.88
243.998	82.88
244.232	65.88
244.465	90.88
244.699	83.88
244.932	85.88
245.166	72.88
245.399	80.88
245.633	72.88
245.866	96.88
246.099	76.88
246.333	85.88
246.566	79.88
246.8	86.88
247.033	83.88
247.266	73.88
247.5	81.88
247.733	86.88
247.966	74.88
248.2	83.88
248.433	70.88
248.666	67.88
248.899	74.88
249.133	79.88
249.366	75.88
249.599	69.88
249.832	69.88
250.066	86.88
250.299	77.88
250.532	65.88
250.765	82.88
250.998	78.88
251.231	75.88
251.465	74.88
251.698	74.88
251.931	83.88
252.164	68.88
252.397	98.88
252.63	60.88
252.863	78.88
253.096	75.88
253.329	79.88
253.562	75.88
253.795	80.88
254.028	76.88
254.261	77.88
254.494	74.88
254.727	81.88
254.96	67.88
255.193	73.88
255.426	74.88
255.659	93.88
255.892	93.88
256.124	73.88
256.357	77.88
256.59	92.88
256.823	75.88
257.056	81.88
257.289	80.88
257.521	84.88
257.754	84.88
257.987	83.88
258.22	86.88
258.452	69.88
258.685	71.88
258.918	91.88
259.151	84.88
259.383	75.88
259.616	89.88
259.849	80.88
260.081	71.88
260.314	87.88
260.547	84.88
260.779	67.88
261.012	85.88
261.244	82.88
261.477	72.88
261.71	78.88
261.942	77.88
262.175	69.88
262.407	83.88
262.64	88.88
262.872	84.88
263.105	86.88
263.337	92.88
263.57	94.88
263.802	85.88
264.035	73.88
264.267	90.88
264.499	79.88
264.732	84.88
264.964	76.88
265.197	82.88
265.429	89.88
265.661	87.88
265.894	91.88
266.126	109.88
266.358	93.88
266.591	87.88
266.823	77.88
267.055	88.88
267.287	75.88
267.52	91.88
267.752	85.88
267.984	75.88
268.216	76.88
268.448	88.88
268.681	92.88
268.913	81.88
269.145	82.88
269.377	94.88
269.609	82.88
269.841	99.88
270.073	89.88
270.306	74.88
270.538	89.88
270.77	89.88
271.002	85.88
271.234	76.88
271.466	75.88
271.698	76.88
271.93	86.88
272.162	82.88
272.394	83.88
272.626	83.88
272.858	87.88
273.09	79.88
273.322	84.88
273.553	92.88
273.785	87.88
274.017	77.88
274.249	73.88
274.481	74.88
274.713	73.88
274.945	79.88
275.176	86.88
275.408	99.88
275.64	78.88
275.872	98.88
276.104	78.88
276.335	90.88
276.567	74.88
276.799	78.88
277.031	65.88
277.262	79.88
277.494	86.88
277.726	71.88
277.957	79.88
278.189	98.88
278.421	92.88
278.652	94.88
278.884	78.88
279.115	93.88
279.347	89.88
279.579	92.88
279.81	66.88
280.042	75.88
280.273	97.88
280.505	76.88
280.736	88.88
280.968	87.88
281.199	82.88
281.431	65.88
281.662	87.88
281.894	93.88
282.125	78.88
282.356	82.88
282.588	75.88
282.819	91.88
283.051	91.88
283.282	84.88
283.513	63.88
283.745	92.88
283.976	86.88
284.207	86.88
284.439	95.88
284.67	85.88
284.901	85.88
285.132	74.88
285.364	100.88
285.595	84.88
285.826	75.88
286.057	91.88
286.288	86.88
286.52	77.88
286.751	75.88
286.982	71.88
287.213	86.88
287.444	81.88
287.675	74.88
287.906	90.88
288.138	79.88
288.369	77.88
288.6	99.88
288.831	86.88
289.062	96.88
289.293	77.88
289.524	96.88
289.755	81.88
289.986	92.88
290.217	85.88
290.448	78.88
290.679	86.88
290.91	78.88
291.141	73.88
291.371	90.88
291.602	93.88
291.833	79.88
292.064	94.88
292.295	67.88
292.526	80.88
292.757	79.88
292.987	84.88
293.218	79.88
293.449	79.88
293.68	86.88
293.91	89.88
294.141	98.88
294.372	97.88
294.603	78.88
294.833	90.88
295.064	93.88
295.295	90.88
295.525	83.88
295.756	73.88
295.987	102.88
296.217	83.88
296.448	77.88
296.679	79.88
296.909	78.88
297.14	83.88
297.37	80.88
297.601	85.88
297.831	93.88
298.062	77.88
298.292	85.88
298.523	73.88
298.753	78.88
298.984	85.88
299.214	76.88
299.445	85.88
299.675	92.88
299.905	73.88
300.136	85.88
300.366	79.88
300.597	76.88
300.827	95.88
301.057	88.88
301.288	85.88
301.518	82.88
301.748	79.88
301.979	71.88
302.209	77.88
302.439	84.88
302.669	87.88
302.9	81.88
303.13	88.88
303.36	88.88
303.59	81.88
303.82	92.88
304.051	86.88
304.281	81.88
304.511	88.88
304.741	96.88
304.971	87.88
305.201	79.88
305.431	85.88
305.661	91.88
305.891	76.88
306.121	78.88
306.352	87.88
306.582	75.88
306.812	86.88
307.042	95.88
307.272	84.88
307.502	85.88
307.731	67.88
307.961	79.88
308.191	85.88
308.421	85.88
308.651	80.88
308.881	90.88
309.111	85.88
309.341	80.88
309.571	87.88
309.8	98.88
310.03	86.88
310.26	79.88
310.49	87.88
310.72	87.88
310.949	88.88
311.179	83.88
311.409	97.88
311.639	96.88
311.868	79.88
312.098	89.88
312.328	73.88
312.557	86.88
312.787	79.88
313.017	93.88
313.246	100.88
313.476	90.88
313.706	81.88
313.935	80.88
314.165	83.88
314.394	81.88
314.624	84.88
314.853	84.88
315.083	94.88
315.312	89.88
315.542	92.88
315.771	90.88
316.001	70.88
316.23	76.88
316.46	93.88
316.689	82.88
316.919	77.88
317.148	102.88
317.377	83.88
317.607	91.88
317.836	101.88
318.065	91.88
318.295	90.88
318.524	82.88
318.753	83.88
318.983	83.88
319.212	85.88
319.441	75.88
319.67	92.88
319.9	83.88
320.129	87.88
320.358	82.88
320.587	91.88
320.816	82.88
321.046	81.88
321.275	89.88
321.504	93.88
321.733	89.88
321.962	87.88
322.191	85.88
322.42	77.88
322.649	84.88
322.878	83.88
323.108	77.88
323.337	89.88
323.566	98.88
323.795	79.88
324.024	83.88
324.253	77.88
324.482	74.88
324.71	92.88
324.939	74.88
325.168	83.88
325.397	81.88
325.626	80.88
325.855	78.88
326.084	81.88
326.313	98.88
326.542	76.88
326.77	91.88
326.999	82.88
327.228	79.88
327.457	85.88
327.686	76.88
327.914	90.88
328.143	71.88
328.372	77.88
328.6	78.88
328.829	77.88
329.058	89.88
329.287	69.88
329.515	82.88
329.744	92.88
329.972	105.88
330.201	92.88
330.43	81.88
330.658	70.88
330.887	98.88
331.115	86.88
331.344	81.88
331.572	88.88
331.801	75.88
332.03	79.88
332.258	92.88
332.486	89.88
332.715	72.88
332.943	83.88
333.172	100.88
333.4	91.88
333.629	85.88
333.857	102.88
334.085	91.88
334.314	90.88
334.542	97.88
334.771	91.88
334.999	94.88
335.227	81.88
335.455	86.88
335.684	92.88
335.912	81.88
336.14	89.88
336.369	91.88
336.597	82.88
336.825	101.88
337.053	80.88
337.281	81.88
337.51	89.88
337.738	84.88
337.966	79.88
338.194	88.88
338.422	81.88
338.65	92.88
338.878	95.88
339.106	80.88
339.334	78.88
339.562	87.88
339.79	78.88
340.018	89.88
340.246	85.88
340.474	86.88
340.702	79.88
340.93	71.88
341.158	102.88
341.386	69.88
341.614	77.88
341.842	71.88
342.07	92.88
342.298	81.88
342.526	78.88
342.754	82.88
342.981	78.88
343.209	80.88
343.437	88.88
343.665	88.88
343.893	92.88
344.12	91.88
344.348	79.88
344.576	94.88
344.804	73.88
345.031	92.88
345.259	85.88
345.487	86.88
345.714	88.88
345.942	79.88
346.17	92.88
346.397	82.88
346.625	86.88
346.853	92.88
347.08	95.88
347.308	96.88
347.535	93.88
347.763	85.88
347.99	93.88
348.218	79.88
348.445	79.88
348.673	87.88
348.9	83.88
349.128	91.88
349.355	97.88
349.583	89.88
349.81	79.88
350.037	83.88
350.265	103.88
350.492	79.88
350.72	82.88
350.947	86.88
351.174	93.88
351.402	66.88
351.629	98.88
351.856	80.88
352.083	84.88
352.311	96.88
352.538	87.88
352.765	79.88
352.992	83.88
353.22	90.88
353.447	88.88
353.674	89.88
353.901	90.88
354.128	81.88
354.355	73.88
354.583	89.88
354.81	89.88
355.037	88.88
355.264	95.88
355.491	81.88
355.718	96.88
355.945	98.88
356.172	87.88
356.399	90.88
356.626	76.88
356.853	68.88
357.08	85.88
357.307	83.88
357.534	86.88
357.761	84.88
357.988	83.88
358.215	83.88
358.441	76.88
358.668	86.88
358.895	86.88
359.122	81.88
359.349	92.88
359.576	101.88
359.802	97.88
360.029	96.88
360.256	83.88
360.483	86.88
360.709	79.88
360.936	86.88
361.163	84.88
361.39	103.88
361.616	80.88
361.843	89.88
362.07	83.88
362.296	93.88
362.523	82.88
362.749	87.88
362.976	80.88
363.203	90.88
363.429	95.88
363.656	89.88
363.882	79.88
364.109	79.88
364.335	80.88
364.562	79.88
364.788	95.88
365.015	85.88
365.241	88.88
365.468	80.88
365.694	90.88
365.92	91.88
366.147	94.88
366.373	79.88
366.599	84.88
366.826	92.88
367.052	81.88
367.278	82.88
367.505	74.88
367.731	87.88
367.957	75.88
368.184	89.88
368.41	103.88
368.636	87.88
368.862	92.88
369.089	74.88
369.315	80.88
369.541	88.88
369.767	91.88
369.993	96.88
370.219	90.88
370.445	95.88
370.672	81.88
370.898	92.88
371.124	93.88
371.35	81.88
371.576	77.88
371.802	93.88
372.028	78.88
372.254	94.88
372.48	88.88
372.706	96.88
372.932	85.88
373.158	78.88
373.384	85.88
373.61	79.88
373.835	81.88
374.061	80.88
374.287	90.88
374.513	86.88
374.739	98.88
374.965	99.88
375.191	97.88
375.416	90.88
375.642	89.88
375.868	84.88
376.094	82.88
376.319	85.88
376.545	93.88
376.771	82.88
376.997	91.88
377.222	93.88
377.448	76.88
377.674	85.88
377.899	76.88
378.125	87.88
378.35	93.88
378.576	90.88
378.802	89.88
379.027	98.88
379.253	84.88
379.478	74.88
379.704	80.88
379.929	85.88
380.155	69.88
380.38	76.88
380.606	88.88
380.831	90.88
381.057	92.88
381.282	74.88
381.507	87.88
381.733	92.88
381.958	80.88
382.184	79.88
382.409	92.88
382.634	100.88
382.86	82.88
383.085	84.88
383.31	91.88
383.535	80.88
383.761	83.88
383.986	75.88
384.211	70.88
384.436	74.88
384.662	79.88
384.887	88.88
385.112	90.88
385.337	93.88
385.562	94.88
385.787	86.88
386.013	99.88
386.238	87.88
386.463	86.88
386.688	89.88
386.913	78.88
387.138	78.88
387.363	85.88
387.588	78.88
387.813	85.88
388.038	89.88
388.263	84.88
388.488	89.88
388.713	89.88
388.938	82.88
389.163	84.88
389.387	82.88
389.612	86.88
389.837	97.88
390.062	97.88
390.287	85.88
390.512	94.88
390.736	76.88
390.961	84.88
391.186	92.88
391.411	65.88
391.636	92.88
391.86	81.88
392.085	73.88
392.31	74.88
392.534	89.88
392.759	89.88
392.984	85.88
393.208	88.88
393.433	87.88
393.658	75.88
393.882	83.88
394.107	77.88
394.331	93.88
394.556	78.88
394.78	94.88
395.005	69.88
395.229	83.88
395.454	96.88
395.678	69.88
395.903	97.88
396.127	84.88
396.352	82.88
396.576	102.88
396.801	80.88
397.025	76.88
397.249	75.88
397.474	83.88
397.698	88.88
397.922	82.88
398.147	94.88
398.371	84.88
398.595	87.88
398.82	87.88
399.044	83.88
399.268	84.88
399.492	90.88
399.717	98.88
399.941	106.88
400.165	80.88
400.389	87.88
400.613	88.88
400.837	87.88
401.062	85.88
401.286	91.88
401.51	88.88
401.734	90.88
401.958	90.88
402.182	89.88
402.406	93.88
402.63	93.88
402.854	84.88
403.078	85.88
403.302	88.88
403.526	76.88
403.75	94.88
403.974	85.88
404.198	87.88
404.422	81.88
404.645	83.88
404.869	87.88
405.093	88.88
405.317	87.88
405.541	104.88
405.765	101.88
405.988	71.88
406.212	95.88
406.436	97.88
406.66	77.88
406.883	77.88
407.107	86.88
407.331	87.88
407.555	95.88
407.778	91.88
408.002	102.88
408.226	104.88
408.449	75.88
408.673	92.88
408.896	75.88
409.12	97.88
409.344	79.88
409.567	87.88
409.791	87.88
410.014	83.88
410.238	99.88
410.461	86.88
410.685	81.88
410.908	75.88
411.132	82.88
411.355	83.88
411.578	93.88
411.802	100.88
412.025	94.88
412.249	85.88
412.472	98.88
412.695	91.88
412.919	89.88
413.142	90.88
413.365	83.88
413.589	94.88
413.812	85.88
414.035	77.88
414.258	75.88
414.482	83.88
414.705	87.88
414.928	78.88
415.151	91.88
415.374	89.88
415.597	79.88
415.821	87.88
416.044	84.88
416.267	73.88
416.49	98.88
416.713	92.88
416.936	86.88
417.159	89.88
417.382	94.88
417.605	93.88
417.828	94.88
418.051	87.88
418.274	94.88
418.497	82.88
418.72	79.88
418.943	90.88
419.166	85.88
419.389	100.88
419.611	74.88
419.834	88.88
420.057	92.88
420.28	102.88
420.503	81.88
420.726	89.88
420.948	88.88
421.171	75.88
421.394	84.88
421.617	90.88
421.839	79.88
422.062	79.88
422.285	79.88
422.507	84.88
422.73	83.88
422.953	84.88
423.175	88.88
423.398	87.88
423.621	81.88
423.843	89.88
424.066	85.88
424.288	88.88
424.511	72.88
424.733	67.88
424.956	81.88
425.178	77.88
425.401	97.88
425.623	93.88
425.846	77.88
426.068	85.88
426.291	87.88
426.513	93.88
426.735	86.88
426.958	92.88
427.18	92.88
427.402	79.88
427.625	94.88
427.847	80.88
428.069	79.88
428.292	86.88
428.514	75.88
428.736	68.88
428.958	85.88
429.181	75.88
429.403	80.88
429.625	82.88
429.847	85.88
430.069	86.88
430.292	94.88
430.514	78.88
430.736	75.88
430.958	85.88
431.18	85.88
431.402	77.88
431.624	93.88
431.846	86.88
432.068	87.88
432.29	105.88
432.512	78.88
432.734	79.88
432.956	94.88
433.178	81.88
433.4	90.88
433.622	98.88
433.844	90.88
434.066	74.88
434.287	84.88
434.509	79.88
434.731	83.88
434.953	88.88
435.175	78.88
435.397	99.88
435.618	86.88
435.84	88.88
436.062	90.88
436.284	85.88
436.505	84.88
436.727	99.88
436.949	97.88
437.17	84.88
437.392	98.88
437.614	86.88
437.835	73.88
438.057	76.88
438.278	84.88
438.5	84.88
438.721	82.88
438.943	95.88
439.165	75.88
439.386	90.88
439.608	88.88
439.829	80.88
440.05	101.88
440.272	92.88
440.493	93.88
440.715	79.88
440.936	78.88
441.158	89.88
441.379	88.88
441.6	81.88
441.822	97.88
442.043	78.88
442.264	88.88
442.486	85.88
442.707	79.88
442.928	107.88
443.149	89.88
443.371	72.88
443.592	63.88
443.813	84.88
444.034	92.88
444.255	85.88
444.476	92.88
444.698	83.88
444.919	95.88
445.14	188.88
445.361	140.88
445.582	74.88
445.803	98.88
446.024	90.88
446.245	87.88
446.466	84.88
446.687	109.88
446.908	88.88
447.129	82.88
447.35	90.88
447.571	94.88
447.792	93.88
448.013	81.88
448.234	79.88
448.455	80.88
448.675	79.88
448.896	87.88
449.117	86.88
449.338	86.88
449.559	83.88
449.779	95.88
450	77.88
450.221	82.88
450.442	86.88
450.662	78.88
450.883	92.88
451.104	87.88
451.324	97.88
451.545	85.88
451.766	99.88
451.986	67.88
452.207	91.88
452.428	94.88
452.648	90.88
452.869	77.88
453.089	84.88
453.31	103.88
453.53	86.88
453.751	71.88
453.971	74.88
454.192	84.88
454.412	94.88
454.633	83.88
454.853	89.88
455.073	86.88
455.294	82.88
455.514	73.88
455.734	74.88
455.955	84.88
456.175	75.88
456.395	85.88
456.616	76.88
456.836	90.88
457.056	101.88
457.276	89.88
457.497	85.88
457.717	89.88
457.937	78.88
458.157	88.88
458.377	86.88
458.598	63.88
458.818	94.88
459.038	86.88
459.258	94.88
459.478	71.88
459.698	95.88
459.918	79.88
460.138	73.88
460.358	92.88
460.578	109.88
460.798	91.88
461.018	87.88
461.238	101.88
461.458	84.88
461.678	85.88
461.898	87.88
462.118	81.88
462.338	88.88
462.558	83.88
462.777	75.88
462.997	101.88
463.217	99.88
463.437	84.88
463.657	98.88
463.876	83.88
464.096	82.88
464.316	100.88
464.536	80.88
464.755	102.88
464.975	101.88
465.195	87.88
465.414	105.88
465.634	89.88
465.854	83.88
466.073	90.88
466.293	81.88
466.512	90.88
466.732	85.88
466.951	97.88
467.171	91.88
467.391	88.88
467.61	94.88
467.829	74.88
468.049	66.88
468.268	81.88
468.488	88.88
468.707	83.88
468.927	82.88
469.146	86.88
469.365	101.88
469.585	75.88
469.804	101.88
470.023	79.88
470.243	86.88
470.462	90.88
470.681	94.88
470.901	97.88
471.12	81.88
471.339	81.88
471.558	95.88
471.777	87.88
471.997	96.88
472.216	96.88
472.435	93.88
472.654	71.88
472.873	90.88
473.092	108.88
473.311	98.88
473.53	94.88
473.749	97.88
473.968	94.88
474.187	98.88
474.406	87.88
474.625	93.88
474.844	85.88
475.063	76.88
475.282	89.88
475.501	83.88
475.72	95.88
475.939	83.88
476.158	90.88
476.377	92.88
476.596	84.88
476.814	82.88
477.033	93.88
477.252	84.88
477.471	84.88
477.69	92.88
477.908	94.88
478.127	91.88
478.346	97.88
478.564	75.88
478.783	93.88
479.002	90.88
479.22	78.88
479.439	99.88
479.658	77.88
479.876	78.88
480.095	103.88
480.313	84.88
480.532	85.88
480.751	90.88
480.969	90.88
481.188	79.88
481.406	85.88
481.624	89.88
481.843	87.88
482.061	86.88
482.28	102.88
482.498	104.88
482.717	103.88
482.935	103.88
483.153	97.88
483.372	102.88
483.59	82.88
483.808	83.88
484.027	102.88
484.245	85.88
484.463	87.88
484.681	96.88
484.9	89.88
485.118	100.88
485.336	82.88
485.554	82.88
485.772	73.88
485.99	96.88
486.209	100.88
486.427	83.88
486.645	90.88
486.863	92.88
487.081	78.88
487.299	80.88
487.517	86.88
487.735	97.88
487.953	108.88
488.171	105.88
488.389	90.88
488.607	89.88
488.825	82.88
489.043	78.88
489.261	89.88
489.479	99.88
489.696	106.88
489.914	92.88
490.132	93.88
490.35	82.88
490.568	91.88
490.786	98.88
491.003	84.88
491.221	89.88
491.439	98.88
491.657	97.88
491.874	98.88
492.092	94.88
492.31	104.88
492.527	104.88
492.745	94.88
492.963	98.88
493.18	87.88
493.398	103.88
493.615	101.88
493.833	99.88
494.05	101.88
494.268	93.88
494.485	107.88
494.703	90.88
494.92	90.88
495.138	82.88
495.355	96.88
495.573	103.88
495.79	102.88
496.008	90.88
496.225	85.88
496.442	93.88
496.66	93.88
496.877	83.88
497.094	89.88
497.312	105.88
497.529	108.88
497.746	110.88
497.963	118.88
498.181	104.88
498.398	98.88
498.615	99.88
498.832	89.88
499.049	106.88
499.267	104.88
499.484	107.88
499.701	98.88
499.918	105.88
500.135	113.88
500.352	113.88
500.569	119.88
500.786	117.88
501.003	104.88
501.22	116.88
501.437	99.88
501.654	111.88
501.871	95.88
502.088	112.88
502.305	108.88
502.522	98.88
502.739	103.88
502.956	104.88
503.172	84.88
503.389	93.88
503.606	84.88
503.823	98.88
504.04	93.88
504.256	105.88
504.473	97.88
504.69	105.88
504.907	96.88
505.123	100.88
505.34	87.88
505.557	84.88
505.773	98.88
505.99	106.88
506.207	98.88
506.423	85.88
506.64	100.88
506.856	93.88
507.073	110.88
507.289	111.88
507.506	97.88
507.722	89.88
507.939	102.88
508.155	86.88
508.372	92.88
508.588	99.88
508.805	81.88
509.021	80.88
509.238	87.88
509.454	86.88
509.67	95.88
509.887	89.88
510.103	90.88
510.319	85.88
510.536	94.88
510.752	84.88
510.968	108.88
511.184	98.88
511.401	85.88
511.617	93.88
511.833	102.88
512.049	90.88
512.265	93.88
512.481	85.88
512.698	90.88
512.914	99.88
513.13	78.88
513.346	104.88
513.562	86.88
513.778	93.88
513.994	79.88
514.21	94.88
514.426	99.88
514.642	92.88
514.858	96.88
515.074	109.88
515.29	76.88
515.506	73.88
515.721	91.88
515.937	75.88
516.153	89.88
516.369	82.88
516.585	80.88
516.801	94.88
517.016	93.88
517.232	100.88
517.448	95.88
517.664	91.88
517.879	90.88
518.095	90.88
