Data from Ni(NO3)2@0.0625M.TitratingCurve.Agarose3%dH2O.NegLispCup.LampEnergy10.LIBS07252019_HRD10591_18-16-05-569.txt Node
Date: Thu Jul 25 18:16:05 EDT 2019
User: cochatt
Spectrometer: HR+D1059
Trigger mode: 1
Integration Time (sec): 1.000000E-1
Scans to average: 1
Electric dark correction enabled: true
Nonlinearity correction enabled: false
Boxcar width: 0
XAxis mode: Wavelengths
Number of Pixels in Spectrum: 2048
>>>>>Begin Spectral Data<<<<<
223.165	-11.38
223.4	-11.38
223.635	-11.38
223.869	-13.38
224.104	-23.38
224.338	-21.38
224.573	-24.38
224.808	-22.38
225.042	-3.38
225.277	-10.38
225.511	-2.38
225.746	15.62
225.98	16.62
226.215	7.62
226.449	11.62
226.683	27.62
226.918	22.62
227.152	30.62
227.387	35.62
227.621	54.62
227.856	48.62
228.09	39.62
228.324	41.62
228.559	43.62
228.793	65.62
229.027	85.62
229.262	105.62
229.496	97.62
229.73	115.62
229.964	103.62
230.199	98.62
230.433	123.62
230.667	124.62
230.901	114.62
231.136	118.62
231.37	113.62
231.604	115.62
231.838	133.62
232.072	114.62
232.306	116.62
232.541	125.62
232.775	137.62
233.009	122.62
233.243	134.62
233.477	122.62
233.711	136.62
233.945	133.62
234.179	150.62
234.413	135.62
234.647	133.62
234.881	122.62
235.115	139.62
235.349	128.62
235.583	137.62
235.817	117.62
236.051	128.62
236.285	132.62
236.519	127.62
236.753	140.62
236.987	136.62
237.221	146.62
237.455	139.62
237.689	147.62
237.922	129.62
238.156	143.62
238.39	135.62
238.624	148.62
238.858	136.62
239.091	150.62
239.325	143.62
239.559	152.62
239.793	145.62
240.027	140.62
240.26	144.62
240.494	152.62
240.728	155.62
240.961	145.62
241.195	147.62
241.429	155.62
241.662	163.62
241.896	165.62
242.13	150.62
242.363	148.62
242.597	163.62
242.83	160.62
243.064	151.62
243.298	164.62
243.531	173.62
243.765	178.62
243.998	176.62
244.232	179.62
244.465	184.62
244.699	168.62
244.932	160.62
245.166	185.62
245.399	179.62
245.633	181.62
245.866	188.62
246.099	195.62
246.333	164.62
246.566	186.62
246.8	177.62
247.033	195.62
247.266	190.62
247.5	187.62
247.733	165.62
247.966	182.62
248.2	201.62
248.433	182.62
248.666	184.62
248.899	198.62
249.133	192.62
249.366	190.62
249.599	188.62
249.832	195.62
250.066	203.62
250.299	202.62
250.532	212.62
250.765	201.62
250.998	214.62
251.231	209.62
251.465	194.62
251.698	194.62
251.931	215.62
252.164	223.62
252.397	198.62
252.63	197.62
252.863	227.62
253.096	213.62
253.329	216.62
253.562	205.62
253.795	229.62
254.028	221.62
254.261	223.62
254.494	223.62
254.727	234.62
254.96	232.62
255.193	210.62
255.426	206.62
255.659	207.62
255.892	242.62
256.124	223.62
256.357	218.62
256.59	227.62
256.823	207.62
257.056	236.62
257.289	242.62
257.521	234.62
257.754	235.62
257.987	244.62
258.22	242.62
258.452	224.62
258.685	237.62
258.918	231.62
259.151	228.62
259.383	252.62
259.616	225.62
259.849	248.62
260.081	262.62
260.314	250.62
260.547	257.62
260.779	263.62
261.012	234.62
261.244	248.62
261.477	248.62
261.71	250.62
261.942	257.62
262.175	262.62
262.407	260.62
262.64	264.62
262.872	272.62
263.105	263.62
263.337	266.62
263.57	276.62
263.802	266.62
264.035	253.62
264.267	272.62
264.499	283.62
264.732	266.62
264.964	271.62
265.197	265.62
265.429	290.62
265.661	275.62
265.894	284.62
266.126	299.62
266.358	280.62
266.591	288.62
266.823	285.62
267.055	296.62
267.287	291.62
267.52	292.62
267.752	290.62
267.984	267.62
268.216	277.62
268.448	289.62
268.681	278.62
268.913	281.62
269.145	297.62
269.377	299.62
269.609	285.62
269.841	292.62
270.073	285.62
270.306	292.62
270.538	295.62
270.77	274.62
271.002	302.62
271.234	298.62
271.466	309.62
271.698	304.62
271.93	304.62
272.162	294.62
272.394	319.62
272.626	302.62
272.858	314.62
273.09	320.62
273.322	307.62
273.553	300.62
273.785	312.62
274.017	292.62
274.249	317.62
274.481	323.62
274.713	325.62
274.945	309.62
275.176	318.62
275.408	323.62
275.64	328.62
275.872	303.62
276.104	329.62
276.335	342.62
276.567	331.62
276.799	306.62
277.031	326.62
277.262	342.62
277.494	328.62
277.726	329.62
277.957	333.62
278.189	340.62
278.421	336.62
278.652	336.62
278.884	333.62
279.115	339.62
279.347	346.62
279.579	331.62
279.81	332.62
280.042	347.62
280.273	346.62
280.505	338.62
280.736	339.62
280.968	339.62
281.199	350.62
281.431	334.62
281.662	332.62
281.894	366.62
282.125	353.62
282.356	357.62
282.588	348.62
282.819	361.62
283.051	353.62
283.282	357.62
283.513	344.62
283.745	370.62
283.976	388.62
284.207	353.62
284.439	365.62
284.67	366.62
284.901	378.62
285.132	370.62
285.364	371.62
285.595	375.62
285.826	370.62
286.057	373.62
286.288	361.62
286.52	382.62
286.751	374.62
286.982	376.62
287.213	396.62
287.444	366.62
287.675	388.62
287.906	404.62
288.138	380.62
288.369	375.62
288.6	393.62
288.831	377.62
289.062	375.62
289.293	404.62
289.524	389.62
289.755	396.62
289.986	403.62
290.217	401.62
290.448	411.62
290.679	396.62
290.91	397.62
291.141	395.62
291.371	409.62
291.602	394.62
291.833	385.62
292.064	416.62
292.295	407.62
292.526	402.62
292.757	406.62
292.987	402.62
293.218	408.62
293.449	414.62
293.68	411.62
293.91	403.62
294.141	407.62
294.372	392.62
294.603	415.62
294.833	396.62
295.064	403.62
295.295	418.62
295.525	415.62
295.756	411.62
295.987	411.62
296.217	425.62
296.448	401.62
296.679	424.62
296.909	410.62
297.14	397.62
297.37	421.62
297.601	461.62
297.831	451.62
298.062	448.62
298.292	442.62
298.523	466.62
298.753	443.62
298.984	444.62
299.214	439.62
299.445	442.62
299.675	438.62
299.905	436.62
300.136	443.62
300.366	471.62
300.597	445.62
300.827	454.62
301.057	462.62
301.288	456.62
301.518	472.62
301.748	486.62
301.979	461.62
302.209	467.62
302.439	476.62
302.669	459.62
302.9	451.62
303.13	446.62
303.36	448.62
303.59	439.62
303.82	474.62
304.051	448.62
304.281	448.62
304.511	451.62
304.741	466.62
304.971	456.62
305.201	483.62
305.431	472.62
305.661	450.62
305.891	445.62
306.121	441.62
306.352	441.62
306.582	451.62
306.812	472.62
307.042	446.62
307.272	441.62
307.502	443.62
307.731	427.62
307.961	435.62
308.191	441.62
308.421	438.62
308.651	434.62
308.881	438.62
309.111	448.62
309.341	439.62
309.571	461.62
309.8	440.62
310.03	447.62
310.26	442.62
310.49	459.62
310.72	441.62
310.949	418.62
311.179	431.62
311.409	462.62
311.639	455.62
311.868	472.62
312.098	440.62
312.328	454.62
312.557	473.62
312.787	465.62
313.017	452.62
313.246	460.62
313.476	460.62
313.706	454.62
313.935	484.62
314.165	491.62
314.394	472.62
314.624	467.62
314.853	472.62
315.083	486.62
315.312	465.62
315.542	471.62
315.771	473.62
316.001	457.62
316.23	476.62
316.46	470.62
316.689	449.62
316.919	446.62
317.148	472.62
317.377	452.62
317.607	482.62
317.836	449.62
318.065	459.62
318.295	463.62
318.524	480.62
318.753	449.62
318.983	472.62
319.212	457.62
319.441	462.62
319.67	456.62
319.9	457.62
320.129	437.62
320.358	460.62
320.587	453.62
320.816	466.62
321.046	451.62
321.275	463.62
321.504	476.62
321.733	460.62
321.962	456.62
322.191	485.62
322.42	494.62
322.649	454.62
322.878	475.62
323.108	487.62
323.337	477.62
323.566	490.62
323.795	496.62
324.024	489.62
324.253	480.62
324.482	480.62
324.71	476.62
324.939	474.62
325.168	483.62
325.397	476.62
325.626	492.62
325.855	500.62
326.084	489.62
326.313	510.62
326.542	525.62
326.77	535.62
326.999	528.62
327.228	528.62
327.457	517.62
327.686	503.62
327.914	516.62
328.143	522.62
328.372	497.62
328.6	515.62
328.829	518.62
329.058	486.62
329.287	525.62
329.515	530.62
329.744	531.62
329.972	501.62
330.201	505.62
330.43	504.62
330.658	521.62
330.887	513.62
331.115	544.62
331.344	529.62
331.572	525.62
331.801	540.62
332.03	565.62
332.258	578.62
332.486	588.62
332.715	606.62
332.943	625.62
333.172	673.62
333.4	677.62
333.629	689.62
333.857	667.62
334.085	701.62
334.314	676.62
334.542	655.62
334.771	636.62
334.999	628.62
335.227	635.62
335.455	635.62
335.684	655.62
335.912	632.62
336.14	611.62
336.369	612.62
336.597	617.62
336.825	620.62
337.053	621.62
337.281	617.62
337.51	588.62
337.738	565.62
337.966	582.62
338.194	561.62
338.422	582.62
338.65	568.62
338.878	563.62
339.106	555.62
339.334	544.62
339.562	557.62
339.79	542.62
340.018	522.62
340.246	503.62
340.474	530.62
340.702	528.62
340.93	548.62
341.158	540.62
341.386	539.62
341.614	538.62
341.842	545.62
342.07	512.62
342.298	522.62
342.526	533.62
342.754	542.62
342.981	524.62
343.209	537.62
343.437	576.62
343.665	607.62
343.893	646.62
344.12	682.62
344.348	627.62
344.576	597.62
344.804	572.62
345.031	551.62
345.259	570.62
345.487	549.62
345.714	537.62
345.942	553.62
346.17	505.62
346.397	557.62
346.625	542.62
346.853	523.62
347.08	524.62
347.308	532.62
347.535	546.62
347.763	549.62
347.99	556.62
348.218	528.62
348.445	534.62
348.673	518.62
348.9	529.62
349.128	520.62
349.355	526.62
349.583	522.62
349.81	513.62
350.037	513.62
350.265	504.62
350.492	501.62
350.72	488.62
350.947	518.62
351.174	496.62
351.402	513.62
351.629	518.62
351.856	528.62
352.083	508.62
352.311	491.62
352.538	504.62
352.765	517.62
352.992	500.62
353.22	476.62
353.447	491.62
353.674	498.62
353.901	488.62
354.128	487.62
354.355	492.62
354.583	512.62
354.81	498.62
355.037	512.62
355.264	518.62
355.491	515.62
355.718	502.62
355.945	486.62
356.172	518.62
356.399	510.62
356.626	512.62
356.853	533.62
357.08	508.62
357.307	493.62
357.534	496.62
357.761	504.62
357.988	493.62
358.215	524.62
358.441	524.62
358.668	520.62
358.895	501.62
359.122	479.62
359.349	493.62
359.576	492.62
359.802	513.62
360.029	508.62
360.256	526.62
360.483	510.62
360.709	523.62
360.936	495.62
361.163	489.62
361.39	500.62
361.616	487.62
361.843	500.62
362.07	506.62
362.296	506.62
362.523	517.62
362.749	506.62
362.976	490.62
363.203	503.62
363.429	496.62
363.656	496.62
363.882	508.62
364.109	501.62
364.335	491.62
364.562	482.62
364.788	467.62
365.015	465.62
365.241	503.62
365.468	507.62
365.694	486.62
365.92	498.62
366.147	485.62
366.373	500.62
366.599	516.62
366.826	488.62
367.052	483.62
367.278	499.62
367.505	482.62
367.731	505.62
367.957	516.62
368.184	502.62
368.41	499.62
368.636	508.62
368.862	514.62
369.089	502.62
369.315	529.62
369.541	511.62
369.767	522.62
369.993	537.62
370.219	528.62
370.445	541.62
370.672	538.62
370.898	542.62
371.124	541.62
371.35	538.62
371.576	546.62
371.802	549.62
372.028	550.62
372.254	551.62
372.48	545.62
372.706	579.62
372.932	564.62
373.158	562.62
373.384	549.62
373.61	551.62
373.835	534.62
374.061	550.62
374.287	548.62
374.513	556.62
374.739	573.62
374.965	612.62
375.191	596.62
375.416	604.62
375.642	587.62
375.868	570.62
376.094	600.62
376.319	567.62
376.545	565.62
376.771	550.62
376.997	547.62
377.222	566.62
377.448	548.62
377.674	547.62
377.899	555.62
378.125	536.62
378.35	544.62
378.576	554.62
378.802	556.62
379.027	556.62
379.253	535.62
379.478	536.62
379.704	560.62
379.929	535.62
380.155	561.62
380.38	557.62
380.606	552.62
380.831	540.62
381.057	558.62
381.282	540.62
381.507	562.62
381.733	541.62
381.958	543.62
382.184	550.62
382.409	562.62
382.634	587.62
382.86	586.62
383.085	568.62
383.31	588.62
383.535	624.62
383.761	621.62
383.986	603.62
384.211	620.62
384.436	658.62
384.662	657.62
384.887	663.62
385.112	667.62
385.337	648.62
385.562	659.62
385.787	655.62
386.013	652.62
386.238	651.62
386.463	656.62
386.688	652.62
386.913	644.62
387.138	635.62
387.363	636.62
387.588	643.62
387.813	639.62
388.038	632.62
388.263	669.62
388.488	650.62
388.713	658.62
388.938	640.62
389.163	650.62
389.387	630.62
389.612	620.62
389.837	638.62
390.062	618.62
390.287	655.62
390.512	620.62
390.736	653.62
390.961	631.62
391.186	673.62
391.411	690.62
391.636	717.62
391.86	741.62
392.085	772.62
392.31	713.62
392.534	700.62
392.759	728.62
392.984	700.62
393.208	704.62
393.433	685.62
393.658	692.62
393.882	695.62
394.107	690.62
394.331	700.62
394.556	686.62
394.78	713.62
395.005	730.62
395.229	706.62
395.454	733.62
395.678	733.62
395.903	760.62
396.127	710.62
396.352	694.62
396.576	690.62
396.801	686.62
397.025	699.62
397.249	713.62
397.474	726.62
397.698	706.62
397.922	713.62
398.147	727.62
398.371	738.62
398.595	772.62
398.82	792.62
399.044	848.62
399.268	933.62
399.492	1113.62
399.717	1254.62
399.941	1290.62
400.165	1093.62
400.389	968.62
400.613	908.62
400.837	832.62
401.062	797.62
401.286	805.62
401.51	805.62
401.734	804.62
401.958	807.62
402.182	821.62
402.406	869.62
402.63	851.62
402.854	872.62
403.078	881.62
403.302	918.62
403.526	959.62
403.75	960.62
403.974	989.62
404.198	980.62
404.422	982.62
404.645	968.62
404.869	956.62
405.093	925.62
405.317	938.62
405.541	914.62
405.765	914.62
405.988	898.62
406.212	886.62
406.436	887.62
406.66	902.62
406.883	943.62
407.107	991.62
407.331	1016.62
407.555	1058.62
407.778	1058.62
408.002	1021.62
408.226	1017.62
408.449	984.62
408.673	941.62
408.896	928.62
409.12	928.62
409.344	948.62
409.567	916.62
409.791	933.62
410.014	969.62
410.238	954.62
410.461	920.62
410.685	936.62
410.908	924.62
411.132	877.62
411.355	859.62
411.578	860.62
411.802	860.62
412.025	857.62
412.249	893.62
412.472	852.62
412.695	826.62
412.919	825.62
413.142	818.62
413.365	806.62
413.589	840.62
413.812	806.62
414.035	808.62
414.258	814.62
414.482	837.62
414.705	836.62
414.928	856.62
415.151	859.62
415.374	823.62
415.597	830.62
415.821	801.62
416.044	832.62
416.267	805.62
416.49	809.62
416.713	774.62
416.936	788.62
417.159	808.62
417.382	780.62
417.605	815.62
417.828	808.62
418.051	835.62
418.274	784.62
418.497	812.62
418.72	822.62
418.943	872.62
419.166	889.62
419.389	951.62
419.611	919.62
419.834	887.62
420.057	853.62
420.28	811.62
420.503	817.62
420.726	811.62
420.948	787.62
421.171	771.62
421.394	802.62
421.617	820.62
421.839	813.62
422.062	824.62
422.285	818.62
422.507	842.62
422.73	818.62
422.953	859.62
423.175	847.62
423.398	857.62
423.621	897.62
423.843	884.62
424.066	900.62
424.288	874.62
424.511	850.62
424.733	857.62
424.956	834.62
425.178	832.62
425.401	811.62
425.623	808.62
425.846	781.62
426.068	799.62
426.291	778.62
426.513	786.62
426.735	770.62
426.958	752.62
427.18	727.62
427.402	714.62
427.625	740.62
427.847	723.62
428.069	737.62
428.292	727.62
428.514	740.62
428.736	702.62
428.958	699.62
429.181	696.62
429.403	687.62
429.625	705.62
429.847	706.62
430.069	685.62
430.292	695.62
430.514	717.62
430.736	732.62
430.958	697.62
431.18	706.62
431.402	700.62
431.624	683.62
431.846	714.62
432.068	739.62
432.29	731.62
432.512	717.62
432.734	718.62
432.956	732.62
433.178	730.62
433.4	731.62
433.622	737.62
433.844	756.62
434.066	727.62
434.287	776.62
434.509	782.62
434.731	777.62
434.953	828.62
435.175	842.62
435.397	837.62
435.618	774.62
435.84	755.62
436.062	748.62
436.284	733.62
436.505	726.62
436.727	733.62
436.949	758.62
437.17	746.62
437.392	697.62
437.614	706.62
437.835	715.62
438.057	701.62
438.278	709.62
438.5	720.62
438.721	717.62
438.943	707.62
439.165	690.62
439.386	701.62
439.608	722.62
439.829	720.62
440.05	726.62
440.272	756.62
440.493	736.62
440.715	739.62
440.936	756.62
441.158	771.62
441.379	782.62
441.6	845.62
441.822	841.62
442.043	830.62
442.264	834.62
442.486	799.62
442.707	798.62
442.928	815.62
443.149	807.62
443.371	823.62
443.592	818.62
443.813	829.62
444.034	818.62
444.255	878.62
444.476	903.62
444.698	936.62
444.919	994.62
445.14	1060.62
445.361	930.62
445.582	842.62
445.803	780.62
446.024	795.62
446.245	771.62
446.466	753.62
446.687	746.62
446.908	744.62
447.129	727.62
447.35	702.62
447.571	705.62
447.792	680.62
448.013	697.62
448.234	691.62
448.455	692.62
448.675	674.62
448.896	684.62
449.117	673.62
449.338	653.62
449.559	669.62
449.779	672.62
450	676.62
450.221	658.62
450.442	684.62
450.662	688.62
450.883	712.62
451.104	709.62
451.324	705.62
451.545	694.62
451.766	680.62
451.986	716.62
452.207	685.62
452.428	678.62
452.648	677.62
452.869	636.62
453.089	665.62
453.31	672.62
453.53	674.62
453.751	658.62
453.971	672.62
454.192	654.62
454.412	649.62
454.633	669.62
454.853	680.62
455.073	632.62
455.294	652.62
455.514	625.62
455.734	629.62
455.955	606.62
456.175	628.62
456.395	632.62
456.616	610.62
456.836	624.62
457.056	632.62
457.276	629.62
457.497	628.62
457.717	634.62
457.937	651.62
458.157	631.62
458.377	641.62
458.598	646.62
458.818	666.62
459.038	688.62
459.258	724.62
459.478	758.62
459.698	781.62
459.918	808.62
460.138	806.62
460.358	873.62
460.578	843.62
460.798	868.62
461.018	882.62
461.238	889.62
461.458	869.62
461.678	880.62
461.898	882.62
462.118	889.62
462.338	907.62
462.558	938.62
462.777	961.62
462.997	1079.62
463.217	1197.62
463.437	1210.62
463.657	1126.62
463.876	1040.62
464.096	1041.62
464.316	1016.62
464.536	1041.62
464.755	1021.62
464.975	939.62
465.195	926.62
465.414	850.62
465.634	836.62
465.854	777.62
466.073	734.62
466.293	736.62
466.512	720.62
466.732	738.62
466.951	720.62
467.171	690.62
467.391	696.62
467.61	710.62
467.829	721.62
468.049	719.62
468.268	666.62
468.488	658.62
468.707	684.62
468.927	696.62
469.146	666.62
469.365	693.62
469.585	677.62
469.804	714.62
470.023	731.62
470.243	722.62
470.462	745.62
470.681	759.62
470.901	755.62
471.12	744.62
471.339	724.62
471.558	696.62
471.777	704.62
471.997	702.62
472.216	688.62
472.435	674.62
472.654	645.62
472.873	658.62
473.092	648.62
473.311	681.62
473.53	659.62
473.749	661.62
473.968	672.62
474.187	648.62
474.406	659.62
474.625	653.62
474.844	683.62
475.063	693.62
475.282	674.62
475.501	664.62
475.72	679.62
475.939	658.62
476.158	650.62
476.377	704.62
476.596	696.62
476.814	697.62
477.033	695.62
477.252	724.62
477.471	747.62
477.69	771.62
477.908	760.62
478.127	801.62
478.346	812.62
478.564	813.62
478.783	785.62
479.002	818.62
479.22	850.62
479.439	830.62
479.658	813.62
479.876	830.62
480.095	860.62
480.313	884.62
480.532	892.62
480.751	919.62
480.969	857.62
481.188	825.62
481.406	806.62
481.624	774.62
481.843	781.62
482.061	788.62
482.28	744.62
482.498	779.62
482.717	765.62
482.935	782.62
483.153	749.62
483.372	767.62
483.59	762.62
483.808	755.62
484.027	753.62
484.245	767.62
484.463	780.62
484.681	799.62
484.9	772.62
485.118	792.62
485.336	801.62
485.554	799.62
485.772	814.62
485.99	789.62
486.209	837.62
486.427	834.62
486.645	809.62
486.863	836.62
487.081	808.62
487.299	803.62
487.517	826.62
487.735	819.62
487.953	798.62
488.171	780.62
488.389	774.62
488.607	812.62
488.825	781.62
489.043	788.62
489.261	772.62
489.479	814.62
489.696	759.62
489.914	776.62
490.132	804.62
490.35	801.62
490.568	788.62
490.786	818.62
491.003	792.62
491.221	787.62
491.439	801.62
491.657	792.62
491.874	794.62
492.092	793.62
492.31	798.62
492.527	798.62
492.745	800.62
492.963	842.62
493.18	820.62
493.398	820.62
493.615	844.62
493.833	805.62
494.05	854.62
494.268	864.62
494.485	846.62
494.703	849.62
494.92	852.62
495.138	848.62
495.355	841.62
495.573	828.62
495.79	849.62
496.008	845.62
496.225	873.62
496.442	859.62
496.66	846.62
496.877	877.62
497.094	884.62
497.312	877.62
497.529	892.62
497.746	956.62
497.963	968.62
498.181	1017.62
498.398	1045.62
498.615	1077.62
498.832	1143.62
499.049	1256.62
499.267	1356.62
499.484	1514.62
499.701	1622.62
499.918	1853.62
500.135	2160.62
500.352	2525.62
500.569	2665.62
500.786	2605.62
501.003	2413.62
