Data from Ni(NO3)2Standard.Agarose3%.GreenCap.LampEnergy5.5.E.O_HRD10591_14-42-31-188.txt Node
Date: Mon Jul 22 14:42:31 EDT 2019
User: cochatt
Spectrometer: HR+D1059
Trigger mode: 1
Integration Time (sec): 1.000000E-1
Scans to average: 1
Electric dark correction enabled: true
Nonlinearity correction enabled: false
Boxcar width: 0
XAxis mode: Wavelengths
Number of Pixels in Spectrum: 2048
>>>>>Begin Spectral Data<<<<<
223.165	-16.38
223.4	-16.38
223.635	-16.38
223.869	-16.38
224.104	-20.38
224.338	-9.38
224.573	-28.38
224.808	-7.38
225.042	-3.38
225.277	-4.38
225.511	-3.38
225.746	3.62
225.98	5.62
226.215	18.62
226.449	-0.38
226.683	21.62
226.918	20.62
227.152	39.62
227.387	43.62
227.621	39.62
227.856	41.62
228.09	32.62
228.324	38.62
228.559	47.62
228.793	66.62
229.027	59.62
229.262	65.62
229.496	74.62
229.73	68.62
229.964	69.62
230.199	65.62
230.433	71.62
230.667	69.62
230.901	79.62
231.136	76.62
231.37	67.62
231.604	66.62
231.838	75.62
232.072	86.62
232.306	81.62
232.541	70.62
232.775	77.62
233.009	78.62
233.243	88.62
233.477	92.62
233.711	86.62
233.945	78.62
234.179	85.62
234.413	101.62
234.647	83.62
234.881	73.62
235.115	79.62
235.349	75.62
235.583	78.62
235.817	62.62
236.051	75.62
236.285	75.62
236.519	81.62
236.753	82.62
236.987	76.62
237.221	83.62
237.455	85.62
237.689	84.62
237.922	84.62
238.156	75.62
238.39	74.62
238.624	77.62
238.858	78.62
239.091	88.62
239.325	60.62
239.559	71.62
239.793	82.62
240.027	70.62
240.26	70.62
240.494	79.62
240.728	74.62
240.961	85.62
241.195	90.62
241.429	94.62
241.662	71.62
241.896	85.62
242.13	82.62
242.363	68.62
242.597	80.62
242.83	67.62
243.064	68.62
243.298	83.62
243.531	72.62
243.765	65.62
243.998	71.62
244.232	73.62
244.465	71.62
244.699	62.62
244.932	73.62
245.166	68.62
245.399	89.62
245.633	80.62
245.866	82.62
246.099	65.62
246.333	72.62
246.566	83.62
246.8	73.62
247.033	71.62
247.266	70.62
247.5	70.62
247.733	93.62
247.966	91.62
248.2	74.62
248.433	69.62
248.666	67.62
248.899	73.62
249.133	71.62
249.366	80.62
249.599	81.62
249.832	80.62
250.066	75.62
250.299	70.62
250.532	73.62
250.765	81.62
250.998	74.62
251.231	93.62
251.465	86.62
251.698	72.62
251.931	88.62
252.164	89.62
252.397	75.62
252.63	74.62
252.863	68.62
253.096	74.62
253.329	85.62
253.562	67.62
253.795	84.62
254.028	72.62
254.261	82.62
254.494	83.62
254.727	91.62
254.96	78.62
255.193	80.62
255.426	81.62
255.659	80.62
255.892	84.62
256.124	86.62
256.357	70.62
256.59	76.62
256.823	84.62
257.056	80.62
257.289	89.62
257.521	72.62
257.754	76.62
257.987	77.62
258.22	83.62
258.452	76.62
258.685	83.62
258.918	75.62
259.151	65.62
259.383	78.62
259.616	74.62
259.849	76.62
260.081	90.62
260.314	78.62
260.547	67.62
260.779	87.62
261.012	74.62
261.244	76.62
261.477	103.62
261.71	89.62
261.942	83.62
262.175	81.62
262.407	84.62
262.64	78.62
262.872	83.62
263.105	81.62
263.337	78.62
263.57	79.62
263.802	74.62
264.035	76.62
264.267	99.62
264.499	80.62
264.732	78.62
264.964	88.62
265.197	84.62
265.429	85.62
265.661	81.62
265.894	72.62
266.126	84.62
266.358	80.62
266.591	75.62
266.823	76.62
267.055	83.62
267.287	88.62
267.52	95.62
267.752	89.62
267.984	85.62
268.216	76.62
268.448	89.62
268.681	96.62
268.913	76.62
269.145	62.62
269.377	74.62
269.609	82.62
269.841	74.62
270.073	91.62
270.306	84.62
270.538	78.62
270.77	91.62
271.002	87.62
271.234	78.62
271.466	87.62
271.698	74.62
271.93	67.62
272.162	81.62
272.394	82.62
272.626	76.62
272.858	73.62
273.09	83.62
273.322	74.62
273.553	88.62
273.785	95.62
274.017	82.62
274.249	82.62
274.481	84.62
274.713	71.62
274.945	76.62
275.176	79.62
275.408	83.62
275.64	89.62
275.872	91.62
276.104	78.62
276.335	81.62
276.567	88.62
276.799	84.62
277.031	91.62
277.262	80.62
277.494	88.62
277.726	90.62
277.957	76.62
278.189	84.62
278.421	72.62
278.652	88.62
278.884	81.62
279.115	75.62
279.347	68.62
279.579	98.62
279.81	84.62
280.042	87.62
280.273	76.62
280.505	76.62
280.736	81.62
280.968	85.62
281.199	98.62
281.431	91.62
281.662	75.62
281.894	78.62
282.125	77.62
282.356	81.62
282.588	92.62
282.819	84.62
283.051	89.62
283.282	87.62
283.513	86.62
283.745	78.62
283.976	84.62
284.207	72.62
284.439	71.62
284.67	76.62
284.901	85.62
285.132	75.62
285.364	84.62
285.595	85.62
285.826	87.62
286.057	86.62
286.288	80.62
286.52	82.62
286.751	75.62
286.982	83.62
287.213	76.62
287.444	79.62
287.675	76.62
287.906	77.62
288.138	78.62
288.369	89.62
288.6	73.62
288.831	84.62
289.062	96.62
289.293	88.62
289.524	79.62
289.755	80.62
289.986	89.62
290.217	89.62
290.448	90.62
290.679	93.62
290.91	91.62
291.141	71.62
291.371	84.62
291.602	82.62
291.833	79.62
292.064	94.62
292.295	87.62
292.526	89.62
292.757	79.62
292.987	88.62
293.218	92.62
293.449	89.62
293.68	77.62
293.91	82.62
294.141	78.62
294.372	94.62
294.603	73.62
294.833	94.62
295.064	75.62
295.295	80.62
295.525	87.62
295.756	80.62
295.987	79.62
296.217	91.62
296.448	95.62
296.679	81.62
296.909	88.62
297.14	72.62
297.37	92.62
297.601	95.62
297.831	79.62
298.062	84.62
298.292	85.62
298.523	90.62
298.753	93.62
298.984	94.62
299.214	86.62
299.445	83.62
299.675	100.62
299.905	76.62
300.136	70.62
300.366	66.62
300.597	84.62
300.827	84.62
301.057	97.62
301.288	83.62
301.518	93.62
301.748	80.62
301.979	76.62
302.209	92.62
302.439	92.62
302.669	84.62
302.9	84.62
303.13	84.62
303.36	87.62
303.59	92.62
303.82	97.62
304.051	100.62
304.281	94.62
304.511	84.62
304.741	75.62
304.971	102.62
305.201	89.62
305.431	98.62
305.661	90.62
305.891	90.62
306.121	75.62
306.352	81.62
306.582	88.62
306.812	76.62
307.042	99.62
307.272	88.62
307.502	88.62
307.731	83.62
307.961	87.62
308.191	62.62
308.421	90.62
308.651	86.62
308.881	91.62
309.111	74.62
309.341	88.62
309.571	89.62
309.8	92.62
310.03	78.62
310.26	76.62
310.49	76.62
310.72	91.62
310.949	84.62
311.179	79.62
311.409	100.62
311.639	75.62
311.868	75.62
312.098	88.62
312.328	86.62
312.557	91.62
312.787	84.62
313.017	80.62
313.246	72.62
313.476	74.62
313.706	85.62
313.935	63.62
314.165	77.62
314.394	88.62
314.624	97.62
314.853	97.62
315.083	94.62
315.312	93.62
315.542	94.62
315.771	91.62
316.001	93.62
316.23	83.62
316.46	81.62
316.689	93.62
316.919	97.62
317.148	90.62
317.377	86.62
317.607	88.62
317.836	79.62
318.065	75.62
318.295	90.62
318.524	96.62
318.753	85.62
318.983	83.62
319.212	75.62
319.441	91.62
319.67	90.62
319.9	89.62
320.129	84.62
320.358	87.62
320.587	87.62
320.816	79.62
321.046	90.62
321.275	84.62
321.504	70.62
321.733	80.62
321.962	83.62
322.191	79.62
322.42	74.62
322.649	82.62
322.878	95.62
323.108	91.62
323.337	85.62
323.566	80.62
323.795	91.62
324.024	88.62
324.253	81.62
324.482	83.62
324.71	83.62
324.939	81.62
325.168	92.62
325.397	96.62
325.626	86.62
325.855	82.62
326.084	94.62
326.313	81.62
326.542	78.62
326.77	86.62
326.999	88.62
327.228	73.62
327.457	86.62
327.686	92.62
327.914	95.62
328.143	82.62
328.372	84.62
328.6	79.62
328.829	59.62
329.058	75.62
329.287	81.62
329.515	87.62
329.744	91.62
329.972	81.62
330.201	82.62
330.43	88.62
330.658	97.62
330.887	79.62
331.115	92.62
331.344	91.62
331.572	87.62
331.801	83.62
332.03	88.62
332.258	87.62
332.486	89.62
332.715	101.62
332.943	94.62
333.172	87.62
333.4	81.62
333.629	86.62
333.857	86.62
334.085	90.62
334.314	94.62
334.542	87.62
334.771	91.62
334.999	85.62
335.227	102.62
335.455	89.62
335.684	99.62
335.912	75.62
336.14	86.62
336.369	87.62
336.597	79.62
336.825	102.62
337.053	85.62
337.281	96.62
337.51	89.62
337.738	82.62
337.966	89.62
338.194	79.62
338.422	79.62
338.65	82.62
338.878	87.62
339.106	95.62
339.334	85.62
339.562	80.62
339.79	96.62
340.018	79.62
340.246	81.62
340.474	76.62
340.702	86.62
340.93	68.62
341.158	90.62
341.386	77.62
341.614	85.62
341.842	83.62
342.07	74.62
342.298	83.62
342.526	87.62
342.754	58.62
342.981	69.62
343.209	87.62
343.437	95.62
343.665	91.62
343.893	86.62
344.12	85.62
344.348	99.62
344.576	86.62
344.804	68.62
345.031	91.62
345.259	87.62
345.487	88.62
345.714	93.62
345.942	86.62
346.17	86.62
346.397	92.62
346.625	81.62
346.853	84.62
347.08	87.62
347.308	73.62
347.535	73.62
347.763	82.62
347.99	80.62
348.218	77.62
348.445	87.62
348.673	95.62
348.9	90.62
349.128	87.62
349.355	79.62
349.583	95.62
349.81	85.62
350.037	97.62
350.265	84.62
350.492	81.62
350.72	78.62
350.947	78.62
351.174	79.62
351.402	96.62
351.629	92.62
351.856	99.62
352.083	85.62
352.311	91.62
352.538	91.62
352.765	90.62
352.992	86.62
353.22	78.62
353.447	76.62
353.674	86.62
353.901	78.62
354.128	86.62
354.355	90.62
354.583	94.62
354.81	83.62
355.037	84.62
355.264	96.62
355.491	75.62
355.718	79.62
355.945	88.62
356.172	87.62
356.399	89.62
356.626	82.62
356.853	77.62
357.08	84.62
357.307	102.62
357.534	78.62
357.761	79.62
357.988	96.62
358.215	93.62
358.441	75.62
358.668	80.62
358.895	100.62
359.122	97.62
359.349	91.62
359.576	80.62
359.802	83.62
360.029	85.62
360.256	76.62
360.483	88.62
360.709	72.62
360.936	79.62
361.163	90.62
361.39	90.62
361.616	81.62
361.843	86.62
362.07	76.62
362.296	91.62
362.523	91.62
362.749	68.62
362.976	89.62
363.203	102.62
363.429	72.62
363.656	83.62
363.882	88.62
364.109	80.62
364.335	91.62
364.562	87.62
364.788	63.62
365.015	80.62
365.241	91.62
365.468	87.62
365.694	73.62
365.92	71.62
366.147	81.62
366.373	83.62
366.599	75.62
366.826	76.62
367.052	89.62
367.278	73.62
367.505	88.62
367.731	85.62
367.957	89.62
368.184	98.62
368.41	82.62
368.636	90.62
368.862	83.62
369.089	96.62
369.315	77.62
369.541	88.62
369.767	87.62
369.993	91.62
370.219	77.62
370.445	93.62
370.672	80.62
370.898	76.62
371.124	82.62
371.35	71.62
371.576	97.62
371.802	95.62
372.028	66.62
372.254	83.62
372.48	80.62
372.706	89.62
372.932	85.62
373.158	95.62
373.384	96.62
373.61	91.62
373.835	71.62
374.061	82.62
374.287	78.62
374.513	80.62
374.739	100.62
374.965	82.62
375.191	85.62
375.416	91.62
375.642	95.62
375.868	94.62
376.094	98.62
376.319	74.62
376.545	75.62
376.771	78.62
376.997	112.62
377.222	80.62
377.448	81.62
377.674	84.62
377.899	79.62
378.125	80.62
378.35	80.62
378.576	87.62
378.802	81.62
379.027	79.62
379.253	91.62
379.478	71.62
379.704	85.62
379.929	86.62
380.155	94.62
380.38	94.62
380.606	88.62
380.831	83.62
381.057	88.62
381.282	78.62
381.507	71.62
381.733	76.62
381.958	78.62
382.184	81.62
382.409	82.62
382.634	91.62
382.86	87.62
383.085	78.62
383.31	78.62
383.535	71.62
383.761	79.62
383.986	76.62
384.211	90.62
384.436	78.62
384.662	80.62
384.887	89.62
385.112	80.62
385.337	98.62
385.562	74.62
385.787	93.62
386.013	79.62
386.238	100.62
386.463	76.62
386.688	97.62
386.913	90.62
387.138	75.62
387.363	76.62
387.588	95.62
387.813	94.62
388.038	69.62
388.263	88.62
388.488	83.62
388.713	80.62
388.938	88.62
389.163	70.62
389.387	76.62
389.612	83.62
389.837	90.62
390.062	76.62
390.287	74.62
390.512	79.62
390.736	86.62
390.961	83.62
391.186	76.62
391.411	83.62
391.636	96.62
391.86	88.62
392.085	87.62
392.31	88.62
392.534	95.62
392.759	87.62
392.984	81.62
393.208	89.62
393.433	85.62
393.658	85.62
393.882	84.62
394.107	72.62
394.331	89.62
394.556	76.62
394.78	82.62
395.005	90.62
395.229	93.62
395.454	96.62
395.678	68.62
395.903	85.62
396.127	75.62
396.352	69.62
396.576	77.62
396.801	83.62
397.025	87.62
397.249	88.62
397.474	87.62
397.698	94.62
397.922	89.62
398.147	81.62
398.371	91.62
398.595	100.62
398.82	84.62
399.044	94.62
399.268	97.62
399.492	89.62
399.717	96.62
399.941	91.62
400.165	87.62
400.389	74.62
400.613	76.62
400.837	84.62
401.062	101.62
401.286	92.62
401.51	84.62
401.734	89.62
401.958	89.62
402.182	83.62
402.406	96.62
402.63	93.62
402.854	87.62
403.078	79.62
403.302	91.62
403.526	97.62
403.75	93.62
403.974	86.62
404.198	84.62
404.422	92.62
404.645	97.62
404.869	89.62
405.093	101.62
405.317	86.62
405.541	75.62
405.765	83.62
405.988	83.62
406.212	68.62
406.436	86.62
406.66	88.62
406.883	77.62
407.107	80.62
407.331	67.62
407.555	92.62
407.778	88.62
408.002	91.62
408.226	83.62
408.449	95.62
408.673	88.62
408.896	77.62
409.12	77.62
409.344	80.62
409.567	80.62
409.791	91.62
410.014	82.62
410.238	89.62
410.461	95.62
410.685	88.62
410.908	81.62
411.132	98.62
411.355	96.62
411.578	106.62
411.802	89.62
412.025	83.62
412.249	89.62
412.472	83.62
412.695	86.62
412.919	99.62
413.142	83.62
413.365	90.62
413.589	75.62
413.812	82.62
414.035	95.62
414.258	84.62
414.482	81.62
414.705	78.62
414.928	85.62
415.151	82.62
415.374	86.62
415.597	65.62
415.821	84.62
416.044	92.62
416.267	96.62
416.49	88.62
416.713	74.62
416.936	95.62
417.159	86.62
417.382	86.62
417.605	73.62
417.828	71.62
418.051	76.62
418.274	77.62
418.497	78.62
418.72	82.62
418.943	82.62
419.166	82.62
419.389	89.62
419.611	89.62
419.834	86.62
420.057	76.62
420.28	87.62
420.503	91.62
420.726	81.62
420.948	74.62
421.171	77.62
421.394	80.62
421.617	89.62
421.839	96.62
422.062	88.62
422.285	79.62
422.507	79.62
422.73	96.62
422.953	86.62
423.175	84.62
423.398	97.62
423.621	99.62
423.843	91.62
424.066	85.62
424.288	70.62
424.511	71.62
424.733	87.62
424.956	86.62
425.178	79.62
425.401	81.62
425.623	81.62
425.846	88.62
426.068	73.62
426.291	93.62
426.513	65.62
426.735	82.62
426.958	80.62
427.18	84.62
427.402	79.62
427.625	72.62
427.847	85.62
428.069	82.62
428.292	84.62
428.514	86.62
428.736	86.62
428.958	84.62
429.181	96.62
429.403	88.62
429.625	84.62
429.847	80.62
430.069	89.62
430.292	92.62
430.514	96.62
430.736	87.62
430.958	68.62
431.18	91.62
431.402	72.62
431.624	86.62
431.846	65.62
432.068	80.62
432.29	92.62
432.512	78.62
432.734	78.62
432.956	91.62
433.178	82.62
433.4	93.62
433.622	79.62
433.844	91.62
434.066	83.62
434.287	86.62
434.509	82.62
434.731	94.62
434.953	80.62
435.175	80.62
435.397	88.62
435.618	95.62
435.84	87.62
436.062	96.62
436.284	75.62
436.505	83.62
436.727	89.62
436.949	89.62
437.17	85.62
437.392	79.62
437.614	87.62
437.835	75.62
438.057	86.62
438.278	92.62
438.5	81.62
438.721	77.62
438.943	82.62
439.165	82.62
439.386	76.62
439.608	73.62
439.829	102.62
440.05	81.62
440.272	89.62
440.493	76.62
440.715	77.62
440.936	79.62
441.158	91.62
441.379	87.62
441.6	85.62
441.822	95.62
442.043	88.62
442.264	76.62
442.486	92.62
442.707	63.62
442.928	87.62
443.149	88.62
443.371	91.62
443.592	87.62
443.813	90.62
444.034	96.62
444.255	87.62
444.476	67.62
444.698	76.62
444.919	95.62
445.14	194.62
445.361	130.62
445.582	96.62
445.803	82.62
446.024	88.62
446.245	66.62
446.466	93.62
446.687	102.62
446.908	82.62
447.129	76.62
447.35	77.62
447.571	86.62
447.792	75.62
448.013	78.62
448.234	82.62
448.455	72.62
448.675	87.62
448.896	82.62
449.117	80.62
449.338	103.62
449.559	96.62
449.779	67.62
450	74.62
450.221	79.62
450.442	87.62
450.662	76.62
450.883	76.62
451.104	76.62
451.324	86.62
451.545	82.62
451.766	97.62
451.986	80.62
452.207	80.62
452.428	84.62
452.648	92.62
452.869	84.62
453.089	84.62
453.31	81.62
453.53	76.62
453.751	80.62
453.971	84.62
454.192	68.62
454.412	84.62
454.633	79.62
454.853	87.62
455.073	70.62
455.294	76.62
455.514	87.62
455.734	87.62
455.955	87.62
456.175	76.62
456.395	73.62
456.616	84.62
456.836	82.62
457.056	96.62
457.276	84.62
457.497	94.62
457.717	85.62
457.937	103.62
458.157	81.62
458.377	83.62
458.598	86.62
458.818	86.62
459.038	88.62
459.258	86.62
459.478	98.62
459.698	83.62
459.918	72.62
460.138	77.62
460.358	71.62
460.578	89.62
460.798	77.62
461.018	70.62
461.238	78.62
461.458	96.62
461.678	91.62
461.898	76.62
462.118	82.62
462.338	80.62
462.558	79.62
462.777	82.62
462.997	86.62
463.217	77.62
463.437	99.62
463.657	76.62
463.876	78.62
464.096	84.62
464.316	78.62
464.536	78.62
464.755	86.62
464.975	67.62
465.195	93.62
465.414	94.62
465.634	71.62
465.854	80.62
466.073	79.62
466.293	90.62
466.512	71.62
466.732	81.62
466.951	92.62
467.171	85.62
467.391	89.62
467.61	83.62
467.829	83.62
468.049	76.62
468.268	74.62
468.488	87.62
468.707	82.62
468.927	71.62
469.146	77.62
469.365	95.62
469.585	80.62
469.804	79.62
470.023	84.62
470.243	95.62
470.462	68.62
470.681	69.62
470.901	92.62
471.12	84.62
471.339	95.62
471.558	87.62
471.777	87.62
471.997	82.62
472.216	85.62
472.435	84.62
472.654	92.62
472.873	94.62
473.092	76.62
473.311	82.62
473.53	82.62
473.749	99.62
473.968	71.62
474.187	80.62
474.406	84.62
474.625	86.62
474.844	80.62
475.063	68.62
475.282	82.62
475.501	97.62
475.72	89.62
475.939	86.62
476.158	90.62
476.377	97.62
476.596	95.62
476.814	88.62
477.033	91.62
477.252	95.62
477.471	86.62
477.69	78.62
477.908	92.62
478.127	85.62
478.346	91.62
478.564	105.62
478.783	84.62
479.002	87.62
479.22	82.62
479.439	98.62
479.658	92.62
479.876	97.62
480.095	85.62
480.313	82.62
480.532	80.62
480.751	85.62
480.969	89.62
481.188	99.62
481.406	94.62
481.624	76.62
481.843	91.62
482.061	94.62
482.28	89.62
482.498	88.62
482.717	90.62
482.935	87.62
483.153	90.62
483.372	86.62
483.59	90.62
483.808	96.62
484.027	87.62
484.245	93.62
484.463	88.62
484.681	99.62
484.9	88.62
485.118	84.62
485.336	90.62
485.554	83.62
485.772	99.62
485.99	88.62
486.209	87.62
486.427	86.62
486.645	83.62
486.863	80.62
487.081	90.62
487.299	81.62
487.517	76.62
487.735	93.62
487.953	84.62
488.171	92.62
488.389	87.62
488.607	101.62
488.825	99.62
489.043	95.62
489.261	88.62
489.479	92.62
489.696	78.62
489.914	86.62
490.132	83.62
490.35	96.62
490.568	92.62
490.786	99.62
491.003	91.62
491.221	85.62
491.439	79.62
491.657	87.62
491.874	96.62
492.092	89.62
492.31	97.62
492.527	92.62
492.745	99.62
492.963	98.62
493.18	95.62
493.398	100.62
493.615	83.62
493.833	88.62
494.05	106.62
494.268	91.62
494.485	103.62
494.703	107.62
494.92	85.62
495.138	102.62
495.355	102.62
495.573	108.62
495.79	85.62
496.008	103.62
496.225	91.62
496.442	94.62
496.66	107.62
496.877	91.62
497.094	86.62
497.312	83.62
497.529	90.62
497.746	79.62
497.963	79.62
498.181	82.62
498.398	97.62
498.615	89.62
498.832	84.62
499.049	90.62
499.267	114.62
499.484	96.62
499.701	118.62
499.918	115.62
500.135	101.62
500.352	102.62
500.569	98.62
500.786	104.62
501.003	109.62
501.22	89.62
501.437	99.62
501.654	102.62
501.871	87.62
502.088	102.62
502.305	113.62
502.522	101.62
502.739	103.62
502.956	103.62
503.172	92.62
503.389	89.62
503.606	74.62
503.823	103.62
504.04	87.62
504.256	84.62
504.473	96.62
504.69	91.62
504.907	97.62
505.123	96.62
505.34	88.62
505.557	102.62
505.773	90.62
505.99	84.62
506.207	91.62
506.423	88.62
506.64	83.62
506.856	89.62
507.073	97.62
507.289	98.62
507.506	87.62
507.722	88.62
507.939	81.62
508.155	96.62
508.372	95.62
508.588	86.62
508.805	90.62
509.021	94.62
509.238	91.62
509.454	97.62
509.67	94.62
509.887	94.62
510.103	79.62
510.319	86.62
510.536	85.62
510.752	80.62
510.968	72.62
511.184	101.62
511.401	85.62
511.617	87.62
511.833	87.62
512.049	85.62
512.265	94.62
512.481	78.62
512.698	76.62
512.914	78.62
513.13	94.62
513.346	98.62
513.562	87.62
513.778	95.62
513.994	88.62
514.21	96.62
514.426	74.62
514.642	91.62
514.858	86.62
515.074	94.62
515.29	89.62
515.506	94.62
515.721	80.62
515.937	86.62
516.153	92.62
516.369	82.62
516.585	86.62
516.801	97.62
517.016	94.62
517.232	84.62
517.448	77.62
517.664	80.62
517.879	83.62
518.095	92.62
518.311	78.62
518.527	87.62
518.742	82.62
