Data from Ni(NO3)2Standard.Agarose3%.GreenCap.LampEnergy5.5.E.O_HRD10591_14-42-25-188.txt Node
Date: Mon Jul 22 14:42:25 EDT 2019
User: cochatt
Spectrometer: HR+D1059
Trigger mode: 1
Integration Time (sec): 1.000000E-1
Scans to average: 1
Electric dark correction enabled: true
Nonlinearity correction enabled: false
Boxcar width: 0
XAxis mode: Wavelengths
Number of Pixels in Spectrum: 2048
>>>>>Begin Spectral Data<<<<<
223.165	-4.5
223.4	-4.5
223.635	-4.5
223.869	-12.5
224.104	-8.5
224.338	-25.5
224.573	-16.5
224.808	1.5
225.042	-10.5
225.277	-6.5
225.511	5.5
225.746	-5.5
225.98	4.5
226.215	15.5
226.449	14.5
226.683	12.5
226.918	3.5
227.152	32.5
227.387	23.5
227.621	24.5
227.856	47.5
228.09	58.5
228.324	59.5
228.559	60.5
228.793	54.5
229.027	71.5
229.262	57.5
229.496	59.5
229.73	81.5
229.964	59.5
230.199	53.5
230.433	71.5
230.667	71.5
230.901	81.5
231.136	82.5
231.37	71.5
231.604	79.5
231.838	83.5
232.072	91.5
232.306	86.5
232.541	76.5
232.775	72.5
233.009	73.5
233.243	84.5
233.477	66.5
233.711	70.5
233.945	68.5
234.179	79.5
234.413	91.5
234.647	81.5
234.881	79.5
235.115	81.5
235.349	71.5
235.583	74.5
235.817	80.5
236.051	71.5
236.285	80.5
236.519	74.5
236.753	78.5
236.987	66.5
237.221	74.5
237.455	78.5
237.689	89.5
237.922	70.5
238.156	57.5
238.39	73.5
238.624	67.5
238.858	63.5
239.091	64.5
239.325	80.5
239.559	85.5
239.793	62.5
240.027	66.5
240.26	64.5
240.494	78.5
240.728	79.5
240.961	70.5
241.195	73.5
241.429	66.5
241.662	80.5
241.896	76.5
242.13	80.5
242.363	86.5
242.597	75.5
242.83	66.5
243.064	72.5
243.298	61.5
243.531	83.5
243.765	84.5
243.998	74.5
244.232	89.5
244.465	78.5
244.699	78.5
244.932	88.5
245.166	69.5
245.399	78.5
245.633	81.5
245.866	65.5
246.099	73.5
246.333	68.5
246.566	58.5
246.8	67.5
247.033	86.5
247.266	71.5
247.5	85.5
247.733	82.5
247.966	74.5
248.2	76.5
248.433	62.5
248.666	79.5
248.899	77.5
249.133	74.5
249.366	74.5
249.599	79.5
249.832	77.5
250.066	85.5
250.299	88.5
250.532	76.5
250.765	78.5
250.998	68.5
251.231	77.5
251.465	58.5
251.698	68.5
251.931	76.5
252.164	83.5
252.397	81.5
252.63	84.5
252.863	80.5
253.096	67.5
253.329	72.5
253.562	75.5
253.795	68.5
254.028	92.5
254.261	81.5
254.494	82.5
254.727	72.5
254.96	73.5
255.193	86.5
255.426	78.5
255.659	82.5
255.892	72.5
256.124	84.5
256.357	94.5
256.59	68.5
256.823	66.5
257.056	86.5
257.289	84.5
257.521	69.5
257.754	73.5
257.987	68.5
258.22	83.5
258.452	75.5
258.685	78.5
258.918	72.5
259.151	86.5
259.383	78.5
259.616	74.5
259.849	73.5
260.081	85.5
260.314	74.5
260.547	81.5
260.779	83.5
261.012	82.5
261.244	83.5
261.477	91.5
261.71	80.5
261.942	79.5
262.175	87.5
262.407	85.5
262.64	72.5
262.872	89.5
263.105	70.5
263.337	83.5
263.57	72.5
263.802	64.5
264.035	89.5
264.267	84.5
264.499	76.5
264.732	84.5
264.964	74.5
265.197	64.5
265.429	76.5
265.661	80.5
265.894	87.5
266.126	88.5
266.358	74.5
266.591	76.5
266.823	82.5
267.055	81.5
267.287	89.5
267.52	87.5
267.752	84.5
267.984	74.5
268.216	73.5
268.448	98.5
268.681	74.5
268.913	75.5
269.145	78.5
269.377	80.5
269.609	73.5
269.841	80.5
270.073	90.5
270.306	82.5
270.538	85.5
270.77	86.5
271.002	80.5
271.234	82.5
271.466	98.5
271.698	100.5
271.93	79.5
272.162	73.5
272.394	91.5
272.626	71.5
272.858	87.5
273.09	86.5
273.322	82.5
273.553	75.5
273.785	87.5
274.017	104.5
274.249	76.5
274.481	76.5
274.713	82.5
274.945	76.5
275.176	79.5
275.408	83.5
275.64	76.5
275.872	76.5
276.104	86.5
276.335	86.5
276.567	88.5
276.799	97.5
277.031	94.5
277.262	82.5
277.494	88.5
277.726	87.5
277.957	70.5
278.189	94.5
278.421	71.5
278.652	75.5
278.884	71.5
279.115	84.5
279.347	82.5
279.579	90.5
279.81	82.5
280.042	73.5
280.273	85.5
280.505	87.5
280.736	81.5
280.968	82.5
281.199	79.5
281.431	87.5
281.662	84.5
281.894	83.5
282.125	78.5
282.356	97.5
282.588	72.5
282.819	88.5
283.051	73.5
283.282	82.5
283.513	80.5
283.745	96.5
283.976	75.5
284.207	75.5
284.439	92.5
284.67	82.5
284.901	57.5
285.132	69.5
285.364	94.5
285.595	74.5
285.826	86.5
286.057	92.5
286.288	87.5
286.52	94.5
286.751	82.5
286.982	82.5
287.213	76.5
287.444	80.5
287.675	84.5
287.906	92.5
288.138	83.5
288.369	87.5
288.6	76.5
288.831	92.5
289.062	95.5
289.293	76.5
289.524	88.5
289.755	91.5
289.986	74.5
290.217	79.5
290.448	95.5
290.679	84.5
290.91	91.5
291.141	91.5
291.371	81.5
291.602	84.5
291.833	83.5
292.064	68.5
292.295	92.5
292.526	84.5
292.757	82.5
292.987	82.5
293.218	82.5
293.449	82.5
293.68	71.5
293.91	79.5
294.141	97.5
294.372	76.5
294.603	76.5
294.833	73.5
295.064	77.5
295.295	83.5
295.525	96.5
295.756	79.5
295.987	83.5
296.217	91.5
296.448	82.5
296.679	88.5
296.909	78.5
297.14	78.5
297.37	87.5
297.601	83.5
297.831	88.5
298.062	76.5
298.292	69.5
298.523	76.5
298.753	80.5
298.984	85.5
299.214	76.5
299.445	71.5
299.675	84.5
299.905	86.5
300.136	78.5
300.366	85.5
300.597	91.5
300.827	71.5
301.057	72.5
301.288	95.5
301.518	80.5
301.748	81.5
301.979	84.5
302.209	92.5
302.439	92.5
302.669	101.5
302.9	82.5
303.13	87.5
303.36	91.5
303.59	96.5
303.82	79.5
304.051	92.5
304.281	93.5
304.511	97.5
304.741	87.5
304.971	80.5
305.201	90.5
305.431	88.5
305.661	83.5
305.891	83.5
306.121	67.5
306.352	96.5
306.582	78.5
306.812	86.5
307.042	62.5
307.272	82.5
307.502	84.5
307.731	82.5
307.961	89.5
308.191	89.5
308.421	67.5
308.651	73.5
308.881	78.5
309.111	99.5
309.341	72.5
309.571	83.5
309.8	77.5
310.03	89.5
310.26	91.5
310.49	76.5
310.72	87.5
310.949	78.5
311.179	80.5
311.409	86.5
311.639	85.5
311.868	91.5
312.098	89.5
312.328	86.5
312.557	69.5
312.787	72.5
313.017	99.5
313.246	80.5
313.476	71.5
313.706	84.5
313.935	88.5
314.165	89.5
314.394	93.5
314.624	80.5
314.853	90.5
315.083	95.5
315.312	85.5
315.542	92.5
315.771	86.5
316.001	79.5
316.23	85.5
316.46	93.5
316.689	89.5
316.919	87.5
317.148	82.5
317.377	91.5
317.607	80.5
317.836	82.5
318.065	94.5
318.295	87.5
318.524	85.5
318.753	78.5
318.983	91.5
319.212	92.5
319.441	87.5
319.67	84.5
319.9	73.5
320.129	86.5
320.358	95.5
320.587	90.5
320.816	93.5
321.046	79.5
321.275	78.5
321.504	65.5
321.733	80.5
321.962	84.5
322.191	87.5
322.42	76.5
322.649	84.5
322.878	81.5
323.108	84.5
323.337	88.5
323.566	78.5
323.795	82.5
324.024	88.5
324.253	82.5
324.482	84.5
324.71	100.5
324.939	95.5
325.168	87.5
325.397	89.5
325.626	78.5
325.855	76.5
326.084	75.5
326.313	83.5
326.542	91.5
326.77	86.5
326.999	80.5
327.228	79.5
327.457	84.5
327.686	93.5
327.914	83.5
328.143	79.5
328.372	77.5
328.6	90.5
328.829	80.5
329.058	90.5
329.287	82.5
329.515	76.5
329.744	102.5
329.972	76.5
330.201	95.5
330.43	87.5
330.658	80.5
330.887	104.5
331.115	80.5
331.344	75.5
331.572	97.5
331.801	82.5
332.03	101.5
332.258	87.5
332.486	88.5
332.715	89.5
332.943	91.5
333.172	74.5
333.4	82.5
333.629	78.5
333.857	81.5
334.085	90.5
334.314	80.5
334.542	93.5
334.771	73.5
334.999	83.5
335.227	83.5
335.455	84.5
335.684	92.5
335.912	95.5
336.14	78.5
336.369	95.5
336.597	99.5
336.825	96.5
337.053	100.5
337.281	71.5
337.51	84.5
337.738	93.5
337.966	76.5
338.194	78.5
338.422	86.5
338.65	86.5
338.878	103.5
339.106	76.5
339.334	101.5
339.562	81.5
339.79	91.5
340.018	87.5
340.246	73.5
340.474	83.5
340.702	78.5
340.93	88.5
341.158	84.5
341.386	74.5
341.614	102.5
341.842	91.5
342.07	81.5
342.298	81.5
342.526	78.5
342.754	87.5
342.981	66.5
343.209	76.5
343.437	78.5
343.665	97.5
343.893	90.5
344.12	101.5
344.348	72.5
344.576	80.5
344.804	86.5
345.031	74.5
345.259	90.5
345.487	81.5
345.714	81.5
345.942	88.5
346.17	69.5
346.397	77.5
346.625	95.5
346.853	78.5
347.08	69.5
347.308	94.5
347.535	75.5
347.763	82.5
347.99	82.5
348.218	85.5
348.445	81.5
348.673	90.5
348.9	94.5
349.128	91.5
349.355	88.5
349.583	88.5
349.81	86.5
350.037	87.5
350.265	83.5
350.492	88.5
350.72	97.5
350.947	90.5
351.174	73.5
351.402	77.5
351.629	85.5
351.856	71.5
352.083	96.5
352.311	86.5
352.538	82.5
352.765	81.5
352.992	84.5
353.22	84.5
353.447	77.5
353.674	90.5
353.901	77.5
354.128	94.5
354.355	87.5
354.583	88.5
354.81	91.5
355.037	91.5
355.264	84.5
355.491	76.5
355.718	83.5
355.945	86.5
356.172	69.5
356.399	79.5
356.626	70.5
356.853	59.5
357.08	83.5
357.307	99.5
357.534	80.5
357.761	77.5
357.988	93.5
358.215	96.5
358.441	86.5
358.668	83.5
358.895	77.5
359.122	84.5
359.349	77.5
359.576	76.5
359.802	79.5
360.029	66.5
360.256	79.5
360.483	97.5
360.709	98.5
360.936	83.5
361.163	72.5
361.39	87.5
361.616	79.5
361.843	72.5
362.07	90.5
362.296	83.5
362.523	82.5
362.749	89.5
362.976	77.5
363.203	84.5
363.429	74.5
363.656	79.5
363.882	64.5
364.109	90.5
364.335	84.5
364.562	92.5
364.788	85.5
365.015	79.5
365.241	83.5
365.468	90.5
365.694	82.5
365.92	67.5
366.147	73.5
366.373	66.5
366.599	74.5
366.826	102.5
367.052	90.5
367.278	67.5
367.505	74.5
367.731	77.5
367.957	83.5
368.184	91.5
368.41	95.5
368.636	90.5
368.862	80.5
369.089	91.5
369.315	76.5
369.541	92.5
369.767	88.5
369.993	86.5
370.219	91.5
370.445	68.5
370.672	86.5
370.898	78.5
371.124	86.5
371.35	80.5
371.576	90.5
371.802	70.5
372.028	75.5
372.254	79.5
372.48	86.5
372.706	70.5
372.932	92.5
373.158	93.5
373.384	92.5
373.61	87.5
373.835	85.5
374.061	90.5
374.287	89.5
374.513	73.5
374.739	93.5
374.965	86.5
375.191	77.5
375.416	69.5
375.642	98.5
375.868	76.5
376.094	75.5
376.319	76.5
376.545	81.5
376.771	82.5
376.997	79.5
377.222	79.5
377.448	89.5
377.674	78.5
377.899	73.5
378.125	86.5
378.35	84.5
378.576	89.5
378.802	78.5
379.027	86.5
379.253	91.5
379.478	97.5
379.704	85.5
379.929	69.5
380.155	75.5
380.38	87.5
380.606	86.5
380.831	99.5
381.057	92.5
381.282	72.5
381.507	86.5
381.733	76.5
381.958	72.5
382.184	86.5
382.409	80.5
382.634	84.5
382.86	73.5
383.085	80.5
383.31	84.5
383.535	87.5
383.761	58.5
383.986	77.5
384.211	82.5
384.436	79.5
384.662	87.5
384.887	76.5
385.112	76.5
385.337	72.5
385.562	85.5
385.787	79.5
386.013	89.5
386.238	80.5
386.463	88.5
386.688	91.5
386.913	68.5
387.138	83.5
387.363	86.5
387.588	83.5
387.813	83.5
388.038	76.5
388.263	88.5
388.488	89.5
388.713	92.5
388.938	84.5
389.163	90.5
389.387	88.5
389.612	74.5
389.837	77.5
390.062	83.5
390.287	83.5
390.512	81.5
390.736	99.5
390.961	71.5
391.186	94.5
391.411	78.5
391.636	96.5
391.86	87.5
392.085	75.5
392.31	95.5
392.534	79.5
392.759	79.5
392.984	89.5
393.208	81.5
393.433	81.5
393.658	73.5
393.882	76.5
394.107	89.5
394.331	67.5
394.556	100.5
394.78	78.5
395.005	74.5
395.229	80.5
395.454	80.5
395.678	70.5
395.903	91.5
396.127	87.5
396.352	83.5
396.576	92.5
396.801	72.5
397.025	76.5
397.249	84.5
397.474	83.5
397.698	92.5
397.922	89.5
398.147	88.5
398.371	88.5
398.595	87.5
398.82	74.5
399.044	64.5
399.268	78.5
399.492	91.5
399.717	91.5
399.941	85.5
400.165	94.5
400.389	75.5
400.613	86.5
400.837	99.5
401.062	84.5
401.286	90.5
401.51	72.5
401.734	67.5
401.958	77.5
402.182	84.5
402.406	88.5
402.63	66.5
402.854	82.5
403.078	81.5
403.302	81.5
403.526	86.5
403.75	84.5
403.974	78.5
404.198	86.5
404.422	83.5
404.645	89.5
404.869	90.5
405.093	86.5
405.317	80.5
405.541	71.5
405.765	74.5
405.988	66.5
406.212	91.5
406.436	89.5
406.66	69.5
406.883	81.5
407.107	79.5
407.331	88.5
407.555	86.5
407.778	80.5
408.002	92.5
408.226	74.5
408.449	69.5
408.673	82.5
408.896	67.5
409.12	93.5
409.344	85.5
409.567	80.5
409.791	82.5
410.014	67.5
410.238	84.5
410.461	86.5
410.685	80.5
410.908	95.5
411.132	91.5
411.355	83.5
411.578	94.5
411.802	78.5
412.025	87.5
412.249	84.5
412.472	79.5
412.695	80.5
412.919	83.5
413.142	88.5
413.365	88.5
413.589	90.5
413.812	80.5
414.035	95.5
414.258	71.5
414.482	77.5
414.705	84.5
414.928	80.5
415.151	73.5
415.374	87.5
415.597	85.5
415.821	86.5
416.044	84.5
416.267	74.5
416.49	75.5
416.713	88.5
416.936	88.5
417.159	78.5
417.382	66.5
417.605	79.5
417.828	91.5
418.051	81.5
418.274	74.5
418.497	77.5
418.72	99.5
418.943	82.5
419.166	82.5
419.389	83.5
419.611	84.5
419.834	89.5
420.057	71.5
420.28	69.5
420.503	74.5
420.726	81.5
420.948	84.5
421.171	78.5
421.394	82.5
421.617	84.5
421.839	73.5
422.062	80.5
422.285	83.5
422.507	79.5
422.73	82.5
422.953	81.5
423.175	80.5
423.398	91.5
423.621	83.5
423.843	76.5
424.066	62.5
424.288	83.5
424.511	81.5
424.733	83.5
424.956	84.5
425.178	81.5
425.401	82.5
425.623	74.5
425.846	83.5
426.068	78.5
426.291	70.5
426.513	75.5
426.735	89.5
426.958	80.5
427.18	78.5
427.402	82.5
427.625	89.5
427.847	77.5
428.069	78.5
428.292	80.5
428.514	83.5
428.736	77.5
428.958	65.5
429.181	73.5
429.403	69.5
429.625	71.5
429.847	86.5
430.069	84.5
430.292	88.5
430.514	86.5
430.736	90.5
430.958	88.5
431.18	80.5
431.402	67.5
431.624	67.5
431.846	80.5
432.068	81.5
432.29	78.5
432.512	94.5
432.734	74.5
432.956	76.5
433.178	85.5
433.4	71.5
433.622	87.5
433.844	78.5
434.066	83.5
434.287	90.5
434.509	96.5
434.731	86.5
434.953	75.5
435.175	86.5
435.397	77.5
435.618	88.5
435.84	81.5
436.062	85.5
436.284	75.5
436.505	78.5
436.727	81.5
436.949	82.5
437.17	89.5
437.392	90.5
437.614	72.5
437.835	62.5
438.057	76.5
438.278	83.5
438.5	90.5
438.721	86.5
438.943	79.5
439.165	91.5
439.386	73.5
439.608	69.5
439.829	72.5
440.05	96.5
440.272	85.5
440.493	83.5
440.715	80.5
440.936	81.5
441.158	79.5
441.379	83.5
441.6	101.5
441.822	80.5
442.043	86.5
442.264	95.5
442.486	89.5
442.707	100.5
442.928	68.5
443.149	84.5
443.371	76.5
443.592	73.5
443.813	94.5
444.034	81.5
444.255	83.5
444.476	86.5
444.698	90.5
444.919	85.5
445.14	208.5
445.361	148.5
445.582	98.5
445.803	78.5
446.024	78.5
446.245	74.5
446.466	97.5
446.687	84.5
446.908	86.5
447.129	94.5
447.35	78.5
447.571	85.5
447.792	83.5
448.013	86.5
448.234	86.5
448.455	76.5
448.675	81.5
448.896	73.5
449.117	79.5
449.338	81.5
449.559	77.5
449.779	87.5
450	78.5
450.221	74.5
450.442	75.5
450.662	82.5
450.883	70.5
451.104	89.5
451.324	73.5
451.545	91.5
451.766	92.5
451.986	82.5
452.207	83.5
452.428	64.5
452.648	76.5
452.869	60.5
453.089	82.5
453.31	66.5
453.53	74.5
453.751	91.5
453.971	89.5
454.192	75.5
454.412	73.5
454.633	81.5
454.853	72.5
455.073	72.5
455.294	67.5
455.514	86.5
455.734	86.5
455.955	88.5
456.175	85.5
456.395	75.5
456.616	78.5
456.836	78.5
457.056	72.5
457.276	81.5
457.497	80.5
457.717	76.5
457.937	86.5
458.157	76.5
458.377	91.5
458.598	73.5
458.818	79.5
459.038	82.5
459.258	82.5
459.478	84.5
459.698	72.5
459.918	90.5
460.138	84.5
460.358	80.5
460.578	84.5
460.798	84.5
461.018	86.5
461.238	93.5
461.458	80.5
461.678	95.5
461.898	85.5
462.118	92.5
462.338	82.5
462.558	92.5
462.777	59.5
462.997	95.5
463.217	81.5
463.437	83.5
463.657	89.5
463.876	83.5
464.096	86.5
464.316	73.5
464.536	83.5
464.755	83.5
464.975	79.5
465.195	91.5
465.414	90.5
465.634	82.5
465.854	84.5
466.073	84.5
466.293	82.5
466.512	84.5
466.732	78.5
466.951	75.5
467.171	70.5
467.391	82.5
467.61	82.5
467.829	76.5
468.049	78.5
468.268	70.5
468.488	83.5
468.707	80.5
468.927	98.5
469.146	89.5
469.365	86.5
469.585	78.5
469.804	100.5
470.023	84.5
470.243	92.5
470.462	86.5
470.681	91.5
470.901	82.5
471.12	73.5
471.339	84.5
471.558	82.5
471.777	88.5
471.997	85.5
472.216	93.5
472.435	87.5
472.654	65.5
472.873	82.5
473.092	68.5
473.311	80.5
473.53	78.5
473.749	74.5
473.968	76.5
474.187	90.5
474.406	80.5
474.625	78.5
474.844	87.5
475.063	104.5
475.282	91.5
475.501	91.5
475.72	93.5
475.939	82.5
476.158	66.5
476.377	91.5
476.596	86.5
476.814	79.5
477.033	79.5
477.252	88.5
477.471	81.5
477.69	72.5
477.908	89.5
478.127	87.5
478.346	82.5
478.564	82.5
478.783	88.5
479.002	81.5
479.22	82.5
479.439	91.5
479.658	83.5
479.876	79.5
480.095	94.5
480.313	97.5
480.532	82.5
480.751	83.5
480.969	90.5
481.188	86.5
481.406	85.5
481.624	82.5
481.843	79.5
482.061	92.5
482.28	80.5
482.498	91.5
482.717	93.5
482.935	92.5
483.153	75.5
483.372	83.5
483.59	92.5
483.808	86.5
484.027	81.5
484.245	85.5
484.463	75.5
484.681	92.5
484.9	83.5
485.118	87.5
485.336	95.5
485.554	72.5
485.772	88.5
485.99	107.5
486.209	83.5
486.427	80.5
486.645	75.5
486.863	95.5
487.081	86.5
487.299	73.5
487.517	87.5
487.735	96.5
487.953	88.5
488.171	103.5
488.389	90.5
488.607	91.5
488.825	80.5
489.043	88.5
489.261	93.5
489.479	95.5
489.696	79.5
489.914	98.5
490.132	87.5
490.35	88.5
490.568	84.5
490.786	98.5
491.003	84.5
491.221	76.5
491.439	92.5
491.657	94.5
491.874	108.5
492.092	88.5
492.31	90.5
492.527	86.5
492.745	99.5
492.963	79.5
493.18	94.5
493.398	101.5
493.615	86.5
493.833	79.5
494.05	94.5
494.268	99.5
494.485	83.5
494.703	88.5
494.92	94.5
495.138	101.5
495.355	86.5
495.573	97.5
495.79	79.5
496.008	81.5
496.225	78.5
496.442	96.5
496.66	102.5
496.877	94.5
497.094	94.5
497.312	93.5
497.529	95.5
497.746	90.5
497.963	95.5
498.181	77.5
498.398	88.5
498.615	103.5
498.832	86.5
499.049	98.5
499.267	110.5
499.484	95.5
499.701	110.5
499.918	104.5
500.135	104.5
500.352	112.5
500.569	99.5
500.786	112.5
501.003	100.5
501.22	110.5
501.437	112.5
501.654	90.5
501.871	91.5
502.088	96.5
502.305	84.5
502.522	90.5
502.739	83.5
502.956	97.5
503.172	103.5
503.389	90.5
503.606	91.5
503.823	87.5
504.04	86.5
504.256	89.5
504.473	83.5
504.69	75.5
504.907	76.5
505.123	76.5
505.34	90.5
505.557	86.5
505.773	92.5
505.99	84.5
506.207	98.5
506.423	89.5
506.64	89.5
506.856	80.5
507.073	103.5
507.289	88.5
507.506	83.5
507.722	92.5
507.939	92.5
508.155	99.5
508.372	93.5
508.588	82.5
508.805	85.5
509.021	96.5
509.238	93.5
509.454	96.5
509.67	75.5
509.887	85.5
510.103	85.5
510.319	95.5
510.536	73.5
510.752	85.5
510.968	96.5
511.184	101.5
511.401	79.5
511.617	92.5
511.833	80.5
512.049	76.5
512.265	92.5
512.481	82.5
512.698	92.5
512.914	84.5
513.13	84.5
513.346	74.5
513.562	85.5
513.778	77.5
513.994	83.5
514.21	96.5
514.426	100.5
514.642	93.5
514.858	86.5
515.074	94.5
515.29	98.5
515.506	77.5
515.721	85.5
515.937	91.5
516.153	76.5
516.369	96.5
516.585	93.5
516.801	85.5
517.016	88.5
517.232	94.5
517.448	93.5
517.664	80.5
517.879	92.5
518.095	87.5
518.311	84.5
518.527	73.5
518.742	86.5
518.958	96.5
519.173	87.5
519.389	98.5
519.605	98.5
519.82	95.5
520.036	77.5
520.251	98.5
520.467	86.5
520.682	99.5
520.898	95.5
521.113	94.5
521.329	74.5
521.544	77.5
521.76	84.5
521.975	87.5
522.19	92.5
522.406	80.5
522.621	90.5
522.836	88.5
523.052	97.5
523.267	94.5
523.482	82.5
523.698	91.5
523.913	68.5
524.128	92.5
524.343	91.5
524.559	80.5
524.774	95.5
524.989	85.5
525.204	87.5
525.419	92.5
525.634	103.5
525.849	91.5
526.064	94.5
526.28	85.5
526.495	71.5
526.71	83.5
526.925	87.5
527.14	80.5
527.355	68.5
527.57	86.5
527.785	86.5
527.999	77.5
528.214	87.5
528.429	82.5
528.644	80.5
528.859	82.5
529.074	95.5
529.289	82.5
529.503	83.5
529.718	98.5
529.933	97.5
530.148	96.5
530.363	87.5
530.577	87.5
530.792	57.5
531.007	89.5
531.221	97.5
531.436	88.5
531.651	83.5
531.865	82.5
532.08	77.5
532.295	91.5
532.509	89.5
532.724	98.5
532.938	92.5
533.153	92.5
533.367	90.5
533.582	97.5
533.796	93.5
534.011	93.5
534.225	68.5
534.44	91.5
534.654	91.5
534.868	90.5
535.083	100.5
535.297	93.5
535.511	90.5
535.726	89.5
535.94	90.5
536.154	87.5
536.369	100.5
536.583	85.5
536.797	99.5
537.011	82.5
537.225	75.5
537.44	82.5
537.654	84.5
537.868	91.5
538.082	96.5
538.296	94.5
538.51	102.5
538.724	91.5
538.938	95.5
539.153	75.5
539.367	94.5
