Data from Ni(NO3)2@0.0625M.TitratingCurve.Agarose3%dH2O.NegLispCup.LampEnergy10.LIBS07252019_HRD10591_18-13-44-569.txt Node
Date: Thu Jul 25 18:13:44 EDT 2019
User: cochatt
Spectrometer: HR+D1059
Trigger mode: 1
Integration Time (sec): 1.000000E-1
Scans to average: 1
Electric dark correction enabled: true
Nonlinearity correction enabled: false
Boxcar width: 0
XAxis mode: Wavelengths
Number of Pixels in Spectrum: 2048
>>>>>Begin Spectral Data<<<<<
223.165	-11.69
223.4	-11.69
223.635	-11.69
223.869	-25.69
224.104	-24.69
224.338	-0.69
224.573	-10.69
224.808	-10.69
225.042	-12.69
225.277	5.31
225.511	3.31
225.746	-8.69
225.98	3.31
226.215	7.31
226.449	10.31
226.683	16.31
226.918	27.31
227.152	32.31
227.387	41.31
227.621	43.31
227.856	41.31
228.09	44.31
228.324	54.31
228.559	53.31
228.793	66.31
229.027	96.31
229.262	101.31
229.496	88.31
229.73	107.31
229.964	109.31
230.199	104.31
230.433	113.31
230.667	105.31
230.901	125.31
231.136	121.31
231.37	122.31
231.604	135.31
231.838	133.31
232.072	124.31
232.306	131.31
232.541	126.31
232.775	122.31
233.009	140.31
233.243	119.31
233.477	142.31
233.711	135.31
233.945	149.31
234.179	129.31
234.413	145.31
234.647	143.31
234.881	136.31
235.115	121.31
235.349	131.31
235.583	150.31
235.817	151.31
236.051	142.31
236.285	144.31
236.519	138.31
236.753	134.31
236.987	145.31
237.221	133.31
237.455	141.31
237.689	139.31
237.922	156.31
238.156	149.31
238.39	150.31
238.624	150.31
238.858	141.31
239.091	151.31
239.325	157.31
239.559	157.31
239.793	166.31
240.027	141.31
240.26	157.31
240.494	156.31
240.728	149.31
240.961	153.31
241.195	146.31
241.429	155.31
241.662	161.31
241.896	145.31
242.13	152.31
242.363	152.31
242.597	187.31
242.83	172.31
243.064	178.31
243.298	171.31
243.531	169.31
243.765	172.31
243.998	174.31
244.232	175.31
244.465	164.31
244.699	170.31
244.932	195.31
245.166	196.31
245.399	192.31
245.633	188.31
245.866	192.31
246.099	174.31
246.333	182.31
246.566	199.31
246.8	190.31
247.033	206.31
247.266	183.31
247.5	188.31
247.733	191.31
247.966	201.31
248.2	209.31
248.433	204.31
248.666	200.31
248.899	206.31
249.133	217.31
249.366	210.31
249.599	210.31
249.832	224.31
250.066	210.31
250.299	213.31
250.532	212.31
250.765	207.31
250.998	206.31
251.231	211.31
251.465	217.31
251.698	214.31
251.931	227.31
252.164	230.31
252.397	211.31
252.63	226.31
252.863	232.31
253.096	244.31
253.329	242.31
253.562	217.31
253.795	234.31
254.028	220.31
254.261	250.31
254.494	234.31
254.727	238.31
254.96	215.31
255.193	226.31
255.426	226.31
255.659	246.31
255.892	237.31
256.124	241.31
256.357	246.31
256.59	243.31
256.823	238.31
257.056	240.31
257.289	275.31
257.521	246.31
257.754	239.31
257.987	255.31
258.22	246.31
258.452	255.31
258.685	233.31
258.918	249.31
259.151	253.31
259.383	272.31
259.616	269.31
259.849	250.31
260.081	255.31
260.314	266.31
260.547	287.31
260.779	267.31
261.012	269.31
261.244	261.31
261.477	287.31
261.71	279.31
261.942	267.31
262.175	264.31
262.407	275.31
262.64	277.31
262.872	297.31
263.105	275.31
263.337	270.31
263.57	273.31
263.802	285.31
264.035	290.31
264.267	289.31
264.499	299.31
264.732	285.31
264.964	310.31
265.197	294.31
265.429	302.31
265.661	280.31
265.894	292.31
266.126	279.31
266.358	294.31
266.591	289.31
266.823	306.31
267.055	296.31
267.287	303.31
267.52	292.31
267.752	318.31
267.984	309.31
268.216	296.31
268.448	292.31
268.681	307.31
268.913	305.31
269.145	318.31
269.377	309.31
269.609	313.31
269.841	300.31
270.073	301.31
270.306	319.31
270.538	309.31
270.77	314.31
271.002	313.31
271.234	314.31
271.466	311.31
271.698	310.31
271.93	313.31
272.162	320.31
272.394	316.31
272.626	335.31
272.858	321.31
273.09	332.31
273.322	318.31
273.553	319.31
273.785	316.31
274.017	314.31
274.249	335.31
274.481	336.31
274.713	332.31
274.945	325.31
275.176	343.31
275.408	339.31
275.64	339.31
275.872	352.31
276.104	362.31
276.335	343.31
276.567	349.31
276.799	353.31
277.031	335.31
277.262	346.31
277.494	326.31
277.726	357.31
277.957	349.31
278.189	379.31
278.421	359.31
278.652	344.31
278.884	334.31
279.115	367.31
279.347	347.31
279.579	362.31
279.81	369.31
280.042	358.31
280.273	371.31
280.505	365.31
280.736	371.31
280.968	356.31
281.199	377.31
281.431	380.31
281.662	364.31
281.894	390.31
282.125	373.31
282.356	402.31
282.588	383.31
282.819	378.31
283.051	393.31
283.282	366.31
283.513	374.31
283.745	379.31
283.976	399.31
284.207	395.31
284.439	386.31
284.67	399.31
284.901	395.31
285.132	405.31
285.364	395.31
285.595	413.31
285.826	419.31
286.057	409.31
286.288	384.31
286.52	425.31
286.751	411.31
286.982	411.31
287.213	427.31
287.444	426.31
287.675	406.31
287.906	422.31
288.138	417.31
288.369	414.31
288.6	445.31
288.831	421.31
289.062	419.31
289.293	418.31
289.524	410.31
289.755	424.31
289.986	420.31
290.217	435.31
290.448	425.31
290.679	414.31
290.91	428.31
291.141	427.31
291.371	436.31
291.602	426.31
291.833	437.31
292.064	421.31
292.295	425.31
292.526	420.31
292.757	430.31
292.987	436.31
293.218	429.31
293.449	435.31
293.68	449.31
293.91	458.31
294.141	425.31
294.372	420.31
294.603	433.31
294.833	443.31
295.064	429.31
295.295	420.31
295.525	435.31
295.756	436.31
295.987	460.31
296.217	455.31
296.448	433.31
296.679	437.31
296.909	447.31
297.14	452.31
297.37	452.31
297.601	464.31
297.831	463.31
298.062	475.31
298.292	487.31
298.523	478.31
298.753	477.31
298.984	491.31
299.214	469.31
299.445	455.31
299.675	447.31
299.905	469.31
300.136	469.31
300.366	455.31
300.597	492.31
300.827	484.31
301.057	474.31
301.288	490.31
301.518	485.31
301.748	494.31
301.979	481.31
302.209	459.31
302.439	487.31
302.669	494.31
302.9	477.31
303.13	474.31
303.36	474.31
303.59	468.31
303.82	467.31
304.051	483.31
304.281	487.31
304.511	488.31
304.741	477.31
304.971	486.31
305.201	475.31
305.431	461.31
305.661	480.31
305.891	474.31
306.121	484.31
306.352	455.31
306.582	470.31
306.812	460.31
307.042	478.31
307.272	460.31
307.502	476.31
307.731	481.31
307.961	468.31
308.191	471.31
308.421	472.31
308.651	490.31
308.881	478.31
309.111	476.31
309.341	459.31
309.571	458.31
309.8	453.31
310.03	459.31
310.26	490.31
310.49	464.31
310.72	467.31
310.949	468.31
311.179	458.31
311.409	447.31
311.639	464.31
311.868	476.31
312.098	478.31
312.328	485.31
312.557	485.31
312.787	498.31
313.017	487.31
313.246	488.31
313.476	489.31
313.706	480.31
313.935	492.31
314.165	517.31
314.394	490.31
314.624	504.31
314.853	501.31
315.083	490.31
315.312	494.31
315.542	496.31
315.771	509.31
316.001	502.31
316.23	470.31
316.46	477.31
316.689	490.31
316.919	488.31
317.148	487.31
317.377	497.31
317.607	483.31
317.836	505.31
318.065	484.31
318.295	480.31
318.524	494.31
318.753	485.31
318.983	495.31
319.212	486.31
319.441	466.31
319.67	493.31
319.9	477.31
320.129	475.31
320.358	487.31
320.587	491.31
320.816	501.31
321.046	459.31
321.275	495.31
321.504	484.31
321.733	473.31
321.962	498.31
322.191	494.31
322.42	473.31
322.649	490.31
322.878	492.31
323.108	483.31
323.337	515.31
323.566	493.31
323.795	502.31
324.024	499.31
324.253	501.31
324.482	490.31
324.71	526.31
324.939	531.31
325.168	491.31
325.397	524.31
325.626	525.31
325.855	516.31
326.084	534.31
326.313	536.31
326.542	535.31
326.77	552.31
326.999	501.31
327.228	497.31
327.457	528.31
327.686	525.31
327.914	521.31
328.143	523.31
328.372	522.31
328.6	541.31
328.829	533.31
329.058	541.31
329.287	554.31
329.515	533.31
329.744	553.31
329.972	526.31
330.201	556.31
330.43	542.31
330.658	538.31
330.887	528.31
331.115	545.31
331.344	570.31
331.572	565.31
331.801	554.31
332.03	605.31
332.258	601.31
332.486	620.31
332.715	643.31
332.943	687.31
333.172	674.31
333.4	732.31
333.629	745.31
333.857	746.31
334.085	734.31
334.314	694.31
334.542	698.31
334.771	682.31
334.999	674.31
335.227	681.31
335.455	665.31
335.684	670.31
335.912	671.31
336.14	667.31
336.369	661.31
336.597	647.31
336.825	629.31
337.053	642.31
337.281	655.31
337.51	596.31
337.738	620.31
337.966	610.31
338.194	596.31
338.422	579.31
338.65	570.31
338.878	574.31
339.106	582.31
339.334	610.31
339.562	572.31
339.79	548.31
340.018	554.31
340.246	550.31
340.474	589.31
340.702	545.31
340.93	561.31
341.158	563.31
341.386	571.31
341.614	566.31
341.842	543.31
342.07	554.31
342.298	560.31
342.526	575.31
342.754	567.31
342.981	584.31
343.209	587.31
343.437	589.31
343.665	637.31
343.893	691.31
344.12	709.31
344.348	687.31
344.576	630.31
344.804	579.31
345.031	597.31
345.259	583.31
345.487	569.31
345.714	547.31
345.942	579.31
346.17	543.31
346.397	563.31
346.625	542.31
346.853	550.31
347.08	555.31
347.308	557.31
347.535	538.31
347.763	586.31
347.99	553.31
348.218	573.31
348.445	566.31
348.673	565.31
348.9	558.31
349.128	520.31
349.355	535.31
349.583	536.31
349.81	507.31
350.037	518.31
350.265	542.31
350.492	542.31
350.72	515.31
350.947	537.31
351.174	505.31
351.402	545.31
351.629	515.31
351.856	534.31
352.083	516.31
352.311	525.31
352.538	521.31
352.765	500.31
352.992	513.31
353.22	497.31
353.447	513.31
353.674	526.31
353.901	513.31
354.128	515.31
354.355	520.31
354.583	522.31
354.81	535.31
355.037	533.31
355.264	526.31
355.491	538.31
355.718	542.31
355.945	530.31
356.172	501.31
356.399	525.31
356.626	523.31
356.853	527.31
357.08	522.31
357.307	531.31
357.534	535.31
357.761	533.31
357.988	524.31
358.215	519.31
358.441	541.31
358.668	525.31
358.895	501.31
359.122	539.31
359.349	528.31
359.576	552.31
359.802	531.31
360.029	513.31
360.256	531.31
360.483	538.31
360.709	523.31
360.936	528.31
361.163	508.31
361.39	524.31
361.616	532.31
361.843	542.31
362.07	523.31
362.296	516.31
362.523	503.31
362.749	547.31
362.976	506.31
363.203	529.31
363.429	509.31
363.656	505.31
363.882	513.31
364.109	536.31
364.335	511.31
364.562	523.31
364.788	521.31
365.015	529.31
365.241	532.31
365.468	521.31
365.694	534.31
365.92	499.31
366.147	510.31
366.373	520.31
366.599	536.31
366.826	527.31
367.052	524.31
367.278	537.31
367.505	535.31
367.731	494.31
367.957	523.31
368.184	515.31
368.41	517.31
368.636	535.31
368.862	552.31
369.089	535.31
369.315	527.31
369.541	566.31
369.767	544.31
369.993	524.31
370.219	541.31
370.445	552.31
370.672	590.31
370.898	557.31
371.124	565.31
371.35	561.31
371.576	563.31
371.802	570.31
372.028	560.31
372.254	569.31
372.48	587.31
372.706	614.31
372.932	600.31
373.158	589.31
373.384	577.31
373.61	547.31
373.835	575.31
374.061	588.31
374.287	565.31
374.513	600.31
374.739	606.31
374.965	614.31
375.191	662.31
375.416	643.31
375.642	646.31
375.868	605.31
376.094	601.31
376.319	582.31
376.545	565.31
376.771	587.31
376.997	561.31
377.222	601.31
377.448	548.31
377.674	567.31
377.899	561.31
378.125	558.31
378.35	563.31
378.576	554.31
378.802	555.31
379.027	563.31
379.253	561.31
379.478	570.31
379.704	554.31
379.929	573.31
380.155	553.31
380.38	563.31
380.606	561.31
380.831	558.31
381.057	578.31
381.282	549.31
381.507	581.31
381.733	547.31
381.958	578.31
382.184	571.31
382.409	591.31
382.634	604.31
382.86	593.31
383.085	590.31
383.31	616.31
383.535	622.31
383.761	654.31
383.986	639.31
384.211	683.31
384.436	657.31
384.662	685.31
384.887	715.31
385.112	693.31
385.337	675.31
385.562	666.31
385.787	706.31
386.013	705.31
386.238	677.31
386.463	675.31
386.688	696.31
386.913	695.31
387.138	651.31
387.363	691.31
387.588	684.31
387.813	677.31
388.038	665.31
388.263	681.31
388.488	675.31
388.713	673.31
388.938	688.31
389.163	668.31
389.387	674.31
389.612	676.31
389.837	667.31
390.062	670.31
390.287	657.31
390.512	667.31
390.736	669.31
390.961	686.31
391.186	698.31
391.411	727.31
391.636	720.31
391.86	753.31
392.085	760.31
392.31	774.31
392.534	755.31
392.759	705.31
392.984	722.31
393.208	717.31
393.433	727.31
393.658	726.31
393.882	725.31
394.107	733.31
394.331	727.31
394.556	762.31
394.78	741.31
395.005	725.31
395.229	746.31
395.454	757.31
395.678	750.31
395.903	771.31
396.127	756.31
396.352	713.31
396.576	705.31
396.801	692.31
397.025	704.31
397.249	743.31
397.474	745.31
397.698	772.31
397.922	759.31
398.147	749.31
398.371	755.31
398.595	786.31
398.82	806.31
399.044	891.31
399.268	982.31
399.492	1141.31
399.717	1332.31
399.941	1342.31
400.165	1157.31
400.389	1013.31
400.613	909.31
400.837	871.31
401.062	867.31
401.286	876.31
401.51	856.31
401.734	868.31
401.958	849.31
402.182	859.31
402.406	898.31
402.63	865.31
402.854	929.31
403.078	943.31
403.302	974.31
403.526	985.31
403.75	1027.31
403.974	1014.31
404.198	1009.31
404.422	1028.31
404.645	1011.31
404.869	979.31
405.093	997.31
405.317	958.31
405.541	974.31
405.765	937.31
405.988	925.31
406.212	929.31
406.436	923.31
406.66	971.31
406.883	985.31
407.107	1038.31
407.331	1107.31
407.555	1132.31
407.778	1140.31
408.002	1081.31
408.226	1051.31
408.449	1031.31
408.673	973.31
408.896	987.31
409.12	970.31
409.344	1004.31
409.567	976.31
409.791	995.31
410.014	993.31
410.238	998.31
410.461	997.31
410.685	967.31
410.908	954.31
411.132	905.31
411.355	879.31
411.578	909.31
411.802	865.31
412.025	899.31
412.249	910.31
412.472	903.31
412.695	845.31
412.919	860.31
413.142	863.31
413.365	834.31
413.589	856.31
413.812	855.31
414.035	843.31
414.258	841.31
414.482	864.31
414.705	882.31
414.928	871.31
415.151	883.31
415.374	864.31
415.597	866.31
415.821	853.31
416.044	837.31
416.267	835.31
416.49	811.31
416.713	826.31
416.936	838.31
417.159	859.31
417.382	849.31
417.605	843.31
417.828	864.31
418.051	872.31
418.274	826.31
418.497	842.31
418.72	875.31
418.943	860.31
419.166	929.31
419.389	999.31
419.611	959.31
419.834	937.31
420.057	907.31
420.28	875.31
420.503	856.31
420.726	845.31
420.948	833.31
421.171	839.31
421.394	841.31
421.617	868.31
421.839	839.31
422.062	862.31
422.285	862.31
422.507	875.31
422.73	891.31
422.953	897.31
423.175	917.31
423.398	902.31
423.621	936.31
423.843	931.31
424.066	887.31
424.288	962.31
424.511	923.31
424.733	874.31
424.956	883.31
425.178	883.31
425.401	868.31
425.623	861.31
425.846	840.31
426.068	827.31
426.291	822.31
426.513	802.31
426.735	793.31
426.958	787.31
427.18	779.31
427.402	767.31
427.625	745.31
427.847	787.31
428.069	798.31
428.292	760.31
428.514	775.31
428.736	746.31
428.958	758.31
429.181	746.31
429.403	721.31
429.625	740.31
429.847	747.31
430.069	742.31
430.292	758.31
430.514	741.31
430.736	758.31
430.958	731.31
431.18	726.31
431.402	749.31
431.624	747.31
431.846	793.31
432.068	779.31
432.29	772.31
432.512	760.31
432.734	732.31
432.956	721.31
433.178	765.31
433.4	769.31
433.622	757.31
433.844	760.31
434.066	779.31
434.287	775.31
434.509	795.31
434.731	824.31
434.953	895.31
435.175	884.31
435.397	873.31
435.618	813.31
435.84	808.31
436.062	781.31
436.284	759.31
436.505	769.31
436.727	786.31
436.949	754.31
437.17	778.31
437.392	727.31
437.614	747.31
437.835	710.31
438.057	741.31
438.278	743.31
438.5	724.31
438.721	746.31
438.943	744.31
439.165	738.31
439.386	748.31
439.608	787.31
439.829	761.31
440.05	760.31
440.272	762.31
440.493	762.31
440.715	787.31
440.936	792.31
441.158	791.31
441.379	830.31
441.6	855.31
441.822	861.31
442.043	861.31
442.264	853.31
442.486	837.31
442.707	850.31
442.928	844.31
443.149	851.31
443.371	841.31
443.592	851.31
443.813	880.31
444.034	873.31
444.255	903.31
444.476	956.31
444.698	977.31
444.919	1043.31
445.14	1123.31
445.361	991.31
445.582	898.31
445.803	818.31
446.024	811.31
446.245	801.31
446.466	787.31
446.687	803.31
446.908	792.31
447.129	764.31
447.35	739.31
447.571	725.31
447.792	726.31
448.013	730.31
448.234	722.31
448.455	699.31
448.675	695.31
448.896	728.31
449.117	707.31
449.338	707.31
449.559	682.31
449.779	681.31
450	685.31
450.221	716.31
450.442	733.31
450.662	704.31
450.883	721.31
451.104	736.31
451.324	768.31
451.545	773.31
451.766	730.31
451.986	755.31
452.207	735.31
452.428	709.31
452.648	715.31
452.869	725.31
453.089	709.31
453.31	716.31
453.53	715.31
453.751	702.31
453.971	681.31
454.192	690.31
454.412	659.31
454.633	677.31
454.853	667.31
455.073	671.31
455.294	665.31
455.514	671.31
455.734	662.31
455.955	643.31
456.175	671.31
456.395	673.31
456.616	652.31
456.836	673.31
457.056	661.31
457.276	645.31
457.497	676.31
457.717	661.31
457.937	673.31
458.157	671.31
458.377	681.31
458.598	687.31
458.818	717.31
459.038	729.31
459.258	751.31
459.478	787.31
459.698	787.31
459.918	812.31
460.138	886.31
460.358	919.31
460.578	910.31
460.798	883.31
461.018	940.31
461.238	928.31
461.458	900.31
461.678	887.31
461.898	932.31
462.118	934.31
462.338	970.31
462.558	976.31
462.777	1031.31
462.997	1149.31
463.217	1260.31
463.437	1265.31
463.657	1155.31
463.876	1073.31
464.096	1110.31
464.316	1070.31
464.536	1086.31
464.755	1057.31
464.975	1009.31
465.195	979.31
465.414	896.31
465.634	844.31
465.854	791.31
466.073	817.31
466.293	793.31
466.512	769.31
466.732	772.31
466.951	772.31
467.171	722.31
467.391	756.31
467.61	740.31
467.829	738.31
468.049	702.31
468.268	733.31
468.488	689.31
468.707	710.31
468.927	694.31
469.146	687.31
469.365	728.31
469.585	726.31
469.804	756.31
470.023	746.31
470.243	767.31
470.462	774.31
470.681	783.31
470.901	769.31
471.12	760.31
471.339	767.31
471.558	737.31
471.777	724.31
471.997	708.31
472.216	697.31
472.435	707.31
472.654	710.31
472.873	694.31
473.092	684.31
473.311	691.31
473.53	693.31
473.749	680.31
473.968	705.31
474.187	705.31
474.406	699.31
474.625	686.31
474.844	686.31
475.063	715.31
475.282	672.31
475.501	687.31
475.72	695.31
475.939	713.31
476.158	717.31
476.377	721.31
476.596	703.31
476.814	729.31
477.033	719.31
477.252	769.31
477.471	762.31
477.69	781.31
477.908	797.31
478.127	821.31
478.346	844.31
478.564	835.31
478.783	851.31
479.002	888.31
479.22	889.31
479.439	869.31
479.658	857.31
479.876	836.31
480.095	872.31
480.313	932.31
480.532	961.31
480.751	926.31
480.969	893.31
481.188	842.31
481.406	817.31
481.624	819.31
481.843	802.31
482.061	783.31
482.28	768.31
482.498	777.31
482.717	758.31
482.935	757.31
483.153	787.31
483.372	795.31
483.59	791.31
483.808	763.31
484.027	786.31
484.245	774.31
484.463	795.31
484.681	796.31
484.9	830.31
485.118	801.31
485.336	815.31
485.554	841.31
485.772	843.31
485.99	841.31
486.209	859.31
486.427	829.31
486.645	837.31
486.863	841.31
487.081	853.31
487.299	817.31
487.517	840.31
487.735	819.31
487.953	836.31
488.171	820.31
488.389	811.31
488.607	805.31
488.825	818.31
489.043	829.31
489.261	792.31
489.479	841.31
489.696	833.31
489.914	819.31
490.132	822.31
490.35	811.31
490.568	829.31
490.786	838.31
491.003	833.31
491.221	853.31
491.439	859.31
491.657	826.31
491.874	809.31
492.092	830.31
492.31	821.31
492.527	825.31
492.745	842.31
492.963	837.31
493.18	849.31
493.398	837.31
493.615	866.31
493.833	843.31
494.05	836.31
494.268	862.31
494.485	897.31
494.703	874.31
494.92	909.31
495.138	866.31
495.355	849.31
495.573	892.31
495.79	846.31
496.008	879.31
496.225	900.31
496.442	931.31
496.66	894.31
496.877	883.31
497.094	911.31
497.312	954.31
497.529	930.31
497.746	968.31
497.963	981.31
498.181	1065.31
498.398	1069.31
498.615	1158.31
498.832	1192.31
499.049	1307.31
499.267	1439.31
499.484	1558.31
499.701	1745.31
499.918	1922.31
500.135	2274.31
500.352	2682.31
500.569	2828.31
500.786	2796.31
501.003	2572.31
