Data from Ni(NO3)2@0.5M.TitratingCurve.Agarose3%dH2O.NegLispCup.LampEnergy10.LIBS07252019_HRD10591_17-59-10-564.txt Node
Date: Thu Jul 25 17:59:10 EDT 2019
User: cochatt
Spectrometer: HR+D1059
Trigger mode: 1
Integration Time (sec): 1.000000E-1
Scans to average: 1
Electric dark correction enabled: true
Nonlinearity correction enabled: false
Boxcar width: 0
XAxis mode: Wavelengths
Number of Pixels in Spectrum: 2048
>>>>>Begin Spectral Data<<<<<
223.165	-7.5
223.4	-7.5
223.635	-7.5
223.869	-20.5
224.104	-9.5
224.338	-12.5
224.573	-9.5
224.808	-14.5
225.042	1.5
225.277	-1.5
225.511	-14.5
225.746	12.5
225.98	12.5
226.215	11.5
226.449	22.5
226.683	5.5
226.918	9.5
227.152	14.5
227.387	35.5
227.621	26.5
227.856	34.5
228.09	38.5
228.324	38.5
228.559	63.5
228.793	72.5
229.027	88.5
229.262	102.5
229.496	95.5
229.73	108.5
229.964	121.5
230.199	133.5
230.433	142.5
230.667	131.5
230.901	114.5
231.136	130.5
231.37	114.5
231.604	126.5
231.838	134.5
232.072	146.5
232.306	139.5
232.541	124.5
232.775	126.5
233.009	115.5
233.243	129.5
233.477	118.5
233.711	118.5
233.945	130.5
234.179	118.5
234.413	122.5
234.647	135.5
234.881	126.5
235.115	133.5
235.349	123.5
235.583	114.5
235.817	126.5
236.051	126.5
236.285	130.5
236.519	116.5
236.753	128.5
236.987	119.5
237.221	119.5
237.455	123.5
237.689	129.5
237.922	118.5
238.156	131.5
238.39	128.5
238.624	140.5
238.858	117.5
239.091	130.5
239.325	141.5
239.559	137.5
239.793	138.5
240.027	135.5
240.26	142.5
240.494	144.5
240.728	130.5
240.961	134.5
241.195	124.5
241.429	137.5
241.662	135.5
241.896	151.5
242.13	148.5
242.363	145.5
242.597	138.5
242.83	130.5
243.064	140.5
243.298	143.5
243.531	134.5
243.765	126.5
243.998	152.5
244.232	161.5
244.465	151.5
244.699	145.5
244.932	139.5
245.166	147.5
245.399	156.5
245.633	163.5
245.866	166.5
246.099	154.5
246.333	157.5
246.566	158.5
246.8	158.5
247.033	142.5
247.266	163.5
247.5	154.5
247.733	132.5
247.966	162.5
248.2	161.5
248.433	169.5
248.666	171.5
248.899	180.5
249.133	169.5
249.366	151.5
249.599	156.5
249.832	164.5
250.066	171.5
250.299	166.5
250.532	171.5
250.765	169.5
250.998	183.5
251.231	189.5
251.465	196.5
251.698	186.5
251.931	177.5
252.164	192.5
252.397	181.5
252.63	186.5
252.863	193.5
253.096	181.5
253.329	180.5
253.562	179.5
253.795	192.5
254.028	185.5
254.261	184.5
254.494	197.5
254.727	202.5
254.96	186.5
255.193	211.5
255.426	202.5
255.659	198.5
255.892	209.5
256.124	194.5
256.357	181.5
256.59	179.5
256.823	194.5
257.056	198.5
257.289	201.5
257.521	210.5
257.754	205.5
257.987	205.5
258.22	195.5
258.452	213.5
258.685	205.5
258.918	200.5
259.151	202.5
259.383	212.5
259.616	206.5
259.849	218.5
260.081	207.5
260.314	204.5
260.547	197.5
260.779	201.5
261.012	206.5
261.244	205.5
261.477	227.5
261.71	207.5
261.942	214.5
262.175	230.5
262.407	212.5
262.64	215.5
262.872	223.5
263.105	214.5
263.337	218.5
263.57	207.5
263.802	225.5
264.035	245.5
264.267	229.5
264.499	225.5
264.732	222.5
264.964	234.5
265.197	227.5
265.429	227.5
265.661	208.5
265.894	238.5
266.126	241.5
266.358	229.5
266.591	237.5
266.823	226.5
267.055	242.5
267.287	234.5
267.52	243.5
267.752	221.5
267.984	241.5
268.216	242.5
268.448	254.5
268.681	244.5
268.913	236.5
269.145	255.5
269.377	234.5
269.609	253.5
269.841	249.5
270.073	243.5
270.306	234.5
270.538	246.5
270.77	250.5
271.002	247.5
271.234	252.5
271.466	261.5
271.698	248.5
271.93	245.5
272.162	258.5
272.394	269.5
272.626	270.5
272.858	250.5
273.09	267.5
273.322	269.5
273.553	243.5
273.785	250.5
274.017	245.5
274.249	258.5
274.481	242.5
274.713	239.5
274.945	263.5
275.176	275.5
275.408	279.5
275.64	276.5
275.872	261.5
276.104	261.5
276.335	278.5
276.567	264.5
276.799	287.5
277.031	268.5
277.262	255.5
277.494	280.5
277.726	292.5
277.957	279.5
278.189	274.5
278.421	277.5
278.652	283.5
278.884	275.5
279.115	274.5
279.347	264.5
279.579	305.5
279.81	298.5
280.042	275.5
280.273	290.5
280.505	280.5
280.736	289.5
280.968	293.5
281.199	298.5
281.431	284.5
281.662	301.5
281.894	297.5
282.125	285.5
282.356	297.5
282.588	307.5
282.819	280.5
283.051	294.5
283.282	295.5
283.513	289.5
283.745	309.5
283.976	301.5
284.207	292.5
284.439	292.5
284.67	295.5
284.901	284.5
285.132	307.5
285.364	313.5
285.595	289.5
285.826	294.5
286.057	313.5
286.288	297.5
286.52	314.5
286.751	302.5
286.982	277.5
287.213	308.5
287.444	311.5
287.675	316.5
287.906	326.5
288.138	318.5
288.369	318.5
288.6	299.5
288.831	322.5
289.062	326.5
289.293	324.5
289.524	311.5
289.755	323.5
289.986	324.5
290.217	319.5
290.448	312.5
290.679	330.5
290.91	322.5
291.141	319.5
291.371	344.5
291.602	325.5
291.833	314.5
292.064	341.5
292.295	326.5
292.526	333.5
292.757	322.5
292.987	331.5
293.218	315.5
293.449	329.5
293.68	330.5
293.91	343.5
294.141	326.5
294.372	339.5
294.603	338.5
294.833	327.5
295.064	329.5
295.295	342.5
295.525	319.5
295.756	332.5
295.987	328.5
296.217	341.5
296.448	322.5
296.679	333.5
296.909	340.5
297.14	347.5
297.37	344.5
297.601	356.5
297.831	347.5
298.062	358.5
298.292	363.5
298.523	355.5
298.753	347.5
298.984	343.5
299.214	360.5
299.445	362.5
299.675	361.5
299.905	360.5
300.136	374.5
300.366	380.5
300.597	394.5
300.827	362.5
301.057	351.5
301.288	380.5
301.518	379.5
301.748	379.5
301.979	377.5
302.209	370.5
302.439	362.5
302.669	381.5
302.9	362.5
303.13	359.5
303.36	360.5
303.59	375.5
303.82	366.5
304.051	375.5
304.281	375.5
304.511	373.5
304.741	374.5
304.971	359.5
305.201	378.5
305.431	400.5
305.661	375.5
305.891	385.5
306.121	369.5
306.352	375.5
306.582	362.5
306.812	363.5
307.042	372.5
307.272	389.5
307.502	370.5
307.731	379.5
307.961	369.5
308.191	385.5
308.421	387.5
308.651	375.5
308.881	370.5
309.111	374.5
309.341	376.5
309.571	381.5
309.8	393.5
310.03	390.5
310.26	417.5
310.49	398.5
310.72	399.5
310.949	375.5
311.179	385.5
311.409	378.5
311.639	385.5
311.868	409.5
312.098	391.5
312.328	399.5
312.557	403.5
312.787	388.5
313.017	379.5
313.246	402.5
313.476	404.5
313.706	431.5
313.935	390.5
314.165	399.5
314.394	396.5
314.624	392.5
314.853	398.5
315.083	406.5
315.312	404.5
315.542	400.5
315.771	391.5
316.001	407.5
316.23	398.5
316.46	405.5
316.689	405.5
316.919	400.5
317.148	408.5
317.377	419.5
317.607	399.5
317.836	399.5
318.065	397.5
318.295	426.5
318.524	415.5
318.753	402.5
318.983	403.5
319.212	399.5
319.441	418.5
319.67	409.5
319.9	387.5
320.129	411.5
320.358	421.5
320.587	409.5
320.816	411.5
321.046	430.5
321.275	417.5
321.504	415.5
321.733	422.5
321.962	435.5
322.191	430.5
322.42	423.5
322.649	420.5
322.878	429.5
323.108	444.5
323.337	417.5
323.566	445.5
323.795	423.5
324.024	445.5
324.253	439.5
324.482	448.5
324.71	456.5
324.939	460.5
325.168	436.5
325.397	426.5
325.626	448.5
325.855	426.5
326.084	475.5
326.313	446.5
326.542	461.5
326.77	470.5
326.999	449.5
327.228	445.5
327.457	461.5
327.686	464.5
327.914	459.5
328.143	465.5
328.372	465.5
328.6	458.5
328.829	444.5
329.058	458.5
329.287	427.5
329.515	455.5
329.744	463.5
329.972	453.5
330.201	447.5
330.43	455.5
330.658	469.5
330.887	471.5
331.115	491.5
331.344	475.5
331.572	471.5
331.801	503.5
332.03	492.5
332.258	490.5
332.486	486.5
332.715	516.5
332.943	505.5
333.172	522.5
333.4	532.5
333.629	546.5
333.857	543.5
334.085	523.5
334.314	527.5
334.542	551.5
334.771	527.5
334.999	525.5
335.227	537.5
335.455	532.5
335.684	539.5
335.912	532.5
336.14	533.5
336.369	551.5
336.597	551.5
336.825	566.5
337.053	530.5
337.281	553.5
337.51	514.5
337.738	545.5
337.966	522.5
338.194	530.5
338.422	521.5
338.65	504.5
338.878	489.5
339.106	509.5
339.334	538.5
339.562	527.5
339.79	493.5
340.018	519.5
340.246	473.5
340.474	521.5
340.702	490.5
340.93	485.5
341.158	508.5
341.386	516.5
341.614	492.5
341.842	514.5
342.07	494.5
342.298	498.5
342.526	497.5
342.754	507.5
342.981	513.5
343.209	482.5
343.437	523.5
343.665	539.5
343.893	537.5
344.12	534.5
344.348	531.5
344.576	517.5
344.804	518.5
345.031	509.5
345.259	505.5
345.487	497.5
345.714	502.5
345.942	521.5
346.17	535.5
346.397	511.5
346.625	503.5
346.853	485.5
347.08	478.5
347.308	462.5
347.535	487.5
347.763	468.5
347.99	469.5
348.218	481.5
348.445	489.5
348.673	475.5
348.9	483.5
349.128	471.5
349.355	492.5
349.583	508.5
349.81	491.5
350.037	459.5
350.265	463.5
350.492	450.5
350.72	453.5
350.947	456.5
351.174	494.5
351.402	477.5
351.629	513.5
351.856	503.5
352.083	469.5
352.311	491.5
352.538	502.5
352.765	525.5
352.992	457.5
353.22	468.5
353.447	457.5
353.674	438.5
353.901	458.5
354.128	460.5
354.355	450.5
354.583	457.5
354.81	473.5
355.037	472.5
355.264	469.5
355.491	460.5
355.718	457.5
355.945	474.5
356.172	451.5
356.399	456.5
356.626	466.5
356.853	480.5
357.08	486.5
357.307	471.5
357.534	490.5
357.761	460.5
357.988	468.5
358.215	477.5
358.441	442.5
358.668	447.5
358.895	466.5
359.122	455.5
359.349	479.5
359.576	471.5
359.802	460.5
360.029	484.5
360.256	470.5
360.483	469.5
360.709	470.5
360.936	458.5
361.163	468.5
361.39	451.5
361.616	477.5
361.843	470.5
362.07	507.5
362.296	486.5
362.523	478.5
362.749	480.5
362.976	454.5
363.203	483.5
363.429	493.5
363.656	460.5
363.882	453.5
364.109	463.5
364.335	464.5
364.562	447.5
364.788	461.5
365.015	482.5
365.241	491.5
365.468	465.5
365.694	442.5
365.92	452.5
366.147	471.5
366.373	456.5
366.599	439.5
366.826	470.5
367.052	470.5
367.278	472.5
367.505	465.5
367.731	456.5
367.957	474.5
368.184	487.5
368.41	480.5
368.636	490.5
368.862	473.5
369.089	506.5
369.315	489.5
369.541	490.5
369.767	490.5
369.993	497.5
370.219	473.5
370.445	470.5
370.672	476.5
370.898	480.5
371.124	488.5
371.35	513.5
371.576	511.5
371.802	505.5
372.028	502.5
372.254	498.5
372.48	513.5
372.706	504.5
372.932	501.5
373.158	519.5
373.384	504.5
373.61	509.5
373.835	511.5
374.061	489.5
374.287	531.5
374.513	524.5
374.739	527.5
374.965	536.5
375.191	533.5
375.416	547.5
375.642	503.5
375.868	519.5
376.094	512.5
376.319	496.5
376.545	510.5
376.771	503.5
376.997	483.5
377.222	471.5
377.448	505.5
377.674	505.5
377.899	475.5
378.125	501.5
378.35	493.5
378.576	481.5
378.802	485.5
379.027	507.5
379.253	481.5
379.478	504.5
379.704	509.5
379.929	500.5
380.155	495.5
380.38	509.5
380.606	507.5
380.831	489.5
381.057	507.5
381.282	503.5
381.507	494.5
381.733	511.5
381.958	481.5
382.184	521.5
382.409	476.5
382.634	506.5
382.86	487.5
383.085	494.5
383.31	519.5
383.535	526.5
383.761	531.5
383.986	520.5
384.211	549.5
384.436	547.5
384.662	556.5
384.887	533.5
385.112	551.5
385.337	551.5
385.562	545.5
385.787	559.5
386.013	588.5
386.238	564.5
386.463	565.5
386.688	595.5
386.913	571.5
387.138	557.5
387.363	555.5
387.588	550.5
387.813	598.5
388.038	564.5
388.263	566.5
388.488	584.5
388.713	548.5
388.938	536.5
389.163	542.5
389.387	572.5
389.612	550.5
389.837	574.5
390.062	566.5
390.287	543.5
390.512	555.5
390.736	588.5
390.961	592.5
391.186	597.5
391.411	590.5
391.636	581.5
391.86	617.5
392.085	599.5
392.31	601.5
392.534	604.5
392.759	583.5
392.984	582.5
393.208	589.5
393.433	605.5
393.658	602.5
393.882	611.5
394.107	588.5
394.331	568.5
394.556	580.5
394.78	599.5
395.005	617.5
395.229	604.5
395.454	596.5
395.678	625.5
395.903	616.5
396.127	607.5
396.352	603.5
396.576	604.5
396.801	614.5
397.025	605.5
397.249	610.5
397.474	618.5
397.698	633.5
397.922	633.5
398.147	615.5
398.371	641.5
398.595	660.5
398.82	659.5
399.044	708.5
399.268	738.5
399.492	801.5
399.717	807.5
399.941	838.5
400.165	777.5
400.389	757.5
400.613	716.5
400.837	718.5
401.062	701.5
401.286	693.5
401.51	682.5
401.734	675.5
401.958	673.5
402.182	683.5
402.406	675.5
402.63	706.5
402.854	686.5
403.078	716.5
403.302	711.5
403.526	710.5
403.75	716.5
403.974	690.5
404.198	712.5
404.422	698.5
404.645	699.5
404.869	717.5
405.093	701.5
405.317	700.5
405.541	707.5
405.765	698.5
405.988	728.5
406.212	733.5
406.436	715.5
406.66	751.5
406.883	734.5
407.107	745.5
407.331	786.5
407.555	838.5
407.778	804.5
408.002	812.5
408.226	767.5
408.449	773.5
408.673	770.5
408.896	750.5
409.12	738.5
409.344	731.5
409.567	733.5
409.791	717.5
410.014	728.5
410.238	738.5
410.461	731.5
410.685	757.5
410.908	699.5
411.132	726.5
411.355	723.5
411.578	707.5
411.802	700.5
412.025	725.5
412.249	689.5
412.472	715.5
412.695	692.5
412.919	682.5
413.142	699.5
413.365	701.5
413.589	705.5
413.812	675.5
414.035	695.5
414.258	687.5
414.482	709.5
414.705	695.5
414.928	691.5
415.151	678.5
415.374	663.5
415.597	673.5
415.821	647.5
416.044	659.5
416.267	651.5
416.49	651.5
416.713	657.5
416.936	673.5
417.159	655.5
417.382	668.5
417.605	643.5
417.828	673.5
418.051	659.5
418.274	655.5
418.497	652.5
418.72	666.5
418.943	657.5
419.166	689.5
419.389	744.5
419.611	770.5
419.834	707.5
420.057	663.5
420.28	689.5
420.503	659.5
420.726	673.5
420.948	647.5
421.171	668.5
421.394	645.5
421.617	654.5
421.839	677.5
422.062	654.5
422.285	651.5
422.507	645.5
422.73	662.5
422.953	672.5
423.175	657.5
423.398	659.5
423.621	654.5
423.843	667.5
424.066	667.5
424.288	648.5
424.511	669.5
424.733	660.5
424.956	671.5
425.178	652.5
425.401	665.5
425.623	664.5
425.846	655.5
426.068	653.5
426.291	647.5
426.513	674.5
426.735	638.5
426.958	638.5
427.18	644.5
427.402	652.5
427.625	653.5
427.847	618.5
428.069	615.5
428.292	621.5
428.514	610.5
428.736	629.5
428.958	614.5
429.181	616.5
429.403	616.5
429.625	632.5
429.847	625.5
430.069	609.5
430.292	620.5
430.514	613.5
430.736	623.5
430.958	616.5
431.18	625.5
431.402	631.5
431.624	614.5
431.846	640.5
432.068	625.5
432.29	675.5
432.512	609.5
432.734	657.5
432.956	658.5
433.178	653.5
433.4	654.5
433.622	669.5
433.844	643.5
434.066	655.5
434.287	649.5
434.509	656.5
434.731	663.5
434.953	670.5
435.175	723.5
435.397	686.5
435.618	666.5
435.84	649.5
436.062	649.5
436.284	638.5
436.505	637.5
436.727	644.5
436.949	634.5
437.17	646.5
437.392	611.5
437.614	635.5
437.835	606.5
438.057	602.5
438.278	611.5
438.5	622.5
438.721	597.5
438.943	600.5
439.165	621.5
439.386	605.5
439.608	638.5
439.829	631.5
440.05	623.5
440.272	629.5
440.493	639.5
440.715	665.5
440.936	647.5
441.158	665.5
441.379	665.5
441.6	698.5
441.822	683.5
442.043	678.5
442.264	659.5
442.486	675.5
442.707	693.5
442.928	686.5
443.149	668.5
443.371	677.5
443.592	695.5
443.813	701.5
444.034	672.5
444.255	710.5
444.476	717.5
444.698	717.5
444.919	744.5
445.14	826.5
445.361	736.5
445.582	693.5
445.803	671.5
446.024	661.5
446.245	663.5
446.466	643.5
446.687	609.5
446.908	653.5
447.129	637.5
447.35	616.5
447.571	613.5
447.792	602.5
448.013	599.5
448.234	604.5
448.455	581.5
448.675	586.5
448.896	591.5
449.117	601.5
449.338	587.5
449.559	580.5
449.779	586.5
450	563.5
450.221	600.5
450.442	574.5
450.662	571.5
450.883	602.5
451.104	620.5
451.324	590.5
451.545	577.5
451.766	591.5
451.986	586.5
452.207	587.5
452.428	564.5
452.648	568.5
452.869	571.5
453.089	577.5
453.31	571.5
453.53	539.5
453.751	568.5
453.971	568.5
454.192	603.5
454.412	587.5
454.633	548.5
454.853	567.5
455.073	543.5
455.294	570.5
455.514	548.5
455.734	586.5
455.955	579.5
456.175	585.5
456.395	552.5
456.616	552.5
456.836	549.5
457.056	565.5
457.276	546.5
457.497	552.5
457.717	561.5
457.937	565.5
458.157	548.5
458.377	568.5
458.598	573.5
458.818	596.5
459.038	582.5
459.258	611.5
459.478	637.5
459.698	673.5
459.918	686.5
460.138	676.5
460.358	684.5
460.578	695.5
460.798	743.5
461.018	719.5
461.238	683.5
461.458	709.5
461.678	676.5
461.898	701.5
462.118	689.5
462.338	709.5
462.558	782.5
462.777	770.5
462.997	819.5
463.217	855.5
463.437	830.5
463.657	817.5
463.876	780.5
464.096	789.5
464.316	765.5
464.536	775.5
464.755	741.5
464.975	715.5
465.195	707.5
465.414	697.5
465.634	675.5
465.854	650.5
466.073	629.5
466.293	614.5
466.512	635.5
466.732	628.5
466.951	602.5
467.171	628.5
467.391	618.5
467.61	611.5
467.829	603.5
468.049	596.5
468.268	594.5
468.488	597.5
468.707	605.5
468.927	598.5
469.146	610.5
469.365	616.5
469.585	602.5
469.804	601.5
470.023	637.5
470.243	612.5
470.462	615.5
470.681	628.5
470.901	627.5
471.12	615.5
471.339	617.5
471.558	600.5
471.777	610.5
471.997	604.5
472.216	593.5
472.435	603.5
472.654	598.5
472.873	567.5
473.092	591.5
473.311	608.5
473.53	589.5
473.749	602.5
473.968	602.5
474.187	588.5
474.406	598.5
474.625	611.5
474.844	591.5
475.063	605.5
475.282	612.5
475.501	587.5
475.72	625.5
475.939	613.5
476.158	636.5
476.377	612.5
476.596	636.5
476.814	620.5
477.033	611.5
477.252	628.5
477.471	631.5
477.69	683.5
477.908	674.5
478.127	678.5
478.346	668.5
478.564	705.5
478.783	692.5
479.002	702.5
479.22	719.5
479.439	727.5
479.658	719.5
479.876	692.5
480.095	705.5
480.313	726.5
480.532	714.5
480.751	738.5
480.969	707.5
481.188	683.5
481.406	694.5
481.624	710.5
481.843	674.5
482.061	680.5
482.28	678.5
482.498	694.5
482.717	671.5
482.935	683.5
483.153	686.5
483.372	725.5
483.59	729.5
483.808	703.5
484.027	679.5
484.245	702.5
484.463	703.5
484.681	691.5
484.9	691.5
485.118	712.5
485.336	682.5
485.554	713.5
485.772	713.5
485.99	708.5
486.209	697.5
486.427	701.5
486.645	670.5
486.863	693.5
487.081	699.5
487.299	694.5
487.517	694.5
487.735	718.5
487.953	733.5
488.171	732.5
488.389	702.5
488.607	715.5
488.825	698.5
489.043	685.5
489.261	699.5
489.479	694.5
489.696	701.5
489.914	717.5
490.132	730.5
490.35	734.5
490.568	745.5
490.786	732.5
491.003	742.5
491.221	738.5
491.439	740.5
491.657	727.5
491.874	747.5
492.092	749.5
492.31	753.5
492.527	751.5
492.745	723.5
492.963	715.5
493.18	722.5
493.398	737.5
493.615	735.5
493.833	729.5
494.05	737.5
494.268	771.5
494.485	759.5
494.703	720.5
494.92	748.5
495.138	753.5
495.355	765.5
495.573	768.5
495.79	746.5
496.008	758.5
496.225	759.5
496.442	765.5
496.66	776.5
496.877	798.5
497.094	793.5
497.312	793.5
497.529	834.5
497.746	833.5
497.963	853.5
498.181	888.5
498.398	895.5
498.615	922.5
498.832	959.5
499.049	1030.5
499.267	1054.5
499.484	1094.5
499.701	1191.5
499.918	1249.5
500.135	1339.5
500.352	1445.5
500.569	1452.5
500.786	1475.5
501.003	1363.5
501.22	1283.5
501.437	1220.5
501.654	1145.5
501.871	1073.5
502.088	1031.5
502.305	986.5
502.522	965.5
502.739	942.5
502.956	856.5
503.172	884.5
503.389	847.5
503.606	819.5
503.823	803.5
504.04	797.5
504.256	806.5
504.473	807.5
504.69	794.5
504.907	789.5
505.123	775.5
505.34	731.5
505.557	722.5
505.773	710.5
505.99	734.5
506.207	687.5
506.423	649.5
506.64	683.5
506.856	669.5
507.073	636.5
507.289	663.5
507.506	655.5
507.722	640.5
507.939	638.5
508.155	647.5
508.372	643.5
508.588	632.5
508.805	622.5
509.021	622.5
509.238	636.5
509.454	593.5
509.67	625.5
509.887	588.5
510.103	590.5
510.319	604.5
510.536	589.5
510.752	587.5
510.968	594.5
511.184	588.5
511.401	591.5
511.617	590.5
511.833	613.5
512.049	590.5
512.265	579.5
512.481	585.5
512.698	598.5
512.914	599.5
513.13	582.5
513.346	594.5
513.562	592.5
513.778	607.5
513.994	594.5
514.21	598.5
514.426	619.5
514.642	601.5
514.858	589.5
515.074	597.5
515.29	621.5
515.506	602.5
515.721	625.5
515.937	634.5
516.153	618.5
516.369	637.5
516.585	636.5
516.801	649.5
517.016	661.5
517.232	643.5
517.448	691.5
517.664	686.5
517.879	680.5
518.095	689.5
518.311	695.5
518.527	670.5
518.742	674.5
518.958	632.5
519.173	654.5
519.389	617.5
