Data from Ni(NO3)2Standard.Agarose3%.GreenCap.LampEnergy5.5.E.O_HRD10591_14-41-18-188.txt Node
Date: Mon Jul 22 14:41:18 EDT 2019
User: cochatt
Spectrometer: HR+D1059
Trigger mode: 1
Integration Time (sec): 1.000000E-1
Scans to average: 1
Electric dark correction enabled: true
Nonlinearity correction enabled: false
Boxcar width: 0
XAxis mode: Wavelengths
Number of Pixels in Spectrum: 2048
>>>>>Begin Spectral Data<<<<<
223.165	-28.19
223.4	-28.19
223.635	-28.19
223.869	-18.19
224.104	-17.19
224.338	-22.19
224.573	-0.19
224.808	-15.19
225.042	-7.19
225.277	-9.19
225.511	-3.19
225.746	16.81
225.98	-1.19
226.215	10.81
226.449	16.81
226.683	27.81
226.918	28.81
227.152	20.81
227.387	52.81
227.621	25.81
227.856	31.81
228.09	44.81
228.324	53.81
228.559	56.81
228.793	51.81
229.027	63.81
229.262	72.81
229.496	72.81
229.73	82.81
229.964	74.81
230.199	76.81
230.433	80.81
230.667	88.81
230.901	82.81
231.136	91.81
231.37	74.81
231.604	79.81
231.838	61.81
232.072	86.81
232.306	76.81
232.541	87.81
232.775	91.81
233.009	97.81
233.243	91.81
233.477	94.81
233.711	90.81
233.945	79.81
234.179	78.81
234.413	75.81
234.647	86.81
234.881	77.81
235.115	69.81
235.349	82.81
235.583	75.81
235.817	73.81
236.051	85.81
236.285	85.81
236.519	82.81
236.753	87.81
236.987	89.81
237.221	69.81
237.455	79.81
237.689	83.81
237.922	87.81
238.156	68.81
238.39	67.81
238.624	90.81
238.858	88.81
239.091	73.81
239.325	81.81
239.559	81.81
239.793	82.81
240.027	72.81
240.26	74.81
240.494	76.81
240.728	68.81
240.961	83.81
241.195	77.81
241.429	65.81
241.662	87.81
241.896	81.81
242.13	80.81
242.363	84.81
242.597	85.81
242.83	70.81
243.064	78.81
243.298	73.81
243.531	89.81
243.765	84.81
243.998	82.81
244.232	74.81
244.465	82.81
244.699	83.81
244.932	80.81
245.166	81.81
245.399	71.81
245.633	85.81
245.866	71.81
246.099	76.81
246.333	79.81
246.566	77.81
246.8	66.81
247.033	88.81
247.266	61.81
247.5	83.81
247.733	85.81
247.966	79.81
248.2	84.81
248.433	89.81
248.666	93.81
248.899	70.81
249.133	78.81
249.366	90.81
249.599	80.81
249.832	86.81
250.066	69.81
250.299	73.81
250.532	74.81
250.765	80.81
250.998	78.81
251.231	90.81
251.465	85.81
251.698	63.81
251.931	79.81
252.164	85.81
252.397	74.81
252.63	90.81
252.863	82.81
253.096	75.81
253.329	76.81
253.562	79.81
253.795	85.81
254.028	76.81
254.261	77.81
254.494	80.81
254.727	79.81
254.96	81.81
255.193	83.81
255.426	96.81
255.659	83.81
255.892	98.81
256.124	82.81
256.357	81.81
256.59	94.81
256.823	86.81
257.056	73.81
257.289	79.81
257.521	76.81
257.754	75.81
257.987	86.81
258.22	86.81
258.452	81.81
258.685	71.81
258.918	81.81
259.151	74.81
259.383	88.81
259.616	78.81
259.849	88.81
260.081	83.81
260.314	83.81
260.547	69.81
260.779	88.81
261.012	84.81
261.244	75.81
261.477	92.81
261.71	89.81
261.942	87.81
262.175	96.81
262.407	84.81
262.64	72.81
262.872	79.81
263.105	95.81
263.337	90.81
263.57	97.81
263.802	85.81
264.035	85.81
264.267	74.81
264.499	88.81
264.732	85.81
264.964	79.81
265.197	76.81
265.429	81.81
265.661	86.81
265.894	88.81
266.126	83.81
266.358	87.81
266.591	92.81
266.823	104.81
267.055	66.81
267.287	68.81
267.52	79.81
267.752	92.81
267.984	95.81
268.216	85.81
268.448	90.81
268.681	92.81
268.913	85.81
269.145	94.81
269.377	83.81
269.609	76.81
269.841	85.81
270.073	99.81
270.306	103.81
270.538	93.81
270.77	76.81
271.002	87.81
271.234	83.81
271.466	90.81
271.698	77.81
271.93	70.81
272.162	87.81
272.394	113.81
272.626	77.81
272.858	90.81
273.09	91.81
273.322	87.81
273.553	89.81
273.785	94.81
274.017	92.81
274.249	75.81
274.481	82.81
274.713	87.81
274.945	93.81
275.176	76.81
275.408	81.81
275.64	88.81
275.872	84.81
276.104	88.81
276.335	100.81
276.567	84.81
276.799	90.81
277.031	92.81
277.262	99.81
277.494	96.81
277.726	86.81
277.957	96.81
278.189	82.81
278.421	83.81
278.652	89.81
278.884	90.81
279.115	85.81
279.347	80.81
279.579	95.81
279.81	88.81
280.042	87.81
280.273	87.81
280.505	78.81
280.736	80.81
280.968	71.81
281.199	74.81
281.431	81.81
281.662	87.81
281.894	79.81
282.125	96.81
282.356	89.81
282.588	74.81
282.819	85.81
283.051	87.81
283.282	99.81
283.513	91.81
283.745	83.81
283.976	87.81
284.207	88.81
284.439	96.81
284.67	97.81
284.901	95.81
285.132	91.81
285.364	74.81
285.595	74.81
285.826	71.81
286.057	88.81
286.288	90.81
286.52	79.81
286.751	85.81
286.982	98.81
287.213	100.81
287.444	94.81
287.675	89.81
287.906	91.81
288.138	79.81
288.369	84.81
288.6	95.81
288.831	88.81
289.062	82.81
289.293	87.81
289.524	78.81
289.755	80.81
289.986	80.81
290.217	92.81
290.448	91.81
290.679	88.81
290.91	101.81
291.141	87.81
291.371	97.81
291.602	94.81
291.833	101.81
292.064	92.81
292.295	100.81
292.526	83.81
292.757	85.81
292.987	91.81
293.218	85.81
293.449	84.81
293.68	83.81
293.91	87.81
294.141	79.81
294.372	85.81
294.603	87.81
294.833	80.81
295.064	82.81
295.295	87.81
295.525	84.81
295.756	95.81
295.987	94.81
296.217	90.81
296.448	88.81
296.679	93.81
296.909	102.81
297.14	92.81
297.37	86.81
297.601	78.81
297.831	78.81
298.062	97.81
298.292	82.81
298.523	86.81
298.753	84.81
298.984	97.81
299.214	85.81
299.445	93.81
299.675	108.81
299.905	87.81
300.136	88.81
300.366	91.81
300.597	90.81
300.827	79.81
301.057	96.81
301.288	101.81
301.518	102.81
301.748	106.81
301.979	82.81
302.209	85.81
302.439	90.81
302.669	79.81
302.9	82.81
303.13	87.81
303.36	87.81
303.59	86.81
303.82	90.81
304.051	93.81
304.281	88.81
304.511	83.81
304.741	82.81
304.971	87.81
305.201	100.81
305.431	89.81
305.661	93.81
305.891	92.81
306.121	87.81
306.352	82.81
306.582	85.81
306.812	79.81
307.042	108.81
307.272	86.81
307.502	75.81
307.731	88.81
307.961	94.81
308.191	83.81
308.421	80.81
308.651	76.81
308.881	88.81
309.111	90.81
309.341	86.81
309.571	101.81
309.8	78.81
310.03	92.81
310.26	81.81
310.49	85.81
310.72	89.81
310.949	102.81
311.179	99.81
311.409	89.81
311.639	86.81
311.868	101.81
312.098	97.81
312.328	101.81
312.557	89.81
312.787	96.81
313.017	91.81
313.246	81.81
313.476	94.81
313.706	89.81
313.935	91.81
314.165	90.81
314.394	85.81
314.624	104.81
314.853	90.81
315.083	90.81
315.312	88.81
315.542	100.81
315.771	86.81
316.001	90.81
316.23	98.81
316.46	78.81
316.689	86.81
316.919	105.81
317.148	84.81
317.377	98.81
317.607	87.81
317.836	91.81
318.065	78.81
318.295	75.81
318.524	78.81
318.753	90.81
318.983	70.81
319.212	93.81
319.441	89.81
319.67	108.81
319.9	86.81
320.129	79.81
320.358	92.81
320.587	100.81
320.816	88.81
321.046	87.81
321.275	92.81
321.504	85.81
321.733	93.81
321.962	89.81
322.191	75.81
322.42	85.81
322.649	70.81
322.878	88.81
323.108	84.81
323.337	94.81
323.566	85.81
323.795	83.81
324.024	86.81
324.253	89.81
324.482	84.81
324.71	87.81
324.939	95.81
325.168	91.81
325.397	91.81
325.626	84.81
325.855	83.81
326.084	83.81
326.313	87.81
326.542	83.81
326.77	91.81
326.999	102.81
327.228	90.81
327.457	98.81
327.686	91.81
327.914	80.81
328.143	82.81
328.372	101.81
328.6	80.81
328.829	95.81
329.058	90.81
329.287	95.81
329.515	100.81
329.744	94.81
329.972	91.81
330.201	97.81
330.43	86.81
330.658	102.81
330.887	87.81
331.115	86.81
331.344	95.81
331.572	103.81
331.801	92.81
332.03	97.81
332.258	83.81
332.486	91.81
332.715	87.81
332.943	86.81
333.172	94.81
333.4	75.81
333.629	101.81
333.857	102.81
334.085	99.81
334.314	81.81
334.542	90.81
334.771	89.81
334.999	90.81
335.227	85.81
335.455	91.81
335.684	89.81
335.912	84.81
336.14	117.81
336.369	86.81
336.597	78.81
336.825	90.81
337.053	94.81
337.281	92.81
337.51	75.81
337.738	89.81
337.966	95.81
338.194	107.81
338.422	88.81
338.65	88.81
338.878	97.81
339.106	80.81
339.334	92.81
339.562	91.81
339.79	98.81
340.018	83.81
340.246	82.81
340.474	95.81
340.702	92.81
340.93	95.81
341.158	91.81
341.386	88.81
341.614	86.81
341.842	87.81
342.07	84.81
342.298	77.81
342.526	85.81
342.754	79.81
342.981	91.81
343.209	90.81
343.437	78.81
343.665	87.81
343.893	90.81
344.12	98.81
344.348	77.81
344.576	88.81
344.804	83.81
345.031	84.81
345.259	86.81
345.487	82.81
345.714	92.81
345.942	99.81
346.17	83.81
346.397	70.81
346.625	93.81
346.853	83.81
347.08	79.81
347.308	99.81
347.535	90.81
347.763	75.81
347.99	92.81
348.218	95.81
348.445	91.81
348.673	90.81
348.9	89.81
349.128	83.81
349.355	81.81
349.583	78.81
349.81	88.81
350.037	90.81
350.265	102.81
350.492	90.81
350.72	85.81
350.947	83.81
351.174	98.81
351.402	95.81
351.629	98.81
351.856	90.81
352.083	89.81
352.311	85.81
352.538	73.81
352.765	97.81
352.992	93.81
353.22	83.81
353.447	90.81
353.674	84.81
353.901	89.81
354.128	93.81
354.355	81.81
354.583	71.81
354.81	79.81
355.037	82.81
355.264	82.81
355.491	94.81
355.718	79.81
355.945	79.81
356.172	84.81
356.399	87.81
356.626	95.81
356.853	101.81
357.08	89.81
357.307	70.81
357.534	95.81
357.761	84.81
357.988	87.81
358.215	105.81
358.441	94.81
358.668	72.81
358.895	98.81
359.122	82.81
359.349	98.81
359.576	98.81
359.802	87.81
360.029	87.81
360.256	101.81
360.483	83.81
360.709	80.81
360.936	93.81
361.163	85.81
361.39	67.81
361.616	90.81
361.843	80.81
362.07	91.81
362.296	96.81
362.523	78.81
362.749	98.81
362.976	91.81
363.203	105.81
363.429	85.81
363.656	89.81
363.882	85.81
364.109	91.81
364.335	90.81
364.562	68.81
364.788	87.81
365.015	76.81
365.241	89.81
365.468	82.81
365.694	92.81
365.92	90.81
366.147	94.81
366.373	84.81
366.599	86.81
366.826	89.81
367.052	81.81
367.278	90.81
367.505	88.81
367.731	78.81
367.957	94.81
368.184	91.81
368.41	85.81
368.636	79.81
368.862	85.81
369.089	99.81
369.315	101.81
369.541	92.81
369.767	83.81
369.993	86.81
370.219	83.81
370.445	86.81
370.672	88.81
370.898	86.81
371.124	90.81
371.35	87.81
371.576	80.81
371.802	74.81
372.028	87.81
372.254	66.81
372.48	87.81
372.706	84.81
372.932	89.81
373.158	86.81
373.384	96.81
373.61	96.81
373.835	79.81
374.061	89.81
374.287	73.81
374.513	94.81
374.739	90.81
374.965	87.81
375.191	92.81
375.416	97.81
375.642	74.81
375.868	86.81
376.094	94.81
376.319	79.81
376.545	101.81
376.771	87.81
376.997	87.81
377.222	90.81
377.448	83.81
377.674	82.81
377.899	77.81
378.125	97.81
378.35	97.81
378.576	95.81
378.802	98.81
379.027	84.81
379.253	90.81
379.478	98.81
379.704	90.81
379.929	88.81
380.155	93.81
380.38	89.81
380.606	94.81
380.831	82.81
381.057	101.81
381.282	79.81
381.507	85.81
381.733	91.81
381.958	87.81
382.184	89.81
382.409	68.81
382.634	88.81
382.86	85.81
383.085	92.81
383.31	89.81
383.535	94.81
383.761	85.81
383.986	87.81
384.211	91.81
384.436	79.81
384.662	79.81
384.887	92.81
385.112	77.81
385.337	87.81
385.562	87.81
385.787	87.81
386.013	98.81
386.238	83.81
386.463	94.81
386.688	79.81
386.913	75.81
387.138	85.81
387.363	92.81
387.588	98.81
387.813	106.81
388.038	89.81
388.263	92.81
388.488	78.81
388.713	78.81
388.938	89.81
389.163	99.81
389.387	85.81
389.612	88.81
389.837	97.81
390.062	90.81
390.287	86.81
390.512	75.81
390.736	75.81
390.961	79.81
391.186	101.81
391.411	79.81
391.636	82.81
391.86	92.81
392.085	89.81
392.31	100.81
392.534	86.81
392.759	74.81
392.984	88.81
393.208	88.81
393.433	72.81
393.658	89.81
393.882	86.81
394.107	74.81
394.331	85.81
394.556	92.81
394.78	92.81
395.005	72.81
395.229	88.81
395.454	90.81
395.678	83.81
395.903	87.81
396.127	91.81
396.352	86.81
396.576	89.81
396.801	80.81
397.025	92.81
397.249	79.81
397.474	89.81
397.698	88.81
397.922	90.81
398.147	86.81
398.371	85.81
398.595	92.81
398.82	93.81
399.044	94.81
399.268	92.81
399.492	85.81
399.717	87.81
399.941	93.81
400.165	95.81
400.389	94.81
400.613	97.81
400.837	96.81
401.062	84.81
401.286	102.81
401.51	79.81
401.734	91.81
401.958	90.81
402.182	79.81
402.406	90.81
402.63	94.81
402.854	97.81
403.078	96.81
403.302	97.81
403.526	83.81
403.75	88.81
403.974	95.81
404.198	95.81
404.422	87.81
404.645	95.81
404.869	88.81
405.093	94.81
405.317	88.81
405.541	78.81
405.765	81.81
405.988	90.81
406.212	91.81
406.436	93.81
406.66	90.81
406.883	95.81
407.107	98.81
407.331	76.81
407.555	81.81
407.778	99.81
408.002	89.81
408.226	86.81
408.449	81.81
408.673	90.81
408.896	90.81
409.12	82.81
409.344	80.81
409.567	87.81
409.791	79.81
410.014	82.81
410.238	90.81
410.461	91.81
410.685	89.81
410.908	89.81
411.132	94.81
411.355	90.81
411.578	82.81
411.802	82.81
412.025	83.81
412.249	70.81
412.472	92.81
412.695	106.81
412.919	95.81
413.142	87.81
413.365	83.81
413.589	77.81
413.812	78.81
414.035	91.81
414.258	97.81
414.482	93.81
414.705	90.81
414.928	74.81
415.151	85.81
415.374	96.81
415.597	89.81
415.821	84.81
416.044	96.81
416.267	86.81
416.49	78.81
416.713	94.81
416.936	86.81
417.159	90.81
417.382	84.81
417.605	95.81
417.828	102.81
418.051	78.81
418.274	86.81
418.497	85.81
418.72	90.81
418.943	85.81
419.166	99.81
419.389	99.81
419.611	88.81
419.834	99.81
420.057	83.81
420.28	79.81
420.503	79.81
420.726	85.81
420.948	89.81
421.171	75.81
421.394	85.81
421.617	95.81
421.839	96.81
422.062	89.81
422.285	86.81
422.507	84.81
422.73	88.81
422.953	86.81
423.175	76.81
423.398	90.81
423.621	94.81
423.843	84.81
424.066	89.81
424.288	87.81
424.511	73.81
424.733	85.81
424.956	95.81
425.178	85.81
425.401	82.81
425.623	84.81
425.846	77.81
426.068	98.81
426.291	92.81
426.513	89.81
426.735	71.81
426.958	95.81
427.18	78.81
427.402	96.81
427.625	82.81
427.847	94.81
428.069	88.81
428.292	82.81
428.514	82.81
428.736	99.81
428.958	89.81
429.181	94.81
429.403	79.81
429.625	83.81
429.847	78.81
430.069	107.81
430.292	94.81
430.514	88.81
430.736	84.81
430.958	79.81
431.18	81.81
431.402	91.81
431.624	104.81
431.846	89.81
432.068	94.81
432.29	102.81
432.512	100.81
432.734	86.81
432.956	101.81
433.178	77.81
433.4	103.81
433.622	98.81
433.844	88.81
434.066	95.81
434.287	81.81
434.509	70.81
434.731	93.81
434.953	78.81
435.175	97.81
435.397	94.81
435.618	94.81
435.84	87.81
436.062	79.81
436.284	76.81
436.505	78.81
436.727	100.81
436.949	101.81
437.17	80.81
437.392	81.81
437.614	94.81
437.835	87.81
438.057	90.81
438.278	96.81
438.5	100.81
438.721	87.81
438.943	93.81
439.165	82.81
439.386	86.81
439.608	86.81
439.829	92.81
440.05	99.81
440.272	90.81
440.493	80.81
440.715	88.81
440.936	88.81
441.158	85.81
441.379	90.81
441.6	90.81
441.822	90.81
442.043	85.81
442.264	85.81
442.486	80.81
442.707	87.81
442.928	97.81
443.149	83.81
443.371	93.81
443.592	86.81
443.813	96.81
444.034	86.81
444.255	85.81
444.476	72.81
444.698	89.81
444.919	81.81
445.14	197.81
445.361	135.81
445.582	89.81
445.803	91.81
446.024	92.81
446.245	79.81
446.466	106.81
446.687	76.81
446.908	102.81
447.129	85.81
447.35	85.81
447.571	91.81
447.792	94.81
448.013	79.81
448.234	74.81
448.455	78.81
448.675	81.81
448.896	100.81
449.117	88.81
449.338	97.81
449.559	86.81
449.779	74.81
450	88.81
450.221	75.81
450.442	93.81
450.662	94.81
450.883	88.81
451.104	101.81
451.324	95.81
451.545	89.81
451.766	81.81
451.986	95.81
452.207	87.81
452.428	91.81
452.648	75.81
452.869	75.81
453.089	73.81
453.31	80.81
453.53	89.81
453.751	91.81
453.971	87.81
454.192	90.81
454.412	77.81
454.633	89.81
454.853	88.81
455.073	86.81
455.294	88.81
455.514	91.81
455.734	82.81
455.955	76.81
456.175	84.81
456.395	97.81
456.616	75.81
456.836	76.81
457.056	89.81
457.276	85.81
457.497	87.81
457.717	95.81
457.937	74.81
458.157	82.81
458.377	93.81
458.598	93.81
458.818	87.81
459.038	82.81
459.258	88.81
459.478	79.81
459.698	93.81
459.918	82.81
460.138	89.81
460.358	111.81
460.578	85.81
460.798	89.81
461.018	91.81
461.238	84.81
461.458	91.81
461.678	92.81
461.898	101.81
462.118	89.81
462.338	95.81
462.558	82.81
462.777	86.81
462.997	101.81
463.217	80.81
463.437	92.81
463.657	96.81
463.876	91.81
464.096	87.81
464.316	94.81
464.536	94.81
464.755	101.81
464.975	91.81
465.195	90.81
465.414	94.81
465.634	92.81
465.854	94.81
466.073	98.81
466.293	98.81
466.512	85.81
466.732	84.81
466.951	98.81
467.171	101.81
467.391	77.81
467.61	89.81
467.829	92.81
468.049	77.81
468.268	89.81
468.488	92.81
468.707	92.81
468.927	90.81
469.146	75.81
469.365	86.81
469.585	84.81
469.804	106.81
470.023	78.81
470.243	87.81
470.462	94.81
470.681	94.81
470.901	90.81
471.12	74.81
471.339	89.81
471.558	89.81
471.777	83.81
471.997	83.81
472.216	95.81
472.435	83.81
472.654	90.81
472.873	106.81
473.092	92.81
473.311	88.81
473.53	82.81
473.749	108.81
473.968	82.81
474.187	83.81
474.406	83.81
474.625	101.81
474.844	97.81
475.063	102.81
475.282	92.81
475.501	102.81
475.72	81.81
475.939	86.81
476.158	88.81
476.377	87.81
476.596	86.81
476.814	103.81
477.033	93.81
477.252	94.81
477.471	101.81
477.69	92.81
477.908	92.81
478.127	95.81
478.346	98.81
478.564	103.81
478.783	100.81
479.002	90.81
479.22	93.81
479.439	82.81
479.658	82.81
479.876	95.81
480.095	95.81
480.313	100.81
480.532	86.81
480.751	97.81
480.969	91.81
481.188	78.81
481.406	100.81
481.624	86.81
481.843	96.81
482.061	79.81
482.28	88.81
482.498	98.81
482.717	82.81
482.935	98.81
483.153	91.81
483.372	94.81
483.59	87.81
483.808	95.81
484.027	97.81
484.245	87.81
484.463	106.81
484.681	90.81
484.9	90.81
485.118	100.81
485.336	88.81
485.554	91.81
485.772	82.81
485.99	89.81
486.209	89.81
486.427	92.81
486.645	87.81
486.863	87.81
487.081	86.81
487.299	89.81
487.517	96.81
487.735	103.81
487.953	89.81
488.171	107.81
488.389	102.81
488.607	110.81
488.825	89.81
489.043	85.81
489.261	100.81
489.479	85.81
489.696	97.81
489.914	86.81
490.132	88.81
490.35	90.81
490.568	86.81
490.786	99.81
491.003	91.81
491.221	99.81
491.439	97.81
491.657	91.81
491.874	92.81
492.092	113.81
492.31	115.81
492.527	115.81
492.745	93.81
492.963	99.81
493.18	110.81
493.398	88.81
493.615	114.81
493.833	97.81
494.05	91.81
494.268	99.81
494.485	96.81
494.703	98.81
494.92	105.81
495.138	98.81
495.355	98.81
495.573	104.81
495.79	109.81
496.008	95.81
496.225	112.81
496.442	113.81
496.66	108.81
496.877	108.81
497.094	105.81
497.312	96.81
497.529	104.81
497.746	85.81
497.963	101.81
498.181	96.81
498.398	110.81
498.615	110.81
498.832	109.81
499.049	117.81
499.267	90.81
499.484	115.81
499.701	111.81
499.918	107.81
500.135	107.81
500.352	117.81
500.569	115.81
500.786	123.81
501.003	105.81
501.22	107.81
501.437	104.81
501.654	100.81
501.871	95.81
502.088	98.81
502.305	92.81
502.522	114.81
502.739	95.81
502.956	110.81
503.172	95.81
503.389	92.81
503.606	94.81
503.823	86.81
504.04	97.81
504.256	93.81
504.473	107.81
504.69	105.81
504.907	96.81
505.123	94.81
505.34	100.81
505.557	107.81
505.773	98.81
505.99	85.81
506.207	106.81
506.423	95.81
506.64	99.81
506.856	106.81
507.073	98.81
507.289	95.81
507.506	108.81
507.722	106.81
507.939	91.81
508.155	102.81
508.372	97.81
508.588	83.81
508.805	100.81
509.021	76.81
509.238	93.81
509.454	103.81
509.67	74.81
509.887	87.81
510.103	81.81
510.319	85.81
510.536	101.81
510.752	107.81
510.968	87.81
511.184	101.81
511.401	95.81
511.617	108.81
511.833	106.81
512.049	85.81
512.265	108.81
512.481	97.81
512.698	90.81
512.914	92.81
513.13	93.81
513.346	109.81
513.562	94.81
513.778	101.81
513.994	88.81
514.21	88.81
514.426	85.81
514.642	81.81
514.858	82.81
515.074	79.81
515.29	96.81
515.506	94.81
515.721	94.81
515.937	86.81
516.153	103.81
516.369	98.81
516.585	88.81
516.801	91.81
517.016	97.81
517.232	85.81
517.448	95.81
