Data from Ni(NO3)2@0.125M.TitratingCurve.Agarose3%dH2O.NegLispCup.LampEnergy10.LIBS07252019_HRD10591_18-11-21-568.txt Node
Date: Thu Jul 25 18:11:21 EDT 2019
User: cochatt
Spectrometer: HR+D1059
Trigger mode: 1
Integration Time (sec): 1.000000E-1
Scans to average: 1
Electric dark correction enabled: true
Nonlinearity correction enabled: false
Boxcar width: 0
XAxis mode: Wavelengths
Number of Pixels in Spectrum: 2048
>>>>>Begin Spectral Data<<<<<
223.165	-11
223.4	-11
223.635	-11
223.869	-19
224.104	-12
224.338	-18
224.573	-22
224.808	-18
225.042	-3
225.277	-4
225.511	-6
225.746	11
225.98	7
226.215	12
226.449	11
226.683	12
226.918	37
227.152	23
227.387	28
227.621	34
227.856	35
228.09	50
228.324	57
228.559	64
228.793	72
229.027	97
229.262	106
229.496	101
229.73	110
229.964	109
230.199	115
230.433	114
230.667	130
230.901	136
231.136	130
231.37	128
231.604	122
231.838	130
232.072	135
232.306	130
232.541	143
232.775	148
233.009	132
233.243	147
233.477	148
233.711	139
233.945	140
234.179	124
234.413	143
234.647	167
234.881	140
235.115	143
235.349	145
235.583	145
235.817	139
236.051	140
236.285	126
236.519	152
236.753	156
236.987	152
237.221	159
237.455	140
237.689	139
237.922	143
238.156	149
238.39	147
238.624	142
238.858	160
239.091	160
239.325	163
239.559	147
239.793	168
240.027	153
240.26	146
240.494	155
240.728	162
240.961	156
241.195	164
241.429	171
241.662	158
241.896	150
242.13	175
242.363	173
242.597	164
242.83	176
243.064	172
243.298	182
243.531	202
243.765	170
243.998	184
244.232	200
244.465	171
244.699	181
244.932	201
245.166	190
245.399	188
245.633	195
245.866	191
246.099	183
246.333	189
246.566	207
246.8	179
247.033	193
247.266	198
247.5	210
247.733	193
247.966	211
248.2	210
248.433	203
248.666	212
248.899	211
249.133	201
249.366	217
249.599	213
249.832	222
250.066	239
250.299	223
250.532	212
250.765	207
250.998	215
251.231	227
251.465	225
251.698	224
251.931	219
252.164	224
252.397	245
252.63	225
252.863	248
253.096	231
253.329	219
253.562	250
253.795	237
254.028	249
254.261	240
254.494	240
254.727	243
254.96	244
255.193	249
255.426	262
255.659	259
255.892	275
256.124	254
256.357	243
256.59	243
256.823	252
257.056	269
257.289	250
257.521	246
257.754	268
257.987	271
258.22	272
258.452	268
258.685	292
258.918	265
259.151	280
259.383	276
259.616	267
259.849	270
260.081	292
260.314	275
260.547	273
260.779	261
261.012	287
261.244	285
261.477	255
261.71	278
261.942	299
262.175	286
262.407	306
262.64	281
262.872	287
263.105	294
263.337	306
263.57	298
263.802	288
264.035	304
264.267	309
264.499	286
264.732	301
264.964	287
265.197	290
265.429	280
265.661	306
265.894	314
266.126	315
266.358	308
266.591	308
266.823	329
267.055	310
267.287	327
267.52	333
267.752	317
267.984	329
268.216	314
268.448	315
268.681	313
268.913	312
269.145	319
269.377	318
269.609	317
269.841	307
270.073	303
270.306	334
270.538	340
270.77	314
271.002	335
271.234	333
271.466	340
271.698	327
271.93	333
272.162	339
272.394	324
272.626	332
272.858	316
273.09	353
273.322	331
273.553	341
273.785	345
274.017	342
274.249	367
274.481	347
274.713	361
274.945	362
275.176	349
275.408	345
275.64	342
275.872	356
276.104	378
276.335	345
276.567	362
276.799	360
277.031	381
277.262	367
277.494	370
277.726	350
277.957	379
278.189	381
278.421	371
278.652	373
278.884	388
279.115	383
279.347	395
279.579	386
279.81	378
280.042	384
280.273	399
280.505	380
280.736	379
280.968	391
281.199	390
281.431	402
281.662	400
281.894	386
282.125	389
282.356	411
282.588	415
282.819	405
283.051	396
283.282	416
283.513	417
283.745	403
283.976	421
284.207	408
284.439	418
284.67	424
284.901	406
285.132	418
285.364	415
285.595	412
285.826	407
286.057	429
286.288	403
286.52	432
286.751	432
286.982	435
287.213	439
287.444	433
287.675	427
287.906	446
288.138	437
288.369	440
288.6	433
288.831	443
289.062	439
289.293	446
289.524	427
289.755	450
289.986	466
290.217	455
290.448	442
290.679	466
290.91	468
291.141	463
291.371	461
291.602	452
291.833	451
292.064	464
292.295	455
292.526	464
292.757	468
292.987	444
293.218	469
293.449	462
293.68	454
293.91	459
294.141	461
294.372	450
294.603	492
294.833	472
295.064	460
295.295	463
295.525	464
295.756	468
295.987	430
296.217	466
296.448	473
296.679	478
296.909	482
297.14	484
297.37	501
297.601	494
297.831	478
298.062	494
298.292	495
298.523	509
298.753	518
298.984	500
299.214	522
299.445	506
299.675	491
299.905	490
300.136	493
300.366	506
300.597	515
300.827	530
301.057	535
301.288	516
301.518	529
301.748	514
301.979	529
302.209	538
302.439	551
302.669	521
302.9	527
303.13	493
303.36	511
303.59	514
303.82	514
304.051	518
304.281	540
304.511	524
304.741	504
304.971	510
305.201	529
305.431	510
305.661	527
305.891	507
306.121	502
306.352	507
306.582	503
306.812	489
307.042	526
307.272	506
307.502	513
307.731	488
307.961	502
308.191	501
308.421	523
308.651	516
308.881	510
309.111	514
309.341	513
309.571	518
309.8	519
310.03	498
310.26	528
310.49	514
310.72	523
310.949	526
311.179	519
311.409	514
311.639	533
311.868	511
312.098	520
312.328	535
312.557	554
312.787	539
313.017	548
313.246	541
313.476	562
313.706	552
313.935	576
314.165	571
314.394	570
314.624	558
314.853	532
315.083	558
315.312	564
315.542	540
315.771	556
316.001	515
316.23	544
316.46	541
316.689	538
316.919	520
317.148	562
317.377	548
317.607	552
317.836	550
318.065	544
318.295	547
318.524	535
318.753	535
318.983	520
319.212	532
319.441	555
319.67	537
319.9	542
320.129	522
320.358	562
320.587	554
320.816	527
321.046	555
321.275	556
321.504	535
321.733	570
321.962	558
322.191	554
322.42	586
322.649	561
322.878	538
323.108	558
323.337	579
323.566	556
323.795	548
324.024	595
324.253	587
324.482	560
324.71	597
324.939	583
325.168	583
325.397	590
325.626	562
325.855	591
326.084	610
326.313	619
326.542	608
326.77	610
326.999	626
327.228	598
327.457	607
327.686	587
327.914	602
328.143	629
328.372	623
328.6	590
328.829	612
329.058	592
329.287	610
329.515	602
329.744	611
329.972	623
330.201	593
330.43	639
330.658	618
330.887	622
331.115	621
331.344	631
331.572	652
331.801	642
332.03	682
332.258	693
332.486	704
332.715	734
332.943	760
333.172	800
333.4	844
333.629	853
333.857	852
334.085	808
334.314	801
334.542	771
334.771	796
334.999	748
335.227	752
335.455	748
335.684	760
335.912	739
336.14	754
336.369	729
336.597	720
336.825	716
337.053	754
337.281	703
337.51	720
337.738	697
337.966	712
338.194	661
338.422	666
338.65	679
338.878	648
339.106	683
339.334	669
339.562	646
339.79	637
340.018	621
340.246	636
340.474	640
340.702	626
340.93	660
341.158	662
341.386	646
341.614	642
341.842	637
342.07	651
342.298	642
342.526	637
342.754	638
342.981	632
343.209	646
343.437	693
343.665	737
343.893	788
344.12	827
344.348	784
344.576	718
344.804	692
345.031	676
345.259	627
345.487	653
345.714	631
345.942	629
346.17	641
346.397	617
346.625	601
346.853	593
347.08	615
347.308	615
347.535	627
347.763	626
347.99	620
348.218	623
348.445	630
348.673	616
348.9	603
349.128	628
349.355	636
349.583	622
349.81	606
350.037	616
350.265	613
350.492	603
350.72	612
350.947	602
351.174	600
351.402	579
351.629	597
351.856	610
352.083	598
352.311	595
352.538	600
352.765	584
352.992	600
353.22	594
353.447	586
353.674	606
353.901	584
354.128	597
354.355	616
354.583	592
354.81	599
355.037	610
355.264	619
355.491	642
355.718	604
355.945	578
356.172	575
356.399	602
356.626	612
356.853	586
357.08	584
357.307	614
357.534	601
357.761	613
357.988	604
358.215	603
358.441	580
358.668	609
358.895	586
359.122	579
359.349	600
359.576	599
359.802	605
360.029	586
360.256	601
360.483	627
360.709	584
360.936	606
361.163	613
361.39	609
361.616	574
361.843	615
362.07	590
362.296	593
362.523	598
362.749	582
362.976	596
363.203	584
363.429	581
363.656	598
363.882	615
364.109	607
364.335	582
364.562	595
364.788	580
365.015	597
365.241	606
365.468	598
365.694	603
365.92	617
366.147	598
366.373	596
366.599	597
366.826	588
367.052	608
367.278	598
367.505	590
367.731	590
367.957	588
368.184	607
368.41	625
368.636	612
368.862	607
369.089	606
369.315	613
369.541	638
369.767	606
369.993	629
370.219	636
370.445	631
370.672	632
370.898	619
371.124	625
371.35	656
371.576	653
371.802	660
372.028	642
372.254	664
372.48	642
372.706	642
372.932	685
373.158	670
373.384	645
373.61	665
373.835	655
374.061	650
374.287	689
374.513	671
374.739	708
374.965	711
375.191	712
375.416	728
375.642	706
375.868	703
376.094	682
376.319	664
376.545	687
376.771	664
376.997	674
377.222	649
377.448	646
377.674	651
377.899	652
378.125	645
378.35	656
378.576	643
378.802	630
379.027	642
379.253	633
379.478	632
379.704	655
379.929	645
380.155	639
380.38	626
380.606	649
380.831	670
381.057	649
381.282	636
381.507	649
381.733	650
381.958	681
382.184	665
382.409	671
382.634	680
382.86	660
383.085	693
383.31	703
383.535	716
383.761	712
383.986	760
384.211	744
384.436	764
384.662	766
384.887	760
385.112	796
385.337	806
385.562	785
385.787	765
386.013	789
386.238	803
386.463	812
386.688	789
386.913	770
387.138	775
387.363	762
387.588	759
387.813	771
388.038	767
388.263	766
388.488	780
388.713	770
388.938	749
389.163	775
389.387	766
389.612	751
389.837	764
390.062	756
390.287	776
390.512	778
390.736	782
390.961	807
391.186	818
391.411	824
391.636	884
391.86	898
392.085	911
392.31	892
392.534	859
392.759	824
392.984	834
393.208	830
393.433	830
393.658	821
393.882	854
394.107	839
394.331	847
394.556	826
394.78	851
395.005	847
395.229	846
395.454	868
395.678	886
395.903	910
396.127	878
396.352	837
396.576	832
396.801	825
397.025	847
397.249	857
397.474	877
397.698	882
397.922	880
398.147	887
398.371	880
398.595	893
398.82	972
399.044	1022
399.268	1158
399.492	1387
399.717	1542
399.941	1498
400.165	1324
400.389	1173
400.613	1056
400.837	1014
401.062	970
401.286	975
401.51	965
401.734	980
401.958	1014
402.182	994
402.406	1014
402.63	1030
402.854	1069
403.078	1077
403.302	1087
403.526	1166
403.75	1140
403.974	1176
404.198	1156
404.422	1165
404.645	1165
404.869	1138
405.093	1138
405.317	1100
405.541	1086
405.765	1065
405.988	1077
406.212	1067
406.436	1069
406.66	1111
406.883	1110
407.107	1178
407.331	1251
407.555	1285
407.778	1275
408.002	1235
408.226	1202
408.449	1169
408.673	1147
408.896	1118
409.12	1116
409.344	1111
409.567	1106
409.791	1108
410.014	1113
410.238	1097
410.461	1094
410.685	1090
410.908	1056
411.132	1046
411.355	1013
411.578	1032
411.802	1022
412.025	1031
412.249	1048
412.472	1048
412.695	1027
412.919	1005
413.142	989
413.365	990
413.589	991
413.812	977
414.035	958
414.258	971
414.482	975
414.705	979
414.928	988
415.151	981
415.374	987
415.597	1003
415.821	971
416.044	958
416.267	947
416.49	952
416.713	927
416.936	962
417.159	985
417.382	957
417.605	976
417.828	969
418.051	996
418.274	997
418.497	969
418.72	1010
418.943	1008
419.166	1050
419.389	1095
419.611	1068
419.834	1044
420.057	1029
420.28	1000
420.503	962
420.726	978
420.948	966
421.171	959
421.394	965
421.617	960
421.839	951
422.062	999
422.285	981
422.507	1015
422.73	1012
422.953	1029
423.175	1032
423.398	1052
423.621	1044
423.843	1056
424.066	1039
424.288	1045
424.511	1023
424.733	1023
424.956	1007
425.178	971
425.401	1007
425.623	983
425.846	947
426.068	932
426.291	895
426.513	916
426.735	878
426.958	906
427.18	890
427.402	876
427.625	887
427.847	856
428.069	868
428.292	873
428.514	862
428.736	848
428.958	867
429.181	847
429.403	829
429.625	842
429.847	814
430.069	838
430.292	821
430.514	845
430.736	842
430.958	826
431.18	840
431.402	836
431.624	843
431.846	873
432.068	876
432.29	863
432.512	849
432.734	843
432.956	849
433.178	841
433.4	842
433.622	860
433.844	868
434.066	888
434.287	886
434.509	905
434.731	952
434.953	976
435.175	1006
435.397	958
435.618	910
435.84	900
436.062	883
436.284	856
436.505	842
436.727	852
436.949	874
437.17	860
437.392	829
437.614	832
437.835	815
438.057	808
438.278	816
438.5	825
438.721	827
438.943	856
439.165	830
439.386	818
439.608	841
439.829	853
440.05	866
440.272	874
440.493	865
440.715	861
440.936	895
441.158	907
441.379	950
441.6	976
441.822	1005
442.043	1018
442.264	934
442.486	939
442.707	928
442.928	951
443.149	980
443.371	1002
443.592	964
443.813	946
444.034	992
444.255	1039
444.476	1067
444.698	1144
444.919	1177
445.14	1224
445.361	1092
445.582	988
445.803	958
446.024	928
446.245	896
446.466	874
446.687	857
446.908	872
447.129	852
447.35	851
447.571	827
447.792	830
448.013	804
448.234	797
448.455	804
448.675	789
448.896	770
449.117	804
449.338	765
449.559	786
449.779	790
450	767
450.221	782
450.442	778
450.662	811
450.883	803
451.104	811
451.324	818
451.545	815
451.766	785
451.986	772
452.207	775
452.428	810
452.648	786
452.869	751
453.089	752
453.31	775
453.53	782
453.751	776
453.971	765
454.192	762
454.412	732
454.633	774
454.853	774
455.073	751
455.294	754
455.514	735
455.734	741
455.955	707
456.175	731
456.395	733
456.616	733
456.836	754
457.056	724
457.276	717
457.497	718
457.717	733
457.937	750
458.157	744
458.377	753
458.598	770
458.818	804
459.038	815
459.258	828
459.478	851
459.698	898
459.918	916
460.138	985
460.358	1017
460.578	1038
460.798	1015
461.018	1026
461.238	1027
461.458	995
461.678	1028
461.898	1028
462.118	1046
462.338	1121
462.558	1126
462.777	1154
462.997	1293
463.217	1446
463.437	1426
463.657	1237
463.876	1186
464.096	1152
464.316	1169
464.536	1222
464.755	1181
464.975	1094
465.195	1063
465.414	981
465.634	897
465.854	898
466.073	869
466.293	872
466.512	843
466.732	853
466.951	814
467.171	815
467.391	807
467.61	809
467.829	811
468.049	806
468.268	801
468.488	794
468.707	787
468.927	810
469.146	760
469.365	818
469.585	796
469.804	852
470.023	863
470.243	839
470.462	855
470.681	859
470.901	844
471.12	858
471.339	802
471.558	803
471.777	794
471.997	794
472.216	761
472.435	771
472.654	776
472.873	797
473.092	770
473.311	768
473.53	753
473.749	730
473.968	775
474.187	706
474.406	750
474.625	752
474.844	749
475.063	775
475.282	765
475.501	763
475.72	799
475.939	782
476.158	779
476.377	787
476.596	778
476.814	822
477.033	804
477.252	791
477.471	858
477.69	844
477.908	886
478.127	910
478.346	903
478.564	933
478.783	948
479.002	963
479.22	946
479.439	968
479.658	926
479.876	944
480.095	956
480.313	1019
480.532	1045
480.751	1047
480.969	952
481.188	930
481.406	894
481.624	892
481.843	861
482.061	890
482.28	861
482.498	848
482.717	865
482.935	864
483.153	868
483.372	853
483.59	840
483.808	854
484.027	840
484.245	854
484.463	879
484.681	865
484.9	890
485.118	880
485.336	885
485.554	878
485.772	925
485.99	879
486.209	920
486.427	920
486.645	900
486.863	894
487.081	888
487.299	902
487.517	906
487.735	928
487.953	886
488.171	882
488.389	867
488.607	886
488.825	883
489.043	899
489.261	907
489.479	895
489.696	917
489.914	916
490.132	906
490.35	885
490.568	908
490.786	902
491.003	913
491.221	879
491.439	876
491.657	919
491.874	916
492.092	908
492.31	940
492.527	926
492.745	906
492.963	917
493.18	921
493.398	937
493.615	974
493.833	981
494.05	973
494.268	958
494.485	974
494.703	961
494.92	952
495.138	994
495.355	957
495.573	978
495.79	982
496.008	932
496.225	958
496.442	1000
496.66	1007
496.877	1004
497.094	1007
497.312	1055
497.529	1052
497.746	1078
497.963	1126
498.181	1169
498.398	1208
498.615	1327
498.832	1410
499.049	1511
499.267	1606
499.484	1842
499.701	2004
499.918	2218
500.135	2568
500.352	3005
500.569	3128
500.786	3122
501.003	2805
501.22	2416
501.437	2164
501.654	1869
501.871	1700
502.088	1567
502.305	1458
502.522	1338
502.739	1312
502.956	1266
503.172	1203
503.389	1136
503.606	1135
503.823	1081
504.04	1082
504.256	1103
504.473	1164
504.69	1179
504.907	1166
505.123	1072
505.34	1022
505.557	936
505.773	931
505.99	922
506.207	892
506.423	887
506.64	877
506.856	870
507.073	832
507.289	862
507.506	828
507.722	823
507.939	847
508.155	829
508.372	808
508.588	810
508.805	801
509.021	805
509.238	802
509.454	776
509.67	779
509.887	780
510.103	789
510.319	743
510.536	756
510.752	759
510.968	764
511.184	758
511.401	770
511.617	777
511.833	747
512.049	747
512.265	768
512.481	758
512.698	757
512.914	759
513.13	781
513.346	750
513.562	795
513.778	774
513.994	757
514.21	744
514.426	760
514.642	778
514.858	782
515.074	810
515.29	840
515.506	826
515.721	812
515.937	827
516.153	826
516.369	864
516.585	876
516.801	934
517.016	971
517.232	994
517.448	1109
517.664	1098
517.879	1109
518.095	1122
518.311	1111
518.527	1036
518.742	1003
518.958	934
519.173	892
519.389	891
519.605	875
519.82	829
520.036	811
520.251	811
520.467	769
520.682	763
520.898	767
521.113	787
521.329	732
521.544	730
521.76	764
521.975	735
522.19	743
522.406	730
522.621	745
522.836	714
523.052	730
523.267	714
523.482	751
523.698	708
523.913	694
524.128	708
524.343	710
524.559	724
524.774	727
524.989	707
525.204	708
525.419	693
525.634	706
525.849	697
526.064	702
526.28	703
526.495	707
526.71	683
526.925	710
527.14	692
527.355	661
527.57	684
527.785	661
527.999	703
528.214	695
528.429	695
528.644	700
528.859	699
529.074	707
529.289	699
529.503	702
529.718	704
529.933	710
530.148	691
530.363	714
530.577	672
530.792	701
531.007	698
531.221	687
531.436	685
531.651	699
531.865	705
532.08	697
532.295	725
532.509	703
532.724	696
532.938	712
533.153	690
533.367	707
533.582	692
533.796	683
534.011	713
534.225	701
534.44	669
534.654	702
534.868	651
535.083	696
535.297	698
535.511	649
535.726	691
535.94	662
536.154	656
536.369	648
536.583	664
536.797	638
537.011	637
537.225	639
537.44	632
537.654	652
537.868	661
538.082	638
538.296	640
538.51	629
538.724	637
538.938	613
539.153	626
539.367	615
539.581	618
539.795	616
540.009	637
540.222	618
540.436	626
540.65	625
540.864	628
541.078	616
541.292	655
541.506	645
541.72	639
541.934	627
542.147	630
542.361	599
542.575	595
542.789	636
543.002	604
543.216	616
543.43	608
543.644	616
543.857	640
544.071	620
544.285	634
544.498	617
544.712	643
544.925	632
545.139	626
545.352	648
545.566	671
545.779	663
545.993	651
546.206	627
546.42	644
546.633	643
546.847	635
547.06	645
547.274	628
547.487	644
547.7	630
547.914	664
548.127	662
548.34	666
548.554	635
548.767	651
548.98	647
549.193	659
549.407	668
549.62	679
549.833	676
550.046	669
550.259	653
550.473	648
550.686	651
550.899	612
551.112	603
551.325	616
551.538	634
551.751	633
551.964	603
552.177	654
552.39	655
552.603	660
552.816	690
553.029	709
553.242	702
553.455	712
553.667	711
553.88	711
554.093	696
554.306	661
554.519	673
554.732	648
554.944	642
555.157	613
555.37	630
555.583	594
555.795	598
556.008	579
556.221	572
556.433	547
556.646	551
556.859	582
557.071	589
557.284	528
557.496	559
557.709	553
557.921	565
558.134	572
558.346	548
558.559	539
558.771	544
558.984	542
559.196	551
559.409	551
559.621	520
559.833	542
560.046	529
560.258	524
560.47	546
