Data from Ni(NO3)2@0.5M.TitratingCurve.Agarose3%dH2O.NegLispCup.LampEnergy10.LIBS07252019_HRD10591_17-58-44-564.txt Node
Date: Thu Jul 25 17:58:44 EDT 2019
User: cochatt
Spectrometer: HR+D1059
Trigger mode: 1
Integration Time (sec): 1.000000E-1
Scans to average: 1
Electric dark correction enabled: true
Nonlinearity correction enabled: false
Boxcar width: 0
XAxis mode: Wavelengths
Number of Pixels in Spectrum: 2048
>>>>>Begin Spectral Data<<<<<
223.165	-16.25
223.4	-16.25
223.635	-16.25
223.869	-13.25
224.104	-26.25
224.338	-15.25
224.573	-25.25
224.808	-14.25
225.042	-12.25
225.277	-12.25
225.511	-5.25
225.746	15.75
225.98	14.75
226.215	16.75
226.449	18.75
226.683	18.75
226.918	15.75
227.152	39.75
227.387	38.75
227.621	51.75
227.856	26.75
228.09	45.75
228.324	44.75
228.559	48.75
228.793	73.75
229.027	105.75
229.262	111.75
229.496	125.75
229.73	114.75
229.964	140.75
230.199	149.75
230.433	164.75
230.667	130.75
230.901	150.75
231.136	130.75
231.37	136.75
231.604	139.75
231.838	161.75
232.072	162.75
232.306	147.75
232.541	158.75
232.775	133.75
233.009	119.75
233.243	139.75
233.477	127.75
233.711	129.75
233.945	134.75
234.179	155.75
234.413	132.75
234.647	142.75
234.881	130.75
235.115	129.75
235.349	130.75
235.583	130.75
235.817	128.75
236.051	145.75
236.285	131.75
236.519	123.75
236.753	131.75
236.987	130.75
237.221	144.75
237.455	154.75
237.689	152.75
237.922	152.75
238.156	137.75
238.39	145.75
238.624	132.75
238.858	154.75
239.091	148.75
239.325	151.75
239.559	155.75
239.793	179.75
240.027	166.75
240.26	162.75
240.494	141.75
240.728	142.75
240.961	151.75
241.195	147.75
241.429	152.75
241.662	167.75
241.896	167.75
242.13	175.75
242.363	187.75
242.597	161.75
242.83	179.75
243.064	153.75
243.298	165.75
243.531	165.75
243.765	171.75
243.998	171.75
244.232	181.75
244.465	172.75
244.699	165.75
244.932	164.75
245.166	168.75
245.399	165.75
245.633	168.75
245.866	176.75
246.099	170.75
246.333	191.75
246.566	184.75
246.8	160.75
247.033	188.75
247.266	170.75
247.5	171.75
247.733	172.75
247.966	183.75
248.2	191.75
248.433	184.75
248.666	203.75
248.899	193.75
249.133	200.75
249.366	186.75
249.599	205.75
249.832	194.75
250.066	207.75
250.299	201.75
250.532	200.75
250.765	212.75
250.998	203.75
251.231	210.75
251.465	227.75
251.698	218.75
251.931	216.75
252.164	195.75
252.397	203.75
252.63	220.75
252.863	221.75
253.096	221.75
253.329	197.75
253.562	218.75
253.795	196.75
254.028	228.75
254.261	240.75
254.494	218.75
254.727	215.75
254.96	219.75
255.193	230.75
255.426	234.75
255.659	240.75
255.892	210.75
256.124	225.75
256.357	237.75
256.59	227.75
256.823	261.75
257.056	240.75
257.289	248.75
257.521	238.75
257.754	254.75
257.987	259.75
258.22	251.75
258.452	260.75
258.685	250.75
258.918	252.75
259.151	251.75
259.383	249.75
259.616	250.75
259.849	256.75
260.081	259.75
260.314	262.75
260.547	252.75
260.779	261.75
261.012	260.75
261.244	280.75
261.477	280.75
261.71	255.75
261.942	273.75
262.175	270.75
262.407	257.75
262.64	267.75
262.872	279.75
263.105	273.75
263.337	288.75
263.57	273.75
263.802	280.75
264.035	296.75
264.267	276.75
264.499	270.75
264.732	288.75
264.964	275.75
265.197	279.75
265.429	284.75
265.661	274.75
265.894	274.75
266.126	281.75
266.358	291.75
266.591	305.75
266.823	295.75
267.055	289.75
267.287	288.75
267.52	291.75
267.752	291.75
267.984	301.75
268.216	303.75
268.448	284.75
268.681	292.75
268.913	305.75
269.145	305.75
269.377	312.75
269.609	301.75
269.841	303.75
270.073	299.75
270.306	305.75
270.538	316.75
270.77	299.75
271.002	310.75
271.234	327.75
271.466	320.75
271.698	301.75
271.93	320.75
272.162	307.75
272.394	323.75
272.626	312.75
272.858	322.75
273.09	316.75
273.322	321.75
273.553	320.75
273.785	317.75
274.017	310.75
274.249	322.75
274.481	342.75
274.713	329.75
274.945	342.75
275.176	329.75
275.408	333.75
275.64	317.75
275.872	333.75
276.104	339.75
276.335	319.75
276.567	340.75
276.799	348.75
277.031	343.75
277.262	336.75
277.494	343.75
277.726	358.75
277.957	339.75
278.189	335.75
278.421	328.75
278.652	350.75
278.884	360.75
279.115	363.75
279.347	346.75
279.579	353.75
279.81	356.75
280.042	342.75
280.273	347.75
280.505	364.75
280.736	352.75
280.968	358.75
281.199	372.75
281.431	359.75
281.662	383.75
281.894	381.75
282.125	364.75
282.356	389.75
282.588	397.75
282.819	369.75
283.051	380.75
283.282	362.75
283.513	355.75
283.745	377.75
283.976	388.75
284.207	390.75
284.439	395.75
284.67	396.75
284.901	378.75
285.132	394.75
285.364	373.75
285.595	404.75
285.826	386.75
286.057	393.75
286.288	409.75
286.52	370.75
286.751	401.75
286.982	389.75
287.213	388.75
287.444	382.75
287.675	387.75
287.906	411.75
288.138	399.75
288.369	388.75
288.6	415.75
288.831	403.75
289.062	386.75
289.293	406.75
289.524	391.75
289.755	397.75
289.986	396.75
290.217	397.75
290.448	396.75
290.679	411.75
290.91	442.75
291.141	410.75
291.371	405.75
291.602	412.75
291.833	405.75
292.064	425.75
292.295	417.75
292.526	412.75
292.757	384.75
292.987	413.75
293.218	409.75
293.449	419.75
293.68	392.75
293.91	397.75
294.141	406.75
294.372	405.75
294.603	416.75
294.833	427.75
295.064	409.75
295.295	417.75
295.525	423.75
295.756	416.75
295.987	413.75
296.217	415.75
296.448	418.75
296.679	410.75
296.909	431.75
297.14	439.75
297.37	436.75
297.601	439.75
297.831	436.75
298.062	403.75
298.292	442.75
298.523	456.75
298.753	447.75
298.984	460.75
299.214	458.75
299.445	426.75
299.675	461.75
299.905	428.75
300.136	474.75
300.366	475.75
300.597	498.75
300.827	472.75
301.057	479.75
301.288	471.75
301.518	483.75
301.748	446.75
301.979	470.75
302.209	461.75
302.439	474.75
302.669	452.75
302.9	466.75
303.13	476.75
303.36	458.75
303.59	469.75
303.82	485.75
304.051	481.75
304.281	472.75
304.511	479.75
304.741	491.75
304.971	466.75
305.201	516.75
305.431	515.75
305.661	481.75
305.891	488.75
306.121	519.75
306.352	498.75
306.582	477.75
306.812	461.75
307.042	458.75
307.272	466.75
307.502	469.75
307.731	471.75
307.961	473.75
308.191	479.75
308.421	466.75
308.651	484.75
308.881	469.75
309.111	469.75
309.341	490.75
309.571	493.75
309.8	485.75
310.03	496.75
310.26	519.75
310.49	539.75
310.72	495.75
310.949	475.75
311.179	491.75
311.409	499.75
311.639	491.75
311.868	502.75
312.098	527.75
312.328	521.75
312.557	490.75
312.787	511.75
313.017	502.75
313.246	512.75
313.476	518.75
313.706	529.75
313.935	518.75
314.165	504.75
314.394	528.75
314.624	508.75
314.853	519.75
315.083	515.75
315.312	519.75
315.542	504.75
315.771	538.75
316.001	525.75
316.23	513.75
316.46	524.75
316.689	519.75
316.919	520.75
317.148	517.75
317.377	519.75
317.607	524.75
317.836	513.75
318.065	525.75
318.295	544.75
318.524	545.75
318.753	527.75
318.983	513.75
319.212	548.75
319.441	516.75
319.67	538.75
319.9	545.75
320.129	517.75
320.358	538.75
320.587	551.75
320.816	545.75
321.046	540.75
321.275	535.75
321.504	549.75
321.733	552.75
321.962	529.75
322.191	548.75
322.42	558.75
322.649	561.75
322.878	560.75
323.108	548.75
323.337	581.75
323.566	583.75
323.795	566.75
324.024	556.75
324.253	573.75
324.482	569.75
324.71	568.75
324.939	561.75
325.168	608.75
325.397	576.75
325.626	572.75
325.855	580.75
326.084	589.75
326.313	596.75
326.542	583.75
326.77	588.75
326.999	611.75
327.228	584.75
327.457	589.75
327.686	556.75
327.914	595.75
328.143	587.75
328.372	580.75
328.6	589.75
328.829	595.75
329.058	579.75
329.287	594.75
329.515	600.75
329.744	610.75
329.972	610.75
330.201	603.75
330.43	602.75
330.658	636.75
330.887	629.75
331.115	616.75
331.344	612.75
331.572	633.75
331.801	632.75
332.03	633.75
332.258	633.75
332.486	651.75
332.715	663.75
332.943	632.75
333.172	659.75
333.4	671.75
333.629	671.75
333.857	696.75
334.085	675.75
334.314	701.75
334.542	687.75
334.771	684.75
334.999	693.75
335.227	685.75
335.455	704.75
335.684	691.75
335.912	695.75
336.14	698.75
336.369	691.75
336.597	692.75
336.825	710.75
337.053	727.75
337.281	711.75
337.51	716.75
337.738	713.75
337.966	698.75
338.194	691.75
338.422	693.75
338.65	660.75
338.878	685.75
339.106	702.75
339.334	710.75
339.562	664.75
339.79	655.75
340.018	653.75
340.246	639.75
340.474	635.75
340.702	666.75
340.93	660.75
341.158	658.75
341.386	675.75
341.614	696.75
341.842	691.75
342.07	651.75
342.298	640.75
342.526	677.75
342.754	652.75
342.981	659.75
343.209	631.75
343.437	687.75
343.665	695.75
343.893	703.75
344.12	704.75
344.348	691.75
344.576	693.75
344.804	692.75
345.031	705.75
345.259	673.75
345.487	679.75
345.714	697.75
345.942	699.75
346.17	681.75
346.397	675.75
346.625	662.75
346.853	639.75
347.08	641.75
347.308	654.75
347.535	640.75
347.763	621.75
347.99	649.75
348.218	633.75
348.445	634.75
348.673	637.75
348.9	638.75
349.128	648.75
349.355	659.75
349.583	646.75
349.81	635.75
350.037	619.75
350.265	620.75
350.492	631.75
350.72	635.75
350.947	612.75
351.174	653.75
351.402	667.75
351.629	695.75
351.856	655.75
352.083	636.75
352.311	684.75
352.538	684.75
352.765	684.75
352.992	594.75
353.22	604.75
353.447	595.75
353.674	611.75
353.901	609.75
354.128	601.75
354.355	601.75
354.583	600.75
354.81	612.75
355.037	603.75
355.264	608.75
355.491	611.75
355.718	616.75
355.945	601.75
356.172	604.75
356.399	601.75
356.626	639.75
356.853	661.75
357.08	639.75
357.307	620.75
357.534	608.75
357.761	616.75
357.988	625.75
358.215	603.75
358.441	586.75
358.668	596.75
358.895	617.75
359.122	612.75
359.349	600.75
359.576	628.75
359.802	612.75
360.029	636.75
360.256	615.75
360.483	618.75
360.709	639.75
360.936	651.75
361.163	639.75
361.39	612.75
361.616	639.75
361.843	647.75
362.07	681.75
362.296	651.75
362.523	625.75
362.749	628.75
362.976	621.75
363.203	634.75
363.429	608.75
363.656	616.75
363.882	614.75
364.109	628.75
364.335	615.75
364.562	610.75
364.788	603.75
365.015	629.75
365.241	625.75
365.468	612.75
365.694	628.75
365.92	605.75
366.147	619.75
366.373	639.75
366.599	623.75
366.826	627.75
367.052	599.75
367.278	623.75
367.505	607.75
367.731	611.75
367.957	626.75
368.184	616.75
368.41	612.75
368.636	638.75
368.862	627.75
369.089	669.75
369.315	639.75
369.541	627.75
369.767	645.75
369.993	623.75
370.219	637.75
370.445	649.75
370.672	641.75
370.898	636.75
371.124	639.75
371.35	646.75
371.576	644.75
371.802	667.75
372.028	649.75
372.254	655.75
372.48	641.75
372.706	679.75
372.932	653.75
373.158	676.75
373.384	663.75
373.61	658.75
373.835	677.75
374.061	668.75
374.287	675.75
374.513	688.75
374.739	684.75
374.965	676.75
375.191	671.75
375.416	671.75
375.642	677.75
375.868	674.75
376.094	656.75
376.319	678.75
376.545	664.75
376.771	662.75
376.997	639.75
377.222	651.75
377.448	666.75
377.674	672.75
377.899	632.75
378.125	652.75
378.35	659.75
378.576	651.75
378.802	671.75
379.027	640.75
379.253	663.75
379.478	655.75
379.704	649.75
379.929	682.75
380.155	663.75
380.38	643.75
380.606	639.75
380.831	660.75
381.057	649.75
381.282	660.75
381.507	658.75
381.733	672.75
381.958	662.75
382.184	667.75
382.409	676.75
382.634	681.75
382.86	689.75
383.085	687.75
383.31	672.75
383.535	683.75
383.761	694.75
383.986	701.75
384.211	697.75
384.436	690.75
384.662	724.75
384.887	721.75
385.112	724.75
385.337	715.75
385.562	732.75
385.787	753.75
386.013	747.75
386.238	767.75
386.463	750.75
386.688	760.75
386.913	745.75
387.138	742.75
387.363	771.75
387.588	737.75
387.813	745.75
388.038	766.75
388.263	759.75
388.488	767.75
388.713	753.75
388.938	738.75
389.163	745.75
389.387	769.75
389.612	782.75
389.837	733.75
390.062	739.75
390.287	735.75
390.512	743.75
390.736	772.75
390.961	741.75
391.186	772.75
391.411	790.75
391.636	737.75
391.86	779.75
392.085	810.75
392.31	783.75
392.534	808.75
392.759	804.75
392.984	801.75
393.208	793.75
393.433	779.75
393.658	775.75
393.882	787.75
394.107	796.75
394.331	785.75
394.556	773.75
394.78	818.75
395.005	789.75
395.229	801.75
395.454	797.75
395.678	803.75
395.903	827.75
396.127	812.75
396.352	816.75
396.576	797.75
396.801	817.75
397.025	832.75
397.249	846.75
397.474	853.75
397.698	845.75
397.922	855.75
398.147	860.75
398.371	871.75
398.595	865.75
398.82	883.75
399.044	915.75
399.268	948.75
399.492	1001.75
399.717	1025.75
399.941	1031.75
400.165	1025.75
400.389	1008.75
400.613	991.75
400.837	927.75
401.062	915.75
401.286	905.75
401.51	903.75
401.734	868.75
401.958	902.75
402.182	921.75
402.406	923.75
402.63	908.75
402.854	901.75
403.078	933.75
403.302	901.75
403.526	897.75
403.75	897.75
403.974	916.75
404.198	917.75
404.422	926.75
404.645	923.75
404.869	915.75
405.093	938.75
405.317	922.75
405.541	939.75
405.765	920.75
405.988	937.75
406.212	965.75
406.436	914.75
406.66	983.75
406.883	966.75
407.107	993.75
407.331	1025.75
407.555	1041.75
407.778	1040.75
408.002	1028.75
408.226	1013.75
408.449	987.75
408.673	1002.75
408.896	983.75
409.12	968.75
409.344	969.75
409.567	987.75
409.791	994.75
410.014	953.75
410.238	950.75
410.461	952.75
410.685	958.75
410.908	985.75
411.132	940.75
411.355	883.75
411.578	939.75
411.802	919.75
412.025	909.75
412.249	926.75
412.472	919.75
412.695	928.75
412.919	925.75
413.142	927.75
413.365	933.75
413.589	933.75
413.812	907.75
414.035	928.75
414.258	875.75
414.482	915.75
414.705	913.75
414.928	916.75
415.151	915.75
415.374	901.75
415.597	892.75
415.821	892.75
416.044	882.75
416.267	923.75
416.49	880.75
416.713	869.75
416.936	896.75
417.159	849.75
417.382	874.75
417.605	890.75
417.828	842.75
418.051	862.75
418.274	890.75
418.497	860.75
418.72	872.75
418.943	896.75
419.166	939.75
419.389	964.75
419.611	953.75
419.834	920.75
420.057	890.75
420.28	885.75
420.503	882.75
420.726	872.75
420.948	876.75
421.171	870.75
421.394	865.75
421.617	861.75
421.839	854.75
422.062	889.75
422.285	862.75
422.507	876.75
422.73	885.75
422.953	869.75
423.175	870.75
423.398	896.75
423.621	851.75
423.843	867.75
424.066	868.75
424.288	864.75
424.511	884.75
424.733	881.75
424.956	857.75
425.178	869.75
425.401	872.75
425.623	859.75
425.846	856.75
426.068	868.75
426.291	856.75
426.513	839.75
426.735	842.75
426.958	859.75
427.18	843.75
427.402	824.75
427.625	845.75
427.847	832.75
428.069	828.75
428.292	836.75
428.514	816.75
428.736	835.75
428.958	821.75
429.181	828.75
429.403	816.75
429.625	828.75
429.847	827.75
430.069	838.75
430.292	848.75
430.514	845.75
430.736	816.75
430.958	821.75
431.18	830.75
431.402	804.75
431.624	807.75
431.846	858.75
432.068	839.75
432.29	848.75
432.512	851.75
432.734	856.75
432.956	863.75
433.178	844.75
433.4	881.75
433.622	870.75
433.844	865.75
434.066	852.75
434.287	845.75
434.509	851.75
434.731	882.75
434.953	863.75
435.175	891.75
435.397	907.75
435.618	892.75
435.84	864.75
436.062	865.75
436.284	867.75
436.505	850.75
436.727	857.75
436.949	831.75
437.17	834.75
437.392	804.75
437.614	821.75
437.835	801.75
438.057	792.75
438.278	794.75
438.5	829.75
438.721	826.75
438.943	828.75
439.165	790.75
439.386	812.75
439.608	824.75
439.829	847.75
440.05	833.75
440.272	835.75
440.493	856.75
440.715	857.75
440.936	855.75
441.158	845.75
441.379	882.75
441.6	901.75
441.822	897.75
442.043	870.75
442.264	901.75
442.486	858.75
442.707	883.75
442.928	875.75
443.149	892.75
443.371	891.75
443.592	931.75
443.813	914.75
444.034	907.75
444.255	920.75
444.476	918.75
444.698	933.75
444.919	959.75
445.14	1025.75
445.361	932.75
445.582	923.75
445.803	884.75
446.024	880.75
446.245	884.75
446.466	868.75
446.687	828.75
446.908	838.75
447.129	808.75
447.35	822.75
447.571	834.75
447.792	789.75
448.013	771.75
448.234	800.75
448.455	784.75
448.675	787.75
448.896	799.75
449.117	762.75
449.338	755.75
449.559	782.75
449.779	757.75
450	776.75
450.221	782.75
450.442	771.75
450.662	795.75
450.883	785.75
451.104	803.75
451.324	793.75
451.545	767.75
451.766	761.75
451.986	760.75
452.207	774.75
452.428	755.75
452.648	744.75
452.869	779.75
453.089	740.75
453.31	765.75
453.53	726.75
453.751	743.75
453.971	759.75
454.192	767.75
454.412	771.75
454.633	754.75
454.853	756.75
455.073	742.75
455.294	743.75
455.514	746.75
455.734	757.75
455.955	761.75
456.175	776.75
456.395	754.75
456.616	751.75
456.836	774.75
457.056	746.75
457.276	713.75
457.497	743.75
457.717	778.75
457.937	753.75
458.157	771.75
458.377	747.75
458.598	764.75
458.818	794.75
459.038	782.75
459.258	802.75
459.478	839.75
459.698	912.75
459.918	901.75
460.138	868.75
460.358	893.75
460.578	895.75
460.798	932.75
461.018	949.75
461.238	904.75
461.458	930.75
461.678	919.75
461.898	897.75
462.118	913.75
462.338	958.75
462.558	969.75
462.777	996.75
462.997	1047.75
463.217	1059.75
463.437	1089.75
463.657	1069.75
463.876	1027.75
464.096	1025.75
464.316	1003.75
464.536	979.75
464.755	1008.75
464.975	931.75
465.195	901.75
465.414	890.75
465.634	887.75
465.854	879.75
466.073	871.75
466.293	829.75
466.512	846.75
466.732	799.75
466.951	831.75
467.171	823.75
467.391	821.75
467.61	845.75
467.829	820.75
468.049	840.75
468.268	801.75
468.488	826.75
468.707	766.75
468.927	814.75
469.146	814.75
469.365	824.75
469.585	832.75
469.804	832.75
470.023	824.75
470.243	810.75
470.462	792.75
470.681	798.75
470.901	822.75
471.12	807.75
471.339	815.75
471.558	789.75
471.777	789.75
471.997	795.75
472.216	800.75
472.435	815.75
472.654	800.75
472.873	771.75
473.092	769.75
473.311	810.75
473.53	775.75
473.749	805.75
473.968	802.75
474.187	808.75
474.406	779.75
474.625	801.75
474.844	829.75
475.063	786.75
475.282	780.75
475.501	837.75
475.72	831.75
475.939	820.75
476.158	840.75
476.377	837.75
476.596	837.75
476.814	853.75
477.033	813.75
477.252	847.75
477.471	842.75
477.69	873.75
477.908	899.75
478.127	903.75
478.346	911.75
478.564	920.75
478.783	919.75
479.002	962.75
479.22	969.75
479.439	959.75
479.658	931.75
479.876	919.75
480.095	937.75
480.313	940.75
480.532	945.75
480.751	971.75
480.969	936.75
481.188	936.75
481.406	923.75
481.624	908.75
481.843	902.75
482.061	944.75
482.28	921.75
482.498	927.75
482.717	905.75
482.935	928.75
483.153	922.75
483.372	986.75
483.59	972.75
483.808	938.75
484.027	936.75
484.245	935.75
484.463	945.75
484.681	977.75
484.9	950.75
485.118	934.75
485.336	915.75
485.554	964.75
485.772	975.75
485.99	920.75
486.209	930.75
486.427	945.75
486.645	947.75
486.863	930.75
487.081	972.75
487.299	931.75
487.517	951.75
487.735	967.75
487.953	968.75
488.171	949.75
488.389	986.75
488.607	949.75
488.825	952.75
489.043	920.75
489.261	938.75
489.479	967.75
489.696	939.75
489.914	941.75
490.132	971.75
490.35	938.75
490.568	984.75
490.786	971.75
491.003	984.75
491.221	980.75
491.439	998.75
491.657	993.75
491.874	989.75
492.092	1002.75
492.31	999.75
492.527	1024.75
492.745	987.75
492.963	994.75
493.18	1009.75
493.398	979.75
493.615	991.75
493.833	998.75
494.05	1021.75
494.268	1007.75
494.485	1008.75
494.703	1008.75
494.92	999.75
495.138	1059.75
495.355	1034.75
495.573	1046.75
495.79	1033.75
496.008	1057.75
496.225	1039.75
496.442	1083.75
496.66	1069.75
496.877	1100.75
497.094	1112.75
497.312	1116.75
497.529	1120.75
497.746	1151.75
497.963	1159.75
498.181	1195.75
498.398	1175.75
498.615	1241.75
498.832	1326.75
499.049	1290.75
499.267	1393.75
499.484	1452.75
499.701	1494.75
499.918	1616.75
500.135	1660.75
500.352	1723.75
500.569	1752.75
500.786	1776.75
