Data from Ni(NO3)2Standard.Agarose3%.GreenCap.LampEnergy5.5.E.O_HRD10591_14-40-04-188.txt Node
Date: Mon Jul 22 14:40:04 EDT 2019
User: cochatt
Spectrometer: HR+D1059
Trigger mode: 1
Integration Time (sec): 1.000000E-1
Scans to average: 1
Electric dark correction enabled: true
Nonlinearity correction enabled: false
Boxcar width: 0
XAxis mode: Wavelengths
Number of Pixels in Spectrum: 2048
>>>>>Begin Spectral Data<<<<<
223.165	-23.75
223.4	-23.75
223.635	-23.75
223.869	-19.75
224.104	-22.75
224.338	-11.75
224.573	-15.75
224.808	-0.75
225.042	-4.75
225.277	0.25
225.511	-4.75
225.746	-6.75
225.98	4.25
226.215	19.25
226.449	8.25
226.683	25.25
226.918	27.25
227.152	26.25
227.387	24.25
227.621	40.25
227.856	34.25
228.09	41.25
228.324	42.25
228.559	55.25
228.793	49.25
229.027	64.25
229.262	64.25
229.496	69.25
229.73	58.25
229.964	86.25
230.199	73.25
230.433	80.25
230.667	84.25
230.901	72.25
231.136	85.25
231.37	79.25
231.604	82.25
231.838	76.25
232.072	81.25
232.306	86.25
232.541	67.25
232.775	69.25
233.009	87.25
233.243	85.25
233.477	83.25
233.711	77.25
233.945	86.25
234.179	73.25
234.413	76.25
234.647	81.25
234.881	76.25
235.115	83.25
235.349	87.25
235.583	74.25
235.817	74.25
236.051	76.25
236.285	75.25
236.519	70.25
236.753	80.25
236.987	81.25
237.221	84.25
237.455	66.25
237.689	72.25
237.922	81.25
238.156	74.25
238.39	83.25
238.624	72.25
238.858	76.25
239.091	82.25
239.325	74.25
239.559	75.25
239.793	69.25
240.027	81.25
240.26	82.25
240.494	80.25
240.728	78.25
240.961	69.25
241.195	70.25
241.429	76.25
241.662	85.25
241.896	77.25
242.13	68.25
242.363	76.25
242.597	84.25
242.83	84.25
243.064	72.25
243.298	79.25
243.531	78.25
243.765	74.25
243.998	88.25
244.232	81.25
244.465	72.25
244.699	74.25
244.932	82.25
245.166	77.25
245.399	80.25
245.633	63.25
245.866	77.25
246.099	69.25
246.333	72.25
246.566	80.25
246.8	80.25
247.033	74.25
247.266	77.25
247.5	66.25
247.733	72.25
247.966	84.25
248.2	81.25
248.433	82.25
248.666	84.25
248.899	77.25
249.133	82.25
249.366	75.25
249.599	80.25
249.832	73.25
250.066	60.25
250.299	79.25
250.532	85.25
250.765	88.25
250.998	88.25
251.231	79.25
251.465	86.25
251.698	80.25
251.931	89.25
252.164	82.25
252.397	68.25
252.63	87.25
252.863	81.25
253.096	80.25
253.329	83.25
253.562	74.25
253.795	83.25
254.028	78.25
254.261	83.25
254.494	85.25
254.727	80.25
254.96	73.25
255.193	76.25
255.426	89.25
255.659	81.25
255.892	85.25
256.124	83.25
256.357	86.25
256.59	79.25
256.823	90.25
257.056	77.25
257.289	72.25
257.521	73.25
257.754	96.25
257.987	81.25
258.22	84.25
258.452	82.25
258.685	84.25
258.918	90.25
259.151	78.25
259.383	81.25
259.616	85.25
259.849	92.25
260.081	90.25
260.314	85.25
260.547	96.25
260.779	81.25
261.012	86.25
261.244	79.25
261.477	93.25
261.71	77.25
261.942	83.25
262.175	78.25
262.407	84.25
262.64	71.25
262.872	93.25
263.105	85.25
263.337	84.25
263.57	97.25
263.802	76.25
264.035	81.25
264.267	84.25
264.499	75.25
264.732	74.25
264.964	85.25
265.197	79.25
265.429	85.25
265.661	79.25
265.894	92.25
266.126	86.25
266.358	88.25
266.591	83.25
266.823	90.25
267.055	79.25
267.287	81.25
267.52	78.25
267.752	87.25
267.984	78.25
268.216	74.25
268.448	89.25
268.681	85.25
268.913	91.25
269.145	72.25
269.377	90.25
269.609	77.25
269.841	78.25
270.073	83.25
270.306	80.25
270.538	83.25
270.77	86.25
271.002	84.25
271.234	93.25
271.466	91.25
271.698	81.25
271.93	86.25
272.162	83.25
272.394	79.25
272.626	88.25
272.858	81.25
273.09	85.25
273.322	75.25
273.553	86.25
273.785	83.25
274.017	98.25
274.249	85.25
274.481	95.25
274.713	81.25
274.945	90.25
275.176	87.25
275.408	86.25
275.64	78.25
275.872	84.25
276.104	85.25
276.335	79.25
276.567	75.25
276.799	79.25
277.031	69.25
277.262	91.25
277.494	88.25
277.726	105.25
277.957	76.25
278.189	77.25
278.421	88.25
278.652	84.25
278.884	83.25
279.115	90.25
279.347	86.25
279.579	77.25
279.81	97.25
280.042	82.25
280.273	74.25
280.505	84.25
280.736	86.25
280.968	69.25
281.199	82.25
281.431	80.25
281.662	85.25
281.894	71.25
282.125	90.25
282.356	82.25
282.588	83.25
282.819	94.25
283.051	91.25
283.282	92.25
283.513	92.25
283.745	82.25
283.976	89.25
284.207	86.25
284.439	80.25
284.67	83.25
284.901	88.25
285.132	93.25
285.364	87.25
285.595	91.25
285.826	86.25
286.057	85.25
286.288	83.25
286.52	80.25
286.751	81.25
286.982	96.25
287.213	77.25
287.444	87.25
287.675	96.25
287.906	89.25
288.138	88.25
288.369	84.25
288.6	79.25
288.831	82.25
289.062	87.25
289.293	94.25
289.524	89.25
289.755	89.25
289.986	86.25
290.217	90.25
290.448	88.25
290.679	86.25
290.91	83.25
291.141	78.25
291.371	89.25
291.602	83.25
291.833	88.25
292.064	104.25
292.295	86.25
292.526	86.25
292.757	94.25
292.987	88.25
293.218	89.25
293.449	85.25
293.68	74.25
293.91	81.25
294.141	87.25
294.372	72.25
294.603	73.25
294.833	83.25
295.064	84.25
295.295	87.25
295.525	85.25
295.756	85.25
295.987	82.25
296.217	100.25
296.448	78.25
296.679	91.25
296.909	99.25
297.14	86.25
297.37	88.25
297.601	95.25
297.831	88.25
298.062	93.25
298.292	105.25
298.523	76.25
298.753	81.25
298.984	87.25
299.214	87.25
299.445	95.25
299.675	72.25
299.905	76.25
300.136	99.25
300.366	96.25
300.597	87.25
300.827	84.25
301.057	92.25
301.288	90.25
301.518	74.25
301.748	97.25
301.979	87.25
302.209	99.25
302.439	100.25
302.669	83.25
302.9	94.25
303.13	78.25
303.36	77.25
303.59	84.25
303.82	87.25
304.051	83.25
304.281	100.25
304.511	95.25
304.741	83.25
304.971	86.25
305.201	97.25
305.431	77.25
305.661	90.25
305.891	82.25
306.121	82.25
306.352	93.25
306.582	83.25
306.812	88.25
307.042	84.25
307.272	96.25
307.502	72.25
307.731	104.25
307.961	89.25
308.191	90.25
308.421	88.25
308.651	76.25
308.881	78.25
309.111	91.25
309.341	87.25
309.571	72.25
309.8	74.25
310.03	92.25
310.26	85.25
310.49	100.25
310.72	82.25
310.949	75.25
311.179	81.25
311.409	91.25
311.639	90.25
311.868	99.25
312.098	72.25
312.328	71.25
312.557	83.25
312.787	82.25
313.017	93.25
313.246	86.25
313.476	72.25
313.706	89.25
313.935	106.25
314.165	82.25
314.394	75.25
314.624	90.25
314.853	74.25
315.083	81.25
315.312	74.25
315.542	73.25
315.771	82.25
316.001	91.25
316.23	88.25
316.46	84.25
316.689	97.25
316.919	92.25
317.148	91.25
317.377	96.25
317.607	84.25
317.836	101.25
318.065	92.25
318.295	89.25
318.524	84.25
318.753	94.25
318.983	82.25
319.212	86.25
319.441	78.25
319.67	86.25
319.9	81.25
320.129	84.25
320.358	81.25
320.587	85.25
320.816	89.25
321.046	90.25
321.275	89.25
321.504	77.25
321.733	78.25
321.962	82.25
322.191	93.25
322.42	87.25
322.649	96.25
322.878	85.25
323.108	81.25
323.337	79.25
323.566	63.25
323.795	73.25
324.024	92.25
324.253	98.25
324.482	92.25
324.71	88.25
324.939	82.25
325.168	85.25
325.397	79.25
325.626	82.25
325.855	63.25
326.084	96.25
326.313	76.25
326.542	80.25
326.77	91.25
326.999	84.25
327.228	96.25
327.457	85.25
327.686	78.25
327.914	92.25
328.143	100.25
328.372	90.25
328.6	74.25
328.829	93.25
329.058	95.25
329.287	83.25
329.515	82.25
329.744	86.25
329.972	92.25
330.201	83.25
330.43	75.25
330.658	91.25
330.887	90.25
331.115	88.25
331.344	79.25
331.572	88.25
331.801	89.25
332.03	104.25
332.258	77.25
332.486	79.25
332.715	78.25
332.943	91.25
333.172	81.25
333.4	84.25
333.629	95.25
333.857	94.25
334.085	91.25
334.314	112.25
334.542	84.25
334.771	92.25
334.999	86.25
335.227	92.25
335.455	93.25
335.684	83.25
335.912	80.25
336.14	83.25
336.369	80.25
336.597	87.25
336.825	90.25
337.053	82.25
337.281	63.25
337.51	89.25
337.738	93.25
337.966	89.25
338.194	91.25
338.422	95.25
338.65	82.25
338.878	94.25
339.106	94.25
339.334	80.25
339.562	75.25
339.79	81.25
340.018	91.25
340.246	93.25
340.474	72.25
340.702	92.25
340.93	74.25
341.158	86.25
341.386	88.25
341.614	85.25
341.842	83.25
342.07	85.25
342.298	96.25
342.526	82.25
342.754	87.25
342.981	89.25
343.209	102.25
343.437	88.25
343.665	98.25
343.893	82.25
344.12	104.25
344.348	89.25
344.576	96.25
344.804	89.25
345.031	93.25
345.259	74.25
345.487	96.25
345.714	84.25
345.942	87.25
346.17	82.25
346.397	88.25
346.625	83.25
346.853	71.25
347.08	83.25
347.308	84.25
347.535	84.25
347.763	83.25
347.99	75.25
348.218	79.25
348.445	92.25
348.673	91.25
348.9	98.25
349.128	97.25
349.355	80.25
349.583	79.25
349.81	80.25
350.037	80.25
350.265	91.25
350.492	86.25
350.72	76.25
350.947	80.25
351.174	81.25
351.402	91.25
351.629	78.25
351.856	82.25
352.083	97.25
352.311	92.25
352.538	106.25
352.765	94.25
352.992	93.25
353.22	86.25
353.447	84.25
353.674	79.25
353.901	84.25
354.128	97.25
354.355	78.25
354.583	91.25
354.81	82.25
355.037	83.25
355.264	83.25
355.491	82.25
355.718	90.25
355.945	68.25
356.172	85.25
356.399	90.25
356.626	96.25
356.853	74.25
357.08	93.25
357.307	90.25
357.534	84.25
357.761	81.25
357.988	95.25
358.215	86.25
358.441	84.25
358.668	79.25
358.895	98.25
359.122	79.25
359.349	79.25
359.576	88.25
359.802	56.25
360.029	75.25
360.256	80.25
360.483	86.25
360.709	82.25
360.936	99.25
361.163	95.25
361.39	99.25
361.616	82.25
361.843	99.25
362.07	84.25
362.296	82.25
362.523	85.25
362.749	90.25
362.976	87.25
363.203	83.25
363.429	80.25
363.656	77.25
363.882	81.25
364.109	95.25
364.335	98.25
364.562	91.25
364.788	89.25
365.015	86.25
365.241	80.25
365.468	84.25
365.694	89.25
365.92	84.25
366.147	88.25
366.373	81.25
366.599	101.25
366.826	87.25
367.052	88.25
367.278	85.25
367.505	96.25
367.731	91.25
367.957	79.25
368.184	93.25
368.41	85.25
368.636	88.25
368.862	90.25
369.089	80.25
369.315	84.25
369.541	83.25
369.767	90.25
369.993	93.25
370.219	90.25
370.445	83.25
370.672	85.25
370.898	67.25
371.124	90.25
371.35	84.25
371.576	89.25
371.802	91.25
372.028	77.25
372.254	77.25
372.48	90.25
372.706	86.25
372.932	76.25
373.158	80.25
373.384	97.25
373.61	84.25
373.835	93.25
374.061	87.25
374.287	88.25
374.513	80.25
374.739	95.25
374.965	98.25
375.191	72.25
375.416	81.25
375.642	85.25
375.868	94.25
376.094	90.25
376.319	82.25
376.545	80.25
376.771	91.25
376.997	85.25
377.222	95.25
377.448	102.25
377.674	91.25
377.899	81.25
378.125	86.25
378.35	86.25
378.576	93.25
378.802	88.25
379.027	98.25
379.253	87.25
379.478	71.25
379.704	85.25
379.929	80.25
380.155	75.25
380.38	82.25
380.606	85.25
380.831	90.25
381.057	81.25
381.282	90.25
381.507	87.25
381.733	85.25
381.958	93.25
382.184	83.25
382.409	76.25
382.634	75.25
382.86	84.25
383.085	76.25
383.31	90.25
383.535	83.25
383.761	82.25
383.986	74.25
384.211	75.25
384.436	84.25
384.662	91.25
384.887	91.25
385.112	87.25
385.337	92.25
385.562	94.25
385.787	81.25
386.013	79.25
386.238	77.25
386.463	90.25
386.688	96.25
386.913	87.25
387.138	70.25
387.363	85.25
387.588	87.25
387.813	74.25
388.038	88.25
388.263	85.25
388.488	85.25
388.713	97.25
388.938	94.25
389.163	76.25
389.387	92.25
389.612	83.25
389.837	77.25
390.062	90.25
390.287	91.25
390.512	83.25
390.736	75.25
390.961	72.25
391.186	91.25
391.411	67.25
391.636	99.25
391.86	82.25
392.085	95.25
392.31	86.25
392.534	81.25
392.759	85.25
392.984	75.25
393.208	71.25
393.433	86.25
393.658	85.25
393.882	86.25
394.107	84.25
394.331	83.25
394.556	98.25
394.78	99.25
395.005	104.25
395.229	86.25
395.454	79.25
395.678	73.25
395.903	80.25
396.127	90.25
396.352	96.25
396.576	88.25
396.801	81.25
397.025	89.25
397.249	90.25
397.474	96.25
397.698	91.25
397.922	86.25
398.147	77.25
398.371	81.25
398.595	87.25
398.82	88.25
399.044	91.25
399.268	77.25
399.492	96.25
399.717	85.25
399.941	91.25
400.165	75.25
400.389	76.25
400.613	87.25
400.837	94.25
401.062	75.25
401.286	74.25
401.51	91.25
401.734	72.25
401.958	91.25
402.182	83.25
402.406	87.25
402.63	70.25
402.854	70.25
403.078	88.25
403.302	89.25
403.526	85.25
403.75	99.25
403.974	75.25
404.198	82.25
404.422	77.25
404.645	83.25
404.869	98.25
405.093	84.25
405.317	95.25
405.541	84.25
405.765	81.25
405.988	89.25
406.212	87.25
406.436	82.25
406.66	81.25
406.883	86.25
407.107	77.25
407.331	76.25
407.555	95.25
407.778	83.25
408.002	73.25
408.226	87.25
408.449	80.25
408.673	79.25
408.896	86.25
409.12	97.25
409.344	72.25
409.567	82.25
409.791	86.25
410.014	91.25
410.238	90.25
410.461	84.25
410.685	75.25
410.908	87.25
411.132	78.25
411.355	77.25
411.578	91.25
411.802	86.25
412.025	77.25
412.249	80.25
412.472	89.25
412.695	93.25
412.919	95.25
413.142	86.25
413.365	95.25
413.589	90.25
413.812	69.25
414.035	80.25
414.258	101.25
414.482	86.25
414.705	83.25
414.928	78.25
415.151	76.25
415.374	108.25
415.597	84.25
415.821	80.25
416.044	88.25
416.267	85.25
416.49	84.25
416.713	79.25
416.936	92.25
417.159	82.25
417.382	75.25
417.605	85.25
417.828	86.25
418.051	83.25
418.274	90.25
418.497	65.25
418.72	65.25
418.943	88.25
419.166	84.25
419.389	98.25
419.611	96.25
419.834	95.25
420.057	82.25
420.28	85.25
420.503	85.25
420.726	72.25
420.948	88.25
421.171	83.25
421.394	88.25
421.617	79.25
421.839	78.25
422.062	77.25
422.285	94.25
422.507	89.25
422.73	90.25
422.953	85.25
423.175	98.25
423.398	88.25
423.621	93.25
423.843	89.25
424.066	91.25
424.288	71.25
424.511	71.25
424.733	77.25
424.956	98.25
425.178	76.25
425.401	90.25
425.623	101.25
425.846	92.25
426.068	91.25
426.291	86.25
426.513	91.25
426.735	84.25
426.958	85.25
427.18	94.25
427.402	96.25
427.625	80.25
427.847	94.25
428.069	91.25
428.292	88.25
428.514	88.25
428.736	77.25
428.958	76.25
429.181	82.25
429.403	95.25
429.625	88.25
429.847	81.25
430.069	76.25
430.292	84.25
430.514	81.25
430.736	75.25
430.958	84.25
431.18	76.25
431.402	83.25
431.624	84.25
431.846	84.25
432.068	78.25
432.29	93.25
432.512	79.25
432.734	90.25
432.956	82.25
433.178	73.25
433.4	79.25
433.622	93.25
433.844	94.25
434.066	72.25
434.287	80.25
434.509	90.25
434.731	83.25
434.953	76.25
435.175	102.25
435.397	85.25
435.618	94.25
435.84	83.25
436.062	88.25
436.284	71.25
436.505	83.25
436.727	84.25
436.949	97.25
437.17	84.25
437.392	91.25
437.614	76.25
437.835	77.25
438.057	68.25
438.278	88.25
438.5	84.25
438.721	87.25
438.943	88.25
439.165	99.25
439.386	94.25
439.608	69.25
439.829	85.25
440.05	77.25
440.272	80.25
440.493	82.25
440.715	95.25
440.936	86.25
441.158	78.25
441.379	94.25
441.6	76.25
441.822	95.25
442.043	95.25
442.264	91.25
442.486	75.25
442.707	73.25
442.928	87.25
443.149	92.25
443.371	96.25
443.592	78.25
443.813	97.25
444.034	89.25
444.255	80.25
444.476	90.25
444.698	81.25
444.919	90.25
445.14	205.25
445.361	135.25
445.582	79.25
445.803	84.25
446.024	74.25
446.245	91.25
446.466	95.25
446.687	98.25
446.908	76.25
447.129	83.25
447.35	84.25
447.571	83.25
447.792	87.25
448.013	90.25
448.234	80.25
448.455	97.25
448.675	93.25
448.896	88.25
449.117	87.25
449.338	77.25
449.559	75.25
449.779	73.25
450	83.25
450.221	89.25
450.442	74.25
450.662	92.25
450.883	103.25
451.104	91.25
451.324	87.25
451.545	77.25
451.766	65.25
451.986	81.25
452.207	90.25
452.428	88.25
452.648	89.25
452.869	84.25
453.089	92.25
453.31	84.25
453.53	79.25
453.751	91.25
453.971	83.25
454.192	93.25
454.412	90.25
454.633	85.25
454.853	83.25
455.073	83.25
455.294	77.25
455.514	82.25
455.734	84.25
455.955	96.25
456.175	83.25
456.395	82.25
456.616	90.25
456.836	77.25
457.056	82.25
457.276	87.25
457.497	83.25
457.717	80.25
457.937	96.25
458.157	79.25
458.377	81.25
458.598	90.25
458.818	82.25
459.038	80.25
459.258	89.25
459.478	86.25
459.698	102.25
459.918	82.25
460.138	81.25
460.358	90.25
460.578	90.25
460.798	88.25
461.018	87.25
461.238	101.25
461.458	91.25
461.678	90.25
461.898	96.25
462.118	92.25
462.338	95.25
462.558	100.25
462.777	91.25
462.997	82.25
463.217	89.25
463.437	76.25
463.657	79.25
463.876	92.25
464.096	79.25
464.316	71.25
464.536	88.25
464.755	90.25
464.975	74.25
465.195	96.25
465.414	92.25
465.634	81.25
465.854	73.25
466.073	91.25
466.293	82.25
466.512	85.25
466.732	88.25
466.951	80.25
467.171	77.25
467.391	91.25
467.61	85.25
467.829	91.25
468.049	96.25
468.268	86.25
468.488	77.25
468.707	71.25
468.927	83.25
469.146	65.25
469.365	84.25
469.585	81.25
469.804	78.25
470.023	86.25
470.243	85.25
470.462	75.25
470.681	87.25
470.901	82.25
471.12	92.25
471.339	90.25
471.558	72.25
471.777	89.25
471.997	99.25
472.216	86.25
472.435	67.25
472.654	72.25
472.873	74.25
473.092	85.25
473.311	93.25
473.53	83.25
473.749	79.25
473.968	99.25
474.187	86.25
474.406	81.25
474.625	101.25
474.844	101.25
475.063	76.25
475.282	80.25
475.501	89.25
475.72	93.25
475.939	84.25
476.158	96.25
476.377	86.25
476.596	81.25
476.814	85.25
477.033	88.25
477.252	94.25
477.471	95.25
477.69	70.25
477.908	103.25
478.127	92.25
478.346	87.25
478.564	77.25
478.783	88.25
479.002	87.25
479.22	113.25
479.439	88.25
479.658	95.25
479.876	95.25
480.095	91.25
480.313	81.25
480.532	92.25
480.751	90.25
480.969	96.25
481.188	89.25
481.406	85.25
481.624	88.25
481.843	95.25
482.061	88.25
482.28	96.25
482.498	95.25
482.717	85.25
482.935	87.25
483.153	91.25
483.372	93.25
483.59	99.25
483.808	90.25
484.027	102.25
484.245	78.25
484.463	89.25
484.681	97.25
484.9	85.25
485.118	96.25
485.336	92.25
485.554	93.25
485.772	89.25
485.99	104.25
486.209	88.25
486.427	94.25
486.645	94.25
486.863	92.25
487.081	90.25
487.299	84.25
487.517	87.25
487.735	92.25
487.953	83.25
488.171	83.25
488.389	88.25
488.607	85.25
488.825	98.25
489.043	94.25
489.261	96.25
489.479	96.25
489.696	88.25
489.914	87.25
490.132	94.25
490.35	97.25
490.568	97.25
490.786	98.25
491.003	91.25
491.221	102.25
491.439	102.25
491.657	81.25
491.874	91.25
492.092	75.25
492.31	102.25
492.527	99.25
492.745	104.25
492.963	76.25
493.18	98.25
493.398	94.25
493.615	98.25
493.833	88.25
494.05	82.25
494.268	87.25
494.485	100.25
494.703	102.25
494.92	99.25
495.138	100.25
495.355	84.25
495.573	96.25
495.79	98.25
496.008	89.25
496.225	91.25
496.442	91.25
496.66	91.25
496.877	96.25
497.094	96.25
497.312	104.25
497.529	100.25
497.746	104.25
497.963	99.25
498.181	88.25
498.398	92.25
498.615	98.25
498.832	84.25
499.049	100.25
499.267	92.25
499.484	88.25
499.701	97.25
499.918	96.25
500.135	109.25
500.352	108.25
500.569	112.25
500.786	96.25
501.003	102.25
501.22	113.25
501.437	107.25
501.654	103.25
501.871	109.25
502.088	96.25
502.305	94.25
502.522	91.25
502.739	89.25
502.956	94.25
503.172	96.25
503.389	100.25
503.606	94.25
503.823	107.25
504.04	99.25
504.256	99.25
504.473	91.25
504.69	96.25
504.907	109.25
505.123	82.25
505.34	95.25
505.557	77.25
505.773	99.25
505.99	97.25
506.207	85.25
506.423	97.25
506.64	99.25
506.856	86.25
507.073	92.25
507.289	107.25
507.506	99.25
507.722	101.25
507.939	93.25
508.155	86.25
508.372	94.25
508.588	95.25
508.805	95.25
509.021	91.25
509.238	97.25
509.454	74.25
509.67	80.25
509.887	98.25
510.103	83.25
510.319	88.25
510.536	99.25
510.752	92.25
510.968	93.25
511.184	90.25
511.401	104.25
511.617	80.25
511.833	80.25
512.049	95.25
512.265	96.25
512.481	96.25
512.698	93.25
512.914	82.25
513.13	91.25
513.346	104.25
513.562	96.25
513.778	85.25
513.994	78.25
514.21	101.25
514.426	86.25
514.642	93.25
514.858	81.25
515.074	104.25
515.29	83.25
515.506	97.25
515.721	102.25
515.937	97.25
516.153	87.25
516.369	89.25
516.585	98.25
516.801	93.25
517.016	93.25
517.232	102.25
517.448	90.25
517.664	104.25
517.879	81.25
518.095	103.25
518.311	92.25
518.527	103.25
