Data from NickelSpatula.Lamp.E5.5.P2_HRD10591_11-53-02-551.txt Node
Date: Tue Jul 23 11:53:02 EDT 2019
User: cochatt
Spectrometer: HR+D1059
Trigger mode: 1
Integration Time (sec): 1.000000E-1
Scans to average: 1
Electric dark correction enabled: true
Nonlinearity correction enabled: false
Boxcar width: 0
XAxis mode: Wavelengths
Number of Pixels in Spectrum: 2048
>>>>>Begin Spectral Data<<<<<
223.165	-20.88
223.4	-20.88
223.635	-20.88
223.869	-15.88
224.104	-12.88
224.338	-14.88
224.573	-17.88
224.808	-9.88
225.042	-4.88
225.277	-5.88
225.511	0.12
225.746	20.12
225.98	3.12
226.215	3.12
226.449	5.12
226.683	25.12
226.918	12.12
227.152	34.12
227.387	29.12
227.621	33.12
227.856	32.12
228.09	58.12
228.324	53.12
228.559	51.12
228.793	77.12
229.027	81.12
229.262	75.12
229.496	75.12
229.73	72.12
229.964	90.12
230.199	92.12
230.433	102.12
230.667	96.12
230.901	100.12
231.136	93.12
231.37	88.12
231.604	97.12
231.838	111.12
232.072	113.12
232.306	107.12
232.541	109.12
232.775	116.12
233.009	105.12
233.243	106.12
233.477	131.12
233.711	129.12
233.945	130.12
234.179	116.12
234.413	140.12
234.647	114.12
234.881	161.12
235.115	135.12
235.349	132.12
235.583	132.12
235.817	132.12
236.051	125.12
236.285	146.12
236.519	153.12
236.753	134.12
236.987	135.12
237.221	142.12
237.455	138.12
237.689	134.12
237.922	150.12
238.156	139.12
238.39	158.12
238.624	189.12
238.858	164.12
239.091	154.12
239.325	161.12
239.559	146.12
239.793	151.12
240.027	175.12
240.26	177.12
240.494	158.12
240.728	173.12
240.961	165.12
241.195	173.12
241.429	175.12
241.662	171.12
241.896	156.12
242.13	131.12
242.363	145.12
242.597	142.12
242.83	149.12
243.064	168.12
243.298	155.12
243.531	164.12
243.765	177.12
243.998	181.12
244.232	161.12
244.465	168.12
244.699	157.12
244.932	179.12
245.166	166.12
245.399	161.12
245.633	162.12
245.866	155.12
246.099	174.12
246.333	189.12
246.566	191.12
246.8	199.12
247.033	187.12
247.266	159.12
247.5	185.12
247.733	186.12
247.966	166.12
248.2	190.12
248.433	177.12
248.666	182.12
248.899	202.12
249.133	213.12
249.366	217.12
249.599	255.12
249.832	253.12
250.066	194.12
250.299	208.12
250.532	211.12
250.765	201.12
250.998	203.12
251.231	169.12
251.465	206.12
251.698	211.12
251.931	200.12
252.164	201.12
252.397	240.12
252.63	239.12
252.863	271.12
253.096	281.12
253.329	254.12
253.562	253.12
253.795	294.12
254.028	307.12
254.261	328.12
254.494	273.12
254.727	269.12
254.96	264.12
255.193	286.12
255.426	271.12
255.659	210.12
255.892	201.12
256.124	227.12
256.357	241.12
256.59	287.12
256.823	280.12
257.056	253.12
257.289	224.12
257.521	243.12
257.754	267.12
257.987	298.12
258.22	288.12
258.452	240.12
258.685	273.12
258.918	304.12
259.151	283.12
259.383	308.12
259.616	342.12
259.849	334.12
260.081	380.12
260.314	426.12
260.547	358.12
260.779	358.12
261.012	378.12
261.244	363.12
261.477	381.12
261.71	341.12
261.942	306.12
262.175	309.12
262.407	296.12
262.64	281.12
262.872	330.12
263.105	379.12
263.337	373.12
263.57	339.12
263.802	234.12
264.035	230.12
264.267	223.12
264.499	202.12
264.732	193.12
264.964	187.12
265.197	191.12
265.429	189.12
265.661	208.12
265.894	218.12
266.126	238.12
266.358	241.12
266.591	293.12
266.823	338.12
267.055	322.12
267.287	302.12
267.52	283.12
267.752	321.12
267.984	345.12
268.216	314.12
268.448	245.12
268.681	253.12
268.913	285.12
269.145	319.12
269.377	295.12
269.609	312.12
269.841	290.12
270.073	308.12
270.306	327.12
270.538	308.12
270.77	335.12
271.002	325.12
271.234	328.12
271.466	344.12
271.698	336.12
271.93	313.12
272.162	294.12
272.394	310.12
272.626	282.12
272.858	305.12
273.09	322.12
273.322	296.12
273.553	290.12
273.785	308.12
274.017	391.12
274.249	476.12
274.481	516.12
274.713	529.12
274.945	629.12
275.176	670.12
275.408	602.12
275.64	513.12
275.872	537.12
276.104	445.12
276.335	423.12
276.567	404.12
276.799	427.12
277.031	459.12
277.262	362.12
277.494	281.12
277.726	261.12
277.957	295.12
278.189	329.12
278.421	321.12
278.652	319.12
278.884	324.12
279.115	282.12
279.347	281.12
279.579	273.12
279.81	290.12
280.042	270.12
280.273	293.12
280.505	263.12
280.736	234.12
280.968	257.12
281.199	263.12
281.431	290.12
281.662	286.12
281.894	264.12
282.125	294.12
282.356	298.12
282.588	301.12
282.819	264.12
283.051	311.12
283.282	345.12
283.513	415.12
283.745	461.12
283.976	441.12
284.207	430.12
284.439	459.12
284.67	417.12
284.901	389.12
285.132	404.12
285.364	428.12
285.595	373.12
285.826	399.12
286.057	421.12
286.288	399.12
286.52	399.12
286.751	458.12
286.982	447.12
287.213	365.12
287.444	377.12
287.675	382.12
287.906	398.12
288.138	347.12
288.369	319.12
288.6	303.12
288.831	301.12
289.062	362.12
289.293	384.12
289.524	361.12
289.755	360.12
289.986	374.12
290.217	355.12
290.448	255.12
290.679	248.12
290.91	221.12
291.141	226.12
291.371	246.12
291.602	233.12
291.833	229.12
292.064	244.12
292.295	275.12
292.526	293.12
292.757	314.12
292.987	325.12
293.218	342.12
293.449	365.12
293.68	401.12
293.91	361.12
294.141	393.12
294.372	346.12
294.603	319.12
294.833	363.12
295.064	398.12
295.295	403.12
295.525	305.12
295.756	265.12
295.987	219.12
296.217	241.12
296.448	249.12
296.679	261.12
296.909	265.12
297.14	279.12
297.37	313.12
297.601	289.12
297.831	258.12
298.062	278.12
298.292	319.12
298.523	318.12
298.753	377.12
298.984	340.12
299.214	283.12
299.445	265.12
299.675	256.12
299.905	234.12
300.136	229.12
300.366	250.12
300.597	258.12
300.827	241.12
301.057	236.12
301.288	226.12
301.518	255.12
301.748	297.12
301.979	283.12
302.209	312.12
302.439	307.12
302.669	296.12
302.9	270.12
303.13	255.12
303.36	250.12
303.59	262.12
303.82	238.12
304.051	269.12
304.281	325.12
304.511	293.12
304.741	270.12
304.971	272.12
305.201	297.12
305.431	290.12
305.661	246.12
305.891	240.12
306.121	257.12
306.352	220.12
306.582	217.12
306.812	191.12
307.042	210.12
307.272	199.12
307.502	201.12
307.731	224.12
307.961	214.12
308.191	196.12
308.421	191.12
308.651	210.12
308.881	199.12
309.111	185.12
309.341	189.12
309.571	215.12
309.8	227.12
310.03	218.12
310.26	215.12
310.49	225.12
310.72	215.12
310.949	221.12
311.179	208.12
311.409	200.12
311.639	238.12
311.868	297.12
312.098	378.12
312.328	415.12
312.557	401.12
312.787	399.12
313.017	332.12
313.246	371.12
313.476	413.12
313.706	354.12
313.935	292.12
314.165	242.12
314.394	225.12
314.624	214.12
314.853	221.12
315.083	240.12
315.312	228.12
315.542	225.12
315.771	229.12
316.001	205.12
316.23	200.12
316.46	214.12
316.689	219.12
316.919	215.12
317.148	217.12
317.377	196.12
317.607	206.12
317.836	222.12
318.065	251.12
318.295	273.12
318.524	245.12
318.753	211.12
318.983	214.12
319.212	214.12
319.441	213.12
319.67	243.12
319.9	256.12
320.129	244.12
320.358	243.12
320.587	213.12
320.816	229.12
321.046	256.12
321.275	275.12
321.504	262.12
321.733	253.12
321.962	245.12
322.191	230.12
322.42	241.12
322.649	232.12
322.878	243.12
323.108	268.12
323.337	232.12
323.566	251.12
323.795	253.12
324.024	232.12
324.253	217.12
324.482	223.12
324.71	245.12
324.939	266.12
325.168	260.12
325.397	222.12
325.626	209.12
325.855	217.12
326.084	204.12
326.313	207.12
326.542	188.12
326.77	211.12
326.999	223.12
327.228	228.12
327.457	234.12
327.686	234.12
327.914	211.12
328.143	207.12
328.372	211.12
328.6	198.12
328.829	210.12
329.058	209.12
329.287	198.12
329.515	207.12
329.744	196.12
329.972	197.12
330.201	203.12
330.43	207.12
330.658	233.12
330.887	242.12
331.115	224.12
331.344	206.12
331.572	225.12
331.801	209.12
332.03	209.12
332.258	219.12
332.486	216.12
332.715	228.12
332.943	219.12
333.172	238.12
333.4	231.12
333.629	259.12
333.857	238.12
334.085	251.12
334.314	247.12
334.542	245.12
334.771	232.12
334.999	243.12
335.227	213.12
335.455	224.12
335.684	257.12
335.912	263.12
336.14	291.12
336.369	324.12
336.597	271.12
336.825	312.12
337.053	348.12
337.281	293.12
337.51	218.12
337.738	221.12
337.966	230.12
338.194	268.12
338.422	251.12
338.65	224.12
338.878	207.12
339.106	224.12
339.334	239.12
339.562	258.12
339.79	216.12
340.018	238.12
340.246	234.12
340.474	253.12
340.702	269.12
340.93	277.12
341.158	280.12
341.386	246.12
341.614	237.12
341.842	245.12
342.07	243.12
342.298	294.12
342.526	301.12
342.754	259.12
342.981	247.12
343.209	233.12
343.437	258.12
343.665	265.12
343.893	261.12
344.12	310.12
344.348	361.12
344.576	305.12
344.804	270.12
345.031	227.12
345.259	215.12
345.487	207.12
345.714	246.12
345.942	240.12
346.17	250.12
346.397	279.12
346.625	233.12
346.853	232.12
347.08	218.12
347.308	257.12
347.535	274.12
347.763	265.12
347.99	217.12
348.218	221.12
348.445	243.12
348.673	242.12
348.9	210.12
349.128	247.12
349.355	244.12
349.583	247.12
349.81	223.12
350.037	230.12
350.265	215.12
350.492	209.12
350.72	188.12
350.947	205.12
351.174	202.12
351.402	230.12
351.629	224.12
351.856	198.12
352.083	225.12
352.311	224.12
352.538	235.12
352.765	253.12
352.992	228.12
353.22	231.12
353.447	230.12
353.674	233.12
353.901	218.12
354.128	214.12
354.355	219.12
354.583	221.12
354.81	237.12
355.037	250.12
355.264	239.12
355.491	235.12
355.718	237.12
355.945	242.12
356.172	256.12
356.399	246.12
356.626	290.12
356.853	330.12
357.08	351.12
357.307	359.12
357.534	295.12
357.761	322.12
357.988	363.12
358.215	413.12
358.441	379.12
358.668	327.12
358.895	307.12
359.122	265.12
359.349	266.12
359.576	312.12
359.802	273.12
360.029	237.12
360.256	258.12
360.483	268.12
360.709	334.12
360.936	359.12
361.163	327.12
361.39	246.12
361.616	251.12
361.843	262.12
362.07	304.12
362.296	266.12
362.523	235.12
362.749	206.12
362.976	227.12
363.203	254.12
363.429	284.12
363.656	238.12
363.882	239.12
364.109	222.12
364.335	219.12
364.562	215.12
364.788	229.12
365.015	269.12
365.241	245.12
365.468	195.12
365.694	181.12
365.92	205.12
366.147	181.12
366.373	189.12
366.599	194.12
366.826	206.12
367.052	206.12
367.278	197.12
367.505	198.12
367.731	208.12
367.957	218.12
368.184	233.12
368.41	218.12
368.636	249.12
368.862	231.12
369.089	244.12
369.315	190.12
369.541	217.12
369.767	194.12
369.993	187.12
370.219	205.12
370.445	214.12
370.672	227.12
370.898	247.12
371.124	245.12
371.35	230.12
371.576	211.12
371.802	246.12
372.028	282.12
372.254	294.12
372.48	254.12
372.706	231.12
372.932	242.12
373.158	252.12
373.384	287.12
373.61	357.12
373.835	383.12
374.061	288.12
374.287	242.12
374.513	289.12
374.739	327.12
374.965	346.12
375.191	364.12
375.416	277.12
375.642	229.12
375.868	271.12
376.094	271.12
376.319	259.12
376.545	276.12
376.771	298.12
376.997	271.12
377.222	221.12
377.448	216.12
377.674	201.12
377.899	194.12
378.125	202.12
378.35	186.12
378.576	199.12
378.802	207.12
379.027	223.12
379.253	216.12
379.478	216.12
379.704	235.12
379.929	238.12
380.155	262.12
380.38	217.12
380.606	228.12
380.831	259.12
381.057	239.12
381.282	212.12
381.507	259.12
381.733	292.12
381.958	302.12
382.184	345.12
382.409	355.12
382.634	338.12
382.86	344.12
383.085	305.12
383.31	261.12
383.535	276.12
383.761	271.12
383.986	267.12
384.211	328.12
384.436	305.12
384.662	237.12
384.887	251.12
385.112	241.12
385.337	250.12
385.562	229.12
385.787	263.12
386.013	281.12
386.238	274.12
386.463	227.12
386.688	235.12
386.913	234.12
387.138	225.12
387.363	230.12
387.588	222.12
387.813	250.12
388.038	265.12
388.263	228.12
388.488	227.12
388.713	267.12
388.938	278.12
389.163	228.12
389.387	208.12
389.612	221.12
389.837	221.12
390.062	220.12
390.287	247.12
390.512	233.12
390.736	219.12
390.961	230.12
391.186	197.12
391.411	206.12
391.636	217.12
391.86	231.12
392.085	241.12
392.31	262.12
392.534	229.12
392.759	237.12
392.984	242.12
393.208	225.12
393.433	223.12
393.658	211.12
393.882	199.12
394.107	197.12
394.331	206.12
394.556	194.12
394.78	190.12
395.005	189.12
395.229	217.12
395.454	216.12
395.678	216.12
395.903	226.12
396.127	222.12
396.352	222.12
396.576	242.12
396.801	247.12
397.025	253.12
397.249	256.12
397.474	233.12
397.698	226.12
397.922	235.12
398.147	222.12
398.371	242.12
398.595	239.12
398.82	226.12
399.044	241.12
399.268	237.12
399.492	269.12
399.717	293.12
399.941	274.12
400.165	253.12
400.389	234.12
400.613	242.12
400.837	230.12
401.062	212.12
401.286	211.12
401.51	229.12
401.734	209.12
401.958	222.12
402.182	240.12
402.406	225.12
402.63	239.12
402.854	257.12
403.078	298.12
403.302	374.12
403.526	371.12
403.75	333.12
403.974	285.12
404.198	278.12
404.422	296.12
404.645	335.12
404.869	341.12
405.093	295.12
405.317	280.12
405.541	261.12
405.765	257.12
405.988	253.12
406.212	260.12
406.436	299.12
406.66	319.12
406.883	260.12
407.107	283.12
407.331	314.12
407.555	309.12
407.778	288.12
408.002	279.12
408.226	271.12
408.449	278.12
408.673	263.12
408.896	243.12
409.12	243.12
409.344	241.12
409.567	234.12
409.791	234.12
410.014	229.12
410.238	241.12
410.461	243.12
410.685	230.12
410.908	237.12
411.132	226.12
411.355	252.12
411.578	257.12
411.802	245.12
412.025	226.12
412.249	242.12
412.472	237.12
412.695	252.12
412.919	245.12
413.142	221.12
413.365	273.12
413.589	261.12
413.812	255.12
414.035	219.12
414.258	218.12
414.482	259.12
414.705	267.12
414.928	242.12
415.151	225.12
415.374	225.12
415.597	223.12
415.821	233.12
416.044	237.12
416.267	223.12
416.49	226.12
416.713	226.12
416.936	242.12
417.159	221.12
417.382	211.12
417.605	218.12
417.828	230.12
418.051	237.12
418.274	243.12
418.497	226.12
418.72	236.12
418.943	263.12
419.166	258.12
419.389	260.12
419.611	230.12
419.834	248.12
420.057	251.12
420.28	267.12
420.503	243.12
420.726	229.12
420.948	219.12
421.171	208.12
421.394	230.12
421.617	231.12
421.839	211.12
422.062	238.12
422.285	216.12
422.507	224.12
422.73	238.12
422.953	232.12
423.175	239.12
423.398	247.12
423.621	258.12
423.843	253.12
424.066	249.12
424.288	254.12
424.511	231.12
424.733	232.12
424.956	247.12
425.178	269.12
425.401	297.12
425.623	355.12
425.846	303.12
426.068	253.12
426.291	284.12
426.513	241.12
426.735	228.12
426.958	259.12
427.18	277.12
427.402	325.12
427.625	334.12
427.847	320.12
428.069	234.12
428.292	246.12
428.514	234.12
428.736	230.12
428.958	239.12
429.181	300.12
429.403	261.12
429.625	247.12
429.847	217.12
430.069	230.12
430.292	217.12
430.514	209.12
430.736	223.12
430.958	297.12
431.18	267.12
431.402	222.12
431.624	218.12
431.846	216.12
432.068	219.12
432.29	219.12
432.512	221.12
432.734	302.12
432.956	272.12
433.178	231.12
433.4	218.12
433.622	218.12
433.844	230.12
434.066	259.12
434.287	247.12
434.509	240.12
434.731	252.12
434.953	241.12
435.175	230.12
435.397	270.12
435.618	257.12
435.84	220.12
436.062	219.12
436.284	223.12
436.505	219.12
436.727	198.12
436.949	225.12
437.17	218.12
437.392	215.12
437.614	222.12
437.835	217.12
438.057	205.12
438.278	236.12
438.5	293.12
438.721	321.12
438.943	233.12
439.165	202.12
439.386	220.12
439.608	225.12
439.829	204.12
440.05	203.12
440.272	222.12
440.493	243.12
440.715	278.12
440.936	253.12
441.158	243.12
441.379	218.12
441.6	243.12
441.822	265.12
442.043	233.12
442.264	226.12
442.486	230.12
442.707	216.12
442.928	226.12
443.149	237.12
443.371	239.12
443.592	226.12
443.813	250.12
444.034	233.12
444.255	239.12
444.476	244.12
444.698	247.12
444.919	251.12
445.14	344.12
445.361	295.12
445.582	253.12
445.803	246.12
446.024	233.12
446.245	249.12
446.466	245.12
446.687	197.12
446.908	215.12
447.129	214.12
447.35	212.12
447.571	218.12
447.792	212.12
448.013	214.12
448.234	198.12
448.455	208.12
448.675	204.12
448.896	209.12
449.117	227.12
449.338	200.12
449.559	222.12
449.779	226.12
450	240.12
450.221	229.12
450.442	206.12
450.662	208.12
450.883	223.12
451.104	220.12
451.324	233.12
451.545	220.12
451.766	204.12
451.986	213.12
452.207	200.12
452.428	197.12
452.648	197.12
452.869	209.12
453.089	213.12
453.31	210.12
453.53	209.12
453.751	202.12
453.971	200.12
454.192	199.12
454.412	211.12
454.633	193.12
454.853	197.12
455.073	193.12
455.294	199.12
455.514	177.12
455.734	196.12
455.955	197.12
456.175	208.12
456.395	203.12
456.616	192.12
456.836	181.12
457.056	195.12
457.276	191.12
457.497	195.12
457.717	193.12
457.937	209.12
458.157	199.12
458.377	209.12
458.598	200.12
458.818	207.12
459.038	212.12
459.258	218.12
459.478	222.12
459.698	242.12
459.918	246.12
460.138	224.12
460.358	255.12
460.578	233.12
460.798	239.12
461.018	220.12
461.238	228.12
461.458	239.12
461.678	226.12
461.898	251.12
462.118	238.12
462.338	248.12
462.558	252.12
462.777	261.12
462.997	277.12
463.217	264.12
463.437	275.12
463.657	290.12
463.876	281.12
464.096	275.12
464.316	265.12
464.536	268.12
464.755	277.12
464.975	259.12
465.195	274.12
465.414	240.12
465.634	243.12
465.854	232.12
466.073	223.12
466.293	223.12
466.512	233.12
466.732	251.12
466.951	252.12
467.171	222.12
467.391	219.12
467.61	212.12
467.829	259.12
468.049	245.12
468.268	221.12
468.488	215.12
468.707	217.12
468.927	271.12
469.146	276.12
469.365	248.12
469.585	230.12
469.804	266.12
470.023	275.12
470.243	248.12
470.462	239.12
470.681	244.12
470.901	242.12
471.12	252.12
471.339	250.12
471.558	239.12
471.777	226.12
471.997	244.12
472.216	283.12
472.435	272.12
472.654	235.12
472.873	251.12
473.092	235.12
473.311	253.12
473.53	241.12
473.749	230.12
473.968	253.12
474.187	233.12
474.406	241.12
474.625	209.12
474.844	234.12
475.063	238.12
475.282	257.12
475.501	257.12
475.72	277.12
475.939	285.12
476.158	282.12
476.377	303.12
476.596	321.12
476.814	372.12
477.033	319.12
477.252	271.12
477.471	229.12
477.69	247.12
477.908	264.12
478.127	281.12
478.346	269.12
478.564	266.12
478.783	261.12
479.002	290.12
479.22	303.12
479.439	325.12
479.658	301.12
479.876	272.12
480.095	281.12
480.313	301.12
480.532	299.12
480.751	278.12
480.969	261.12
481.188	309.12
481.406	307.12
481.624	314.12
481.843	271.12
482.061	264.12
482.28	289.12
482.498	360.12
482.717	325.12
482.935	280.12
483.153	271.12
483.372	257.12
483.59	255.12
483.808	241.12
484.027	266.12
484.245	245.12
484.463	244.12
484.681	247.12
484.9	274.12
485.118	298.12
485.336	257.12
485.554	266.12
485.772	271.12
485.99	288.12
486.209	300.12
486.427	303.12
486.645	282.12
486.863	287.12
487.081	286.12
487.299	327.12
487.517	309.12
487.735	275.12
487.953	281.12
488.171	301.12
488.389	275.12
488.607	266.12
488.825	271.12
489.043	288.12
489.261	334.12
489.479	338.12
489.696	297.12
489.914	273.12
490.132	244.12
490.35	253.12
490.568	269.12
490.786	264.12
491.003	272.12
491.221	266.12
491.439	274.12
491.657	270.12
491.874	270.12
492.092	322.12
492.31	354.12
492.527	356.12
492.745	339.12
492.963	303.12
493.18	301.12
493.398	297.12
493.615	295.12
493.833	268.12
494.05	293.12
494.268	282.12
494.485	293.12
494.703	277.12
494.92	286.12
495.138	295.12
495.355	281.12
495.573	258.12
495.79	296.12
496.008	355.12
496.225	305.12
496.442	281.12
496.66	298.12
496.877	294.12
497.094	318.12
497.312	303.12
497.529	289.12
497.746	304.12
497.963	314.12
498.181	350.12
498.398	347.12
498.615	366.12
498.832	412.12
499.049	409.12
499.267	352.12
499.484	385.12
499.701	397.12
499.918	447.12
500.135	481.12
500.352	515.12
500.569	513.12
500.786	543.12
501.003	524.12
501.22	472.12
501.437	419.12
501.654	375.12
501.871	378.12
502.088	386.12
502.305	329.12
502.522	344.12
