Data from NickelSpatula.Lamp.E10.P2_HRD10591_11-59-42-524.txt Node
Date: Tue Jul 23 11:59:42 EDT 2019
User: cochatt
Spectrometer: HR+D1059
Trigger mode: 1
Integration Time (sec): 1.000000E-1
Scans to average: 1
Electric dark correction enabled: true
Nonlinearity correction enabled: false
Boxcar width: 0
XAxis mode: Wavelengths
Number of Pixels in Spectrum: 2048
>>>>>Begin Spectral Data<<<<<
223.165	-16.62
223.4	-16.62
223.635	-16.62
223.869	-26.62
224.104	-15.62
224.338	-11.62
224.573	-0.62
224.808	-10.62
225.042	-16.62
225.277	-17.62
225.511	-2.62
225.746	13.38
225.98	4.38
226.215	2.38
226.449	22.38
226.683	16.38
226.918	28.38
227.152	31.38
227.387	42.38
227.621	32.38
227.856	36.38
228.09	45.38
228.324	42.38
228.559	63.38
228.793	81.38
229.027	142.38
229.262	158.38
229.496	156.38
229.73	156.38
229.964	204.38
230.199	206.38
230.433	209.38
230.667	199.38
230.901	209.38
231.136	189.38
231.37	199.38
231.604	217.38
231.838	235.38
232.072	256.38
232.306	252.38
232.541	242.38
232.775	254.38
233.009	267.38
233.243	288.38
233.477	302.38
233.711	347.38
233.945	336.38
234.179	326.38
234.413	356.38
234.647	390.38
234.881	442.38
235.115	422.38
235.349	408.38
235.583	355.38
235.817	339.38
236.051	390.38
236.285	428.38
236.519	471.38
236.753	449.38
236.987	438.38
237.221	428.38
237.455	417.38
237.689	417.38
237.922	468.38
238.156	466.38
238.39	556.38
238.624	652.38
238.858	607.38
239.091	501.38
239.325	518.38
239.559	490.38
239.793	555.38
240.027	654.38
240.26	593.38
240.494	583.38
240.728	592.38
240.961	691.38
241.195	639.38
241.429	624.38
241.662	640.38
241.896	525.38
242.13	510.38
242.363	455.38
242.597	486.38
242.83	552.38
243.064	550.38
243.298	590.38
243.531	649.38
243.765	658.38
243.998	633.38
244.232	618.38
244.465	629.38
244.699	608.38
244.932	678.38
245.166	642.38
245.399	574.38
245.633	548.38
245.866	574.38
246.099	604.38
246.333	736.38
246.566	789.38
246.8	782.38
247.033	762.38
247.266	712.38
247.5	711.38
247.733	670.38
247.966	685.38
248.2	696.38
248.433	781.38
248.666	860.38
248.899	872.38
249.133	901.38
249.366	1013.38
249.599	1070.38
249.832	958.38
250.066	843.38
250.299	851.38
250.532	825.38
250.765	815.38
250.998	769.38
251.231	716.38
251.465	780.38
251.698	826.38
251.931	828.38
252.164	847.38
252.397	962.38
252.63	1078.38
252.863	1182.38
253.096	1207.38
253.329	1191.38
253.562	1121.38
253.795	1255.38
254.028	1421.38
254.261	1424.38
254.494	1263.38
254.727	1166.38
254.96	1160.38
255.193	1210.38
255.426	1120.38
255.659	899.38
255.892	784.38
256.124	842.38
256.357	1052.38
256.59	1221.38
256.823	1187.38
257.056	1014.38
257.289	951.38
257.521	994.38
257.754	1149.38
257.987	1315.38
258.22	1157.38
258.452	1016.38
258.685	1167.38
258.918	1325.38
259.151	1265.38
259.383	1328.38
259.616	1560.38
259.849	1600.38
260.081	1777.38
260.314	1959.38
260.547	1484.38
260.779	1500.38
261.012	1739.38
261.244	1637.38
261.477	1674.38
261.71	1574.38
261.942	1327.38
262.175	1332.38
262.407	1280.38
262.64	1302.38
262.872	1549.38
263.105	1681.38
263.337	1742.38
263.57	1563.38
263.802	1053.38
264.035	922.38
264.267	900.38
264.499	774.38
264.732	739.38
264.964	713.38
265.197	724.38
265.429	799.38
265.661	855.38
265.894	860.38
266.126	938.38
266.358	1039.38
266.591	1269.38
266.823	1493.38
267.055	1414.38
267.287	1230.38
267.52	1281.38
267.752	1330.38
267.984	1428.38
268.216	1382.38
268.448	1138.38
268.681	1094.38
268.913	1212.38
269.145	1250.38
269.377	1315.38
269.609	1319.38
269.841	1227.38
270.073	1328.38
270.306	1376.38
270.538	1395.38
270.77	1388.38
271.002	1407.38
271.234	1492.38
271.466	1508.38
271.698	1460.38
271.93	1440.38
272.162	1466.38
272.394	1480.38
272.626	1428.38
272.858	1482.38
273.09	1524.38
273.322	1326.38
273.553	1287.38
273.785	1570.38
274.017	2038.38
274.249	2498.38
274.481	2636.38
274.713	2855.38
274.945	3183.38
275.176	3299.38
275.408	2922.38
275.64	2683.38
275.872	2658.38
276.104	2271.38
276.335	1968.38
276.567	1938.38
276.799	2023.38
277.031	2075.38
277.262	1615.38
277.494	1243.38
277.726	1211.38
277.957	1338.38
278.189	1518.38
278.421	1494.38
278.652	1432.38
278.884	1387.38
279.115	1308.38
279.347	1208.38
279.579	1245.38
279.81	1265.38
280.042	1230.38
280.273	1263.38
280.505	1181.38
280.736	1058.38
280.968	1039.38
281.199	1118.38
281.431	1246.38
281.662	1246.38
281.894	1188.38
282.125	1298.38
282.356	1360.38
282.588	1377.38
282.819	1266.38
283.051	1378.38
283.282	1715.38
283.513	1986.38
283.745	2188.38
283.976	2274.38
284.207	2078.38
284.439	2065.38
284.67	2068.38
284.901	1783.38
285.132	1988.38
285.364	2087.38
285.595	1914.38
285.826	2038.38
286.057	2072.38
286.288	2001.38
286.52	2032.38
286.751	2203.38
286.982	2181.38
287.213	1870.38
287.444	1774.38
287.675	1900.38
287.906	1858.38
288.138	1565.38
288.369	1396.38
288.6	1307.38
288.831	1342.38
289.062	1578.38
289.293	1728.38
289.524	1632.38
289.755	1616.38
289.986	1671.38
290.217	1492.38
290.448	1157.38
290.679	972.38
290.91	918.38
291.141	932.38
291.371	990.38
291.602	1007.38
291.833	1010.38
292.064	1073.38
292.295	1244.38
292.526	1435.38
292.757	1468.38
292.987	1589.38
293.218	1620.38
293.449	1621.38
293.68	1748.38
293.91	1615.38
294.141	1633.38
294.372	1564.38
294.603	1440.38
294.833	1612.38
295.064	1876.38
295.295	1803.38
295.525	1342.38
295.756	1154.38
295.987	1031.38
296.217	1028.38
296.448	1063.38
296.679	1123.38
296.909	1236.38
297.14	1322.38
297.37	1478.38
297.601	1440.38
297.831	1206.38
298.062	1288.38
298.292	1462.38
298.523	1620.38
298.753	1844.38
298.984	1655.38
299.214	1298.38
299.445	1112.38
299.675	1079.38
299.905	1079.38
300.136	1066.38
300.366	1235.38
300.597	1177.38
300.827	1050.38
301.057	1033.38
301.288	1066.38
301.518	1119.38
301.748	1299.38
301.979	1386.38
302.209	1544.38
302.439	1540.38
302.669	1309.38
302.9	1324.38
303.13	1191.38
303.36	1115.38
303.59	1060.38
303.82	1108.38
304.051	1284.38
304.281	1386.38
304.511	1342.38
304.741	1194.38
304.971	1229.38
305.201	1304.38
305.431	1244.38
305.661	1087.38
305.891	1102.38
306.121	1126.38
306.352	992.38
306.582	884.38
306.812	898.38
307.042	906.38
307.272	818.38
307.502	827.38
307.731	898.38
307.961	918.38
308.191	861.38
308.421	828.38
308.651	801.38
308.881	796.38
309.111	789.38
309.341	834.38
309.571	905.38
309.8	927.38
310.03	966.38
310.26	1014.38
310.49	995.38
310.72	869.38
310.949	868.38
311.179	900.38
311.409	940.38
311.639	1088.38
311.868	1429.38
312.098	1829.38
312.328	1991.38
312.557	1924.38
312.787	1927.38
313.017	1696.38
313.246	1876.38
313.476	2015.38
313.706	1667.38
313.935	1309.38
314.165	1028.38
314.394	966.38
314.624	983.38
314.853	1031.38
315.083	1063.38
315.312	1045.38
315.542	1046.38
315.771	990.38
316.001	888.38
316.23	838.38
316.46	875.38
316.689	882.38
316.919	898.38
317.148	910.38
317.377	888.38
317.607	893.38
317.836	970.38
318.065	1162.38
318.295	1261.38
318.524	1161.38
318.753	1015.38
318.983	954.38
319.212	919.38
319.441	1048.38
319.67	1144.38
319.9	1235.38
320.129	1122.38
320.358	1019.38
320.587	988.38
320.816	1044.38
321.046	1223.38
321.275	1372.38
321.504	1379.38
321.733	1318.38
321.962	1258.38
322.191	1214.38
322.42	1176.38
322.649	1181.38
322.878	1302.38
323.108	1263.38
323.337	1156.38
323.566	1134.38
323.795	1090.38
324.024	1069.38
324.253	994.38
324.482	1016.38
324.71	1140.38
324.939	1259.38
325.168	1166.38
325.397	964.38
325.626	940.38
325.855	943.38
326.084	953.38
326.313	883.38
326.542	859.38
326.77	902.38
326.999	928.38
327.228	974.38
327.457	1036.38
327.686	1047.38
327.914	883.38
328.143	851.38
328.372	851.38
328.6	856.38
328.829	886.38
329.058	908.38
329.287	907.38
329.515	926.38
329.744	886.38
329.972	843.38
330.201	818.38
330.43	877.38
330.658	988.38
330.887	1118.38
331.115	1048.38
331.344	1039.38
331.572	969.38
331.801	916.38
332.03	891.38
332.258	900.38
332.486	973.38
332.715	1012.38
332.943	942.38
333.172	935.38
333.4	976.38
333.629	1060.38
333.857	1117.38
334.085	1122.38
334.314	1118.38
334.542	1067.38
334.771	982.38
334.999	977.38
335.227	972.38
335.455	968.38
335.684	1008.38
335.912	1185.38
336.14	1353.38
336.369	1283.38
336.597	1248.38
336.825	1392.38
337.053	1589.38
337.281	1275.38
337.51	1026.38
337.738	997.38
337.966	1070.38
338.194	1217.38
338.422	1136.38
338.65	971.38
338.878	908.38
339.106	943.38
339.334	1040.38
339.562	1144.38
339.79	1018.38
340.018	988.38
340.246	1087.38
340.474	1230.38
340.702	1322.38
340.93	1373.38
341.158	1375.38
341.386	1151.38
341.614	1120.38
341.842	1152.38
342.07	1189.38
342.298	1342.38
342.526	1409.38
342.754	1256.38
342.981	1153.38
343.209	1103.38
343.437	1172.38
343.665	1219.38
343.893	1226.38
344.12	1454.38
344.348	1686.38
344.576	1478.38
344.804	1245.38
345.031	1083.38
345.259	986.38
345.487	1042.38
345.714	1064.38
345.942	1113.38
346.17	1191.38
346.397	1174.38
346.625	1031.38
346.853	1020.38
347.08	958.38
347.308	1036.38
347.535	1139.38
347.763	1169.38
347.99	1026.38
348.218	930.38
348.445	982.38
348.673	974.38
348.9	1020.38
349.128	1098.38
349.355	1112.38
349.583	1103.38
349.81	1044.38
350.037	945.38
350.265	881.38
350.492	818.38
350.72	836.38
350.947	839.38
351.174	923.38
351.402	978.38
351.629	1030.38
351.856	965.38
352.083	928.38
352.311	998.38
352.538	1122.38
352.765	1177.38
352.992	1079.38
353.22	1014.38
353.447	1032.38
353.674	1037.38
353.901	990.38
354.128	990.38
354.355	1025.38
354.583	1030.38
354.81	1038.38
355.037	1076.38
355.264	1030.38
355.491	1123.38
355.718	1214.38
355.945	1172.38
356.172	1119.38
356.399	1136.38
356.626	1381.38
356.853	1743.38
357.08	1849.38
357.307	1905.38
357.534	1442.38
357.761	1484.38
357.988	1839.38
358.215	2151.38
358.441	2049.38
358.668	1727.38
358.895	1594.38
359.122	1263.38
359.349	1285.38
359.576	1397.38
359.802	1142.38
360.029	966.38
360.256	1074.38
360.483	1326.38
360.709	1702.38
360.936	1793.38
361.163	1558.38
361.39	1190.38
361.616	1088.38
361.843	1282.38
362.07	1602.38
362.296	1450.38
362.523	1125.38
362.749	974.38
362.976	1010.38
363.203	1250.38
363.429	1402.38
363.656	1118.38
363.882	1006.38
364.109	1055.38
364.335	1020.38
364.562	1023.38
364.788	1183.38
365.015	1366.38
365.241	1214.38
365.468	991.38
365.694	879.38
365.92	865.38
366.147	819.38
366.373	829.38
366.599	821.38
366.826	840.38
367.052	852.38
367.278	870.38
367.505	852.38
367.731	929.38
367.957	1049.38
368.184	1067.38
368.41	1053.38
368.636	1054.38
368.862	1094.38
369.089	1050.38
369.315	908.38
369.541	917.38
369.767	904.38
369.993	861.38
370.219	862.38
370.445	953.38
370.672	1072.38
370.898	1155.38
371.124	1154.38
371.35	971.38
371.576	933.38
371.802	1041.38
372.028	1200.38
372.254	1432.38
372.48	1174.38
372.706	1066.38
372.932	1142.38
373.158	1190.38
373.384	1473.38
373.61	1951.38
373.835	1948.38
374.061	1459.38
374.287	1256.38
374.513	1456.38
374.739	1759.38
374.965	1797.38
375.191	1763.38
375.416	1212.38
375.642	1052.38
375.868	1233.38
376.094	1401.38
376.319	1236.38
376.545	1339.38
376.771	1428.38
376.997	1212.38
377.222	898.38
377.448	774.38
377.674	748.38
377.899	770.38
378.125	769.38
378.35	790.38
378.576	802.38
378.802	880.38
379.027	968.38
379.253	939.38
379.478	952.38
379.704	1089.38
379.929	1141.38
380.155	1137.38
380.38	963.38
380.606	1060.38
380.831	1182.38
381.057	1054.38
381.282	1007.38
381.507	1241.38
381.733	1522.38
381.958	1652.38
382.184	1768.38
382.409	1792.38
382.634	1813.38
382.86	1864.38
383.085	1493.38
383.31	1196.38
383.535	1258.38
383.761	1296.38
383.986	1240.38
384.211	1494.38
384.436	1410.38
384.662	1077.38
384.887	1026.38
385.112	1086.38
385.337	1084.38
385.562	1039.38
385.787	1138.38
386.013	1292.38
386.238	1357.38
386.463	1054.38
386.688	1023.38
386.913	989.38
387.138	935.38
387.363	1000.38
387.588	1026.38
387.813	1019.38
388.038	1153.38
388.263	1006.38
388.488	1003.38
388.713	1149.38
388.938	1299.38
389.163	1062.38
389.387	920.38
389.612	944.38
389.837	982.38
390.062	985.38
390.287	1036.38
390.512	1066.38
390.736	968.38
390.961	890.38
391.186	867.38
391.411	863.38
391.636	854.38
391.86	945.38
392.085	1035.38
392.31	1029.38
392.534	1006.38
392.759	946.38
392.984	1011.38
393.208	1002.38
393.433	898.38
393.658	842.38
393.882	824.38
394.107	804.38
394.331	802.38
394.556	814.38
394.78	827.38
395.005	881.38
395.229	897.38
395.454	890.38
395.678	897.38
395.903	949.38
396.127	891.38
396.352	902.38
396.576	986.38
396.801	1039.38
397.025	1119.38
397.249	1151.38
397.474	968.38
397.698	947.38
397.922	996.38
398.147	934.38
398.371	916.38
398.595	1002.38
398.82	982.38
399.044	948.38
399.268	1026.38
399.492	1059.38
399.717	1056.38
399.941	1119.38
400.165	1103.38
400.389	1032.38
400.613	1055.38
400.837	1079.38
401.062	936.38
401.286	898.38
401.51	926.38
401.734	917.38
401.958	940.38
402.182	927.38
402.406	912.38
402.63	924.38
402.854	981.38
403.078	1122.38
403.302	1381.38
403.526	1361.38
403.75	1244.38
403.974	1076.38
404.198	1134.38
404.422	1289.38
404.645	1518.38
404.869	1680.38
405.093	1192.38
405.317	1045.38
405.541	1008.38
405.765	1024.38
405.988	1047.38
406.212	1127.38
406.436	1360.38
406.66	1500.38
406.883	1147.38
407.107	1195.38
407.331	1403.38
407.555	1313.38
407.778	1124.38
408.002	1102.38
408.226	1078.38
408.449	1040.38
408.673	1024.38
408.896	984.38
409.12	902.38
409.344	933.38
409.567	886.38
409.791	882.38
410.014	863.38
410.238	885.38
410.461	912.38
410.685	911.38
410.908	917.38
411.132	945.38
411.355	951.38
411.578	961.38
411.802	957.38
412.025	973.38
412.249	1026.38
412.472	946.38
412.695	964.38
412.919	952.38
413.142	994.38
413.365	1108.38
413.589	1075.38
413.812	991.38
414.035	920.38
414.258	956.38
414.482	1106.38
414.705	1119.38
414.928	952.38
415.151	897.38
415.374	878.38
415.597	933.38
415.821	901.38
416.044	924.38
416.267	884.38
416.49	886.38
416.713	890.38
416.936	833.38
417.159	882.38
417.382	922.38
417.605	928.38
417.828	930.38
418.051	926.38
418.274	931.38
418.497	949.38
418.72	964.38
418.943	957.38
419.166	1030.38
419.389	1062.38
419.611	1070.38
419.834	1049.38
420.057	1119.38
420.28	1167.38
420.503	1104.38
420.726	937.38
420.948	911.38
421.171	890.38
421.394	903.38
421.617	898.38
421.839	879.38
422.062	962.38
422.285	952.38
422.507	940.38
422.73	994.38
422.953	972.38
423.175	964.38
423.398	959.38
423.621	1022.38
423.843	1077.38
424.066	995.38
424.288	978.38
424.511	949.38
424.733	933.38
424.956	980.38
425.178	1111.38
425.401	1262.38
425.623	1432.38
425.846	1182.38
426.068	1050.38
426.291	1163.38
426.513	1070.38
426.735	954.38
426.958	988.38
427.18	1181.38
427.402	1564.38
427.625	1523.38
427.847	1222.38
428.069	935.38
428.292	943.38
428.514	900.38
428.736	894.38
428.958	967.38
429.181	1149.38
429.403	997.38
429.625	930.38
429.847	919.38
430.069	926.38
430.292	926.38
430.514	897.38
430.736	977.38
430.958	1263.38
431.18	1134.38
431.402	883.38
431.624	827.38
431.846	832.38
432.068	800.38
432.29	859.38
432.512	947.38
432.734	1249.38
432.956	1164.38
433.178	884.38
433.4	833.38
433.622	885.38
433.844	908.38
434.066	980.38
434.287	941.38
434.509	930.38
434.731	986.38
434.953	902.38
435.175	943.38
435.397	1063.38
435.618	921.38
435.84	835.38
436.062	831.38
436.284	844.38
436.505	781.38
436.727	800.38
436.949	821.38
437.17	850.38
437.392	867.38
437.614	868.38
437.835	840.38
438.057	876.38
438.278	982.38
438.5	1453.38
438.721	1464.38
438.943	994.38
439.165	850.38
439.386	817.38
439.608	789.38
439.829	775.38
440.05	781.38
440.272	864.38
440.493	1034.38
440.715	1292.38
440.936	1026.38
441.158	887.38
441.379	893.38
441.6	987.38
441.822	1031.38
442.043	895.38
442.264	900.38
442.486	890.38
442.707	872.38
442.928	885.38
443.149	920.38
443.371	907.38
443.592	919.38
443.813	921.38
444.034	895.38
444.255	906.38
444.476	954.38
444.698	975.38
444.919	967.38
445.14	1066.38
445.361	1032.38
445.582	952.38
445.803	933.38
446.024	942.38
446.245	959.38
446.466	917.38
446.687	893.38
446.908	902.38
447.129	849.38
447.35	826.38
447.571	821.38
447.792	806.38
448.013	807.38
448.234	788.38
448.455	813.38
448.675	812.38
448.896	828.38
449.117	821.38
449.338	835.38
449.559	837.38
449.779	891.38
450	867.38
450.221	822.38
450.442	860.38
450.662	807.38
450.883	805.38
451.104	832.38
451.324	821.38
451.545	781.38
451.766	826.38
451.986	784.38
452.207	779.38
452.428	787.38
452.648	786.38
452.869	838.38
453.089	883.38
453.31	846.38
453.53	748.38
453.751	765.38
453.971	746.38
454.192	800.38
454.412	826.38
454.633	764.38
454.853	749.38
455.073	711.38
455.294	735.38
455.514	744.38
455.734	804.38
455.955	831.38
456.175	833.38
456.395	771.38
456.616	703.38
456.836	726.38
457.056	722.38
457.276	693.38
457.497	706.38
457.717	692.38
457.937	727.38
458.157	738.38
458.377	725.38
458.598	737.38
458.818	785.38
459.038	837.38
459.258	859.38
459.478	861.38
459.698	904.38
459.918	934.38
460.138	890.38
460.358	925.38
460.578	901.38
460.798	910.38
461.018	898.38
461.238	886.38
461.458	868.38
461.678	916.38
461.898	968.38
462.118	948.38
462.338	947.38
462.558	982.38
462.777	1046.38
462.997	1043.38
463.217	986.38
463.437	1060.38
463.657	1008.38
463.876	1010.38
464.096	979.38
464.316	1000.38
464.536	994.38
464.755	1042.38
464.975	1023.38
465.195	987.38
465.414	1018.38
465.634	977.38
465.854	949.38
466.073	885.38
466.293	912.38
466.512	1000.38
466.732	1063.38
466.951	1062.38
467.171	930.38
467.391	910.38
467.61	900.38
467.829	928.38
468.049	964.38
468.268	883.38
468.488	910.38
468.707	946.38
468.927	1093.38
469.146	1172.38
469.365	1046.38
469.585	978.38
469.804	1011.38
470.023	1125.38
470.243	1020.38
470.462	928.38
470.681	923.38
470.901	928.38
471.12	990.38
471.339	989.38
471.558	943.38
471.777	948.38
471.997	1019.38
472.216	1140.38
472.435	1130.38
472.654	1000.38
472.873	972.38
473.092	1032.38
473.311	1062.38
473.53	966.38
473.749	958.38
473.968	987.38
474.187	985.38
474.406	960.38
474.625	945.38
474.844	984.38
475.063	1036.38
475.282	1054.38
475.501	1112.38
475.72	1167.38
475.939	1120.38
476.158	1131.38
476.377	1309.38
476.596	1498.38
476.814	1545.38
477.033	1280.38
477.252	1117.38
477.471	1024.38
477.69	1012.38
477.908	1110.38
478.127	1160.38
478.346	1077.38
478.564	1156.38
478.783	1085.38
479.002	1095.38
479.22	1297.38
479.439	1450.38
479.658	1264.38
479.876	1147.38
480.095	1226.38
480.313	1248.38
480.532	1114.38
480.751	1095.38
480.969	1128.38
481.188	1322.38
481.406	1357.38
481.624	1255.38
481.843	1138.38
482.061	1105.38
482.28	1264.38
482.498	1530.38
482.717	1425.38
482.935	1251.38
483.153	1163.38
483.372	1075.38
483.59	1083.38
483.808	1051.38
484.027	1046.38
484.245	1013.38
484.463	1018.38
484.681	1030.38
484.9	1110.38
485.118	1226.38
485.336	1123.38
485.554	1050.38
485.772	1116.38
485.99	1196.38
486.209	1264.38
486.427	1272.38
486.645	1240.38
486.863	1288.38
487.081	1270.38
487.299	1424.38
487.517	1430.38
487.735	1263.38
487.953	1280.38
488.171	1290.38
488.389	1204.38
488.607	1134.38
488.825	1200.38
489.043	1295.38
489.261	1503.38
489.479	1606.38
489.696	1350.38
489.914	1202.38
490.132	1146.38
490.35	1172.38
490.568	1163.38
490.786	1188.38
491.003	1165.38
491.221	1154.38
491.439	1155.38
491.657	1200.38
491.874	1237.38
492.092	1514.38
492.31	1893.38
492.527	1825.38
492.745	1580.38
492.963	1373.38
493.18	1293.38
493.398	1343.38
