Data from NickelSpatula_HRD10591_16-34-44-126.txt Node
Date: Mon Jul 22 16:34:44 EDT 2019
User: cochatt
Spectrometer: HR+D1059
Trigger mode: 1
Integration Time (sec): 1.000000E-1
Scans to average: 1
Electric dark correction enabled: true
Nonlinearity correction enabled: false
Boxcar width: 0
XAxis mode: Wavelengths
Number of Pixels in Spectrum: 2048
>>>>>Begin Spectral Data<<<<<
223.165	-23.19
223.4	-23.19
223.635	-23.19
223.869	-19.19
224.104	-26.19
224.338	-7.19
224.573	-10.19
224.808	-7.19
225.042	-25.19
225.277	-21.19
225.511	-1.19
225.746	9.81
225.98	17.81
226.215	7.81
226.449	21.81
226.683	15.81
226.918	37.81
227.152	29.81
227.387	28.81
227.621	29.81
227.856	33.81
228.09	45.81
228.324	34.81
228.559	61.81
228.793	60.81
229.027	70.81
229.262	65.81
229.496	80.81
229.73	79.81
229.964	81.81
230.199	89.81
230.433	79.81
230.667	103.81
230.901	100.81
231.136	90.81
231.37	92.81
231.604	102.81
231.838	89.81
232.072	115.81
232.306	101.81
232.541	98.81
232.775	114.81
233.009	93.81
233.243	124.81
233.477	127.81
233.711	117.81
233.945	113.81
234.179	115.81
234.413	113.81
234.647	118.81
234.881	119.81
235.115	126.81
235.349	127.81
235.583	106.81
235.817	118.81
236.051	115.81
236.285	131.81
236.519	140.81
236.753	122.81
236.987	123.81
237.221	140.81
237.455	119.81
237.689	127.81
237.922	134.81
238.156	132.81
238.39	145.81
238.624	175.81
238.858	163.81
239.091	139.81
239.325	140.81
239.559	127.81
239.793	122.81
240.027	174.81
240.26	147.81
240.494	156.81
240.728	160.81
240.961	167.81
241.195	177.81
241.429	160.81
241.662	153.81
241.896	140.81
242.13	138.81
242.363	137.81
242.597	141.81
242.83	146.81
243.064	143.81
243.298	158.81
243.531	181.81
243.765	172.81
243.998	174.81
244.232	153.81
244.465	148.81
244.699	153.81
244.932	177.81
245.166	159.81
245.399	143.81
245.633	143.81
245.866	153.81
246.099	169.81
246.333	172.81
246.566	209.81
246.8	180.81
247.033	173.81
247.266	165.81
247.5	173.81
247.733	169.81
247.966	165.81
248.2	172.81
248.433	180.81
248.666	188.81
248.899	194.81
249.133	205.81
249.366	216.81
249.599	243.81
249.832	245.81
250.066	203.81
250.299	210.81
250.532	202.81
250.765	202.81
250.998	183.81
251.231	184.81
251.465	185.81
251.698	197.81
251.931	189.81
252.164	198.81
252.397	206.81
252.63	221.81
252.863	261.81
253.096	261.81
253.329	262.81
253.562	238.81
253.795	272.81
254.028	294.81
254.261	323.81
254.494	288.81
254.727	254.81
254.96	240.81
255.193	257.81
255.426	258.81
255.659	209.81
255.892	184.81
256.124	207.81
256.357	234.81
256.59	269.81
256.823	257.81
257.056	217.81
257.289	215.81
257.521	217.81
257.754	235.81
257.987	300.81
258.22	246.81
258.452	234.81
258.685	250.81
258.918	275.81
259.151	261.81
259.383	271.81
259.616	320.81
259.849	342.81
260.081	325.81
260.314	390.81
260.547	300.81
260.779	309.81
261.012	353.81
261.244	305.81
261.477	342.81
261.71	319.81
261.942	258.81
262.175	260.81
262.407	257.81
262.64	256.81
262.872	309.81
263.105	339.81
263.337	362.81
263.57	319.81
263.802	242.81
264.035	201.81
264.267	204.81
264.499	198.81
264.732	156.81
264.964	164.81
265.197	180.81
265.429	169.81
265.661	196.81
265.894	191.81
266.126	212.81
266.358	223.81
266.591	267.81
266.823	340.81
267.055	295.81
267.287	269.81
267.52	263.81
267.752	266.81
267.984	303.81
268.216	299.81
268.448	260.81
268.681	238.81
268.913	273.81
269.145	270.81
269.377	291.81
269.609	269.81
269.841	262.81
270.073	282.81
270.306	276.81
270.538	312.81
270.77	301.81
271.002	301.81
271.234	311.81
271.466	308.81
271.698	290.81
271.93	284.81
272.162	293.81
272.394	289.81
272.626	282.81
272.858	299.81
273.09	298.81
273.322	278.81
273.553	259.81
273.785	282.81
274.017	374.81
274.249	433.81
274.481	452.81
274.713	519.81
274.945	580.81
275.176	609.81
275.408	544.81
275.64	506.81
275.872	478.81
276.104	421.81
276.335	379.81
276.567	375.81
276.799	388.81
277.031	397.81
277.262	337.81
277.494	260.81
277.726	254.81
277.957	250.81
278.189	287.81
278.421	294.81
278.652	300.81
278.884	287.81
279.115	257.81
279.347	267.81
279.579	264.81
279.81	258.81
280.042	253.81
280.273	251.81
280.505	243.81
280.736	214.81
280.968	231.81
281.199	244.81
281.431	257.81
281.662	251.81
281.894	238.81
282.125	266.81
282.356	277.81
282.588	290.81
282.819	265.81
283.051	263.81
283.282	315.81
283.513	357.81
283.745	404.81
283.976	391.81
284.207	387.81
284.439	383.81
284.67	387.81
284.901	329.81
285.132	363.81
285.364	358.81
285.595	351.81
285.826	377.81
286.057	364.81
286.288	363.81
286.52	372.81
286.751	419.81
286.982	401.81
287.213	339.81
287.444	339.81
287.675	362.81
287.906	348.81
288.138	297.81
288.369	277.81
288.6	268.81
288.831	270.81
289.062	313.81
289.293	326.81
289.524	308.81
289.755	308.81
289.986	319.81
290.217	327.81
290.448	240.81
290.679	208.81
290.91	204.81
291.141	191.81
291.371	194.81
291.602	201.81
291.833	210.81
292.064	229.81
292.295	240.81
292.526	277.81
292.757	263.81
292.987	298.81
293.218	290.81
293.449	312.81
293.68	328.81
293.91	318.81
294.141	339.81
294.372	324.81
294.603	292.81
294.833	324.81
295.064	340.81
295.295	362.81
295.525	275.81
295.756	248.81
295.987	217.81
296.217	205.81
296.448	220.81
296.679	211.81
296.909	225.81
297.14	261.81
297.37	269.81
297.601	250.81
297.831	238.81
298.062	250.81
298.292	271.81
298.523	276.81
298.753	333.81
298.984	313.81
299.214	267.81
299.445	222.81
299.675	220.81
299.905	218.81
300.136	212.81
300.366	223.81
300.597	224.81
300.827	190.81
301.057	201.81
301.288	202.81
301.518	234.81
301.748	225.81
301.979	269.81
302.209	269.81
302.439	271.81
302.669	236.81
302.9	261.81
303.13	253.81
303.36	204.81
303.59	210.81
303.82	214.81
304.051	249.81
304.281	249.81
304.511	267.81
304.741	223.81
304.971	235.81
305.201	243.81
305.431	230.81
305.661	226.81
305.891	208.81
306.121	211.81
306.352	198.81
306.582	187.81
306.812	186.81
307.042	195.81
307.272	166.81
307.502	171.81
307.731	181.81
307.961	185.81
308.191	194.81
308.421	171.81
308.651	197.81
308.881	181.81
309.111	162.81
309.341	179.81
309.571	185.81
309.8	194.81
310.03	187.81
310.26	207.81
310.49	203.81
310.72	181.81
310.949	168.81
311.179	190.81
311.409	193.81
311.639	227.81
311.868	268.81
312.098	326.81
312.328	349.81
312.557	341.81
312.787	353.81
313.017	307.81
313.246	335.81
313.476	366.81
313.706	322.81
313.935	262.81
314.165	215.81
314.394	202.81
314.624	209.81
314.853	205.81
315.083	214.81
315.312	203.81
315.542	224.81
315.771	190.81
316.001	179.81
316.23	187.81
316.46	203.81
316.689	170.81
316.919	178.81
317.148	198.81
317.377	196.81
317.607	200.81
317.836	197.81
318.065	203.81
318.295	235.81
318.524	236.81
318.753	211.81
318.983	187.81
319.212	193.81
319.441	199.81
319.67	220.81
319.9	250.81
320.129	212.81
320.358	207.81
320.587	200.81
320.816	200.81
321.046	215.81
321.275	235.81
321.504	234.81
321.733	237.81
321.962	251.81
322.191	223.81
322.42	228.81
322.649	208.81
322.878	228.81
323.108	222.81
323.337	196.81
323.566	211.81
323.795	210.81
324.024	208.81
324.253	202.81
324.482	204.81
324.71	199.81
324.939	219.81
325.168	200.81
325.397	184.81
325.626	185.81
325.855	186.81
326.084	193.81
326.313	182.81
326.542	183.81
326.77	193.81
326.999	178.81
327.228	192.81
327.457	192.81
327.686	213.81
327.914	199.81
328.143	182.81
328.372	186.81
328.6	165.81
328.829	182.81
329.058	187.81
329.287	190.81
329.515	181.81
329.744	173.81
329.972	179.81
330.201	172.81
330.43	178.81
330.658	207.81
330.887	206.81
331.115	210.81
331.344	193.81
331.572	200.81
331.801	176.81
332.03	177.81
332.258	179.81
332.486	186.81
332.715	205.81
332.943	187.81
333.172	200.81
333.4	201.81
333.629	199.81
333.857	231.81
334.085	224.81
334.314	233.81
334.542	223.81
334.771	206.81
334.999	197.81
335.227	185.81
335.455	191.81
335.684	214.81
335.912	221.81
336.14	255.81
336.369	237.81
336.597	226.81
336.825	267.81
337.053	269.81
337.281	243.81
337.51	208.81
337.738	202.81
337.966	214.81
338.194	221.81
338.422	220.81
338.65	188.81
338.878	181.81
339.106	214.81
339.334	199.81
339.562	198.81
339.79	201.81
340.018	166.81
340.246	191.81
340.474	225.81
340.702	234.81
340.93	233.81
341.158	244.81
341.386	217.81
341.614	202.81
341.842	191.81
342.07	196.81
342.298	242.81
342.526	252.81
342.754	225.81
342.981	206.81
343.209	183.81
343.437	216.81
343.665	227.81
343.893	212.81
344.12	242.81
344.348	291.81
344.576	260.81
344.804	227.81
345.031	213.81
345.259	191.81
345.487	199.81
345.714	197.81
345.942	202.81
346.17	234.81
346.397	224.81
346.625	202.81
346.853	195.81
347.08	189.81
347.308	185.81
347.535	218.81
347.763	227.81
347.99	186.81
348.218	171.81
348.445	183.81
348.673	197.81
348.9	188.81
349.128	200.81
349.355	219.81
349.583	200.81
349.81	192.81
350.037	189.81
350.265	171.81
350.492	163.81
350.72	159.81
350.947	175.81
351.174	188.81
351.402	184.81
351.629	189.81
351.856	194.81
352.083	187.81
352.311	185.81
352.538	190.81
352.765	223.81
352.992	220.81
353.22	167.81
353.447	182.81
353.674	182.81
353.901	174.81
354.128	189.81
354.355	204.81
354.583	187.81
354.81	211.81
355.037	206.81
355.264	189.81
355.491	197.81
355.718	213.81
355.945	229.81
356.172	197.81
356.399	182.81
356.626	232.81
356.853	257.81
357.08	295.81
357.307	302.81
357.534	244.81
357.761	254.81
357.988	295.81
358.215	313.81
358.441	322.81
358.668	277.81
358.895	259.81
359.122	213.81
359.349	220.81
359.576	259.81
359.802	203.81
360.029	194.81
360.256	202.81
360.483	237.81
360.709	262.81
360.936	281.81
361.163	259.81
361.39	213.81
361.616	181.81
361.843	206.81
362.07	258.81
362.296	233.81
362.523	211.81
362.749	163.81
362.976	201.81
363.203	216.81
363.429	243.81
363.656	201.81
363.882	185.81
364.109	195.81
364.335	205.81
364.562	188.81
364.788	198.81
365.015	233.81
365.241	208.81
365.468	172.81
365.694	197.81
365.92	181.81
366.147	168.81
366.373	169.81
366.599	164.81
366.826	148.81
367.052	170.81
367.278	177.81
367.505	167.81
367.731	181.81
367.957	203.81
368.184	186.81
368.41	172.81
368.636	193.81
368.862	209.81
369.089	195.81
369.315	196.81
369.541	173.81
369.767	198.81
369.993	157.81
370.219	173.81
370.445	177.81
370.672	173.81
370.898	194.81
371.124	206.81
371.35	169.81
371.576	169.81
371.802	199.81
372.028	198.81
372.254	242.81
372.48	209.81
372.706	205.81
372.932	210.81
373.158	209.81
373.384	249.81
373.61	277.81
373.835	312.81
374.061	239.81
374.287	205.81
374.513	257.81
374.739	291.81
374.965	291.81
375.191	282.81
375.416	218.81
375.642	182.81
375.868	208.81
376.094	230.81
376.319	224.81
376.545	210.81
376.771	219.81
376.997	217.81
377.222	161.81
377.448	166.81
377.674	167.81
377.899	157.81
378.125	151.81
378.35	169.81
378.576	157.81
378.802	182.81
379.027	187.81
379.253	180.81
379.478	189.81
379.704	197.81
379.929	196.81
380.155	210.81
380.38	179.81
380.606	211.81
380.831	202.81
381.057	214.81
381.282	179.81
381.507	221.81
381.733	210.81
381.958	249.81
382.184	265.81
382.409	276.81
382.634	259.81
382.86	300.81
383.085	255.81
383.31	217.81
383.535	213.81
383.761	231.81
383.986	234.81
384.211	261.81
384.436	257.81
384.662	197.81
384.887	189.81
385.112	196.81
385.337	206.81
385.562	214.81
385.787	209.81
386.013	223.81
386.238	242.81
386.463	204.81
386.688	194.81
386.913	189.81
387.138	192.81
387.363	183.81
387.588	208.81
387.813	193.81
388.038	225.81
388.263	207.81
388.488	191.81
388.713	225.81
388.938	234.81
389.163	190.81
389.387	172.81
389.612	189.81
389.837	188.81
390.062	180.81
390.287	201.81
390.512	205.81
390.736	187.81
390.961	196.81
391.186	193.81
391.411	161.81
391.636	182.81
391.86	181.81
392.085	213.81
392.31	211.81
392.534	199.81
392.759	196.81
392.984	205.81
393.208	201.81
393.433	195.81
393.658	179.81
393.882	184.81
394.107	179.81
394.331	194.81
394.556	163.81
394.78	157.81
395.005	178.81
395.229	179.81
395.454	177.81
395.678	179.81
395.903	178.81
396.127	189.81
396.352	187.81
396.576	214.81
396.801	198.81
397.025	220.81
397.249	201.81
397.474	199.81
397.698	198.81
397.922	197.81
398.147	194.81
398.371	188.81
398.595	195.81
398.82	185.81
399.044	202.81
399.268	219.81
399.492	205.81
399.717	219.81
399.941	220.81
400.165	224.81
400.389	213.81
400.613	211.81
400.837	216.81
401.062	213.81
401.286	160.81
401.51	193.81
401.734	183.81
401.958	199.81
402.182	191.81
402.406	194.81
402.63	193.81
402.854	205.81
403.078	210.81
403.302	270.81
403.526	277.81
403.75	265.81
403.974	201.81
404.198	226.81
404.422	239.81
404.645	253.81
404.869	271.81
405.093	238.81
405.317	199.81
405.541	225.81
405.765	207.81
405.988	207.81
406.212	204.81
406.436	242.81
406.66	251.81
406.883	227.81
407.107	203.81
407.331	250.81
407.555	234.81
407.778	220.81
408.002	223.81
408.226	207.81
408.449	200.81
408.673	214.81
408.896	195.81
409.12	188.81
409.344	170.81
409.567	168.81
409.791	194.81
410.014	206.81
410.238	189.81
410.461	197.81
410.685	194.81
410.908	177.81
411.132	202.81
411.355	210.81
411.578	187.81
411.802	187.81
412.025	207.81
412.249	215.81
412.472	216.81
412.695	188.81
412.919	189.81
413.142	188.81
413.365	199.81
413.589	221.81
413.812	211.81
414.035	188.81
414.258	195.81
414.482	213.81
414.705	213.81
414.928	186.81
415.151	177.81
415.374	196.81
415.597	171.81
415.821	185.81
416.044	203.81
416.267	189.81
416.49	196.81
416.713	186.81
416.936	177.81
417.159	175.81
417.382	174.81
417.605	204.81
417.828	205.81
418.051	189.81
418.274	193.81
418.497	194.81
418.72	190.81
418.943	196.81
419.166	209.81
419.389	225.81
419.611	215.81
419.834	221.81
420.057	216.81
420.28	206.81
420.503	210.81
420.726	214.81
420.948	174.81
421.171	200.81
421.394	193.81
421.617	193.81
421.839	173.81
422.062	195.81
422.285	194.81
422.507	187.81
422.73	197.81
422.953	205.81
423.175	183.81
423.398	191.81
423.621	202.81
423.843	220.81
424.066	202.81
424.288	207.81
424.511	208.81
424.733	189.81
424.956	183.81
425.178	207.81
425.401	233.81
425.623	273.81
425.846	230.81
426.068	202.81
426.291	211.81
426.513	203.81
426.735	201.81
426.958	202.81
427.18	222.81
427.402	284.81
427.625	271.81
427.847	237.81
428.069	181.81
428.292	178.81
428.514	182.81
428.736	201.81
428.958	195.81
429.181	216.81
429.403	202.81
429.625	197.81
429.847	185.81
430.069	192.81
430.292	179.81
430.514	177.81
430.736	191.81
430.958	225.81
431.18	223.81
431.402	190.81
431.624	169.81
431.846	179.81
432.068	183.81
432.29	153.81
432.512	175.81
432.734	217.81
432.956	213.81
433.178	168.81
433.4	187.81
433.622	182.81
433.844	186.81
434.066	214.81
434.287	215.81
434.509	182.81
434.731	194.81
434.953	180.81
435.175	195.81
435.397	220.81
435.618	193.81
435.84	171.81
436.062	184.81
436.284	187.81
436.505	181.81
436.727	165.81
436.949	173.81
437.17	165.81
437.392	177.81
437.614	201.81
437.835	166.81
438.057	169.81
438.278	201.81
438.5	247.81
438.721	263.81
438.943	197.81
439.165	181.81
439.386	180.81
439.608	182.81
439.829	156.81
440.05	182.81
440.272	181.81
440.493	195.81
440.715	233.81
440.936	190.81
441.158	181.81
441.379	181.81
441.6	209.81
441.822	217.81
442.043	183.81
442.264	196.81
442.486	180.81
442.707	178.81
442.928	186.81
443.149	190.81
443.371	186.81
443.592	186.81
443.813	197.81
444.034	205.81
444.255	208.81
444.476	195.81
444.698	215.81
444.919	193.81
445.14	308.81
445.361	261.81
445.582	210.81
445.803	195.81
446.024	201.81
446.245	193.81
446.466	191.81
446.687	193.81
446.908	190.81
447.129	154.81
447.35	177.81
447.571	187.81
447.792	170.81
448.013	162.81
448.234	159.81
448.455	175.81
448.675	183.81
448.896	176.81
449.117	165.81
449.338	167.81
449.559	183.81
449.779	193.81
450	196.81
450.221	195.81
450.442	174.81
450.662	173.81
450.883	158.81
451.104	167.81
451.324	174.81
451.545	185.81
451.766	158.81
451.986	164.81
452.207	162.81
452.428	190.81
452.648	185.81
452.869	187.81
453.089	180.81
453.31	174.81
453.53	171.81
453.751	183.81
453.971	168.81
454.192	169.81
454.412	171.81
454.633	184.81
454.853	172.81
455.073	152.81
455.294	157.81
455.514	150.81
455.734	170.81
455.955	157.81
456.175	197.81
456.395	159.81
456.616	161.81
456.836	152.81
457.056	164.81
457.276	171.81
457.497	166.81
457.717	173.81
457.937	169.81
458.157	165.81
458.377	166.81
458.598	161.81
458.818	146.81
459.038	186.81
459.258	167.81
459.478	181.81
459.698	190.81
459.918	188.81
460.138	201.81
460.358	203.81
460.578	173.81
460.798	194.81
461.018	177.81
461.238	194.81
461.458	185.81
461.678	193.81
461.898	197.81
462.118	188.81
462.338	198.81
462.558	190.81
462.777	217.81
462.997	217.81
463.217	217.81
463.437	214.81
463.657	224.81
463.876	215.81
464.096	205.81
464.316	201.81
464.536	199.81
464.755	208.81
464.975	235.81
465.195	214.81
465.414	219.81
465.634	227.81
465.854	187.81
466.073	199.81
466.293	183.81
466.512	173.81
466.732	194.81
466.951	216.81
467.171	211.81
467.391	203.81
467.61	198.81
467.829	195.81
468.049	178.81
468.268	185.81
468.488	175.81
468.707	165.81
468.927	210.81
469.146	233.81
469.365	226.81
469.585	201.81
469.804	200.81
470.023	213.81
470.243	207.81
470.462	188.81
470.681	185.81
470.901	190.81
471.12	177.81
471.339	193.81
471.558	190.81
471.777	199.81
471.997	214.81
472.216	213.81
472.435	211.81
472.654	190.81
472.873	190.81
473.092	196.81
473.311	203.81
473.53	194.81
473.749	184.81
473.968	200.81
474.187	200.81
474.406	179.81
474.625	204.81
474.844	210.81
475.063	213.81
475.282	224.81
475.501	215.81
475.72	241.81
475.939	227.81
476.158	222.81
476.377	250.81
476.596	283.81
476.814	289.81
477.033	246.81
477.252	201.81
477.471	195.81
477.69	207.81
477.908	213.81
478.127	238.81
478.346	228.81
478.564	239.81
478.783	235.81
479.002	220.81
479.22	246.81
479.439	271.81
479.658	239.81
479.876	229.81
480.095	228.81
480.313	250.81
480.532	214.81
480.751	221.81
480.969	230.81
481.188	253.81
481.406	256.81
481.624	249.81
481.843	213.81
482.061	197.81
482.28	217.81
482.498	297.81
482.717	274.81
482.935	246.81
483.153	219.81
483.372	211.81
483.59	201.81
483.808	203.81
484.027	208.81
484.245	196.81
484.463	207.81
484.681	225.81
484.9	228.81
485.118	223.81
485.336	225.81
485.554	207.81
485.772	203.81
485.99	230.81
486.209	250.81
486.427	238.81
486.645	235.81
486.863	241.81
487.081	245.81
487.299	273.81
487.517	243.81
487.735	225.81
487.953	218.81
488.171	237.81
488.389	227.81
488.607	201.81
488.825	214.81
489.043	247.81
489.261	265.81
489.479	281.81
489.696	239.81
489.914	207.81
490.132	216.81
490.35	213.81
490.568	226.81
490.786	220.81
491.003	211.81
491.221	220.81
491.439	222.81
491.657	195.81
491.874	231.81
492.092	285.81
492.31	326.81
492.527	307.81
492.745	281.81
492.963	261.81
493.18	251.81
493.398	226.81
493.615	227.81
493.833	250.81
494.05	231.81
494.268	236.81
494.485	234.81
494.703	223.81
494.92	250.81
495.138	224.81
495.355	222.81
495.573	202.81
495.79	239.81
496.008	322.81
496.225	273.81
496.442	243.81
496.66	256.81
496.877	276.81
497.094	263.81
497.312	256.81
497.529	250.81
497.746	266.81
497.963	256.81
498.181	271.81
498.398	290.81
498.615	293.81
498.832	298.81
499.049	332.81
499.267	310.81
499.484	291.81
499.701	324.81
499.918	345.81
500.135	378.81
500.352	398.81
500.569	405.81
500.786	421.81
501.003	408.81
501.22	371.81
501.437	349.81
501.654	313.81
501.871	326.81
502.088	298.81
502.305	286.81
502.522	280.81
502.739	287.81
