Data from NickelSpatula_HRD10591_16-34-13-126.txt Node
Date: Mon Jul 22 16:34:13 EDT 2019
User: cochatt
Spectrometer: HR+D1059
Trigger mode: 1
Integration Time (sec): 1.000000E-1
Scans to average: 1
Electric dark correction enabled: true
Nonlinearity correction enabled: false
Boxcar width: 0
XAxis mode: Wavelengths
Number of Pixels in Spectrum: 2048
>>>>>Begin Spectral Data<<<<<
223.165	-11.06
223.4	-11.06
223.635	-11.06
223.869	-13.06
224.104	-12.06
224.338	-7.06
224.573	0.94
224.808	-19.06
225.042	-13.06
225.277	-16.06
225.511	-15.06
225.746	-15.06
225.98	3.94
226.215	6.94
226.449	31.94
226.683	20.94
226.918	27.94
227.152	28.94
227.387	23.94
227.621	23.94
227.856	44.94
228.09	34.94
228.324	40.94
228.559	39.94
228.793	57.94
229.027	57.94
229.262	84.94
229.496	79.94
229.73	76.94
229.964	76.94
230.199	92.94
230.433	100.94
230.667	80.94
230.901	91.94
231.136	89.94
231.37	85.94
231.604	98.94
231.838	83.94
232.072	111.94
232.306	94.94
232.541	114.94
232.775	106.94
233.009	104.94
233.243	110.94
233.477	112.94
233.711	116.94
233.945	120.94
234.179	94.94
234.413	124.94
234.647	114.94
234.881	133.94
235.115	120.94
235.349	127.94
235.583	119.94
235.817	106.94
236.051	112.94
236.285	124.94
236.519	121.94
236.753	119.94
236.987	140.94
237.221	123.94
237.455	132.94
237.689	136.94
237.922	133.94
238.156	135.94
238.39	126.94
238.624	153.94
238.858	152.94
239.091	151.94
239.325	137.94
239.559	123.94
239.793	147.94
240.027	163.94
240.26	158.94
240.494	152.94
240.728	139.94
240.961	180.94
241.195	146.94
241.429	146.94
241.662	150.94
241.896	131.94
242.13	123.94
242.363	141.94
242.597	120.94
242.83	136.94
243.064	123.94
243.298	153.94
243.531	154.94
243.765	167.94
243.998	160.94
244.232	152.94
244.465	159.94
244.699	152.94
244.932	162.94
245.166	157.94
245.399	147.94
245.633	148.94
245.866	135.94
246.099	146.94
246.333	159.94
246.566	169.94
246.8	200.94
247.033	189.94
247.266	177.94
247.5	167.94
247.733	146.94
247.966	152.94
248.2	176.94
248.433	174.94
248.666	183.94
248.899	198.94
249.133	194.94
249.366	216.94
249.599	206.94
249.832	198.94
250.066	195.94
250.299	208.94
250.532	184.94
250.765	170.94
250.998	169.94
251.231	169.94
251.465	189.94
251.698	196.94
251.931	193.94
252.164	189.94
252.397	214.94
252.63	220.94
252.863	251.94
253.096	262.94
253.329	251.94
253.562	243.94
253.795	272.94
254.028	274.94
254.261	297.94
254.494	272.94
254.727	226.94
254.96	241.94
255.193	246.94
255.426	242.94
255.659	202.94
255.892	196.94
256.124	215.94
256.357	229.94
256.59	251.94
256.823	253.94
257.056	223.94
257.289	201.94
257.521	226.94
257.754	244.94
257.987	312.94
258.22	259.94
258.452	237.94
258.685	272.94
258.918	268.94
259.151	273.94
259.383	306.94
259.616	324.94
259.849	319.94
260.081	348.94
260.314	373.94
260.547	303.94
260.779	300.94
261.012	347.94
261.244	334.94
261.477	340.94
261.71	309.94
261.942	264.94
262.175	291.94
262.407	248.94
262.64	274.94
262.872	313.94
263.105	329.94
263.337	339.94
263.57	315.94
263.802	243.94
264.035	231.94
264.267	230.94
264.499	196.94
264.732	170.94
264.964	169.94
265.197	167.94
265.429	187.94
265.661	196.94
265.894	203.94
266.126	212.94
266.358	215.94
266.591	285.94
266.823	324.94
267.055	315.94
267.287	281.94
267.52	295.94
267.752	295.94
267.984	314.94
268.216	315.94
268.448	267.94
268.681	265.94
268.913	266.94
269.145	305.94
269.377	296.94
269.609	290.94
269.841	278.94
270.073	311.94
270.306	327.94
270.538	318.94
270.77	332.94
271.002	327.94
271.234	332.94
271.466	300.94
271.698	313.94
271.93	287.94
272.162	302.94
272.394	297.94
272.626	298.94
272.858	311.94
273.09	304.94
273.322	266.94
273.553	256.94
273.785	271.94
274.017	345.94
274.249	433.94
274.481	455.94
274.713	512.94
274.945	566.94
275.176	581.94
275.408	550.94
275.64	485.94
275.872	497.94
276.104	457.94
276.335	382.94
276.567	386.94
276.799	394.94
277.031	416.94
277.262	366.94
277.494	282.94
277.726	265.94
277.957	266.94
278.189	307.94
278.421	292.94
278.652	295.94
278.884	309.94
279.115	269.94
279.347	261.94
279.579	277.94
279.81	271.94
280.042	264.94
280.273	261.94
280.505	275.94
280.736	233.94
280.968	218.94
281.199	242.94
281.431	287.94
281.662	285.94
281.894	267.94
282.125	268.94
282.356	287.94
282.588	304.94
282.819	289.94
283.051	296.94
283.282	335.94
283.513	385.94
283.745	410.94
283.976	437.94
284.207	386.94
284.439	433.94
284.67	414.94
284.901	342.94
285.132	370.94
285.364	376.94
285.595	395.94
285.826	402.94
286.057	416.94
286.288	399.94
286.52	422.94
286.751	434.94
286.982	424.94
287.213	374.94
287.444	364.94
287.675	374.94
287.906	411.94
288.138	313.94
288.369	299.94
288.6	271.94
288.831	296.94
289.062	355.94
289.293	377.94
289.524	328.94
289.755	332.94
289.986	367.94
290.217	319.94
290.448	264.94
290.679	236.94
290.91	214.94
291.141	228.94
291.371	200.94
291.602	222.94
291.833	203.94
292.064	240.94
292.295	242.94
292.526	281.94
292.757	295.94
292.987	327.94
293.218	335.94
293.449	341.94
293.68	372.94
293.91	372.94
294.141	362.94
294.372	328.94
294.603	313.94
294.833	338.94
295.064	380.94
295.295	393.94
295.525	286.94
295.756	250.94
295.987	222.94
296.217	218.94
296.448	229.94
296.679	233.94
296.909	239.94
297.14	269.94
297.37	282.94
297.601	290.94
297.831	252.94
298.062	267.94
298.292	309.94
298.523	317.94
298.753	331.94
298.984	332.94
299.214	263.94
299.445	235.94
299.675	227.94
299.905	219.94
300.136	239.94
300.366	229.94
300.597	240.94
300.827	228.94
301.057	212.94
301.288	214.94
301.518	241.94
301.748	258.94
301.979	269.94
302.209	270.94
302.439	287.94
302.669	267.94
302.9	264.94
303.13	278.94
303.36	238.94
303.59	247.94
303.82	245.94
304.051	264.94
304.281	297.94
304.511	289.94
304.741	245.94
304.971	266.94
305.201	274.94
305.431	263.94
305.661	235.94
305.891	225.94
306.121	228.94
306.352	209.94
306.582	190.94
306.812	201.94
307.042	213.94
307.272	195.94
307.502	188.94
307.731	192.94
307.961	190.94
308.191	190.94
308.421	189.94
308.651	180.94
308.881	199.94
309.111	175.94
309.341	195.94
309.571	189.94
309.8	215.94
310.03	192.94
310.26	211.94
310.49	210.94
310.72	194.94
310.949	187.94
311.179	204.94
311.409	184.94
311.639	228.94
311.868	297.94
312.098	368.94
312.328	407.94
312.557	385.94
312.787	384.94
313.017	338.94
313.246	355.94
313.476	400.94
313.706	343.94
313.935	276.94
314.165	239.94
314.394	217.94
314.624	228.94
314.853	234.94
315.083	223.94
315.312	210.94
315.542	222.94
315.771	206.94
316.001	208.94
316.23	192.94
316.46	183.94
316.689	190.94
316.919	195.94
317.148	205.94
317.377	198.94
317.607	185.94
317.836	209.94
318.065	214.94
318.295	250.94
318.524	231.94
318.753	200.94
318.983	217.94
319.212	208.94
319.441	222.94
319.67	228.94
319.9	254.94
320.129	236.94
320.358	208.94
320.587	188.94
320.816	219.94
321.046	226.94
321.275	278.94
321.504	259.94
321.733	252.94
321.962	244.94
322.191	241.94
322.42	216.94
322.649	228.94
322.878	258.94
323.108	244.94
323.337	235.94
323.566	238.94
323.795	222.94
324.024	214.94
324.253	217.94
324.482	191.94
324.71	204.94
324.939	240.94
325.168	227.94
325.397	204.94
325.626	220.94
325.855	218.94
326.084	218.94
326.313	211.94
326.542	190.94
326.77	190.94
326.999	191.94
327.228	207.94
327.457	211.94
327.686	211.94
327.914	193.94
328.143	189.94
328.372	179.94
328.6	162.94
328.829	197.94
329.058	179.94
329.287	193.94
329.515	194.94
329.744	188.94
329.972	187.94
330.201	169.94
330.43	192.94
330.658	194.94
330.887	221.94
331.115	212.94
331.344	227.94
331.572	214.94
331.801	204.94
332.03	206.94
332.258	188.94
332.486	202.94
332.715	210.94
332.943	203.94
333.172	204.94
333.4	208.94
333.629	224.94
333.857	244.94
334.085	233.94
334.314	250.94
334.542	229.94
334.771	222.94
334.999	221.94
335.227	187.94
335.455	199.94
335.684	214.94
335.912	255.94
336.14	277.94
336.369	261.94
336.597	253.94
336.825	273.94
337.053	327.94
337.281	265.94
337.51	224.94
337.738	197.94
337.966	233.94
338.194	246.94
338.422	219.94
338.65	212.94
338.878	189.94
339.106	211.94
339.334	231.94
339.562	232.94
339.79	192.94
340.018	207.94
340.246	206.94
340.474	229.94
340.702	252.94
340.93	252.94
341.158	249.94
341.386	231.94
341.614	206.94
341.842	215.94
342.07	247.94
342.298	270.94
342.526	280.94
342.754	244.94
342.981	209.94
343.209	203.94
343.437	238.94
343.665	257.94
343.893	260.94
344.12	275.94
344.348	337.94
344.576	312.94
344.804	236.94
345.031	208.94
345.259	198.94
345.487	211.94
345.714	223.94
345.942	224.94
346.17	252.94
346.397	242.94
346.625	216.94
346.853	196.94
347.08	183.94
347.308	219.94
347.535	222.94
347.763	233.94
347.99	212.94
348.218	199.94
348.445	208.94
348.673	187.94
348.9	213.94
349.128	232.94
349.355	214.94
349.583	217.94
349.81	225.94
350.037	207.94
350.265	174.94
350.492	185.94
350.72	161.94
350.947	193.94
351.174	192.94
351.402	210.94
351.629	190.94
351.856	189.94
352.083	191.94
352.311	184.94
352.538	222.94
352.765	223.94
352.992	216.94
353.22	205.94
353.447	231.94
353.674	212.94
353.901	215.94
354.128	201.94
354.355	206.94
354.583	204.94
354.81	231.94
355.037	255.94
355.264	230.94
355.491	199.94
355.718	225.94
355.945	235.94
356.172	214.94
356.399	205.94
356.626	240.94
356.853	298.94
357.08	345.94
357.307	338.94
357.534	259.94
357.761	280.94
357.988	333.94
358.215	348.94
358.441	314.94
358.668	291.94
358.895	283.94
359.122	224.94
359.349	252.94
359.576	255.94
359.802	249.94
360.029	178.94
360.256	204.94
360.483	240.94
360.709	305.94
360.936	319.94
361.163	276.94
361.39	225.94
361.616	196.94
361.843	225.94
362.07	274.94
362.296	249.94
362.523	209.94
362.749	185.94
362.976	204.94
363.203	221.94
363.429	238.94
363.656	219.94
363.882	200.94
364.109	225.94
364.335	208.94
364.562	183.94
364.788	209.94
365.015	235.94
365.241	222.94
365.468	206.94
365.694	175.94
365.92	177.94
366.147	166.94
366.373	166.94
366.599	169.94
366.826	172.94
367.052	189.94
367.278	184.94
367.505	178.94
367.731	181.94
367.957	214.94
368.184	214.94
368.41	201.94
368.636	200.94
368.862	218.94
369.089	207.94
369.315	186.94
369.541	183.94
369.767	187.94
369.993	179.94
370.219	166.94
370.445	195.94
370.672	185.94
370.898	205.94
371.124	205.94
371.35	201.94
371.576	190.94
371.802	199.94
372.028	212.94
372.254	246.94
372.48	221.94
372.706	222.94
372.932	226.94
373.158	219.94
373.384	236.94
373.61	298.94
373.835	307.94
374.061	253.94
374.287	214.94
374.513	240.94
374.739	287.94
374.965	307.94
375.191	289.94
375.416	214.94
375.642	208.94
375.868	238.94
376.094	261.94
376.319	225.94
376.545	227.94
376.771	237.94
376.997	218.94
377.222	186.94
377.448	162.94
377.674	172.94
377.899	166.94
378.125	173.94
378.35	169.94
378.576	182.94
378.802	172.94
379.027	202.94
379.253	190.94
379.478	192.94
379.704	205.94
379.929	230.94
380.155	219.94
380.38	194.94
380.606	200.94
380.831	218.94
381.057	235.94
381.282	200.94
381.507	220.94
381.733	267.94
381.958	267.94
382.184	279.94
382.409	294.94
382.634	312.94
382.86	293.94
383.085	267.94
383.31	211.94
383.535	244.94
383.761	260.94
383.986	226.94
384.211	272.94
384.436	267.94
384.662	220.94
384.887	214.94
385.112	209.94
385.337	219.94
385.562	214.94
385.787	234.94
386.013	248.94
386.238	243.94
386.463	206.94
386.688	215.94
386.913	201.94
387.138	194.94
387.363	224.94
387.588	209.94
387.813	199.94
388.038	216.94
388.263	215.94
388.488	198.94
388.713	235.94
388.938	251.94
389.163	194.94
389.387	201.94
389.612	186.94
389.837	201.94
390.062	203.94
390.287	197.94
390.512	211.94
390.736	190.94
390.961	213.94
391.186	179.94
391.411	203.94
391.636	191.94
391.86	189.94
392.085	227.94
392.31	222.94
392.534	194.94
392.759	194.94
392.984	214.94
393.208	191.94
393.433	221.94
393.658	221.94
393.882	177.94
394.107	194.94
394.331	177.94
394.556	168.94
394.78	178.94
395.005	183.94
395.229	183.94
395.454	190.94
395.678	197.94
395.903	195.94
396.127	187.94
396.352	186.94
396.576	198.94
396.801	225.94
397.025	233.94
397.249	233.94
397.474	211.94
397.698	224.94
397.922	207.94
398.147	202.94
398.371	214.94
398.595	210.94
398.82	209.94
399.044	205.94
399.268	218.94
399.492	233.94
399.717	241.94
399.941	249.94
400.165	230.94
400.389	212.94
400.613	230.94
400.837	222.94
401.062	207.94
401.286	185.94
401.51	204.94
401.734	204.94
401.958	223.94
402.182	196.94
402.406	211.94
402.63	204.94
402.854	221.94
403.078	230.94
403.302	299.94
403.526	293.94
403.75	287.94
403.974	233.94
404.198	252.94
404.422	274.94
404.645	272.94
404.869	267.94
405.093	235.94
405.317	233.94
405.541	203.94
405.765	227.94
405.988	237.94
406.212	222.94
406.436	257.94
406.66	291.94
406.883	226.94
407.107	228.94
407.331	280.94
407.555	278.94
407.778	242.94
408.002	242.94
408.226	237.94
408.449	239.94
408.673	227.94
408.896	208.94
409.12	196.94
409.344	194.94
409.567	220.94
409.791	208.94
410.014	192.94
410.238	207.94
410.461	219.94
410.685	191.94
410.908	200.94
411.132	201.94
411.355	210.94
411.578	204.94
411.802	199.94
412.025	208.94
412.249	224.94
412.472	212.94
412.695	193.94
412.919	204.94
413.142	212.94
413.365	241.94
413.589	233.94
413.812	198.94
414.035	199.94
414.258	197.94
414.482	197.94
414.705	213.94
414.928	189.94
415.151	179.94
415.374	193.94
415.597	199.94
415.821	208.94
416.044	195.94
416.267	174.94
416.49	190.94
416.713	194.94
416.936	175.94
417.159	192.94
417.382	187.94
417.605	191.94
417.828	204.94
418.051	193.94
418.274	218.94
418.497	203.94
418.72	193.94
418.943	196.94
419.166	211.94
419.389	239.94
419.611	225.94
419.834	214.94
420.057	228.94
420.28	242.94
420.503	215.94
420.726	210.94
420.948	200.94
421.171	209.94
421.394	186.94
421.617	190.94
421.839	195.94
422.062	210.94
422.285	187.94
422.507	197.94
422.73	218.94
422.953	209.94
423.175	205.94
423.398	205.94
423.621	230.94
423.843	233.94
424.066	226.94
424.288	178.94
424.511	194.94
424.733	197.94
424.956	199.94
425.178	225.94
425.401	252.94
425.623	286.94
425.846	250.94
426.068	226.94
426.291	228.94
426.513	232.94
426.735	205.94
426.958	206.94
427.18	223.94
427.402	283.94
427.625	283.94
427.847	274.94
428.069	188.94
428.292	196.94
428.514	195.94
428.736	193.94
428.958	190.94
429.181	227.94
429.403	216.94
429.625	205.94
429.847	191.94
430.069	185.94
430.292	197.94
430.514	174.94
430.736	203.94
430.958	240.94
431.18	217.94
431.402	176.94
431.624	175.94
431.846	175.94
432.068	174.94
432.29	177.94
432.512	185.94
432.734	215.94
432.956	217.94
433.178	184.94
433.4	184.94
433.622	176.94
433.844	200.94
434.066	235.94
434.287	190.94
434.509	190.94
434.731	225.94
434.953	202.94
435.175	210.94
435.397	231.94
435.618	199.94
435.84	183.94
436.062	182.94
436.284	185.94
436.505	176.94
436.727	174.94
436.949	171.94
437.17	190.94
437.392	193.94
437.614	198.94
437.835	195.94
438.057	194.94
438.278	190.94
438.5	254.94
438.721	272.94
438.943	201.94
439.165	168.94
439.386	184.94
439.608	176.94
439.829	161.94
440.05	167.94
440.272	172.94
440.493	211.94
440.715	254.94
440.936	218.94
441.158	197.94
441.379	186.94
441.6	214.94
441.822	228.94
442.043	205.94
442.264	184.94
442.486	198.94
442.707	201.94
442.928	187.94
443.149	208.94
443.371	203.94
443.592	198.94
443.813	187.94
444.034	185.94
444.255	204.94
444.476	186.94
444.698	205.94
444.919	214.94
445.14	330.94
445.361	266.94
445.582	218.94
445.803	209.94
446.024	227.94
446.245	212.94
446.466	211.94
446.687	206.94
446.908	183.94
447.129	191.94
447.35	182.94
447.571	172.94
447.792	160.94
448.013	174.94
448.234	155.94
448.455	174.94
448.675	178.94
448.896	167.94
449.117	164.94
449.338	184.94
449.559	181.94
449.779	199.94
450	187.94
450.221	192.94
450.442	182.94
450.662	166.94
450.883	184.94
451.104	184.94
451.324	192.94
451.545	187.94
451.766	180.94
451.986	186.94
452.207	157.94
452.428	181.94
452.648	178.94
452.869	169.94
453.089	183.94
453.31	187.94
453.53	184.94
453.751	184.94
453.971	176.94
454.192	161.94
454.412	187.94
454.633	175.94
454.853	166.94
455.073	170.94
455.294	163.94
455.514	160.94
455.734	166.94
455.955	184.94
456.175	178.94
456.395	162.94
456.616	160.94
456.836	149.94
457.056	164.94
457.276	167.94
457.497	162.94
457.717	166.94
457.937	158.94
458.157	170.94
458.377	163.94
458.598	154.94
458.818	159.94
459.038	178.94
459.258	176.94
459.478	190.94
459.698	194.94
459.918	201.94
460.138	199.94
460.358	197.94
460.578	213.94
460.798	202.94
461.018	196.94
461.238	198.94
461.458	195.94
461.678	218.94
461.898	232.94
462.118	209.94
462.338	204.94
462.558	213.94
462.777	219.94
462.997	241.94
463.217	226.94
463.437	234.94
463.657	218.94
463.876	208.94
464.096	211.94
464.316	237.94
464.536	222.94
464.755	234.94
464.975	249.94
465.195	222.94
465.414	212.94
465.634	218.94
465.854	223.94
466.073	185.94
466.293	196.94
466.512	215.94
466.732	215.94
466.951	222.94
467.171	199.94
467.391	184.94
467.61	182.94
467.829	187.94
468.049	195.94
468.268	188.94
468.488	193.94
468.707	203.94
468.927	227.94
469.146	213.94
469.365	221.94
469.585	188.94
469.804	201.94
470.023	235.94
470.243	219.94
470.462	202.94
470.681	192.94
470.901	196.94
471.12	207.94
471.339	202.94
471.558	196.94
471.777	195.94
471.997	217.94
472.216	235.94
472.435	227.94
472.654	214.94
472.873	210.94
473.092	209.94
473.311	224.94
473.53	211.94
473.749	191.94
473.968	204.94
474.187	203.94
474.406	203.94
474.625	202.94
474.844	184.94
475.063	202.94
475.282	214.94
475.501	224.94
475.72	262.94
475.939	230.94
476.158	218.94
476.377	258.94
476.596	312.94
476.814	313.94
477.033	273.94
477.252	229.94
477.471	200.94
477.69	209.94
477.908	226.94
478.127	247.94
478.346	217.94
478.564	258.94
478.783	239.94
479.002	212.94
479.22	252.94
479.439	275.94
479.658	235.94
479.876	226.94
480.095	239.94
480.313	238.94
480.532	238.94
480.751	228.94
480.969	218.94
481.188	240.94
481.406	259.94
481.624	243.94
481.843	225.94
482.061	211.94
482.28	239.94
482.498	309.94
482.717	291.94
482.935	245.94
483.153	219.94
483.372	219.94
483.59	214.94
483.808	210.94
484.027	215.94
484.245	203.94
484.463	211.94
484.681	218.94
484.9	215.94
485.118	244.94
485.336	225.94
485.554	223.94
485.772	210.94
485.99	231.94
486.209	232.94
486.427	242.94
486.645	236.94
486.863	241.94
487.081	233.94
487.299	291.94
487.517	263.94
487.735	242.94
487.953	231.94
488.171	244.94
488.389	240.94
488.607	223.94
488.825	241.94
489.043	256.94
489.261	283.94
489.479	299.94
489.696	249.94
489.914	214.94
490.132	218.94
490.35	212.94
490.568	223.94
490.786	228.94
491.003	215.94
491.221	225.94
491.439	216.94
491.657	216.94
491.874	234.94
492.092	284.94
492.31	344.94
492.527	327.94
492.745	276.94
492.963	252.94
493.18	255.94
493.398	251.94
493.615	251.94
493.833	242.94
494.05	221.94
494.268	240.94
494.485	237.94
494.703	231.94
494.92	231.94
495.138	228.94
495.355	234.94
495.573	230.94
495.79	272.94
496.008	355.94
496.225	272.94
496.442	252.94
496.66	252.94
496.877	251.94
497.094	284.94
497.312	254.94
497.529	271.94
497.746	242.94
497.963	254.94
498.181	272.94
498.398	296.94
498.615	314.94
498.832	334.94
499.049	340.94
499.267	331.94
499.484	319.94
499.701	336.94
499.918	363.94
500.135	381.94
500.352	425.94
500.569	443.94
500.786	440.94
501.003	432.94
501.22	399.94
501.437	354.94
501.654	344.94
501.871	318.94
502.088	331.94
502.305	294.94
502.522	304.94
502.739	309.94
