Data from NickelSpatula.Lamp.E5.5.P2_HRD10591_11-54-08-545.txt Node
Date: Tue Jul 23 11:54:08 EDT 2019
User: cochatt
Spectrometer: HR+D1059
Trigger mode: 1
Integration Time (sec): 1.000000E-1
Scans to average: 1
Electric dark correction enabled: true
Nonlinearity correction enabled: false
Boxcar width: 0
XAxis mode: Wavelengths
Number of Pixels in Spectrum: 2048
>>>>>Begin Spectral Data<<<<<
223.165	-17.38
223.4	-17.38
223.635	-17.38
223.869	-22.38
224.104	-17.38
224.338	-16.38
224.573	-4.38
224.808	-22.38
225.042	-24.38
225.277	-3.38
225.511	-1.38
225.746	5.62
225.98	8.62
226.215	7.62
226.449	21.62
226.683	17.62
226.918	39.62
227.152	28.62
227.387	31.62
227.621	33.62
227.856	32.62
228.09	55.62
228.324	31.62
228.559	63.62
228.793	57.62
229.027	64.62
229.262	81.62
229.496	83.62
229.73	90.62
229.964	74.62
230.199	98.62
230.433	96.62
230.667	89.62
230.901	106.62
231.136	99.62
231.37	96.62
231.604	119.62
231.838	106.62
232.072	106.62
232.306	99.62
232.541	95.62
232.775	108.62
233.009	95.62
233.243	111.62
233.477	90.62
233.711	100.62
233.945	103.62
234.179	115.62
234.413	127.62
234.647	123.62
234.881	145.62
235.115	125.62
235.349	133.62
235.583	131.62
235.817	104.62
236.051	119.62
236.285	113.62
236.519	145.62
236.753	139.62
236.987	127.62
237.221	124.62
237.455	124.62
237.689	126.62
237.922	134.62
238.156	136.62
238.39	148.62
238.624	164.62
238.858	172.62
239.091	128.62
239.325	154.62
239.559	131.62
239.793	137.62
240.027	161.62
240.26	167.62
240.494	131.62
240.728	157.62
240.961	186.62
241.195	171.62
241.429	167.62
241.662	156.62
241.896	144.62
242.13	119.62
242.363	123.62
242.597	123.62
242.83	145.62
243.064	148.62
243.298	147.62
243.531	154.62
243.765	173.62
243.998	175.62
244.232	158.62
244.465	163.62
244.699	173.62
244.932	163.62
245.166	163.62
245.399	146.62
245.633	153.62
245.866	156.62
246.099	137.62
246.333	179.62
246.566	186.62
246.8	182.62
247.033	179.62
247.266	172.62
247.5	168.62
247.733	164.62
247.966	157.62
248.2	169.62
248.433	178.62
248.666	183.62
248.899	175.62
249.133	180.62
249.366	222.62
249.599	231.62
249.832	221.62
250.066	186.62
250.299	191.62
250.532	178.62
250.765	177.62
250.998	176.62
251.231	174.62
251.465	188.62
251.698	196.62
251.931	189.62
252.164	197.62
252.397	210.62
252.63	213.62
252.863	256.62
253.096	263.62
253.329	236.62
253.562	232.62
253.795	253.62
254.028	295.62
254.261	285.62
254.494	242.62
254.727	233.62
254.96	232.62
255.193	245.62
255.426	247.62
255.659	209.62
255.892	191.62
256.124	185.62
256.357	220.62
256.59	253.62
256.823	252.62
257.056	224.62
257.289	203.62
257.521	214.62
257.754	246.62
257.987	280.62
258.22	253.62
258.452	227.62
258.685	237.62
258.918	268.62
259.151	285.62
259.383	286.62
259.616	330.62
259.849	343.62
260.081	340.62
260.314	368.62
260.547	300.62
260.779	313.62
261.012	344.62
261.244	333.62
261.477	343.62
261.71	309.62
261.942	276.62
262.175	298.62
262.407	261.62
262.64	278.62
262.872	312.62
263.105	329.62
263.337	348.62
263.57	311.62
263.802	226.62
264.035	215.62
264.267	201.62
264.499	186.62
264.732	161.62
264.964	173.62
265.197	181.62
265.429	200.62
265.661	200.62
265.894	197.62
266.126	215.62
266.358	223.62
266.591	260.62
266.823	311.62
267.055	292.62
267.287	276.62
267.52	276.62
267.752	278.62
267.984	297.62
268.216	281.62
268.448	261.62
268.681	250.62
268.913	258.62
269.145	287.62
269.377	280.62
269.609	289.62
269.841	265.62
270.073	266.62
270.306	296.62
270.538	300.62
270.77	311.62
271.002	296.62
271.234	311.62
271.466	312.62
271.698	290.62
271.93	292.62
272.162	272.62
272.394	302.62
272.626	298.62
272.858	298.62
273.09	292.62
273.322	267.62
273.553	245.62
273.785	293.62
274.017	367.62
274.249	441.62
274.481	446.62
274.713	486.62
274.945	581.62
275.176	575.62
275.408	533.62
275.64	485.62
275.872	489.62
276.104	400.62
276.335	365.62
276.567	373.62
276.799	373.62
277.031	410.62
277.262	340.62
277.494	244.62
277.726	243.62
277.957	276.62
278.189	297.62
278.421	306.62
278.652	272.62
278.884	275.62
279.115	253.62
279.347	250.62
279.579	241.62
279.81	260.62
280.042	274.62
280.273	282.62
280.505	239.62
280.736	223.62
280.968	231.62
281.199	253.62
281.431	284.62
281.662	273.62
281.894	235.62
282.125	268.62
282.356	291.62
282.588	303.62
282.819	245.62
283.051	270.62
283.282	345.62
283.513	379.62
283.745	421.62
283.976	404.62
284.207	385.62
284.439	395.62
284.67	399.62
284.901	351.62
285.132	369.62
285.364	415.62
285.595	375.62
285.826	395.62
286.057	380.62
286.288	381.62
286.52	416.62
286.751	417.62
286.982	402.62
287.213	351.62
287.444	354.62
287.675	367.62
287.906	384.62
288.138	324.62
288.369	304.62
288.6	265.62
288.831	289.62
289.062	321.62
289.293	361.62
289.524	335.62
289.755	331.62
289.986	346.62
290.217	311.62
290.448	244.62
290.679	234.62
290.91	207.62
291.141	209.62
291.371	220.62
291.602	224.62
291.833	219.62
292.064	201.62
292.295	258.62
292.526	290.62
292.757	311.62
292.987	307.62
293.218	304.62
293.449	343.62
293.68	349.62
293.91	328.62
294.141	339.62
294.372	318.62
294.603	303.62
294.833	344.62
295.064	392.62
295.295	371.62
295.525	267.62
295.756	255.62
295.987	220.62
296.217	231.62
296.448	225.62
296.679	249.62
296.909	258.62
297.14	282.62
297.37	291.62
297.601	278.62
297.831	251.62
298.062	256.62
298.292	279.62
298.523	322.62
298.753	347.62
298.984	344.62
299.214	268.62
299.445	249.62
299.675	236.62
299.905	218.62
300.136	218.62
300.366	236.62
300.597	246.62
300.827	218.62
301.057	209.62
301.288	224.62
301.518	247.62
301.748	256.62
301.979	274.62
302.209	295.62
302.439	307.62
302.669	253.62
302.9	279.62
303.13	265.62
303.36	255.62
303.59	234.62
303.82	246.62
304.051	261.62
304.281	292.62
304.511	277.62
304.741	246.62
304.971	226.62
305.201	267.62
305.431	261.62
305.661	226.62
305.891	239.62
306.121	233.62
306.352	226.62
306.582	204.62
306.812	200.62
307.042	194.62
307.272	176.62
307.502	189.62
307.731	205.62
307.961	204.62
308.191	185.62
308.421	195.62
308.651	191.62
308.881	178.62
309.111	192.62
309.341	200.62
309.571	197.62
309.8	207.62
310.03	206.62
310.26	218.62
310.49	207.62
310.72	220.62
310.949	207.62
311.179	203.62
311.409	205.62
311.639	222.62
311.868	292.62
312.098	346.62
312.328	379.62
312.557	363.62
312.787	392.62
313.017	327.62
313.246	355.62
313.476	364.62
313.706	325.62
313.935	277.62
314.165	223.62
314.394	192.62
314.624	210.62
314.853	223.62
315.083	210.62
315.312	216.62
315.542	213.62
315.771	201.62
316.001	183.62
316.23	170.62
316.46	188.62
316.689	189.62
316.919	199.62
317.148	212.62
317.377	205.62
317.607	178.62
317.836	217.62
318.065	237.62
318.295	257.62
318.524	231.62
318.753	220.62
318.983	189.62
319.212	220.62
319.441	223.62
319.67	227.62
319.9	252.62
320.129	255.62
320.358	213.62
320.587	191.62
320.816	209.62
321.046	224.62
321.275	259.62
321.504	254.62
321.733	253.62
321.962	242.62
322.191	230.62
322.42	231.62
322.649	225.62
322.878	249.62
323.108	261.62
323.337	236.62
323.566	247.62
323.795	227.62
324.024	225.62
324.253	204.62
324.482	197.62
324.71	233.62
324.939	237.62
325.168	267.62
325.397	216.62
325.626	204.62
325.855	206.62
326.084	195.62
326.313	204.62
326.542	178.62
326.77	206.62
326.999	201.62
327.228	204.62
327.457	212.62
327.686	210.62
327.914	204.62
328.143	201.62
328.372	192.62
328.6	177.62
328.829	182.62
329.058	187.62
329.287	187.62
329.515	202.62
329.744	200.62
329.972	191.62
330.201	193.62
330.43	202.62
330.658	196.62
330.887	243.62
331.115	220.62
331.344	206.62
331.572	221.62
331.801	199.62
332.03	203.62
332.258	204.62
332.486	206.62
332.715	211.62
332.943	213.62
333.172	201.62
333.4	222.62
333.629	234.62
333.857	283.62
334.085	257.62
334.314	246.62
334.542	226.62
334.771	215.62
334.999	203.62
335.227	222.62
335.455	210.62
335.684	245.62
335.912	260.62
336.14	275.62
336.369	259.62
336.597	256.62
336.825	273.62
337.053	301.62
337.281	268.62
337.51	232.62
337.738	235.62
337.966	265.62
338.194	249.62
338.422	248.62
338.65	208.62
338.878	196.62
339.106	191.62
339.334	208.62
339.562	218.62
339.79	211.62
340.018	204.62
340.246	202.62
340.474	229.62
340.702	259.62
340.93	277.62
341.158	266.62
341.386	228.62
341.614	236.62
341.842	234.62
342.07	226.62
342.298	265.62
342.526	280.62
342.754	234.62
342.981	214.62
343.209	225.62
343.437	249.62
343.665	255.62
343.893	265.62
344.12	322.62
344.348	352.62
344.576	291.62
344.804	249.62
345.031	223.62
345.259	195.62
345.487	225.62
345.714	226.62
345.942	223.62
346.17	257.62
346.397	252.62
346.625	237.62
346.853	212.62
347.08	207.62
347.308	235.62
347.535	255.62
347.763	264.62
347.99	221.62
348.218	196.62
348.445	212.62
348.673	216.62
348.9	217.62
349.128	217.62
349.355	232.62
349.583	237.62
349.81	226.62
350.037	220.62
350.265	195.62
350.492	200.62
350.72	179.62
350.947	183.62
351.174	199.62
351.402	206.62
351.629	223.62
351.856	213.62
352.083	210.62
352.311	205.62
352.538	233.62
352.765	230.62
352.992	248.62
353.22	210.62
353.447	220.62
353.674	225.62
353.901	214.62
354.128	233.62
354.355	222.62
354.583	226.62
354.81	226.62
355.037	223.62
355.264	222.62
355.491	226.62
355.718	228.62
355.945	245.62
356.172	215.62
356.399	216.62
356.626	261.62
356.853	305.62
357.08	335.62
357.307	338.62
357.534	271.62
357.761	279.62
357.988	350.62
358.215	406.62
358.441	367.62
358.668	305.62
358.895	287.62
359.122	281.62
359.349	269.62
359.576	289.62
359.802	235.62
360.029	223.62
360.256	244.62
360.483	275.62
360.709	324.62
360.936	332.62
361.163	302.62
361.39	242.62
361.616	226.62
361.843	249.62
362.07	305.62
362.296	288.62
362.523	231.62
362.749	211.62
362.976	211.62
363.203	266.62
363.429	290.62
363.656	224.62
363.882	213.62
364.109	225.62
364.335	228.62
364.562	226.62
364.788	258.62
365.015	259.62
365.241	256.62
365.468	209.62
365.694	189.62
365.92	191.62
366.147	181.62
366.373	170.62
366.599	184.62
366.826	188.62
367.052	183.62
367.278	193.62
367.505	198.62
367.731	199.62
367.957	221.62
368.184	210.62
368.41	209.62
368.636	219.62
368.862	218.62
369.089	211.62
369.315	204.62
369.541	198.62
369.767	212.62
369.993	189.62
370.219	204.62
370.445	195.62
370.672	231.62
370.898	241.62
371.124	234.62
371.35	224.62
371.576	217.62
371.802	228.62
372.028	258.62
372.254	292.62
372.48	233.62
372.706	236.62
372.932	240.62
373.158	236.62
373.384	267.62
373.61	350.62
373.835	364.62
374.061	284.62
374.287	263.62
374.513	274.62
374.739	325.62
374.965	331.62
375.191	348.62
375.416	249.62
375.642	206.62
375.868	249.62
376.094	285.62
376.319	244.62
376.545	277.62
376.771	277.62
376.997	257.62
377.222	199.62
377.448	192.62
377.674	196.62
377.899	185.62
378.125	175.62
378.35	199.62
378.576	192.62
378.802	193.62
379.027	204.62
379.253	208.62
379.478	201.62
379.704	230.62
379.929	231.62
380.155	240.62
380.38	224.62
380.606	220.62
380.831	235.62
381.057	232.62
381.282	207.62
381.507	257.62
381.733	286.62
381.958	308.62
382.184	331.62
382.409	345.62
382.634	354.62
382.86	335.62
383.085	287.62
383.31	256.62
383.535	264.62
383.761	269.62
383.986	247.62
384.211	289.62
384.436	277.62
384.662	238.62
384.887	216.62
385.112	233.62
385.337	259.62
385.562	231.62
385.787	255.62
386.013	277.62
386.238	280.62
386.463	247.62
386.688	224.62
386.913	221.62
387.138	205.62
387.363	215.62
387.588	235.62
387.813	221.62
388.038	250.62
388.263	239.62
388.488	228.62
388.713	254.62
388.938	262.62
389.163	218.62
389.387	185.62
389.612	228.62
389.837	216.62
390.062	245.62
390.287	221.62
390.512	236.62
390.736	202.62
390.961	213.62
391.186	194.62
391.411	200.62
391.636	205.62
391.86	222.62
392.085	238.62
392.31	224.62
392.534	211.62
392.759	233.62
392.984	237.62
393.208	222.62
393.433	225.62
393.658	200.62
393.882	206.62
394.107	196.62
394.331	207.62
394.556	188.62
394.78	199.62
395.005	205.62
395.229	196.62
395.454	200.62
395.678	201.62
395.903	213.62
396.127	212.62
396.352	211.62
396.576	233.62
396.801	217.62
397.025	249.62
397.249	272.62
397.474	220.62
397.698	224.62
397.922	219.62
398.147	208.62
398.371	201.62
398.595	234.62
398.82	220.62
399.044	213.62
399.268	255.62
399.492	278.62
399.717	285.62
399.941	293.62
400.165	272.62
400.389	237.62
400.613	236.62
400.837	223.62
401.062	221.62
401.286	215.62
401.51	216.62
401.734	198.62
401.958	246.62
402.182	209.62
402.406	211.62
402.63	203.62
402.854	248.62
403.078	267.62
403.302	333.62
403.526	354.62
403.75	323.62
403.974	259.62
404.198	270.62
404.422	293.62
404.645	320.62
404.869	353.62
405.093	268.62
405.317	236.62
405.541	256.62
405.765	251.62
405.988	273.62
406.212	271.62
406.436	293.62
406.66	301.62
406.883	266.62
407.107	275.62
407.331	327.62
407.555	317.62
407.778	253.62
408.002	296.62
408.226	261.62
408.449	241.62
408.673	249.62
408.896	226.62
409.12	226.62
409.344	226.62
409.567	235.62
409.791	241.62
410.014	233.62
410.238	236.62
410.461	234.62
410.685	207.62
410.908	215.62
411.132	237.62
411.355	233.62
411.578	244.62
411.802	227.62
412.025	249.62
412.249	250.62
412.472	239.62
412.695	229.62
412.919	218.62
413.142	247.62
413.365	245.62
413.589	249.62
413.812	242.62
414.035	225.62
414.258	220.62
414.482	235.62
414.705	244.62
414.928	217.62
415.151	225.62
415.374	224.62
415.597	191.62
415.821	221.62
416.044	239.62
416.267	214.62
416.49	219.62
416.713	225.62
416.936	212.62
417.159	218.62
417.382	223.62
417.605	221.62
417.828	227.62
418.051	226.62
418.274	216.62
418.497	215.62
418.72	238.62
418.943	251.62
419.166	241.62
419.389	251.62
419.611	254.62
419.834	243.62
420.057	247.62
420.28	251.62
420.503	229.62
420.726	237.62
420.948	219.62
421.171	223.62
421.394	227.62
421.617	239.62
421.839	219.62
422.062	225.62
422.285	221.62
422.507	224.62
422.73	224.62
422.953	235.62
423.175	235.62
423.398	236.62
423.621	255.62
423.843	250.62
424.066	249.62
424.288	241.62
424.511	246.62
424.733	239.62
424.956	227.62
425.178	258.62
425.401	297.62
425.623	332.62
425.846	285.62
426.068	265.62
426.291	261.62
426.513	244.62
426.735	219.62
426.958	252.62
427.18	278.62
427.402	332.62
427.625	350.62
427.847	292.62
428.069	211.62
428.292	236.62
428.514	228.62
428.736	211.62
428.958	249.62
429.181	303.62
429.403	251.62
429.625	220.62
429.847	221.62
430.069	217.62
430.292	212.62
430.514	197.62
430.736	210.62
430.958	257.62
431.18	265.62
431.402	225.62
431.624	208.62
431.846	211.62
432.068	193.62
432.29	215.62
432.512	221.62
432.734	256.62
432.956	256.62
433.178	218.62
433.4	203.62
433.622	210.62
433.844	222.62
434.066	228.62
434.287	243.62
434.509	236.62
434.731	238.62
434.953	233.62
435.175	251.62
435.397	260.62
435.618	231.62
435.84	216.62
436.062	213.62
436.284	201.62
436.505	193.62
436.727	193.62
436.949	203.62
437.17	217.62
437.392	222.62
437.614	215.62
437.835	212.62
438.057	210.62
438.278	236.62
438.5	308.62
438.721	303.62
438.943	227.62
439.165	214.62
439.386	206.62
439.608	193.62
439.829	197.62
440.05	197.62
440.272	204.62
440.493	224.62
440.715	277.62
440.936	247.62
441.158	224.62
441.379	226.62
441.6	223.62
441.822	249.62
442.043	223.62
442.264	221.62
442.486	242.62
442.707	231.62
442.928	224.62
443.149	208.62
443.371	207.62
443.592	231.62
443.813	232.62
444.034	233.62
444.255	218.62
444.476	247.62
444.698	246.62
444.919	253.62
445.14	352.62
445.361	300.62
445.582	245.62
445.803	236.62
446.024	249.62
446.245	229.62
446.466	224.62
446.687	214.62
446.908	217.62
447.129	208.62
447.35	205.62
447.571	197.62
447.792	195.62
448.013	204.62
448.234	198.62
448.455	196.62
448.675	209.62
448.896	209.62
449.117	211.62
449.338	195.62
449.559	201.62
449.779	204.62
450	201.62
450.221	195.62
450.442	201.62
450.662	205.62
450.883	203.62
451.104	214.62
451.324	215.62
451.545	205.62
451.766	197.62
451.986	192.62
452.207	209.62
452.428	192.62
452.648	199.62
452.869	188.62
453.089	193.62
453.31	218.62
453.53	213.62
453.751	198.62
453.971	181.62
454.192	199.62
454.412	201.62
454.633	201.62
454.853	199.62
455.073	173.62
455.294	188.62
455.514	189.62
455.734	204.62
455.955	202.62
456.175	205.62
456.395	201.62
456.616	188.62
456.836	204.62
457.056	199.62
457.276	183.62
457.497	192.62
457.717	184.62
457.937	188.62
458.157	175.62
458.377	193.62
458.598	205.62
458.818	190.62
459.038	205.62
459.258	213.62
459.478	222.62
459.698	237.62
459.918	251.62
460.138	239.62
460.358	223.62
460.578	240.62
460.798	231.62
461.018	209.62
461.238	226.62
461.458	234.62
461.678	201.62
461.898	237.62
462.118	255.62
462.338	253.62
462.558	259.62
462.777	258.62
462.997	275.62
463.217	283.62
463.437	287.62
463.657	241.62
463.876	257.62
464.096	265.62
464.316	271.62
464.536	255.62
464.755	284.62
464.975	265.62
465.195	250.62
465.414	242.62
465.634	242.62
465.854	223.62
466.073	221.62
466.293	227.62
466.512	220.62
466.732	240.62
466.951	242.62
467.171	228.62
467.391	223.62
467.61	215.62
467.829	246.62
468.049	219.62
468.268	201.62
468.488	200.62
468.707	224.62
468.927	257.62
469.146	247.62
469.365	234.62
469.585	216.62
469.804	247.62
470.023	254.62
470.243	227.62
470.462	204.62
470.681	207.62
470.901	222.62
471.12	241.62
471.339	236.62
471.558	216.62
471.777	217.62
471.997	231.62
472.216	251.62
472.435	242.62
472.654	228.62
472.873	225.62
473.092	236.62
473.311	255.62
473.53	223.62
473.749	218.62
473.968	220.62
474.187	240.62
474.406	227.62
474.625	224.62
474.844	218.62
475.063	235.62
475.282	262.62
475.501	232.62
475.72	274.62
475.939	249.62
476.158	245.62
476.377	282.62
476.596	322.62
476.814	334.62
477.033	291.62
477.252	256.62
477.471	222.62
477.69	248.62
477.908	264.62
478.127	268.62
478.346	272.62
478.564	280.62
478.783	262.62
479.002	255.62
479.22	305.62
479.439	299.62
479.658	288.62
479.876	269.62
480.095	275.62
480.313	280.62
480.532	275.62
480.751	256.62
480.969	257.62
481.188	276.62
481.406	285.62
481.624	273.62
481.843	260.62
482.061	253.62
482.28	258.62
482.498	330.62
482.717	311.62
482.935	282.62
483.153	260.62
483.372	261.62
483.59	239.62
483.808	232.62
484.027	246.62
484.245	235.62
484.463	233.62
484.681	249.62
484.9	245.62
485.118	276.62
485.336	265.62
485.554	249.62
485.772	261.62
485.99	267.62
486.209	277.62
486.427	281.62
486.645	277.62
486.863	274.62
487.081	292.62
487.299	306.62
487.517	289.62
487.735	256.62
487.953	269.62
488.171	279.62
488.389	271.62
488.607	249.62
488.825	249.62
489.043	292.62
489.261	295.62
489.479	331.62
489.696	301.62
489.914	275.62
490.132	259.62
490.35	248.62
490.568	250.62
490.786	273.62
491.003	265.62
491.221	267.62
491.439	258.62
491.657	245.62
491.874	257.62
492.092	324.62
492.31	341.62
492.527	357.62
492.745	301.62
492.963	286.62
493.18	287.62
493.398	269.62
493.615	292.62
493.833	290.62
494.05	284.62
494.268	273.62
494.485	270.62
494.703	265.62
494.92	290.62
495.138	265.62
495.355	269.62
495.573	274.62
495.79	291.62
496.008	348.62
496.225	316.62
496.442	289.62
496.66	279.62
496.877	290.62
497.094	307.62
497.312	284.62
497.529	298.62
497.746	296.62
497.963	303.62
498.181	295.62
498.398	335.62
498.615	338.62
498.832	355.62
499.049	371.62
499.267	350.62
499.484	366.62
499.701	399.62
499.918	422.62
500.135	470.62
500.352	493.62
500.569	535.62
500.786	524.62
501.003	513.62
501.22	446.62
501.437	421.62
501.654	383.62
501.871	360.62
502.088	368.62
502.305	340.62
502.522	330.62
