Data from NickelSpatula.Lamp.E5.5.P2_HRD10591_11-52-31-554.txt Node
Date: Tue Jul 23 11:52:31 EDT 2019
User: cochatt
Spectrometer: HR+D1059
Trigger mode: 1
Integration Time (sec): 1.000000E-1
Scans to average: 1
Electric dark correction enabled: true
Nonlinearity correction enabled: false
Boxcar width: 0
XAxis mode: Wavelengths
Number of Pixels in Spectrum: 2048
>>>>>Begin Spectral Data<<<<<
223.165	-15.69
223.4	-15.69
223.635	-15.69
223.869	-24.69
224.104	-24.69
224.338	-20.69
224.573	1.31
224.808	-3.69
225.042	-13.69
225.277	-12.69
225.511	-2.69
225.746	0.31
225.98	8.31
226.215	12.31
226.449	11.31
226.683	13.31
226.918	30.31
227.152	41.31
227.387	41.31
227.621	26.31
227.856	41.31
228.09	41.31
228.324	53.31
228.559	51.31
228.793	52.31
229.027	79.31
229.262	100.31
229.496	84.31
229.73	86.31
229.964	88.31
230.199	99.31
230.433	111.31
230.667	90.31
230.901	110.31
231.136	94.31
231.37	103.31
231.604	106.31
231.838	103.31
232.072	107.31
232.306	114.31
232.541	101.31
232.775	109.31
233.009	109.31
233.243	118.31
233.477	125.31
233.711	127.31
233.945	118.31
234.179	130.31
234.413	126.31
234.647	127.31
234.881	153.31
235.115	154.31
235.349	132.31
235.583	117.31
235.817	120.31
236.051	125.31
236.285	123.31
236.519	154.31
236.753	155.31
236.987	135.31
237.221	120.31
237.455	147.31
237.689	143.31
237.922	130.31
238.156	137.31
238.39	178.31
238.624	177.31
238.858	157.31
239.091	142.31
239.325	147.31
239.559	159.31
239.793	185.31
240.027	183.31
240.26	169.31
240.494	154.31
240.728	161.31
240.961	176.31
241.195	181.31
241.429	171.31
241.662	174.31
241.896	153.31
242.13	143.31
242.363	127.31
242.597	152.31
242.83	141.31
243.064	147.31
243.298	175.31
243.531	180.31
243.765	196.31
243.998	179.31
244.232	158.31
244.465	143.31
244.699	158.31
244.932	174.31
245.166	177.31
245.399	158.31
245.633	163.31
245.866	157.31
246.099	168.31
246.333	171.31
246.566	203.31
246.8	213.31
247.033	201.31
247.266	179.31
247.5	197.31
247.733	181.31
247.966	168.31
248.2	173.31
248.433	175.31
248.666	208.31
248.899	217.31
249.133	201.31
249.366	227.31
249.599	261.31
249.832	226.31
250.066	205.31
250.299	220.31
250.532	210.31
250.765	192.31
250.998	182.31
251.231	177.31
251.465	187.31
251.698	204.31
251.931	194.31
252.164	194.31
252.397	222.31
252.63	265.31
252.863	260.31
253.096	258.31
253.329	276.31
253.562	255.31
253.795	286.31
254.028	302.31
254.261	313.31
254.494	277.31
254.727	250.31
254.96	251.31
255.193	255.31
255.426	268.31
255.659	203.31
255.892	191.31
256.124	204.31
256.357	256.31
256.59	289.31
256.823	281.31
257.056	247.31
257.289	225.31
257.521	222.31
257.754	274.31
257.987	308.31
258.22	265.31
258.452	223.31
258.685	270.31
258.918	303.31
259.151	276.31
259.383	308.31
259.616	349.31
259.849	333.31
260.081	371.31
260.314	416.31
260.547	317.31
260.779	334.31
261.012	383.31
261.244	343.31
261.477	373.31
261.71	337.31
261.942	281.31
262.175	296.31
262.407	272.31
262.64	270.31
262.872	327.31
263.105	358.31
263.337	362.31
263.57	329.31
263.802	241.31
264.035	218.31
264.267	222.31
264.499	205.31
264.732	190.31
264.964	183.31
265.197	209.31
265.429	187.31
265.661	207.31
265.894	206.31
266.126	217.31
266.358	255.31
266.591	297.31
266.823	316.31
267.055	322.31
267.287	280.31
267.52	310.31
267.752	308.31
267.984	310.31
268.216	313.31
268.448	260.31
268.681	262.31
268.913	275.31
269.145	291.31
269.377	287.31
269.609	285.31
269.841	275.31
270.073	298.31
270.306	318.31
270.538	325.31
270.77	335.31
271.002	302.31
271.234	317.31
271.466	326.31
271.698	317.31
271.93	305.31
272.162	313.31
272.394	319.31
272.626	297.31
272.858	312.31
273.09	337.31
273.322	274.31
273.553	275.31
273.785	315.31
274.017	392.31
274.249	503.31
274.481	509.31
274.713	551.31
274.945	617.31
275.176	641.31
275.408	581.31
275.64	549.31
275.872	546.31
276.104	447.31
276.335	425.31
276.567	410.31
276.799	411.31
277.031	450.31
277.262	336.31
277.494	282.31
277.726	283.31
277.957	298.31
278.189	323.31
278.421	324.31
278.652	322.31
278.884	304.31
279.115	291.31
279.347	281.31
279.579	257.31
279.81	271.31
280.042	262.31
280.273	286.31
280.505	266.31
280.736	237.31
280.968	240.31
281.199	262.31
281.431	287.31
281.662	271.31
281.894	267.31
282.125	288.31
282.356	296.31
282.588	311.31
282.819	272.31
283.051	298.31
283.282	341.31
283.513	397.31
283.745	423.31
283.976	451.31
284.207	421.31
284.439	433.31
284.67	425.31
284.901	393.31
285.132	402.31
285.364	408.31
285.595	389.31
285.826	425.31
286.057	418.31
286.288	398.31
286.52	405.31
286.751	442.31
286.982	469.31
287.213	371.31
287.444	353.31
287.675	381.31
287.906	378.31
288.138	339.31
288.369	307.31
288.6	297.31
288.831	300.31
289.062	343.31
289.293	353.31
289.524	347.31
289.755	349.31
289.986	356.31
290.217	331.31
290.448	259.31
290.679	232.31
290.91	217.31
291.141	223.31
291.371	241.31
291.602	222.31
291.833	223.31
292.064	239.31
292.295	277.31
292.526	296.31
292.757	319.31
292.987	330.31
293.218	336.31
293.449	336.31
293.68	359.31
293.91	359.31
294.141	371.31
294.372	342.31
294.603	286.31
294.833	333.31
295.064	397.31
295.295	382.31
295.525	287.31
295.756	253.31
295.987	233.31
296.217	237.31
296.448	239.31
296.679	253.31
296.909	266.31
297.14	291.31
297.37	311.31
297.601	297.31
297.831	253.31
298.062	269.31
298.292	318.31
298.523	309.31
298.753	392.31
298.984	362.31
299.214	283.31
299.445	255.31
299.675	233.31
299.905	224.31
300.136	253.31
300.366	259.31
300.597	253.31
300.827	233.31
301.057	233.31
301.288	250.31
301.518	261.31
301.748	270.31
301.979	289.31
302.209	309.31
302.439	323.31
302.669	301.31
302.9	278.31
303.13	265.31
303.36	251.31
303.59	248.31
303.82	257.31
304.051	295.31
304.281	305.31
304.511	291.31
304.741	258.31
304.971	267.31
305.201	275.31
305.431	271.31
305.661	249.31
305.891	239.31
306.121	241.31
306.352	223.31
306.582	208.31
306.812	197.31
307.042	219.31
307.272	186.31
307.502	196.31
307.731	210.31
307.961	224.31
308.191	202.31
308.421	200.31
308.651	193.31
308.881	184.31
309.111	180.31
309.341	207.31
309.571	228.31
309.8	208.31
310.03	201.31
310.26	224.31
310.49	213.31
310.72	206.31
310.949	213.31
311.179	215.31
311.409	226.31
311.639	245.31
311.868	291.31
312.098	376.31
312.328	413.31
312.557	380.31
312.787	385.31
313.017	345.31
313.246	377.31
313.476	423.31
313.706	331.31
313.935	265.31
314.165	240.31
314.394	225.31
314.624	225.31
314.853	241.31
315.083	255.31
315.312	232.31
315.542	243.31
315.771	209.31
316.001	211.31
316.23	212.31
316.46	188.31
316.689	204.31
316.919	193.31
317.148	205.31
317.377	215.31
317.607	210.31
317.836	217.31
318.065	258.31
318.295	251.31
318.524	254.31
318.753	221.31
318.983	205.31
319.212	206.31
319.441	225.31
319.67	247.31
319.9	242.31
320.129	231.31
320.358	231.31
320.587	214.31
320.816	232.31
321.046	244.31
321.275	294.31
321.504	275.31
321.733	273.31
321.962	261.31
322.191	230.31
322.42	228.31
322.649	251.31
322.878	260.31
323.108	267.31
323.337	246.31
323.566	234.31
323.795	237.31
324.024	218.31
324.253	212.31
324.482	219.31
324.71	230.31
324.939	251.31
325.168	261.31
325.397	233.31
325.626	214.31
325.855	226.31
326.084	219.31
326.313	210.31
326.542	205.31
326.77	213.31
326.999	224.31
327.228	225.31
327.457	226.31
327.686	242.31
327.914	197.31
328.143	195.31
328.372	197.31
328.6	210.31
328.829	200.31
329.058	214.31
329.287	217.31
329.515	219.31
329.744	215.31
329.972	205.31
330.201	201.31
330.43	201.31
330.658	213.31
330.887	232.31
331.115	242.31
331.344	245.31
331.572	221.31
331.801	207.31
332.03	220.31
332.258	214.31
332.486	228.31
332.715	222.31
332.943	214.31
333.172	206.31
333.4	229.31
333.629	238.31
333.857	257.31
334.085	262.31
334.314	253.31
334.542	243.31
334.771	227.31
334.999	219.31
335.227	216.31
335.455	213.31
335.684	230.31
335.912	264.31
336.14	289.31
336.369	264.31
336.597	270.31
336.825	293.31
337.053	303.31
337.281	275.31
337.51	216.31
337.738	223.31
337.966	225.31
338.194	262.31
338.422	242.31
338.65	222.31
338.878	209.31
339.106	208.31
339.334	238.31
339.562	239.31
339.79	222.31
340.018	210.31
340.246	235.31
340.474	257.31
340.702	274.31
340.93	277.31
341.158	253.31
341.386	237.31
341.614	240.31
341.842	232.31
342.07	258.31
342.298	286.31
342.526	274.31
342.754	238.31
342.981	250.31
343.209	230.31
343.437	234.31
343.665	251.31
343.893	256.31
344.12	317.31
344.348	343.31
344.576	304.31
344.804	257.31
345.031	257.31
345.259	216.31
345.487	211.31
345.714	241.31
345.942	250.31
346.17	266.31
346.397	237.31
346.625	221.31
346.853	227.31
347.08	211.31
347.308	229.31
347.535	247.31
347.763	263.31
347.99	236.31
348.218	210.31
348.445	217.31
348.673	231.31
348.9	212.31
349.128	246.31
349.355	257.31
349.583	232.31
349.81	240.31
350.037	237.31
350.265	216.31
350.492	202.31
350.72	206.31
350.947	199.31
351.174	227.31
351.402	209.31
351.629	225.31
351.856	220.31
352.083	197.31
352.311	216.31
352.538	243.31
352.765	240.31
352.992	224.31
353.22	230.31
353.447	223.31
353.674	222.31
353.901	198.31
354.128	224.31
354.355	222.31
354.583	214.31
354.81	231.31
355.037	241.31
355.264	241.31
355.491	238.31
355.718	249.31
355.945	242.31
356.172	259.31
356.399	241.31
356.626	265.31
356.853	327.31
357.08	335.31
357.307	347.31
357.534	277.31
357.761	313.31
357.988	368.31
358.215	400.31
358.441	388.31
358.668	316.31
358.895	306.31
359.122	272.31
359.349	286.31
359.576	291.31
359.802	245.31
360.029	213.31
360.256	228.31
360.483	278.31
360.709	339.31
360.936	336.31
361.163	314.31
361.39	247.31
361.616	229.31
361.843	256.31
362.07	288.31
362.296	284.31
362.523	225.31
362.749	221.31
362.976	230.31
363.203	239.31
363.429	263.31
363.656	229.31
363.882	223.31
364.109	226.31
364.335	223.31
364.562	200.31
364.788	228.31
365.015	268.31
365.241	261.31
365.468	213.31
365.694	189.31
365.92	214.31
366.147	181.31
366.373	192.31
366.599	188.31
366.826	191.31
367.052	210.31
367.278	193.31
367.505	206.31
367.731	212.31
367.957	234.31
368.184	227.31
368.41	219.31
368.636	228.31
368.862	228.31
369.089	230.31
369.315	208.31
369.541	214.31
369.767	225.31
369.993	211.31
370.219	215.31
370.445	216.31
370.672	229.31
370.898	254.31
371.124	246.31
371.35	237.31
371.576	210.31
371.802	220.31
372.028	272.31
372.254	287.31
372.48	262.31
372.706	239.31
372.932	242.31
373.158	248.31
373.384	282.31
373.61	372.31
373.835	357.31
374.061	294.31
374.287	261.31
374.513	299.31
374.739	363.31
374.965	329.31
375.191	349.31
375.416	271.31
375.642	230.31
375.868	285.31
376.094	280.31
376.319	258.31
376.545	286.31
376.771	303.31
376.997	259.31
377.222	207.31
377.448	202.31
377.674	209.31
377.899	183.31
378.125	184.31
378.35	196.31
378.576	187.31
378.802	215.31
379.027	219.31
379.253	218.31
379.478	228.31
379.704	241.31
379.929	247.31
380.155	256.31
380.38	242.31
380.606	229.31
380.831	241.31
381.057	240.31
381.282	222.31
381.507	260.31
381.733	300.31
381.958	304.31
382.184	342.31
382.409	349.31
382.634	345.31
382.86	343.31
383.085	283.31
383.31	261.31
383.535	259.31
383.761	277.31
383.986	260.31
384.211	319.31
384.436	300.31
384.662	240.31
384.887	235.31
385.112	249.31
385.337	242.31
385.562	245.31
385.787	286.31
386.013	274.31
386.238	302.31
386.463	242.31
386.688	242.31
386.913	220.31
387.138	201.31
387.363	224.31
387.588	242.31
387.813	238.31
388.038	250.31
388.263	231.31
388.488	215.31
388.713	262.31
388.938	273.31
389.163	243.31
389.387	225.31
389.612	203.31
389.837	209.31
390.062	230.31
390.287	245.31
390.512	221.31
390.736	211.31
390.961	203.31
391.186	203.31
391.411	201.31
391.636	214.31
391.86	225.31
392.085	250.31
392.31	241.31
392.534	262.31
392.759	246.31
392.984	226.31
393.208	249.31
393.433	225.31
393.658	214.31
393.882	180.31
394.107	203.31
394.331	200.31
394.556	203.31
394.78	211.31
395.005	199.31
395.229	211.31
395.454	215.31
395.678	221.31
395.903	213.31
396.127	220.31
396.352	219.31
396.576	215.31
396.801	241.31
397.025	259.31
397.249	257.31
397.474	230.31
397.698	233.31
397.922	243.31
398.147	233.31
398.371	231.31
398.595	246.31
398.82	237.31
399.044	244.31
399.268	274.31
399.492	273.31
399.717	315.31
399.941	274.31
400.165	262.31
400.389	254.31
400.613	233.31
400.837	257.31
401.062	224.31
401.286	213.31
401.51	212.31
401.734	221.31
401.958	225.31
402.182	224.31
402.406	231.31
402.63	233.31
402.854	231.31
403.078	296.31
403.302	347.31
403.526	374.31
403.75	354.31
403.974	279.31
404.198	292.31
404.422	290.31
404.645	341.31
404.869	343.31
405.093	287.31
405.317	260.31
405.541	243.31
405.765	254.31
405.988	270.31
406.212	261.31
406.436	294.31
406.66	322.31
406.883	256.31
407.107	273.31
407.331	301.31
407.555	304.31
407.778	267.31
408.002	258.31
408.226	272.31
408.449	272.31
408.673	267.31
408.896	229.31
409.12	223.31
409.344	228.31
409.567	232.31
409.791	240.31
410.014	245.31
410.238	240.31
410.461	230.31
410.685	243.31
410.908	217.31
411.132	240.31
411.355	237.31
411.578	234.31
411.802	224.31
412.025	240.31
412.249	239.31
412.472	265.31
412.695	234.31
412.919	226.31
413.142	237.31
413.365	245.31
413.589	244.31
413.812	216.31
414.035	222.31
414.258	221.31
414.482	253.31
414.705	248.31
414.928	236.31
415.151	224.31
415.374	208.31
415.597	217.31
415.821	230.31
416.044	229.31
416.267	209.31
416.49	216.31
416.713	239.31
416.936	227.31
417.159	243.31
417.382	239.31
417.605	212.31
417.828	226.31
418.051	226.31
418.274	230.31
418.497	241.31
418.72	246.31
418.943	258.31
419.166	253.31
419.389	256.31
419.611	268.31
419.834	261.31
420.057	257.31
420.28	270.31
420.503	254.31
420.726	229.31
420.948	249.31
421.171	227.31
421.394	227.31
421.617	238.31
421.839	231.31
422.062	215.31
422.285	229.31
422.507	244.31
422.73	240.31
422.953	250.31
423.175	247.31
423.398	244.31
423.621	263.31
423.843	278.31
424.066	245.31
424.288	217.31
424.511	253.31
424.733	229.31
424.956	238.31
425.178	261.31
425.401	297.31
425.623	338.31
425.846	292.31
426.068	266.31
426.291	265.31
426.513	249.31
426.735	255.31
426.958	241.31
427.18	285.31
427.402	329.31
427.625	355.31
427.847	303.31
428.069	225.31
428.292	234.31
428.514	231.31
428.736	219.31
428.958	247.31
429.181	308.31
429.403	261.31
429.625	217.31
429.847	215.31
430.069	215.31
430.292	218.31
430.514	210.31
430.736	221.31
430.958	263.31
431.18	247.31
431.402	218.31
431.624	217.31
431.846	211.31
432.068	219.31
432.29	207.31
432.512	212.31
432.734	279.31
432.956	303.31
433.178	239.31
433.4	231.31
433.622	229.31
433.844	249.31
434.066	249.31
434.287	236.31
434.509	226.31
434.731	259.31
434.953	238.31
435.175	263.31
435.397	267.31
435.618	228.31
435.84	225.31
436.062	215.31
436.284	225.31
436.505	194.31
436.727	206.31
436.949	195.31
437.17	223.31
437.392	223.31
437.614	219.31
437.835	213.31
438.057	221.31
438.278	252.31
438.5	307.31
438.721	306.31
438.943	225.31
439.165	217.31
439.386	199.31
439.608	211.31
439.829	205.31
440.05	206.31
440.272	230.31
440.493	227.31
440.715	274.31
440.936	244.31
441.158	221.31
441.379	226.31
441.6	251.31
441.822	253.31
442.043	261.31
442.264	238.31
442.486	216.31
442.707	230.31
442.928	243.31
443.149	238.31
443.371	229.31
443.592	245.31
443.813	234.31
444.034	232.31
444.255	247.31
444.476	226.31
444.698	250.31
444.919	244.31
445.14	370.31
445.361	317.31
445.582	266.31
445.803	249.31
446.024	238.31
446.245	240.31
446.466	221.31
446.687	216.31
446.908	218.31
447.129	212.31
447.35	224.31
447.571	217.31
447.792	204.31
448.013	229.31
448.234	203.31
448.455	207.31
448.675	212.31
448.896	229.31
449.117	216.31
449.338	208.31
449.559	232.31
449.779	230.31
450	214.31
450.221	231.31
450.442	226.31
450.662	215.31
450.883	210.31
451.104	224.31
451.324	210.31
451.545	211.31
451.766	201.31
451.986	209.31
452.207	206.31
452.428	207.31
452.648	219.31
452.869	225.31
453.089	221.31
453.31	221.31
453.53	201.31
453.751	200.31
453.971	212.31
454.192	207.31
454.412	202.31
454.633	214.31
454.853	197.31
455.073	193.31
455.294	190.31
455.514	211.31
455.734	194.31
455.955	189.31
456.175	194.31
456.395	191.31
456.616	190.31
456.836	200.31
457.056	185.31
457.276	183.31
457.497	188.31
457.717	194.31
457.937	190.31
458.157	193.31
458.377	206.31
458.598	200.31
458.818	199.31
459.038	205.31
459.258	230.31
459.478	215.31
459.698	239.31
459.918	226.31
460.138	230.31
460.358	248.31
460.578	241.31
460.798	233.31
461.018	245.31
461.238	226.31
461.458	228.31
461.678	254.31
461.898	234.31
462.118	242.31
462.338	239.31
462.558	247.31
462.777	264.31
462.997	288.31
463.217	308.31
463.437	280.31
463.657	267.31
463.876	265.31
464.096	279.31
464.316	269.31
464.536	271.31
464.755	276.31
464.975	275.31
465.195	266.31
465.414	262.31
465.634	230.31
465.854	247.31
466.073	210.31
466.293	218.31
466.512	242.31
466.732	278.31
466.951	249.31
467.171	226.31
467.391	239.31
467.61	217.31
467.829	228.31
468.049	230.31
468.268	209.31
468.488	224.31
468.707	224.31
468.927	262.31
469.146	285.31
469.365	241.31
469.585	229.31
469.804	258.31
470.023	271.31
470.243	239.31
470.462	244.31
470.681	259.31
470.901	240.31
471.12	239.31
471.339	238.31
471.558	224.31
471.777	235.31
471.997	240.31
472.216	260.31
472.435	275.31
472.654	251.31
472.873	239.31
473.092	241.31
473.311	230.31
473.53	231.31
473.749	235.31
473.968	253.31
474.187	251.31
474.406	252.31
474.625	239.31
474.844	230.31
475.063	244.31
475.282	245.31
475.501	255.31
475.72	271.31
475.939	266.31
476.158	242.31
476.377	295.31
476.596	348.31
476.814	344.31
477.033	280.31
477.252	262.31
477.471	238.31
477.69	259.31
477.908	261.31
478.127	290.31
478.346	252.31
478.564	275.31
478.783	267.31
479.002	267.31
479.22	301.31
479.439	318.31
479.658	295.31
479.876	273.31
480.095	299.31
480.313	295.31
480.532	284.31
480.751	286.31
480.969	253.31
481.188	304.31
481.406	309.31
481.624	299.31
481.843	267.31
482.061	261.31
482.28	266.31
482.498	348.31
482.717	321.31
482.935	298.31
483.153	278.31
483.372	257.31
483.59	255.31
483.808	245.31
484.027	271.31
484.245	244.31
484.463	237.31
484.681	259.31
484.9	273.31
485.118	287.31
485.336	250.31
485.554	257.31
485.772	280.31
485.99	289.31
486.209	297.31
486.427	297.31
486.645	293.31
486.863	303.31
487.081	295.31
487.299	315.31
487.517	302.31
487.735	284.31
487.953	285.31
488.171	309.31
488.389	254.31
488.607	242.31
488.825	265.31
489.043	287.31
489.261	317.31
489.479	334.31
489.696	301.31
489.914	275.31
490.132	279.31
490.35	262.31
490.568	264.31
490.786	257.31
491.003	259.31
491.221	255.31
491.439	266.31
491.657	265.31
491.874	262.31
492.092	319.31
492.31	359.31
492.527	366.31
492.745	317.31
492.963	294.31
493.18	303.31
493.398	282.31
493.615	302.31
493.833	290.31
494.05	289.31
494.268	292.31
494.485	286.31
494.703	273.31
494.92	266.31
495.138	272.31
495.355	273.31
495.573	256.31
495.79	301.31
496.008	367.31
496.225	334.31
496.442	306.31
496.66	311.31
496.877	304.31
497.094	311.31
497.312	279.31
497.529	290.31
497.746	304.31
497.963	308.31
498.181	326.31
498.398	349.31
498.615	379.31
498.832	396.31
499.049	399.31
499.267	356.31
499.484	381.31
499.701	407.31
499.918	431.31
500.135	502.31
500.352	515.31
500.569	545.31
500.786	540.31
501.003	522.31
501.22	478.31
501.437	438.31
501.654	390.31
501.871	374.31
502.088	374.31
502.305	350.31
