Data from NickelSpatula.Lamp.E5.5.P2_HRD10591_11-52-04-557.txt Node
Date: Tue Jul 23 11:52:04 EDT 2019
User: cochatt
Spectrometer: HR+D1059
Trigger mode: 1
Integration Time (sec): 1.000000E-1
Scans to average: 1
Electric dark correction enabled: true
Nonlinearity correction enabled: false
Boxcar width: 0
XAxis mode: Wavelengths
Number of Pixels in Spectrum: 2048
>>>>>Begin Spectral Data<<<<<
223.165	-14.88
223.4	-14.88
223.635	-14.88
223.869	-14.88
224.104	-16.88
224.338	-19.88
224.573	-13.88
224.808	-29.88
225.042	8.12
225.277	3.12
225.511	-2.88
225.746	9.12
225.98	3.12
226.215	10.12
226.449	20.12
226.683	15.12
226.918	24.12
227.152	20.12
227.387	28.12
227.621	36.12
227.856	26.12
228.09	44.12
228.324	41.12
228.559	40.12
228.793	63.12
229.027	89.12
229.262	86.12
229.496	76.12
229.73	76.12
229.964	81.12
230.199	83.12
230.433	74.12
230.667	89.12
230.901	78.12
231.136	78.12
231.37	102.12
231.604	96.12
231.838	117.12
232.072	102.12
232.306	107.12
232.541	103.12
232.775	85.12
233.009	96.12
233.243	118.12
233.477	113.12
233.711	120.12
233.945	130.12
234.179	118.12
234.413	130.12
234.647	130.12
234.881	155.12
235.115	128.12
235.349	143.12
235.583	108.12
235.817	117.12
236.051	116.12
236.285	128.12
236.519	119.12
236.753	135.12
236.987	124.12
237.221	102.12
237.455	134.12
237.689	136.12
237.922	128.12
238.156	121.12
238.39	133.12
238.624	148.12
238.858	148.12
239.091	129.12
239.325	137.12
239.559	135.12
239.793	149.12
240.027	164.12
240.26	164.12
240.494	154.12
240.728	151.12
240.961	167.12
241.195	163.12
241.429	152.12
241.662	164.12
241.896	134.12
242.13	134.12
242.363	141.12
242.597	130.12
242.83	162.12
243.064	147.12
243.298	168.12
243.531	153.12
243.765	168.12
243.998	173.12
244.232	149.12
244.465	150.12
244.699	164.12
244.932	170.12
245.166	164.12
245.399	135.12
245.633	129.12
245.866	154.12
246.099	164.12
246.333	165.12
246.566	191.12
246.8	181.12
247.033	182.12
247.266	170.12
247.5	175.12
247.733	161.12
247.966	174.12
248.2	178.12
248.433	169.12
248.666	168.12
248.899	177.12
249.133	198.12
249.366	221.12
249.599	223.12
249.832	203.12
250.066	198.12
250.299	204.12
250.532	196.12
250.765	196.12
250.998	164.12
251.231	162.12
251.465	181.12
251.698	194.12
251.931	192.12
252.164	192.12
252.397	207.12
252.63	205.12
252.863	223.12
253.096	253.12
253.329	238.12
253.562	223.12
253.795	269.12
254.028	276.12
254.261	295.12
254.494	252.12
254.727	248.12
254.96	240.12
255.193	270.12
255.426	240.12
255.659	198.12
255.892	193.12
256.124	194.12
256.357	229.12
256.59	264.12
256.823	260.12
257.056	229.12
257.289	223.12
257.521	215.12
257.754	234.12
257.987	277.12
258.22	273.12
258.452	222.12
258.685	238.12
258.918	265.12
259.151	252.12
259.383	276.12
259.616	313.12
259.849	327.12
260.081	337.12
260.314	371.12
260.547	299.12
260.779	308.12
261.012	336.12
261.244	320.12
261.477	327.12
261.71	310.12
261.942	266.12
262.175	255.12
262.407	271.12
262.64	261.12
262.872	306.12
263.105	326.12
263.337	349.12
263.57	328.12
263.802	233.12
264.035	206.12
264.267	208.12
264.499	182.12
264.732	170.12
264.964	185.12
265.197	161.12
265.429	181.12
265.661	186.12
265.894	215.12
266.126	213.12
266.358	233.12
266.591	263.12
266.823	302.12
267.055	289.12
267.287	254.12
267.52	264.12
267.752	274.12
267.984	317.12
268.216	285.12
268.448	251.12
268.681	219.12
268.913	256.12
269.145	280.12
269.377	280.12
269.609	292.12
269.841	258.12
270.073	281.12
270.306	290.12
270.538	291.12
270.77	291.12
271.002	295.12
271.234	296.12
271.466	303.12
271.698	308.12
271.93	275.12
272.162	279.12
272.394	274.12
272.626	274.12
272.858	305.12
273.09	311.12
273.322	267.12
273.553	265.12
273.785	287.12
274.017	361.12
274.249	436.12
274.481	473.12
274.713	501.12
274.945	551.12
275.176	582.12
275.408	523.12
275.64	472.12
275.872	470.12
276.104	419.12
276.335	345.12
276.567	369.12
276.799	359.12
277.031	418.12
277.262	324.12
277.494	272.12
277.726	232.12
277.957	271.12
278.189	286.12
278.421	290.12
278.652	279.12
278.884	266.12
279.115	255.12
279.347	230.12
279.579	244.12
279.81	275.12
280.042	251.12
280.273	284.12
280.505	242.12
280.736	218.12
280.968	222.12
281.199	233.12
281.431	269.12
281.662	253.12
281.894	262.12
282.125	261.12
282.356	291.12
282.588	278.12
282.819	247.12
283.051	257.12
283.282	334.12
283.513	363.12
283.745	394.12
283.976	402.12
284.207	376.12
284.439	410.12
284.67	382.12
284.901	341.12
285.132	366.12
285.364	391.12
285.595	357.12
285.826	370.12
286.057	386.12
286.288	390.12
286.52	382.12
286.751	408.12
286.982	399.12
287.213	337.12
287.444	343.12
287.675	358.12
287.906	359.12
288.138	321.12
288.369	287.12
288.6	274.12
288.831	286.12
289.062	307.12
289.293	352.12
289.524	330.12
289.755	328.12
289.986	336.12
290.217	297.12
290.448	249.12
290.679	219.12
290.91	210.12
291.141	215.12
291.371	219.12
291.602	218.12
291.833	230.12
292.064	228.12
292.295	239.12
292.526	254.12
292.757	295.12
292.987	327.12
293.218	307.12
293.449	320.12
293.68	338.12
293.91	337.12
294.141	342.12
294.372	338.12
294.603	296.12
294.833	311.12
295.064	376.12
295.295	361.12
295.525	276.12
295.756	237.12
295.987	211.12
296.217	228.12
296.448	225.12
296.679	210.12
296.909	239.12
297.14	269.12
297.37	290.12
297.601	259.12
297.831	256.12
298.062	274.12
298.292	286.12
298.523	308.12
298.753	340.12
298.984	311.12
299.214	271.12
299.445	236.12
299.675	240.12
299.905	228.12
300.136	233.12
300.366	241.12
300.597	239.12
300.827	244.12
301.057	218.12
301.288	228.12
301.518	220.12
301.748	269.12
301.979	297.12
302.209	277.12
302.439	289.12
302.669	259.12
302.9	251.12
303.13	249.12
303.36	238.12
303.59	253.12
303.82	254.12
304.051	278.12
304.281	288.12
304.511	271.12
304.741	252.12
304.971	255.12
305.201	242.12
305.431	254.12
305.661	233.12
305.891	222.12
306.121	223.12
306.352	217.12
306.582	205.12
306.812	196.12
307.042	187.12
307.272	188.12
307.502	192.12
307.731	193.12
307.961	194.12
308.191	199.12
308.421	203.12
308.651	183.12
308.881	185.12
309.111	183.12
309.341	191.12
309.571	198.12
309.8	208.12
310.03	216.12
310.26	211.12
310.49	200.12
310.72	198.12
310.949	185.12
311.179	198.12
311.409	202.12
311.639	235.12
311.868	281.12
312.098	336.12
312.328	366.12
312.557	358.12
312.787	365.12
313.017	344.12
313.246	346.12
313.476	362.12
313.706	322.12
313.935	270.12
314.165	219.12
314.394	203.12
314.624	205.12
314.853	212.12
315.083	227.12
315.312	220.12
315.542	217.12
315.771	216.12
316.001	215.12
316.23	190.12
316.46	188.12
316.689	200.12
316.919	190.12
317.148	187.12
317.377	199.12
317.607	201.12
317.836	215.12
318.065	228.12
318.295	249.12
318.524	246.12
318.753	201.12
318.983	208.12
319.212	191.12
319.441	209.12
319.67	213.12
319.9	229.12
320.129	238.12
320.358	209.12
320.587	193.12
320.816	210.12
321.046	227.12
321.275	262.12
321.504	265.12
321.733	233.12
321.962	233.12
322.191	252.12
322.42	214.12
322.649	228.12
322.878	252.12
323.108	234.12
323.337	249.12
323.566	238.12
323.795	237.12
324.024	202.12
324.253	210.12
324.482	215.12
324.71	214.12
324.939	245.12
325.168	231.12
325.397	211.12
325.626	208.12
325.855	213.12
326.084	208.12
326.313	211.12
326.542	212.12
326.77	207.12
326.999	209.12
327.228	216.12
327.457	208.12
327.686	215.12
327.914	185.12
328.143	199.12
328.372	191.12
328.6	188.12
328.829	184.12
329.058	195.12
329.287	187.12
329.515	204.12
329.744	209.12
329.972	191.12
330.201	201.12
330.43	217.12
330.658	191.12
330.887	228.12
331.115	223.12
331.344	213.12
331.572	219.12
331.801	201.12
332.03	219.12
332.258	202.12
332.486	223.12
332.715	230.12
332.943	198.12
333.172	211.12
333.4	216.12
333.629	226.12
333.857	246.12
334.085	231.12
334.314	225.12
334.542	221.12
334.771	216.12
334.999	225.12
335.227	206.12
335.455	225.12
335.684	244.12
335.912	268.12
336.14	283.12
336.369	266.12
336.597	268.12
336.825	280.12
337.053	301.12
337.281	265.12
337.51	212.12
337.738	221.12
337.966	226.12
338.194	248.12
338.422	234.12
338.65	232.12
338.878	198.12
339.106	200.12
339.334	233.12
339.562	239.12
339.79	214.12
340.018	198.12
340.246	219.12
340.474	229.12
340.702	235.12
340.93	265.12
341.158	262.12
341.386	248.12
341.614	239.12
341.842	248.12
342.07	236.12
342.298	261.12
342.526	260.12
342.754	246.12
342.981	231.12
343.209	211.12
343.437	231.12
343.665	266.12
343.893	260.12
344.12	276.12
344.348	327.12
344.576	293.12
344.804	250.12
345.031	220.12
345.259	226.12
345.487	213.12
345.714	220.12
345.942	223.12
346.17	244.12
346.397	244.12
346.625	218.12
346.853	201.12
347.08	230.12
347.308	228.12
347.535	242.12
347.763	252.12
347.99	227.12
348.218	231.12
348.445	213.12
348.673	228.12
348.9	215.12
349.128	222.12
349.355	231.12
349.583	230.12
349.81	227.12
350.037	216.12
350.265	206.12
350.492	193.12
350.72	187.12
350.947	194.12
351.174	197.12
351.402	213.12
351.629	221.12
351.856	228.12
352.083	200.12
352.311	210.12
352.538	231.12
352.765	238.12
352.992	217.12
353.22	216.12
353.447	203.12
353.674	213.12
353.901	209.12
354.128	204.12
354.355	210.12
354.583	218.12
354.81	221.12
355.037	231.12
355.264	227.12
355.491	231.12
355.718	226.12
355.945	239.12
356.172	211.12
356.399	225.12
356.626	275.12
356.853	318.12
357.08	311.12
357.307	334.12
357.534	278.12
357.761	281.12
357.988	344.12
358.215	398.12
358.441	366.12
358.668	290.12
358.895	298.12
359.122	254.12
359.349	274.12
359.576	303.12
359.802	251.12
360.029	215.12
360.256	217.12
360.483	265.12
360.709	335.12
360.936	309.12
361.163	286.12
361.39	223.12
361.616	222.12
361.843	229.12
362.07	288.12
362.296	288.12
362.523	230.12
362.749	217.12
362.976	214.12
363.203	254.12
363.429	278.12
363.656	226.12
363.882	199.12
364.109	208.12
364.335	225.12
364.562	218.12
364.788	224.12
365.015	255.12
365.241	247.12
365.468	207.12
365.694	200.12
365.92	209.12
366.147	180.12
366.373	202.12
366.599	172.12
366.826	193.12
367.052	194.12
367.278	189.12
367.505	201.12
367.731	198.12
367.957	214.12
368.184	219.12
368.41	215.12
368.636	214.12
368.862	204.12
369.089	210.12
369.315	196.12
369.541	185.12
369.767	210.12
369.993	205.12
370.219	197.12
370.445	200.12
370.672	207.12
370.898	240.12
371.124	236.12
371.35	232.12
371.576	215.12
371.802	227.12
372.028	243.12
372.254	278.12
372.48	256.12
372.706	228.12
372.932	249.12
373.158	233.12
373.384	262.12
373.61	345.12
373.835	358.12
374.061	283.12
374.287	254.12
374.513	284.12
374.739	330.12
374.965	340.12
375.191	342.12
375.416	256.12
375.642	246.12
375.868	260.12
376.094	290.12
376.319	248.12
376.545	278.12
376.771	259.12
376.997	247.12
377.222	196.12
377.448	198.12
377.674	182.12
377.899	191.12
378.125	192.12
378.35	187.12
378.576	193.12
378.802	198.12
379.027	203.12
379.253	203.12
379.478	217.12
379.704	222.12
379.929	243.12
380.155	242.12
380.38	212.12
380.606	203.12
380.831	231.12
381.057	235.12
381.282	228.12
381.507	268.12
381.733	289.12
381.958	322.12
382.184	295.12
382.409	328.12
382.634	340.12
382.86	343.12
383.085	314.12
383.31	260.12
383.535	284.12
383.761	254.12
383.986	258.12
384.211	295.12
384.436	264.12
384.662	247.12
384.887	234.12
385.112	238.12
385.337	256.12
385.562	228.12
385.787	254.12
386.013	266.12
386.238	276.12
386.463	222.12
386.688	223.12
386.913	218.12
387.138	210.12
387.363	216.12
387.588	231.12
387.813	225.12
388.038	240.12
388.263	238.12
388.488	227.12
388.713	238.12
388.938	254.12
389.163	230.12
389.387	207.12
389.612	195.12
389.837	214.12
390.062	223.12
390.287	238.12
390.512	213.12
390.736	215.12
390.961	216.12
391.186	200.12
391.411	214.12
391.636	207.12
391.86	232.12
392.085	238.12
392.31	245.12
392.534	227.12
392.759	227.12
392.984	227.12
393.208	241.12
393.433	224.12
393.658	188.12
393.882	212.12
394.107	186.12
394.331	199.12
394.556	205.12
394.78	203.12
395.005	186.12
395.229	198.12
395.454	212.12
395.678	196.12
395.903	214.12
396.127	206.12
396.352	206.12
396.576	225.12
396.801	222.12
397.025	238.12
397.249	259.12
397.474	215.12
397.698	230.12
397.922	219.12
398.147	217.12
398.371	214.12
398.595	225.12
398.82	227.12
399.044	238.12
399.268	258.12
399.492	268.12
399.717	269.12
399.941	294.12
400.165	258.12
400.389	244.12
400.613	244.12
400.837	236.12
401.062	222.12
401.286	214.12
401.51	240.12
401.734	220.12
401.958	229.12
402.182	226.12
402.406	233.12
402.63	221.12
402.854	240.12
403.078	294.12
403.302	357.12
403.526	374.12
403.75	316.12
403.974	290.12
404.198	280.12
404.422	307.12
404.645	305.12
404.869	337.12
405.093	256.12
405.317	263.12
405.541	253.12
405.765	242.12
405.988	239.12
406.212	248.12
406.436	281.12
406.66	303.12
406.883	262.12
407.107	277.12
407.331	310.12
407.555	294.12
407.778	285.12
408.002	268.12
408.226	265.12
408.449	253.12
408.673	254.12
408.896	229.12
409.12	228.12
409.344	247.12
409.567	234.12
409.791	242.12
410.014	250.12
410.238	227.12
410.461	240.12
410.685	234.12
410.908	222.12
411.132	243.12
411.355	240.12
411.578	222.12
411.802	223.12
412.025	228.12
412.249	233.12
412.472	234.12
412.695	219.12
412.919	217.12
413.142	234.12
413.365	252.12
413.589	245.12
413.812	238.12
414.035	217.12
414.258	241.12
414.482	254.12
414.705	246.12
414.928	214.12
415.151	193.12
415.374	223.12
415.597	226.12
415.821	213.12
416.044	222.12
416.267	213.12
416.49	221.12
416.713	211.12
416.936	227.12
417.159	224.12
417.382	230.12
417.605	222.12
417.828	230.12
418.051	214.12
418.274	210.12
418.497	227.12
418.72	223.12
418.943	230.12
419.166	257.12
419.389	272.12
419.611	242.12
419.834	266.12
420.057	282.12
420.28	253.12
420.503	232.12
420.726	215.12
420.948	225.12
421.171	225.12
421.394	216.12
421.617	222.12
421.839	234.12
422.062	219.12
422.285	219.12
422.507	203.12
422.73	241.12
422.953	246.12
423.175	255.12
423.398	245.12
423.621	236.12
423.843	264.12
424.066	244.12
424.288	232.12
424.511	232.12
424.733	231.12
424.956	217.12
425.178	240.12
425.401	299.12
425.623	347.12
425.846	298.12
426.068	262.12
426.291	244.12
426.513	230.12
426.735	245.12
426.958	230.12
427.18	278.12
427.402	338.12
427.625	359.12
427.847	301.12
428.069	222.12
428.292	209.12
428.514	212.12
428.736	222.12
428.958	228.12
429.181	284.12
429.403	251.12
429.625	215.12
429.847	202.12
430.069	218.12
430.292	234.12
430.514	212.12
430.736	227.12
430.958	263.12
431.18	240.12
431.402	204.12
431.624	198.12
431.846	188.12
432.068	215.12
432.29	203.12
432.512	230.12
432.734	261.12
432.956	264.12
433.178	218.12
433.4	217.12
433.622	210.12
433.844	220.12
434.066	236.12
434.287	228.12
434.509	230.12
434.731	240.12
434.953	233.12
435.175	248.12
435.397	257.12
435.618	246.12
435.84	206.12
436.062	204.12
436.284	208.12
436.505	216.12
436.727	190.12
436.949	198.12
437.17	215.12
437.392	222.12
437.614	212.12
437.835	214.12
438.057	205.12
438.278	224.12
438.5	287.12
438.721	288.12
438.943	229.12
439.165	198.12
439.386	195.12
439.608	198.12
439.829	213.12
440.05	210.12
440.272	214.12
440.493	244.12
440.715	274.12
440.936	227.12
441.158	226.12
441.379	209.12
441.6	235.12
441.822	247.12
442.043	227.12
442.264	207.12
442.486	236.12
442.707	222.12
442.928	203.12
443.149	224.12
443.371	240.12
443.592	236.12
443.813	253.12
444.034	241.12
444.255	239.12
444.476	247.12
444.698	258.12
444.919	254.12
445.14	335.12
445.361	298.12
445.582	251.12
445.803	234.12
446.024	232.12
446.245	246.12
446.466	233.12
446.687	211.12
446.908	211.12
447.129	217.12
447.35	196.12
447.571	210.12
447.792	191.12
448.013	197.12
448.234	202.12
448.455	199.12
448.675	198.12
448.896	208.12
449.117	199.12
449.338	211.12
449.559	200.12
449.779	216.12
450	211.12
450.221	212.12
450.442	212.12
450.662	203.12
450.883	201.12
451.104	211.12
451.324	208.12
451.545	211.12
451.766	194.12
451.986	202.12
452.207	213.12
452.428	201.12
452.648	210.12
452.869	215.12
453.089	218.12
453.31	206.12
453.53	199.12
453.751	198.12
453.971	198.12
454.192	193.12
454.412	198.12
454.633	212.12
454.853	218.12
455.073	195.12
455.294	187.12
455.514	199.12
455.734	190.12
455.955	192.12
456.175	185.12
456.395	210.12
456.616	215.12
456.836	177.12
457.056	190.12
457.276	190.12
457.497	191.12
457.717	187.12
457.937	172.12
458.157	184.12
458.377	190.12
458.598	190.12
458.818	195.12
459.038	201.12
459.258	192.12
459.478	198.12
459.698	214.12
459.918	229.12
460.138	222.12
460.358	240.12
460.578	230.12
460.798	241.12
461.018	231.12
461.238	225.12
461.458	223.12
461.678	222.12
461.898	256.12
462.118	239.12
462.338	243.12
462.558	241.12
462.777	249.12
462.997	288.12
463.217	284.12
463.437	299.12
463.657	271.12
463.876	254.12
464.096	260.12
464.316	246.12
464.536	260.12
464.755	257.12
464.975	267.12
465.195	244.12
465.414	265.12
465.634	221.12
465.854	250.12
466.073	223.12
466.293	208.12
466.512	233.12
466.732	256.12
466.951	254.12
467.171	224.12
467.391	206.12
467.61	223.12
467.829	199.12
468.049	241.12
468.268	197.12
468.488	222.12
468.707	225.12
468.927	235.12
469.146	251.12
469.365	239.12
469.585	227.12
469.804	223.12
470.023	270.12
470.243	248.12
470.462	211.12
470.681	223.12
470.901	236.12
471.12	223.12
471.339	231.12
471.558	220.12
471.777	209.12
471.997	249.12
472.216	259.12
472.435	266.12
472.654	252.12
472.873	231.12
473.092	230.12
473.311	254.12
473.53	241.12
473.749	234.12
473.968	226.12
474.187	212.12
474.406	200.12
474.625	220.12
474.844	222.12
475.063	224.12
475.282	241.12
475.501	272.12
475.72	281.12
475.939	263.12
476.158	247.12
476.377	287.12
476.596	311.12
476.814	337.12
477.033	267.12
477.252	263.12
477.471	233.12
477.69	246.12
477.908	246.12
478.127	273.12
478.346	262.12
478.564	294.12
478.783	262.12
479.002	261.12
479.22	310.12
479.439	328.12
479.658	283.12
479.876	284.12
480.095	275.12
480.313	290.12
480.532	262.12
480.751	257.12
480.969	261.12
481.188	307.12
481.406	277.12
481.624	283.12
481.843	259.12
482.061	256.12
482.28	259.12
482.498	331.12
482.717	319.12
482.935	266.12
483.153	248.12
483.372	237.12
483.59	260.12
483.808	256.12
484.027	241.12
484.245	246.12
484.463	235.12
484.681	247.12
484.9	248.12
485.118	289.12
485.336	260.12
485.554	248.12
485.772	253.12
485.99	271.12
486.209	284.12
486.427	316.12
486.645	279.12
486.863	272.12
487.081	275.12
487.299	292.12
487.517	305.12
487.735	270.12
487.953	270.12
488.171	289.12
488.389	266.12
488.607	261.12
488.825	272.12
489.043	280.12
489.261	307.12
489.479	321.12
489.696	288.12
489.914	267.12
490.132	260.12
490.35	262.12
490.568	261.12
490.786	264.12
491.003	251.12
491.221	259.12
491.439	252.12
491.657	239.12
491.874	274.12
492.092	291.12
492.31	347.12
492.527	360.12
492.745	309.12
492.963	285.12
493.18	282.12
493.398	281.12
493.615	283.12
493.833	274.12
494.05	280.12
494.268	281.12
494.485	277.12
494.703	268.12
494.92	262.12
495.138	259.12
495.355	270.12
495.573	279.12
495.79	308.12
496.008	355.12
496.225	299.12
496.442	281.12
496.66	285.12
496.877	328.12
497.094	282.12
497.312	293.12
497.529	287.12
497.746	302.12
497.963	313.12
498.181	310.12
498.398	334.12
498.615	325.12
498.832	370.12
499.049	382.12
499.267	376.12
499.484	357.12
499.701	377.12
499.918	444.12
500.135	463.12
500.352	517.12
500.569	523.12
500.786	528.12
501.003	504.12
501.22	467.12
501.437	424.12
501.654	387.12
501.871	373.12
502.088	358.12
502.305	357.12
502.522	326.12
