Data from NickelSpatula_HRD10591_16-34-23-126.txt Node
Date: Mon Jul 22 16:34:23 EDT 2019
User: cochatt
Spectrometer: HR+D1059
Trigger mode: 1
Integration Time (sec): 1.000000E-1
Scans to average: 1
Electric dark correction enabled: true
Nonlinearity correction enabled: false
Boxcar width: 0
XAxis mode: Wavelengths
Number of Pixels in Spectrum: 2048
>>>>>Begin Spectral Data<<<<<
223.165	-9.81
223.4	-9.81
223.635	-9.81
223.869	-15.81
224.104	-19.81
224.338	-0.81
224.573	-16.81
224.808	-17.81
225.042	-2.81
225.277	-13.81
225.511	-0.81
225.746	3.19
225.98	7.19
226.215	-6.81
226.449	9.19
226.683	21.19
226.918	36.19
227.152	28.19
227.387	29.19
227.621	31.19
227.856	37.19
228.09	44.19
228.324	57.19
228.559	53.19
228.793	58.19
229.027	71.19
229.262	71.19
229.496	72.19
229.73	89.19
229.964	83.19
230.199	87.19
230.433	85.19
230.667	85.19
230.901	94.19
231.136	86.19
231.37	104.19
231.604	119.19
231.838	92.19
232.072	112.19
232.306	110.19
232.541	102.19
232.775	103.19
233.009	108.19
233.243	111.19
233.477	124.19
233.711	124.19
233.945	105.19
234.179	99.19
234.413	121.19
234.647	132.19
234.881	136.19
235.115	124.19
235.349	114.19
235.583	117.19
235.817	105.19
236.051	122.19
236.285	127.19
236.519	132.19
236.753	123.19
236.987	124.19
237.221	116.19
237.455	106.19
237.689	128.19
237.922	132.19
238.156	130.19
238.39	156.19
238.624	148.19
238.858	136.19
239.091	138.19
239.325	138.19
239.559	131.19
239.793	145.19
240.027	178.19
240.26	138.19
240.494	134.19
240.728	155.19
240.961	150.19
241.195	152.19
241.429	159.19
241.662	151.19
241.896	134.19
242.13	134.19
242.363	127.19
242.597	129.19
242.83	156.19
243.064	142.19
243.298	162.19
243.531	153.19
243.765	174.19
243.998	164.19
244.232	158.19
244.465	161.19
244.699	168.19
244.932	166.19
245.166	160.19
245.399	140.19
245.633	158.19
245.866	152.19
246.099	168.19
246.333	167.19
246.566	191.19
246.8	173.19
247.033	168.19
247.266	180.19
247.5	163.19
247.733	174.19
247.966	182.19
248.2	177.19
248.433	200.19
248.666	177.19
248.899	168.19
249.133	189.19
249.366	201.19
249.599	236.19
249.832	217.19
250.066	210.19
250.299	189.19
250.532	190.19
250.765	182.19
250.998	188.19
251.231	185.19
251.465	199.19
251.698	182.19
251.931	184.19
252.164	207.19
252.397	216.19
252.63	221.19
252.863	248.19
253.096	243.19
253.329	257.19
253.562	240.19
253.795	266.19
254.028	296.19
254.261	280.19
254.494	260.19
254.727	264.19
254.96	241.19
255.193	262.19
255.426	265.19
255.659	198.19
255.892	196.19
256.124	196.19
256.357	237.19
256.59	261.19
256.823	258.19
257.056	240.19
257.289	208.19
257.521	222.19
257.754	226.19
257.987	281.19
258.22	242.19
258.452	205.19
258.685	248.19
258.918	264.19
259.151	272.19
259.383	276.19
259.616	316.19
259.849	323.19
260.081	321.19
260.314	372.19
260.547	311.19
260.779	313.19
261.012	357.19
261.244	328.19
261.477	345.19
261.71	317.19
261.942	280.19
262.175	273.19
262.407	265.19
262.64	237.19
262.872	303.19
263.105	337.19
263.337	335.19
263.57	309.19
263.802	233.19
264.035	207.19
264.267	217.19
264.499	183.19
264.732	164.19
264.964	183.19
265.197	186.19
265.429	190.19
265.661	194.19
265.894	210.19
266.126	219.19
266.358	224.19
266.591	247.19
266.823	329.19
267.055	308.19
267.287	302.19
267.52	305.19
267.752	311.19
267.984	298.19
268.216	310.19
268.448	264.19
268.681	255.19
268.913	278.19
269.145	284.19
269.377	295.19
269.609	305.19
269.841	277.19
270.073	294.19
270.306	316.19
270.538	303.19
270.77	313.19
271.002	330.19
271.234	310.19
271.466	326.19
271.698	318.19
271.93	291.19
272.162	292.19
272.394	296.19
272.626	284.19
272.858	325.19
273.09	320.19
273.322	277.19
273.553	256.19
273.785	278.19
274.017	350.19
274.249	441.19
274.481	438.19
274.713	529.19
274.945	542.19
275.176	556.19
275.408	537.19
275.64	473.19
275.872	466.19
276.104	438.19
276.335	384.19
276.567	379.19
276.799	379.19
277.031	415.19
277.262	353.19
277.494	279.19
277.726	259.19
277.957	286.19
278.189	317.19
278.421	308.19
278.652	315.19
278.884	296.19
279.115	275.19
279.347	274.19
279.579	267.19
279.81	265.19
280.042	266.19
280.273	297.19
280.505	274.19
280.736	254.19
280.968	239.19
281.199	254.19
281.431	286.19
281.662	270.19
281.894	269.19
282.125	287.19
282.356	295.19
282.588	295.19
282.819	273.19
283.051	297.19
283.282	344.19
283.513	386.19
283.745	424.19
283.976	423.19
284.207	389.19
284.439	415.19
284.67	407.19
284.901	353.19
285.132	373.19
285.364	391.19
285.595	381.19
285.826	402.19
286.057	406.19
286.288	376.19
286.52	391.19
286.751	407.19
286.982	425.19
287.213	378.19
287.444	378.19
287.675	399.19
287.906	376.19
288.138	331.19
288.369	313.19
288.6	283.19
288.831	278.19
289.062	327.19
289.293	336.19
289.524	350.19
289.755	336.19
289.986	348.19
290.217	304.19
290.448	252.19
290.679	239.19
290.91	215.19
291.141	226.19
291.371	213.19
291.602	223.19
291.833	222.19
292.064	241.19
292.295	253.19
292.526	302.19
292.757	303.19
292.987	326.19
293.218	327.19
293.449	346.19
293.68	365.19
293.91	348.19
294.141	359.19
294.372	336.19
294.603	323.19
294.833	337.19
295.064	377.19
295.295	383.19
295.525	304.19
295.756	261.19
295.987	258.19
296.217	218.19
296.448	231.19
296.679	239.19
296.909	260.19
297.14	270.19
297.37	309.19
297.601	274.19
297.831	252.19
298.062	271.19
298.292	293.19
298.523	312.19
298.753	344.19
298.984	323.19
299.214	266.19
299.445	227.19
299.675	242.19
299.905	242.19
300.136	221.19
300.366	245.19
300.597	276.19
300.827	236.19
301.057	211.19
301.288	238.19
301.518	265.19
301.748	268.19
301.979	295.19
302.209	300.19
302.439	313.19
302.669	276.19
302.9	265.19
303.13	266.19
303.36	246.19
303.59	239.19
303.82	249.19
304.051	272.19
304.281	281.19
304.511	304.19
304.741	238.19
304.971	268.19
305.201	293.19
305.431	264.19
305.661	242.19
305.891	239.19
306.121	242.19
306.352	225.19
306.582	201.19
306.812	175.19
307.042	202.19
307.272	191.19
307.502	186.19
307.731	203.19
307.961	200.19
308.191	215.19
308.421	178.19
308.651	189.19
308.881	167.19
309.111	179.19
309.341	193.19
309.571	196.19
309.8	212.19
310.03	219.19
310.26	227.19
310.49	227.19
310.72	195.19
310.949	199.19
311.179	202.19
311.409	209.19
311.639	223.19
311.868	280.19
312.098	366.19
312.328	369.19
312.557	373.19
312.787	398.19
313.017	338.19
313.246	374.19
313.476	398.19
313.706	341.19
313.935	278.19
314.165	229.19
314.394	210.19
314.624	213.19
314.853	237.19
315.083	222.19
315.312	202.19
315.542	231.19
315.771	211.19
316.001	204.19
316.23	203.19
316.46	197.19
316.689	193.19
316.919	189.19
317.148	206.19
317.377	197.19
317.607	192.19
317.836	214.19
318.065	252.19
318.295	257.19
318.524	262.19
318.753	222.19
318.983	206.19
319.212	196.19
319.441	199.19
319.67	238.19
319.9	247.19
320.129	259.19
320.358	217.19
320.587	214.19
320.816	202.19
321.046	252.19
321.275	273.19
321.504	270.19
321.733	271.19
321.962	250.19
322.191	238.19
322.42	237.19
322.649	236.19
322.878	262.19
323.108	259.19
323.337	245.19
323.566	235.19
323.795	233.19
324.024	238.19
324.253	233.19
324.482	217.19
324.71	231.19
324.939	251.19
325.168	244.19
325.397	213.19
325.626	198.19
325.855	209.19
326.084	216.19
326.313	195.19
326.542	215.19
326.77	206.19
326.999	200.19
327.228	208.19
327.457	219.19
327.686	220.19
327.914	196.19
328.143	198.19
328.372	189.19
328.6	200.19
328.829	192.19
329.058	208.19
329.287	193.19
329.515	199.19
329.744	209.19
329.972	181.19
330.201	181.19
330.43	185.19
330.658	202.19
330.887	223.19
331.115	216.19
331.344	230.19
331.572	226.19
331.801	208.19
332.03	194.19
332.258	186.19
332.486	205.19
332.715	218.19
332.943	212.19
333.172	220.19
333.4	217.19
333.629	226.19
333.857	236.19
334.085	237.19
334.314	256.19
334.542	237.19
334.771	212.19
334.999	198.19
335.227	214.19
335.455	201.19
335.684	223.19
335.912	255.19
336.14	288.19
336.369	271.19
336.597	233.19
336.825	270.19
337.053	326.19
337.281	252.19
337.51	214.19
337.738	207.19
337.966	236.19
338.194	231.19
338.422	242.19
338.65	202.19
338.878	198.19
339.106	197.19
339.334	216.19
339.562	227.19
339.79	224.19
340.018	201.19
340.246	223.19
340.474	261.19
340.702	260.19
340.93	273.19
341.158	258.19
341.386	238.19
341.614	217.19
341.842	239.19
342.07	236.19
342.298	265.19
342.526	292.19
342.754	248.19
342.981	243.19
343.209	222.19
343.437	245.19
343.665	248.19
343.893	257.19
344.12	273.19
344.348	337.19
344.576	309.19
344.804	255.19
345.031	219.19
345.259	201.19
345.487	218.19
345.714	215.19
345.942	234.19
346.17	245.19
346.397	243.19
346.625	221.19
346.853	208.19
347.08	198.19
347.308	219.19
347.535	243.19
347.763	257.19
347.99	213.19
348.218	196.19
348.445	210.19
348.673	217.19
348.9	214.19
349.128	229.19
349.355	236.19
349.583	236.19
349.81	229.19
350.037	216.19
350.265	175.19
350.492	188.19
350.72	174.19
350.947	196.19
351.174	198.19
351.402	200.19
351.629	194.19
351.856	197.19
352.083	201.19
352.311	215.19
352.538	217.19
352.765	246.19
352.992	225.19
353.22	242.19
353.447	222.19
353.674	209.19
353.901	215.19
354.128	206.19
354.355	222.19
354.583	202.19
354.81	234.19
355.037	250.19
355.264	224.19
355.491	241.19
355.718	247.19
355.945	242.19
356.172	213.19
356.399	218.19
356.626	282.19
356.853	309.19
357.08	372.19
357.307	372.19
357.534	281.19
357.761	283.19
357.988	344.19
358.215	398.19
358.441	356.19
358.668	318.19
358.895	321.19
359.122	259.19
359.349	244.19
359.576	293.19
359.802	247.19
360.029	222.19
360.256	218.19
360.483	259.19
360.709	320.19
360.936	340.19
361.163	291.19
361.39	246.19
361.616	223.19
361.843	251.19
362.07	274.19
362.296	275.19
362.523	223.19
362.749	213.19
362.976	209.19
363.203	241.19
363.429	263.19
363.656	257.19
363.882	202.19
364.109	221.19
364.335	227.19
364.562	213.19
364.788	218.19
365.015	258.19
365.241	247.19
365.468	216.19
365.694	189.19
365.92	183.19
366.147	179.19
366.373	178.19
366.599	193.19
366.826	184.19
367.052	184.19
367.278	188.19
367.505	179.19
367.731	198.19
367.957	214.19
368.184	223.19
368.41	229.19
368.636	209.19
368.862	221.19
369.089	215.19
369.315	198.19
369.541	188.19
369.767	202.19
369.993	182.19
370.219	200.19
370.445	202.19
370.672	226.19
370.898	228.19
371.124	222.19
371.35	202.19
371.576	183.19
371.802	202.19
372.028	218.19
372.254	261.19
372.48	234.19
372.706	195.19
372.932	229.19
373.158	223.19
373.384	284.19
373.61	322.19
373.835	324.19
374.061	261.19
374.287	250.19
374.513	273.19
374.739	310.19
374.965	324.19
375.191	323.19
375.416	237.19
375.642	203.19
375.868	239.19
376.094	278.19
376.319	221.19
376.545	236.19
376.771	262.19
376.997	259.19
377.222	188.19
377.448	176.19
377.674	162.19
377.899	148.19
378.125	164.19
378.35	179.19
378.576	174.19
378.802	196.19
379.027	201.19
379.253	196.19
379.478	216.19
379.704	214.19
379.929	231.19
380.155	231.19
380.38	200.19
380.606	208.19
380.831	246.19
381.057	240.19
381.282	217.19
381.507	244.19
381.733	272.19
381.958	300.19
382.184	322.19
382.409	320.19
382.634	318.19
382.86	340.19
383.085	286.19
383.31	228.19
383.535	267.19
383.761	262.19
383.986	252.19
384.211	302.19
384.436	284.19
384.662	224.19
384.887	227.19
385.112	210.19
385.337	239.19
385.562	227.19
385.787	236.19
386.013	280.19
386.238	250.19
386.463	205.19
386.688	232.19
386.913	213.19
387.138	194.19
387.363	216.19
387.588	224.19
387.813	215.19
388.038	232.19
388.263	217.19
388.488	210.19
388.713	242.19
388.938	264.19
389.163	211.19
389.387	210.19
389.612	193.19
389.837	197.19
390.062	201.19
390.287	219.19
390.512	212.19
390.736	203.19
390.961	209.19
391.186	195.19
391.411	190.19
391.636	201.19
391.86	193.19
392.085	228.19
392.31	223.19
392.534	210.19
392.759	216.19
392.984	216.19
393.208	209.19
393.433	194.19
393.658	193.19
393.882	184.19
394.107	160.19
394.331	194.19
394.556	190.19
394.78	193.19
395.005	180.19
395.229	204.19
395.454	180.19
395.678	201.19
395.903	205.19
396.127	202.19
396.352	193.19
396.576	222.19
396.801	215.19
397.025	242.19
397.249	224.19
397.474	206.19
397.698	199.19
397.922	217.19
398.147	196.19
398.371	207.19
398.595	223.19
398.82	206.19
399.044	228.19
399.268	222.19
399.492	240.19
399.717	238.19
399.941	241.19
400.165	229.19
400.389	215.19
400.613	247.19
400.837	217.19
401.062	213.19
401.286	199.19
401.51	189.19
401.734	204.19
401.958	218.19
402.182	203.19
402.406	208.19
402.63	217.19
402.854	197.19
403.078	247.19
403.302	294.19
403.526	343.19
403.75	314.19
403.974	230.19
404.198	254.19
404.422	279.19
404.645	288.19
404.869	304.19
405.093	243.19
405.317	223.19
405.541	213.19
405.765	216.19
405.988	234.19
406.212	228.19
406.436	265.19
406.66	286.19
406.883	230.19
407.107	246.19
407.331	275.19
407.555	272.19
407.778	243.19
408.002	229.19
408.226	226.19
408.449	244.19
408.673	232.19
408.896	216.19
409.12	210.19
409.344	210.19
409.567	195.19
409.791	199.19
410.014	203.19
410.238	219.19
410.461	181.19
410.685	199.19
410.908	207.19
411.132	209.19
411.355	217.19
411.578	217.19
411.802	199.19
412.025	200.19
412.249	202.19
412.472	209.19
412.695	211.19
412.919	208.19
413.142	211.19
413.365	222.19
413.589	230.19
413.812	197.19
414.035	200.19
414.258	199.19
414.482	214.19
414.705	233.19
414.928	202.19
415.151	207.19
415.374	194.19
415.597	206.19
415.821	193.19
416.044	199.19
416.267	202.19
416.49	198.19
416.713	196.19
416.936	194.19
417.159	196.19
417.382	197.19
417.605	193.19
417.828	200.19
418.051	207.19
418.274	201.19
418.497	226.19
418.72	205.19
418.943	230.19
419.166	231.19
419.389	228.19
419.611	212.19
419.834	221.19
420.057	241.19
420.28	247.19
420.503	236.19
420.726	201.19
420.948	206.19
421.171	213.19
421.394	212.19
421.617	182.19
421.839	182.19
422.062	214.19
422.285	202.19
422.507	193.19
422.73	223.19
422.953	217.19
423.175	216.19
423.398	220.19
423.621	222.19
423.843	224.19
424.066	212.19
424.288	203.19
424.511	206.19
424.733	213.19
424.956	215.19
425.178	213.19
425.401	280.19
425.623	300.19
425.846	271.19
426.068	212.19
426.291	247.19
426.513	231.19
426.735	201.19
426.958	211.19
427.18	239.19
427.402	321.19
427.625	303.19
427.847	264.19
428.069	201.19
428.292	193.19
428.514	196.19
428.736	188.19
428.958	192.19
429.181	245.19
429.403	236.19
429.625	219.19
429.847	194.19
430.069	199.19
430.292	199.19
430.514	188.19
430.736	195.19
430.958	240.19
431.18	226.19
431.402	181.19
431.624	168.19
431.846	178.19
432.068	177.19
432.29	179.19
432.512	207.19
432.734	247.19
432.956	234.19
433.178	192.19
433.4	193.19
433.622	192.19
433.844	213.19
434.066	220.19
434.287	213.19
434.509	204.19
434.731	230.19
434.953	217.19
435.175	204.19
435.397	237.19
435.618	199.19
435.84	190.19
436.062	186.19
436.284	201.19
436.505	195.19
436.727	180.19
436.949	182.19
437.17	180.19
437.392	206.19
437.614	188.19
437.835	178.19
438.057	181.19
438.278	220.19
438.5	274.19
438.721	287.19
438.943	209.19
439.165	183.19
439.386	174.19
439.608	173.19
439.829	170.19
440.05	184.19
440.272	201.19
440.493	195.19
440.715	253.19
440.936	231.19
441.158	192.19
441.379	194.19
441.6	223.19
441.822	228.19
442.043	193.19
442.264	174.19
442.486	200.19
442.707	171.19
442.928	170.19
443.149	198.19
443.371	193.19
443.592	193.19
443.813	190.19
444.034	175.19
444.255	196.19
444.476	202.19
444.698	216.19
444.919	207.19
445.14	325.19
445.361	276.19
445.582	217.19
445.803	220.19
446.024	221.19
446.245	216.19
446.466	221.19
446.687	205.19
446.908	194.19
447.129	188.19
447.35	178.19
447.571	169.19
447.792	189.19
448.013	166.19
448.234	162.19
448.455	170.19
448.675	181.19
448.896	185.19
449.117	176.19
449.338	190.19
449.559	182.19
449.779	204.19
450	213.19
450.221	202.19
450.442	192.19
450.662	181.19
450.883	178.19
451.104	191.19
451.324	158.19
451.545	165.19
451.766	172.19
451.986	172.19
452.207	185.19
452.428	180.19
452.648	186.19
452.869	194.19
453.089	210.19
453.31	194.19
453.53	169.19
453.751	154.19
453.971	165.19
454.192	175.19
454.412	169.19
454.633	176.19
454.853	182.19
455.073	173.19
455.294	179.19
455.514	174.19
455.734	170.19
455.955	185.19
456.175	182.19
456.395	155.19
456.616	157.19
456.836	167.19
457.056	163.19
457.276	156.19
457.497	176.19
457.717	158.19
457.937	165.19
458.157	167.19
458.377	192.19
458.598	167.19
458.818	173.19
459.038	181.19
459.258	197.19
459.478	180.19
459.698	190.19
459.918	196.19
460.138	207.19
460.358	210.19
460.578	204.19
460.798	193.19
461.018	193.19
461.238	202.19
461.458	191.19
461.678	212.19
461.898	214.19
462.118	208.19
462.338	213.19
462.558	222.19
462.777	213.19
462.997	228.19
463.217	238.19
463.437	229.19
463.657	217.19
463.876	217.19
464.096	219.19
464.316	209.19
464.536	222.19
464.755	237.19
464.975	256.19
465.195	239.19
465.414	239.19
465.634	208.19
465.854	212.19
466.073	183.19
466.293	187.19
466.512	220.19
466.732	238.19
466.951	227.19
467.171	202.19
467.391	188.19
467.61	178.19
467.829	193.19
468.049	200.19
468.268	191.19
468.488	172.19
468.707	184.19
468.927	208.19
469.146	224.19
469.365	213.19
469.585	215.19
469.804	203.19
470.023	230.19
470.243	213.19
470.462	178.19
470.681	204.19
470.901	212.19
471.12	225.19
471.339	218.19
471.558	190.19
471.777	196.19
471.997	207.19
472.216	223.19
472.435	217.19
472.654	209.19
472.873	213.19
473.092	202.19
473.311	222.19
473.53	201.19
473.749	203.19
473.968	203.19
474.187	216.19
474.406	184.19
474.625	199.19
474.844	203.19
475.063	205.19
475.282	213.19
475.501	236.19
475.72	264.19
475.939	248.19
476.158	222.19
476.377	275.19
476.596	291.19
476.814	302.19
477.033	265.19
477.252	218.19
477.471	208.19
477.69	211.19
477.908	209.19
478.127	231.19
478.346	230.19
478.564	295.19
478.783	244.19
479.002	230.19
479.22	261.19
479.439	272.19
479.658	252.19
479.876	226.19
480.095	241.19
480.313	250.19
480.532	224.19
480.751	234.19
480.969	216.19
481.188	255.19
481.406	270.19
481.624	253.19
481.843	218.19
482.061	210.19
482.28	241.19
482.498	296.19
482.717	315.19
482.935	255.19
483.153	233.19
483.372	220.19
483.59	220.19
483.808	207.19
484.027	209.19
484.245	201.19
484.463	199.19
484.681	212.19
484.9	208.19
485.118	245.19
485.336	240.19
485.554	222.19
485.772	231.19
485.99	225.19
486.209	246.19
486.427	261.19
486.645	248.19
486.863	249.19
487.081	260.19
487.299	287.19
487.517	273.19
487.735	243.19
487.953	252.19
488.171	258.19
488.389	228.19
488.607	228.19
488.825	244.19
489.043	257.19
489.261	298.19
489.479	311.19
489.696	259.19
489.914	222.19
490.132	224.19
490.35	228.19
490.568	237.19
490.786	219.19
491.003	234.19
491.221	237.19
491.439	214.19
491.657	209.19
491.874	252.19
492.092	291.19
492.31	374.19
492.527	355.19
492.745	293.19
492.963	255.19
493.18	245.19
493.398	241.19
493.615	264.19
493.833	241.19
494.05	253.19
494.268	238.19
494.485	257.19
494.703	243.19
494.92	243.19
495.138	214.19
495.355	237.19
495.573	228.19
495.79	278.19
496.008	373.19
496.225	302.19
496.442	258.19
496.66	262.19
496.877	261.19
497.094	257.19
497.312	244.19
497.529	273.19
497.746	264.19
497.963	270.19
498.181	276.19
498.398	270.19
498.615	306.19
498.832	310.19
499.049	322.19
499.267	313.19
499.484	319.19
499.701	324.19
499.918	359.19
500.135	386.19
500.352	406.19
500.569	433.19
500.786	438.19
501.003	437.19
501.22	397.19
501.437	356.19
501.654	335.19
501.871	336.19
502.088	314.19
502.305	292.19
502.522	292.19
502.739	308.19
