Data from NickelSpatula.Lamp.E10.P2_HRD10591_11-58-07-530.txt Node
Date: Tue Jul 23 11:58:07 EDT 2019
User: cochatt
Spectrometer: HR+D1059
Trigger mode: 1
Integration Time (sec): 1.000000E-1
Scans to average: 1
Electric dark correction enabled: true
Nonlinearity correction enabled: false
Boxcar width: 0
XAxis mode: Wavelengths
Number of Pixels in Spectrum: 2048
>>>>>Begin Spectral Data<<<<<
223.165	-6.44
223.4	-6.44
223.635	-6.44
223.869	-3.44
224.104	-13.44
224.338	-22.44
224.573	-7.44
224.808	-18.44
225.042	-13.44
225.277	-20.44
225.511	14.56
225.746	0.56
225.98	4.56
226.215	0.56
226.449	2.56
226.683	30.56
226.918	21.56
227.152	30.56
227.387	38.56
227.621	42.56
227.856	53.56
228.09	46.56
228.324	49.56
228.559	52.56
228.793	76.56
229.027	151.56
229.262	144.56
229.496	150.56
229.73	150.56
229.964	195.56
230.199	228.56
230.433	213.56
230.667	212.56
230.901	204.56
231.136	195.56
231.37	216.56
231.604	224.56
231.838	229.56
232.072	247.56
232.306	260.56
232.541	255.56
232.775	247.56
233.009	282.56
233.243	291.56
233.477	290.56
233.711	328.56
233.945	330.56
234.179	307.56
234.413	356.56
234.647	382.56
234.881	466.56
235.115	423.56
235.349	407.56
235.583	367.56
235.817	366.56
236.051	387.56
236.285	405.56
236.519	467.56
236.753	445.56
236.987	437.56
237.221	394.56
237.455	414.56
237.689	437.56
237.922	457.56
238.156	480.56
238.39	544.56
238.624	673.56
238.858	585.56
239.091	491.56
239.325	488.56
239.559	478.56
239.793	549.56
240.027	651.56
240.26	609.56
240.494	580.56
240.728	577.56
240.961	698.56
241.195	657.56
241.429	638.56
241.662	612.56
241.896	529.56
242.13	457.56
242.363	454.56
242.597	480.56
242.83	538.56
243.064	539.56
243.298	612.56
243.531	622.56
243.765	639.56
243.998	633.56
244.232	591.56
244.465	600.56
244.699	582.56
244.932	652.56
245.166	627.56
245.399	555.56
245.633	539.56
245.866	565.56
246.099	617.56
246.333	731.56
246.566	772.56
246.8	787.56
247.033	749.56
247.266	679.56
247.5	706.56
247.733	669.56
247.966	664.56
248.2	696.56
248.433	772.56
248.666	836.56
248.899	850.56
249.133	888.56
249.366	992.56
249.599	1077.56
249.832	942.56
250.066	832.56
250.299	849.56
250.532	839.56
250.765	782.56
250.998	741.56
251.231	695.56
251.465	807.56
251.698	840.56
251.931	811.56
252.164	829.56
252.397	925.56
252.63	1054.56
252.863	1144.56
253.096	1215.56
253.329	1139.56
253.562	1116.56
253.795	1247.56
254.028	1375.56
254.261	1431.56
254.494	1275.56
254.727	1153.56
254.96	1144.56
255.193	1199.56
255.426	1132.56
255.659	873.56
255.892	804.56
256.124	884.56
256.357	1011.56
256.59	1212.56
256.823	1147.56
257.056	976.56
257.289	941.56
257.521	963.56
257.754	1121.56
257.987	1326.56
258.22	1117.56
258.452	1031.56
258.685	1129.56
258.918	1312.56
259.151	1269.56
259.383	1341.56
259.616	1537.56
259.849	1556.56
260.081	1696.56
260.314	1897.56
260.547	1490.56
260.779	1473.56
261.012	1720.56
261.244	1655.56
261.477	1660.56
261.71	1560.56
261.942	1327.56
262.175	1325.56
262.407	1211.56
262.64	1273.56
262.872	1503.56
263.105	1657.56
263.337	1737.56
263.57	1537.56
263.802	1044.56
264.035	931.56
264.267	867.56
264.499	769.56
264.732	716.56
264.964	706.56
265.197	736.56
265.429	778.56
265.661	840.56
265.894	870.56
266.126	956.56
266.358	1040.56
266.591	1250.56
266.823	1536.56
267.055	1467.56
267.287	1250.56
267.52	1234.56
267.752	1331.56
267.984	1457.56
268.216	1369.56
268.448	1114.56
268.681	1116.56
268.913	1236.56
269.145	1304.56
269.377	1282.56
269.609	1312.56
269.841	1199.56
270.073	1330.56
270.306	1392.56
270.538	1368.56
270.77	1407.56
271.002	1431.56
271.234	1472.56
271.466	1516.56
271.698	1427.56
271.93	1447.56
272.162	1463.56
272.394	1433.56
272.626	1413.56
272.858	1458.56
273.09	1478.56
273.322	1330.56
273.553	1267.56
273.785	1496.56
274.017	1985.56
274.249	2448.56
274.481	2523.56
274.713	2747.56
274.945	3206.56
275.176	3289.56
275.408	2938.56
275.64	2657.56
275.872	2675.56
276.104	2235.56
276.335	1916.56
276.567	1911.56
276.799	1975.56
277.031	2080.56
277.262	1577.56
277.494	1243.56
277.726	1223.56
277.957	1364.56
278.189	1510.56
278.421	1510.56
278.652	1469.56
278.884	1338.56
279.115	1263.56
279.347	1208.56
279.579	1225.56
279.81	1186.56
280.042	1217.56
280.273	1251.56
280.505	1177.56
280.736	1010.56
280.968	1037.56
281.199	1145.56
281.431	1274.56
281.662	1247.56
281.894	1209.56
282.125	1271.56
282.356	1357.56
282.588	1380.56
282.819	1262.56
283.051	1414.56
283.282	1705.56
283.513	1995.56
283.745	2223.56
283.976	2195.56
284.207	2043.56
284.439	2108.56
284.67	2056.56
284.901	1793.56
285.132	1947.56
285.364	2067.56
285.595	1895.56
285.826	1997.56
286.057	2043.56
286.288	1971.56
286.52	2007.56
286.751	2127.56
286.982	2144.56
287.213	1879.56
287.444	1781.56
287.675	1857.56
287.906	1871.56
288.138	1575.56
288.369	1346.56
288.6	1308.56
288.831	1375.56
289.062	1589.56
289.293	1675.56
289.524	1644.56
289.755	1627.56
289.986	1659.56
290.217	1459.56
290.448	1113.56
290.679	991.56
290.91	936.56
291.141	945.56
291.371	968.56
291.602	982.56
291.833	984.56
292.064	1070.56
292.295	1225.56
292.526	1421.56
292.757	1467.56
292.987	1585.56
293.218	1583.56
293.449	1637.56
293.68	1719.56
293.91	1621.56
294.141	1648.56
294.372	1520.56
294.603	1412.56
294.833	1611.56
295.064	1869.56
295.295	1745.56
295.525	1350.56
295.756	1180.56
295.987	1024.56
296.217	1022.56
296.448	1054.56
296.679	1096.56
296.909	1235.56
297.14	1319.56
297.37	1431.56
297.601	1395.56
297.831	1201.56
298.062	1240.56
298.292	1457.56
298.523	1571.56
298.753	1790.56
298.984	1593.56
299.214	1263.56
299.445	1079.56
299.675	1041.56
299.905	1008.56
300.136	1100.56
300.366	1201.56
300.597	1150.56
300.827	998.56
301.057	972.56
301.288	984.56
301.518	1063.56
301.748	1217.56
301.979	1340.56
302.209	1428.56
302.439	1428.56
302.669	1257.56
302.9	1238.56
303.13	1141.56
303.36	1086.56
303.59	1069.56
303.82	1095.56
304.051	1244.56
304.281	1359.56
304.511	1289.56
304.741	1169.56
304.971	1182.56
305.201	1295.56
305.431	1224.56
305.661	1101.56
305.891	1083.56
306.121	1112.56
306.352	956.56
306.582	870.56
306.812	837.56
307.042	846.56
307.272	845.56
307.502	809.56
307.731	891.56
307.961	921.56
308.191	846.56
308.421	803.56
308.651	795.56
308.881	799.56
309.111	767.56
309.341	791.56
309.571	881.56
309.8	936.56
310.03	926.56
310.26	985.56
310.49	971.56
310.72	879.56
310.949	846.56
311.179	880.56
311.409	950.56
311.639	1116.56
311.868	1395.56
312.098	1779.56
312.328	1956.56
312.557	1866.56
312.787	1884.56
313.017	1661.56
313.246	1828.56
313.476	2004.56
313.706	1602.56
313.935	1335.56
314.165	1056.56
314.394	968.56
314.624	992.56
314.853	1058.56
315.083	1059.56
315.312	1002.56
315.542	1031.56
315.771	954.56
316.001	873.56
316.23	850.56
316.46	832.56
316.689	870.56
316.919	902.56
317.148	910.56
317.377	858.56
317.607	892.56
317.836	955.56
318.065	1111.56
318.295	1229.56
318.524	1151.56
318.753	996.56
318.983	942.56
319.212	927.56
319.441	1003.56
319.67	1143.56
319.9	1222.56
320.129	1164.56
320.358	983.56
320.587	947.56
320.816	1014.56
321.046	1188.56
321.275	1318.56
321.504	1316.56
321.733	1288.56
321.962	1212.56
322.191	1167.56
322.42	1108.56
322.649	1077.56
322.878	1223.56
323.108	1190.56
323.337	1076.56
323.566	1091.56
323.795	1024.56
324.024	997.56
324.253	963.56
324.482	983.56
324.71	1069.56
324.939	1207.56
325.168	1108.56
325.397	932.56
325.626	921.56
325.855	910.56
326.084	943.56
326.313	871.56
326.542	809.56
326.77	878.56
326.999	915.56
327.228	947.56
327.457	1046.56
327.686	994.56
327.914	895.56
328.143	842.56
328.372	819.56
328.6	864.56
328.829	882.56
329.058	887.56
329.287	895.56
329.515	900.56
329.744	883.56
329.972	856.56
330.201	817.56
330.43	837.56
330.658	971.56
330.887	1068.56
331.115	1070.56
331.344	1003.56
331.572	974.56
331.801	895.56
332.03	847.56
332.258	861.56
332.486	943.56
332.715	984.56
332.943	903.56
333.172	924.56
333.4	926.56
333.629	1012.56
333.857	1107.56
334.085	1125.56
334.314	1101.56
334.542	1057.56
334.771	991.56
334.999	945.56
335.227	913.56
335.455	943.56
335.684	1034.56
335.912	1195.56
336.14	1311.56
336.369	1255.56
336.597	1208.56
336.825	1381.56
337.053	1531.56
337.281	1227.56
337.51	989.56
337.738	971.56
337.966	1072.56
338.194	1159.56
338.422	1089.56
338.65	941.56
338.878	882.56
339.106	912.56
339.334	1004.56
339.562	1104.56
339.79	1001.56
340.018	979.56
340.246	1063.56
340.474	1193.56
340.702	1278.56
340.93	1326.56
341.158	1315.56
341.386	1103.56
341.614	1131.56
341.842	1103.56
342.07	1144.56
342.298	1367.56
342.526	1416.56
342.754	1175.56
342.981	1121.56
343.209	1053.56
343.437	1127.56
343.665	1179.56
343.893	1191.56
344.12	1381.56
344.348	1585.56
344.576	1411.56
344.804	1200.56
345.031	1049.56
345.259	979.56
345.487	973.56
345.714	1041.56
345.942	1121.56
346.17	1174.56
346.397	1118.56
346.625	983.56
346.853	967.56
347.08	953.56
347.308	1016.56
347.535	1139.56
347.763	1141.56
347.99	1016.56
348.218	919.56
348.445	948.56
348.673	991.56
348.9	957.56
349.128	1052.56
349.355	1068.56
349.583	1047.56
349.81	1010.56
350.037	945.56
350.265	827.56
350.492	803.56
350.72	779.56
350.947	826.56
351.174	908.56
351.402	947.56
351.629	971.56
351.856	953.56
352.083	888.56
352.311	998.56
352.538	1091.56
352.765	1116.56
352.992	1037.56
353.22	971.56
353.447	981.56
353.674	919.56
353.901	945.56
354.128	1000.56
354.355	1029.56
354.583	996.56
354.81	968.56
355.037	1020.56
355.264	1019.56
355.491	1058.56
355.718	1193.56
355.945	1149.56
356.172	1099.56
356.399	1083.56
356.626	1327.56
356.853	1617.56
357.08	1720.56
357.307	1754.56
357.534	1370.56
357.761	1397.56
357.988	1710.56
358.215	2086.56
358.441	1909.56
358.668	1654.56
358.895	1485.56
359.122	1229.56
359.349	1214.56
359.576	1299.56
359.802	1101.56
360.029	959.56
360.256	1042.56
360.483	1277.56
360.709	1618.56
360.936	1653.56
361.163	1449.56
361.39	1143.56
361.616	1044.56
361.843	1230.56
362.07	1498.56
362.296	1370.56
362.523	1075.56
362.749	982.56
362.976	973.56
363.203	1190.56
363.429	1311.56
363.656	1125.56
363.882	960.56
364.109	998.56
364.335	1013.56
364.562	960.56
364.788	1115.56
365.015	1322.56
365.241	1141.56
365.468	940.56
365.694	829.56
365.92	808.56
366.147	759.56
366.373	759.56
366.599	788.56
366.826	796.56
367.052	838.56
367.278	817.56
367.505	834.56
367.731	899.56
367.957	1023.56
368.184	1040.56
368.41	1012.56
368.636	1027.56
368.862	1041.56
369.089	997.56
369.315	898.56
369.541	875.56
369.767	885.56
369.993	856.56
370.219	864.56
370.445	913.56
370.672	997.56
370.898	1061.56
371.124	1082.56
371.35	943.56
371.576	882.56
371.802	984.56
372.028	1160.56
372.254	1332.56
372.48	1128.56
372.706	1027.56
372.932	1096.56
373.158	1129.56
373.384	1350.56
373.61	1797.56
373.835	1860.56
374.061	1360.56
374.287	1163.56
374.513	1376.56
374.739	1653.56
374.965	1673.56
375.191	1666.56
375.416	1157.56
375.642	1025.56
375.868	1203.56
376.094	1349.56
376.319	1169.56
376.545	1289.56
376.771	1347.56
376.997	1132.56
377.222	867.56
377.448	737.56
377.674	723.56
377.899	739.56
378.125	746.56
378.35	763.56
378.576	769.56
378.802	870.56
379.027	903.56
379.253	883.56
379.478	916.56
379.704	1033.56
379.929	1088.56
380.155	1102.56
380.38	950.56
380.606	999.56
380.831	1095.56
381.057	1043.56
381.282	992.56
381.507	1161.56
381.733	1456.56
381.958	1515.56
382.184	1629.56
382.409	1684.56
382.634	1674.56
382.86	1753.56
383.085	1459.56
383.31	1142.56
383.535	1237.56
383.761	1231.56
383.986	1138.56
384.211	1423.56
384.436	1372.56
384.662	1078.56
384.887	1027.56
385.112	1035.56
385.337	1052.56
385.562	1005.56
385.787	1067.56
386.013	1221.56
386.238	1279.56
386.463	1051.56
386.688	1021.56
386.913	957.56
387.138	914.56
387.363	986.56
387.588	987.56
387.813	992.56
388.038	1124.56
388.263	993.56
388.488	955.56
388.713	1093.56
388.938	1198.56
389.163	1011.56
389.387	907.56
389.612	924.56
389.837	958.56
390.062	967.56
390.287	1004.56
390.512	1000.56
390.736	957.56
390.961	886.56
391.186	860.56
391.411	847.56
391.636	826.56
391.86	942.56
392.085	997.56
392.31	991.56
392.534	941.56
392.759	916.56
392.984	995.56
393.208	958.56
393.433	881.56
393.658	830.56
393.882	794.56
394.107	795.56
394.331	794.56
394.556	806.56
394.78	830.56
395.005	873.56
395.229	889.56
395.454	862.56
395.678	919.56
395.903	917.56
396.127	900.56
396.352	904.56
396.576	985.56
396.801	966.56
397.025	1115.56
397.249	1140.56
397.474	925.56
397.698	911.56
397.922	991.56
398.147	917.56
398.371	928.56
398.595	976.56
398.82	940.56
399.044	925.56
399.268	1015.56
399.492	1061.56
399.717	1067.56
399.941	1096.56
400.165	1060.56
400.389	1063.56
400.613	1055.56
400.837	1028.56
401.062	921.56
401.286	923.56
401.51	899.56
401.734	918.56
401.958	902.56
402.182	893.56
402.406	923.56
402.63	936.56
402.854	949.56
403.078	1090.56
403.302	1317.56
403.526	1331.56
403.75	1189.56
403.974	1062.56
404.198	1073.56
404.422	1222.56
404.645	1421.56
404.869	1597.56
405.093	1166.56
405.317	987.56
405.541	965.56
405.765	998.56
405.988	1041.56
406.212	1073.56
406.436	1292.56
406.66	1413.56
406.883	1143.56
407.107	1184.56
407.331	1396.56
407.555	1280.56
407.778	1078.56
408.002	1045.56
408.226	1028.56
408.449	1052.56
408.673	1023.56
408.896	949.56
409.12	911.56
409.344	919.56
409.567	879.56
409.791	886.56
410.014	923.56
410.238	884.56
410.461	896.56
410.685	901.56
410.908	931.56
411.132	930.56
411.355	936.56
411.578	949.56
411.802	947.56
412.025	1005.56
412.249	975.56
412.472	935.56
412.695	939.56
412.919	969.56
413.142	984.56
413.365	1064.56
413.589	1076.56
413.812	954.56
414.035	918.56
414.258	927.56
414.482	1031.56
414.705	1080.56
414.928	911.56
415.151	874.56
415.374	896.56
415.597	942.56
415.821	907.56
416.044	877.56
416.267	906.56
416.49	875.56
416.713	854.56
416.936	843.56
417.159	895.56
417.382	913.56
417.605	911.56
417.828	923.56
418.051	923.56
418.274	946.56
418.497	934.56
418.72	929.56
418.943	980.56
419.166	983.56
419.389	1023.56
419.611	998.56
419.834	1009.56
420.057	1105.56
420.28	1086.56
420.503	1028.56
420.726	917.56
420.948	882.56
421.171	879.56
421.394	885.56
421.617	879.56
421.839	887.56
422.062	950.56
422.285	962.56
422.507	941.56
422.73	955.56
422.953	975.56
423.175	960.56
423.398	942.56
423.621	1022.56
423.843	1046.56
424.066	985.56
424.288	949.56
424.511	916.56
424.733	921.56
424.956	934.56
425.178	1078.56
425.401	1218.56
425.623	1375.56
425.846	1161.56
426.068	1008.56
426.291	1147.56
426.513	1007.56
426.735	951.56
426.958	1021.56
427.18	1106.56
427.402	1485.56
427.625	1481.56
427.847	1183.56
428.069	931.56
428.292	917.56
428.514	897.56
428.736	892.56
428.958	947.56
429.181	1107.56
429.403	971.56
429.625	900.56
429.847	899.56
430.069	920.56
430.292	913.56
430.514	898.56
430.736	900.56
430.958	1183.56
431.18	1103.56
431.402	870.56
431.624	836.56
431.846	841.56
432.068	790.56
432.29	825.56
432.512	911.56
432.734	1206.56
432.956	1120.56
433.178	871.56
433.4	851.56
433.622	855.56
433.844	867.56
434.066	933.56
434.287	930.56
434.509	913.56
434.731	949.56
434.953	887.56
435.175	929.56
435.397	1025.56
435.618	895.56
435.84	839.56
436.062	861.56
436.284	875.56
436.505	789.56
436.727	783.56
436.949	803.56
437.17	814.56
437.392	840.56
437.614	846.56
437.835	811.56
438.057	854.56
438.278	976.56
438.5	1407.56
438.721	1360.56
438.943	951.56
439.165	777.56
439.386	755.56
439.608	777.56
439.829	785.56
440.05	781.56
440.272	851.56
440.493	983.56
440.715	1230.56
440.936	976.56
441.158	876.56
441.379	863.56
441.6	1003.56
441.822	1041.56
442.043	887.56
442.264	877.56
442.486	862.56
442.707	880.56
442.928	838.56
443.149	879.56
443.371	912.56
443.592	927.56
443.813	919.56
444.034	912.56
444.255	900.56
444.476	936.56
444.698	920.56
444.919	968.56
445.14	1048.56
445.361	990.56
445.582	953.56
445.803	964.56
446.024	936.56
446.245	957.56
446.466	923.56
446.687	872.56
446.908	873.56
447.129	852.56
447.35	816.56
447.571	795.56
447.792	795.56
448.013	780.56
448.234	791.56
448.455	789.56
448.675	811.56
448.896	813.56
449.117	799.56
449.338	815.56
449.559	816.56
449.779	867.56
450	854.56
450.221	850.56
450.442	827.56
450.662	801.56
450.883	807.56
451.104	843.56
451.324	804.56
451.545	829.56
451.766	799.56
451.986	808.56
452.207	773.56
452.428	782.56
452.648	734.56
452.869	835.56
453.089	867.56
453.31	840.56
453.53	757.56
453.751	748.56
453.971	735.56
454.192	769.56
454.412	796.56
454.633	760.56
454.853	748.56
455.073	736.56
455.294	728.56
455.514	735.56
455.734	806.56
455.955	816.56
456.175	828.56
456.395	769.56
456.616	695.56
456.836	711.56
457.056	710.56
457.276	703.56
457.497	707.56
457.717	710.56
457.937	733.56
458.157	706.56
458.377	709.56
458.598	722.56
458.818	752.56
459.038	821.56
459.258	833.56
459.478	852.56
459.698	914.56
459.918	891.56
460.138	889.56
460.358	899.56
460.578	885.56
460.798	865.56
461.018	883.56
461.238	839.56
461.458	866.56
461.678	886.56
461.898	931.56
462.118	911.56
462.338	958.56
462.558	981.56
462.777	1001.56
462.997	1045.56
463.217	1017.56
463.437	1019.56
463.657	1012.56
463.876	974.56
464.096	988.56
464.316	980.56
464.536	956.56
464.755	1042.56
464.975	1000.56
465.195	955.56
465.414	1019.56
465.634	969.56
465.854	925.56
466.073	862.56
466.293	871.56
466.512	938.56
466.732	1001.56
466.951	1047.56
467.171	920.56
467.391	883.56
467.61	896.56
467.829	949.56
468.049	923.56
468.268	883.56
468.488	879.56
468.707	898.56
468.927	1101.56
469.146	1163.56
469.365	1027.56
469.585	945.56
469.804	1025.56
470.023	1108.56
470.243	986.56
470.462	911.56
470.681	926.56
470.901	947.56
471.12	998.56
471.339	968.56
471.558	923.56
471.777	945.56
471.997	1016.56
472.216	1102.56
472.435	1073.56
472.654	997.56
472.873	966.56
473.092	979.56
473.311	1057.56
473.53	931.56
473.749	937.56
473.968	997.56
474.187	977.56
474.406	949.56
474.625	934.56
474.844	969.56
475.063	1023.56
475.282	1015.56
475.501	1067.56
475.72	1125.56
475.939	1083.56
476.158	1099.56
476.377	1265.56
476.596	1440.56
476.814	1513.56
477.033	1262.56
477.252	1049.56
477.471	991.56
477.69	990.56
477.908	1106.56
478.127	1149.56
478.346	1066.56
478.564	1157.56
478.783	1101.56
479.002	1133.56
479.22	1305.56
479.439	1414.56
479.658	1217.56
479.876	1112.56
480.095	1205.56
480.313	1255.56
480.532	1123.56
480.751	1089.56
480.969	1141.56
481.188	1302.56
481.406	1331.56
481.624	1262.56
481.843	1124.56
482.061	1055.56
482.28	1246.56
482.498	1477.56
482.717	1370.56
482.935	1205.56
483.153	1128.56
483.372	1048.56
483.59	1073.56
483.808	1037.56
484.027	1023.56
484.245	992.56
484.463	993.56
484.681	1028.56
484.9	1101.56
485.118	1160.56
485.336	1103.56
485.554	1049.56
485.772	1087.56
485.99	1175.56
486.209	1269.56
486.427	1225.56
486.645	1199.56
486.863	1243.56
487.081	1223.56
487.299	1363.56
487.517	1355.56
487.735	1229.56
487.953	1256.56
488.171	1259.56
488.389	1183.56
488.607	1120.56
488.825	1176.56
489.043	1250.56
489.261	1443.56
489.479	1515.56
489.696	1288.56
489.914	1192.56
490.132	1133.56
490.35	1114.56
490.568	1166.56
490.786	1137.56
491.003	1135.56
491.221	1195.56
491.439	1153.56
491.657	1113.56
491.874	1203.56
492.092	1505.56
492.31	1812.56
492.527	1768.56
492.745	1517.56
492.963	1320.56
493.18	1319.56
493.398	1320.56
493.615	1267.56
493.833	1232.56
494.05	1244.56
494.268	1264.56
