Data from NickelSpatula.Lamp.E5.5.P2_HRD10591_11-51-44-559.txt Node
Date: Tue Jul 23 11:51:44 EDT 2019
User: cochatt
Spectrometer: HR+D1059
Trigger mode: 1
Integration Time (sec): 1.000000E-1
Scans to average: 1
Electric dark correction enabled: true
Nonlinearity correction enabled: false
Boxcar width: 0
XAxis mode: Wavelengths
Number of Pixels in Spectrum: 2048
>>>>>Begin Spectral Data<<<<<
223.165	-22.38
223.4	-22.38
223.635	-22.38
223.869	-31.38
224.104	-5.38
224.338	-17.38
224.573	-23.38
224.808	-9.38
225.042	-2.38
225.277	-1.38
225.511	-6.38
225.746	3.62
225.98	19.62
226.215	11.62
226.449	12.62
226.683	16.62
226.918	15.62
227.152	39.62
227.387	32.62
227.621	41.62
227.856	50.62
228.09	23.62
228.324	51.62
228.559	45.62
228.793	66.62
229.027	49.62
229.262	73.62
229.496	71.62
229.73	74.62
229.964	76.62
230.199	81.62
230.433	69.62
230.667	92.62
230.901	98.62
231.136	89.62
231.37	110.62
231.604	91.62
231.838	97.62
232.072	108.62
232.306	105.62
232.541	98.62
232.775	95.62
233.009	98.62
233.243	110.62
233.477	113.62
233.711	115.62
233.945	103.62
234.179	108.62
234.413	117.62
234.647	114.62
234.881	136.62
235.115	124.62
235.349	123.62
235.583	97.62
235.817	109.62
236.051	112.62
236.285	121.62
236.519	128.62
236.753	124.62
236.987	127.62
237.221	123.62
237.455	108.62
237.689	130.62
237.922	137.62
238.156	121.62
238.39	148.62
238.624	170.62
238.858	151.62
239.091	149.62
239.325	139.62
239.559	135.62
239.793	150.62
240.027	153.62
240.26	141.62
240.494	158.62
240.728	151.62
240.961	157.62
241.195	176.62
241.429	173.62
241.662	145.62
241.896	129.62
242.13	133.62
242.363	125.62
242.597	129.62
242.83	143.62
243.064	136.62
243.298	140.62
243.531	161.62
243.765	168.62
243.998	146.62
244.232	141.62
244.465	154.62
244.699	146.62
244.932	163.62
245.166	157.62
245.399	151.62
245.633	143.62
245.866	158.62
246.099	159.62
246.333	161.62
246.566	184.62
246.8	192.62
247.033	171.62
247.266	168.62
247.5	170.62
247.733	151.62
247.966	155.62
248.2	162.62
248.433	179.62
248.666	180.62
248.899	194.62
249.133	174.62
249.366	211.62
249.599	212.62
249.832	210.62
250.066	176.62
250.299	184.62
250.532	178.62
250.765	172.62
250.998	160.62
251.231	162.62
251.465	172.62
251.698	177.62
251.931	184.62
252.164	194.62
252.397	219.62
252.63	221.62
252.863	227.62
253.096	257.62
253.329	219.62
253.562	235.62
253.795	252.62
254.028	277.62
254.261	288.62
254.494	236.62
254.727	242.62
254.96	219.62
255.193	240.62
255.426	239.62
255.659	205.62
255.892	183.62
256.124	202.62
256.357	231.62
256.59	265.62
256.823	226.62
257.056	211.62
257.289	199.62
257.521	228.62
257.754	264.62
257.987	267.62
258.22	247.62
258.452	232.62
258.685	234.62
258.918	274.62
259.151	243.62
259.383	286.62
259.616	324.62
259.849	325.62
260.081	335.62
260.314	370.62
260.547	313.62
260.779	299.62
261.012	345.62
261.244	314.62
261.477	308.62
261.71	308.62
261.942	277.62
262.175	266.62
262.407	263.62
262.64	256.62
262.872	290.62
263.105	331.62
263.337	328.62
263.57	314.62
263.802	222.62
264.035	207.62
264.267	201.62
264.499	183.62
264.732	164.62
264.964	167.62
265.197	155.62
265.429	191.62
265.661	183.62
265.894	188.62
266.126	215.62
266.358	224.62
266.591	233.62
266.823	305.62
267.055	281.62
267.287	281.62
267.52	271.62
267.752	281.62
267.984	310.62
268.216	295.62
268.448	259.62
268.681	235.62
268.913	265.62
269.145	232.62
269.377	272.62
269.609	279.62
269.841	250.62
270.073	260.62
270.306	288.62
270.538	282.62
270.77	296.62
271.002	305.62
271.234	304.62
271.466	311.62
271.698	282.62
271.93	273.62
272.162	299.62
272.394	284.62
272.626	263.62
272.858	267.62
273.09	286.62
273.322	251.62
273.553	237.62
273.785	280.62
274.017	360.62
274.249	434.62
274.481	453.62
274.713	476.62
274.945	540.62
275.176	575.62
275.408	507.62
275.64	469.62
275.872	487.62
276.104	388.62
276.335	367.62
276.567	364.62
276.799	373.62
277.031	421.62
277.262	318.62
277.494	240.62
277.726	256.62
277.957	255.62
278.189	297.62
278.421	292.62
278.652	278.62
278.884	279.62
279.115	279.62
279.347	234.62
279.579	275.62
279.81	265.62
280.042	270.62
280.273	261.62
280.505	239.62
280.736	248.62
280.968	227.62
281.199	235.62
281.431	254.62
281.662	271.62
281.894	249.62
282.125	265.62
282.356	271.62
282.588	276.62
282.819	252.62
283.051	268.62
283.282	307.62
283.513	359.62
283.745	401.62
283.976	399.62
284.207	375.62
284.439	385.62
284.67	383.62
284.901	335.62
285.132	353.62
285.364	384.62
285.595	361.62
285.826	395.62
286.057	382.62
286.288	369.62
286.52	369.62
286.751	411.62
286.982	375.62
287.213	354.62
287.444	332.62
287.675	363.62
287.906	372.62
288.138	327.62
288.369	289.62
288.6	265.62
288.831	290.62
289.062	329.62
289.293	328.62
289.524	318.62
289.755	333.62
289.986	323.62
290.217	283.62
290.448	258.62
290.679	227.62
290.91	234.62
291.141	219.62
291.371	242.62
291.602	212.62
291.833	239.62
292.064	229.62
292.295	247.62
292.526	282.62
292.757	282.62
292.987	325.62
293.218	317.62
293.449	343.62
293.68	340.62
293.91	324.62
294.141	359.62
294.372	336.62
294.603	288.62
294.833	345.62
295.064	383.62
295.295	365.62
295.525	288.62
295.756	249.62
295.987	234.62
296.217	207.62
296.448	217.62
296.679	219.62
296.909	263.62
297.14	262.62
297.37	293.62
297.601	276.62
297.831	263.62
298.062	255.62
298.292	287.62
298.523	297.62
298.753	354.62
298.984	318.62
299.214	284.62
299.445	237.62
299.675	228.62
299.905	218.62
300.136	247.62
300.366	247.62
300.597	241.62
300.827	228.62
301.057	226.62
301.288	241.62
301.518	239.62
301.748	268.62
301.979	284.62
302.209	288.62
302.439	297.62
302.669	265.62
302.9	259.62
303.13	257.62
303.36	233.62
303.59	256.62
303.82	255.62
304.051	252.62
304.281	288.62
304.511	271.62
304.741	247.62
304.971	269.62
305.201	283.62
305.431	265.62
305.661	239.62
305.891	247.62
306.121	223.62
306.352	212.62
306.582	191.62
306.812	199.62
307.042	192.62
307.272	184.62
307.502	175.62
307.731	197.62
307.961	194.62
308.191	207.62
308.421	204.62
308.651	201.62
308.881	182.62
309.111	196.62
309.341	188.62
309.571	197.62
309.8	203.62
310.03	217.62
310.26	215.62
310.49	213.62
310.72	225.62
310.949	210.62
311.179	197.62
311.409	208.62
311.639	237.62
311.868	287.62
312.098	337.62
312.328	377.62
312.557	366.62
312.787	385.62
313.017	337.62
313.246	320.62
313.476	379.62
313.706	309.62
313.935	258.62
314.165	233.62
314.394	205.62
314.624	216.62
314.853	226.62
315.083	239.62
315.312	209.62
315.542	226.62
315.771	219.62
316.001	201.62
316.23	209.62
316.46	168.62
316.689	193.62
316.919	198.62
317.148	203.62
317.377	193.62
317.607	206.62
317.836	203.62
318.065	241.62
318.295	257.62
318.524	241.62
318.753	207.62
318.983	221.62
319.212	197.62
319.441	212.62
319.67	233.62
319.9	264.62
320.129	235.62
320.358	203.62
320.587	188.62
320.816	221.62
321.046	234.62
321.275	260.62
321.504	274.62
321.733	269.62
321.962	254.62
322.191	248.62
322.42	213.62
322.649	223.62
322.878	254.62
323.108	243.62
323.337	222.62
323.566	224.62
323.795	219.62
324.024	227.62
324.253	221.62
324.482	220.62
324.71	220.62
324.939	267.62
325.168	256.62
325.397	221.62
325.626	192.62
325.855	208.62
326.084	213.62
326.313	209.62
326.542	189.62
326.77	213.62
326.999	212.62
327.228	221.62
327.457	222.62
327.686	214.62
327.914	202.62
328.143	205.62
328.372	195.62
328.6	209.62
328.829	201.62
329.058	172.62
329.287	197.62
329.515	201.62
329.744	207.62
329.972	217.62
330.201	187.62
330.43	190.62
330.658	208.62
330.887	238.62
331.115	218.62
331.344	225.62
331.572	228.62
331.801	215.62
332.03	200.62
332.258	213.62
332.486	208.62
332.715	229.62
332.943	205.62
333.172	218.62
333.4	227.62
333.629	243.62
333.857	225.62
334.085	241.62
334.314	220.62
334.542	243.62
334.771	234.62
334.999	221.62
335.227	207.62
335.455	212.62
335.684	231.62
335.912	273.62
336.14	266.62
336.369	254.62
336.597	241.62
336.825	283.62
337.053	309.62
337.281	275.62
337.51	219.62
337.738	220.62
337.966	240.62
338.194	243.62
338.422	218.62
338.65	219.62
338.878	206.62
339.106	200.62
339.334	225.62
339.562	233.62
339.79	216.62
340.018	228.62
340.246	231.62
340.474	237.62
340.702	227.62
340.93	267.62
341.158	292.62
341.386	229.62
341.614	244.62
341.842	244.62
342.07	229.62
342.298	258.62
342.526	277.62
342.754	246.62
342.981	243.62
343.209	230.62
343.437	261.62
343.665	256.62
343.893	261.62
344.12	278.62
344.348	320.62
344.576	314.62
344.804	250.62
345.031	210.62
345.259	239.62
345.487	218.62
345.714	221.62
345.942	244.62
346.17	254.62
346.397	262.62
346.625	224.62
346.853	232.62
347.08	217.62
347.308	219.62
347.535	245.62
347.763	279.62
347.99	236.62
348.218	204.62
348.445	224.62
348.673	218.62
348.9	212.62
349.128	252.62
349.355	252.62
349.583	219.62
349.81	243.62
350.037	215.62
350.265	189.62
350.492	187.62
350.72	191.62
350.947	212.62
351.174	204.62
351.402	229.62
351.629	197.62
351.856	207.62
352.083	213.62
352.311	218.62
352.538	220.62
352.765	238.62
352.992	224.62
353.22	223.62
353.447	229.62
353.674	204.62
353.901	203.62
354.128	208.62
354.355	201.62
354.583	236.62
354.81	222.62
355.037	229.62
355.264	223.62
355.491	220.62
355.718	226.62
355.945	237.62
356.172	235.62
356.399	233.62
356.626	267.62
356.853	307.62
357.08	339.62
357.307	346.62
357.534	279.62
357.761	283.62
357.988	361.62
358.215	395.62
358.441	375.62
358.668	311.62
358.895	314.62
359.122	271.62
359.349	270.62
359.576	320.62
359.802	264.62
360.029	214.62
360.256	227.62
360.483	272.62
360.709	323.62
360.936	325.62
361.163	296.62
361.39	243.62
361.616	226.62
361.843	257.62
362.07	295.62
362.296	268.62
362.523	239.62
362.749	220.62
362.976	216.62
363.203	244.62
363.429	272.62
363.656	255.62
363.882	239.62
364.109	224.62
364.335	215.62
364.562	210.62
364.788	231.62
365.015	265.62
365.241	268.62
365.468	237.62
365.694	202.62
365.92	200.62
366.147	176.62
366.373	184.62
366.599	185.62
366.826	210.62
367.052	203.62
367.278	189.62
367.505	192.62
367.731	211.62
367.957	229.62
368.184	234.62
368.41	224.62
368.636	219.62
368.862	230.62
369.089	227.62
369.315	205.62
369.541	207.62
369.767	202.62
369.993	205.62
370.219	191.62
370.445	201.62
370.672	217.62
370.898	250.62
371.124	242.62
371.35	215.62
371.576	213.62
371.802	218.62
372.028	252.62
372.254	296.62
372.48	249.62
372.706	215.62
372.932	227.62
373.158	231.62
373.384	280.62
373.61	348.62
373.835	370.62
374.061	290.62
374.287	249.62
374.513	302.62
374.739	333.62
374.965	317.62
375.191	343.62
375.416	243.62
375.642	240.62
375.868	245.62
376.094	288.62
376.319	272.62
376.545	251.62
376.771	271.62
376.997	267.62
377.222	231.62
377.448	199.62
377.674	178.62
377.899	196.62
378.125	192.62
378.35	173.62
378.576	180.62
378.802	189.62
379.027	222.62
379.253	216.62
379.478	210.62
379.704	219.62
379.929	242.62
380.155	257.62
380.38	219.62
380.606	221.62
380.831	255.62
381.057	259.62
381.282	231.62
381.507	253.62
381.733	312.62
381.958	314.62
382.184	312.62
382.409	349.62
382.634	338.62
382.86	361.62
383.085	300.62
383.31	262.62
383.535	267.62
383.761	282.62
383.986	258.62
384.211	312.62
384.436	312.62
384.662	224.62
384.887	226.62
385.112	257.62
385.337	244.62
385.562	231.62
385.787	262.62
386.013	287.62
386.238	278.62
386.463	246.62
386.688	243.62
386.913	232.62
387.138	204.62
387.363	223.62
387.588	239.62
387.813	226.62
388.038	253.62
388.263	213.62
388.488	218.62
388.713	276.62
388.938	262.62
389.163	223.62
389.387	201.62
389.612	210.62
389.837	231.62
390.062	215.62
390.287	236.62
390.512	222.62
390.736	203.62
390.961	220.62
391.186	225.62
391.411	205.62
391.636	220.62
391.86	222.62
392.085	228.62
392.31	236.62
392.534	224.62
392.759	218.62
392.984	238.62
393.208	228.62
393.433	203.62
393.658	217.62
393.882	208.62
394.107	199.62
394.331	210.62
394.556	213.62
394.78	211.62
395.005	221.62
395.229	201.62
395.454	209.62
395.678	200.62
395.903	237.62
396.127	222.62
396.352	213.62
396.576	226.62
396.801	215.62
397.025	261.62
397.249	238.62
397.474	227.62
397.698	228.62
397.922	249.62
398.147	219.62
398.371	226.62
398.595	234.62
398.82	218.62
399.044	233.62
399.268	249.62
399.492	260.62
399.717	268.62
399.941	279.62
400.165	245.62
400.389	260.62
400.613	249.62
400.837	237.62
401.062	218.62
401.286	216.62
401.51	215.62
401.734	210.62
401.958	248.62
402.182	224.62
402.406	224.62
402.63	241.62
402.854	247.62
403.078	298.62
403.302	343.62
403.526	354.62
403.75	312.62
403.974	279.62
404.198	281.62
404.422	285.62
404.645	315.62
404.869	334.62
405.093	296.62
405.317	240.62
405.541	258.62
405.765	233.62
405.988	237.62
406.212	272.62
406.436	281.62
406.66	315.62
406.883	287.62
407.107	290.62
407.331	323.62
407.555	304.62
407.778	292.62
408.002	271.62
408.226	279.62
408.449	260.62
408.673	270.62
408.896	242.62
409.12	220.62
409.344	233.62
409.567	222.62
409.791	237.62
410.014	234.62
410.238	238.62
410.461	233.62
410.685	223.62
410.908	226.62
411.132	234.62
411.355	220.62
411.578	248.62
411.802	221.62
412.025	231.62
412.249	242.62
412.472	229.62
412.695	235.62
412.919	231.62
413.142	245.62
413.365	242.62
413.589	254.62
413.812	232.62
414.035	224.62
414.258	235.62
414.482	234.62
414.705	263.62
414.928	245.62
415.151	223.62
415.374	226.62
415.597	223.62
415.821	219.62
416.044	235.62
416.267	222.62
416.49	234.62
416.713	212.62
416.936	239.62
417.159	223.62
417.382	208.62
417.605	213.62
417.828	229.62
418.051	232.62
418.274	239.62
418.497	231.62
418.72	239.62
418.943	247.62
419.166	252.62
419.389	248.62
419.611	247.62
419.834	243.62
420.057	246.62
420.28	250.62
420.503	225.62
420.726	228.62
420.948	223.62
421.171	233.62
421.394	225.62
421.617	212.62
421.839	217.62
422.062	232.62
422.285	225.62
422.507	231.62
422.73	254.62
422.953	233.62
423.175	241.62
423.398	233.62
423.621	258.62
423.843	249.62
424.066	246.62
424.288	235.62
424.511	222.62
424.733	222.62
424.956	220.62
425.178	259.62
425.401	304.62
425.623	357.62
425.846	290.62
426.068	239.62
426.291	264.62
426.513	233.62
426.735	252.62
426.958	234.62
427.18	272.62
427.402	314.62
427.625	360.62
427.847	315.62
428.069	229.62
428.292	227.62
428.514	232.62
428.736	226.62
428.958	233.62
429.181	291.62
429.403	244.62
429.625	242.62
429.847	216.62
430.069	201.62
430.292	210.62
430.514	213.62
430.736	231.62
430.958	263.62
431.18	243.62
431.402	217.62
431.624	216.62
431.846	213.62
432.068	207.62
432.29	228.62
432.512	213.62
432.734	276.62
432.956	273.62
433.178	233.62
433.4	210.62
433.622	217.62
433.844	211.62
434.066	247.62
434.287	250.62
434.509	243.62
434.731	250.62
434.953	250.62
435.175	249.62
435.397	271.62
435.618	226.62
435.84	208.62
436.062	200.62
436.284	219.62
436.505	199.62
436.727	209.62
436.949	215.62
437.17	223.62
437.392	210.62
437.614	224.62
437.835	215.62
438.057	217.62
438.278	227.62
438.5	295.62
438.721	315.62
438.943	220.62
439.165	194.62
439.386	194.62
439.608	201.62
439.829	202.62
440.05	217.62
440.272	214.62
440.493	233.62
440.715	274.62
440.936	256.62
441.158	221.62
441.379	241.62
441.6	237.62
441.822	260.62
442.043	231.62
442.264	229.62
442.486	212.62
442.707	227.62
442.928	210.62
443.149	251.62
443.371	221.62
443.592	232.62
443.813	233.62
444.034	204.62
444.255	234.62
444.476	232.62
444.698	250.62
444.919	251.62
445.14	332.62
445.361	280.62
445.582	252.62
445.803	228.62
446.024	253.62
446.245	231.62
446.466	249.62
446.687	236.62
446.908	237.62
447.129	205.62
447.35	202.62
447.571	211.62
447.792	187.62
448.013	203.62
448.234	204.62
448.455	199.62
448.675	201.62
448.896	202.62
449.117	209.62
449.338	207.62
449.559	210.62
449.779	224.62
450	223.62
450.221	208.62
450.442	220.62
450.662	199.62
450.883	214.62
451.104	228.62
451.324	195.62
451.545	200.62
451.766	218.62
451.986	211.62
452.207	193.62
452.428	197.62
452.648	197.62
452.869	218.62
453.089	227.62
453.31	204.62
453.53	203.62
453.751	200.62
453.971	216.62
454.192	202.62
454.412	216.62
454.633	195.62
454.853	203.62
455.073	186.62
455.294	191.62
455.514	192.62
455.734	194.62
455.955	201.62
456.175	222.62
456.395	195.62
456.616	177.62
456.836	175.62
457.056	183.62
457.276	185.62
457.497	173.62
457.717	181.62
457.937	171.62
458.157	179.62
458.377	200.62
458.598	193.62
458.818	195.62
459.038	218.62
459.258	195.62
459.478	222.62
459.698	221.62
459.918	224.62
460.138	221.62
460.358	227.62
460.578	239.62
460.798	231.62
461.018	248.62
461.238	210.62
461.458	216.62
461.678	234.62
461.898	246.62
462.118	215.62
462.338	233.62
462.558	251.62
462.777	256.62
462.997	267.62
463.217	288.62
463.437	270.62
463.657	281.62
463.876	244.62
464.096	240.62
464.316	261.62
464.536	267.62
464.755	268.62
464.975	260.62
465.195	248.62
465.414	254.62
465.634	241.62
465.854	237.62
466.073	211.62
466.293	202.62
466.512	220.62
466.732	240.62
466.951	241.62
467.171	233.62
467.391	209.62
467.61	215.62
467.829	225.62
468.049	227.62
468.268	205.62
468.488	218.62
468.707	225.62
468.927	233.62
469.146	266.62
469.365	241.62
469.585	218.62
469.804	236.62
470.023	258.62
470.243	249.62
470.462	225.62
470.681	240.62
470.901	233.62
471.12	222.62
471.339	237.62
471.558	227.62
471.777	220.62
471.997	226.62
472.216	251.62
472.435	240.62
472.654	221.62
472.873	236.62
473.092	229.62
473.311	235.62
473.53	237.62
473.749	233.62
473.968	248.62
474.187	231.62
474.406	227.62
474.625	212.62
474.844	218.62
475.063	246.62
475.282	239.62
475.501	247.62
475.72	271.62
475.939	242.62
476.158	265.62
476.377	286.62
476.596	320.62
476.814	334.62
477.033	287.62
477.252	235.62
477.471	231.62
477.69	242.62
477.908	244.62
478.127	275.62
478.346	242.62
478.564	283.62
478.783	250.62
479.002	262.62
479.22	289.62
479.439	311.62
479.658	288.62
479.876	255.62
480.095	299.62
480.313	288.62
480.532	277.62
480.751	266.62
480.969	235.62
481.188	299.62
481.406	308.62
481.624	293.62
481.843	261.62
482.061	253.62
482.28	276.62
482.498	337.62
482.717	331.62
482.935	282.62
483.153	252.62
483.372	247.62
483.59	253.62
483.808	223.62
484.027	249.62
484.245	229.62
484.463	235.62
484.681	249.62
484.9	261.62
485.118	264.62
485.336	260.62
485.554	232.62
485.772	270.62
485.99	265.62
486.209	280.62
486.427	269.62
486.645	283.62
486.863	280.62
487.081	265.62
487.299	314.62
487.517	307.62
487.735	279.62
487.953	291.62
488.171	296.62
488.389	256.62
488.607	265.62
488.825	266.62
489.043	279.62
489.261	335.62
489.479	337.62
489.696	274.62
489.914	259.62
490.132	251.62
490.35	258.62
490.568	255.62
490.786	266.62
491.003	229.62
491.221	246.62
491.439	251.62
491.657	257.62
491.874	263.62
492.092	303.62
492.31	357.62
492.527	353.62
492.745	301.62
492.963	271.62
493.18	285.62
493.398	295.62
493.615	286.62
493.833	279.62
494.05	281.62
494.268	291.62
494.485	273.62
494.703	260.62
494.92	272.62
495.138	265.62
495.355	263.62
495.573	303.62
495.79	304.62
496.008	373.62
496.225	327.62
496.442	259.62
496.66	281.62
496.877	318.62
497.094	306.62
497.312	289.62
497.529	282.62
497.746	292.62
497.963	277.62
498.181	312.62
498.398	336.62
498.615	332.62
498.832	367.62
499.049	386.62
499.267	340.62
499.484	378.62
499.701	387.62
499.918	418.62
500.135	479.62
500.352	509.62
500.569	544.62
500.786	559.62
501.003	500.62
501.22	457.62
501.437	412.62
501.654	387.62
501.871	391.62
502.088	369.62
502.305	332.62
502.522	351.62
