Data from NickelSpatula_HRD10591_16-33-39-125.txt Node
Date: Mon Jul 22 16:33:39 EDT 2019
User: cochatt
Spectrometer: HR+D1059
Trigger mode: 1
Integration Time (sec): 1.000000E-1
Scans to average: 1
Electric dark correction enabled: true
Nonlinearity correction enabled: false
Boxcar width: 0
XAxis mode: Wavelengths
Number of Pixels in Spectrum: 2048
>>>>>Begin Spectral Data<<<<<
223.165	-8.94
223.4	-8.94
223.635	-8.94
223.869	-15.94
224.104	-6.94
224.338	-2.94
224.573	-11.94
224.808	2.06
225.042	-10.94
225.277	-15.94
225.511	-18.94
225.746	5.06
225.98	-1.94
226.215	10.06
226.449	16.06
226.683	15.06
226.918	22.06
227.152	24.06
227.387	27.06
227.621	39.06
227.856	43.06
228.09	45.06
228.324	35.06
228.559	56.06
228.793	72.06
229.027	68.06
229.262	78.06
229.496	90.06
229.73	74.06
229.964	99.06
230.199	86.06
230.433	96.06
230.667	103.06
230.901	92.06
231.136	98.06
231.37	84.06
231.604	101.06
231.838	109.06
232.072	96.06
232.306	88.06
232.541	102.06
232.775	97.06
233.009	95.06
233.243	114.06
233.477	123.06
233.711	121.06
233.945	118.06
234.179	112.06
234.413	114.06
234.647	123.06
234.881	119.06
235.115	120.06
235.349	126.06
235.583	116.06
235.817	127.06
236.051	116.06
236.285	119.06
236.519	138.06
236.753	116.06
236.987	118.06
237.221	115.06
237.455	124.06
237.689	134.06
237.922	134.06
238.156	116.06
238.39	149.06
238.624	151.06
238.858	138.06
239.091	138.06
239.325	140.06
239.559	138.06
239.793	124.06
240.027	169.06
240.26	161.06
240.494	144.06
240.728	142.06
240.961	152.06
241.195	142.06
241.429	140.06
241.662	151.06
241.896	142.06
242.13	146.06
242.363	128.06
242.597	134.06
242.83	140.06
243.064	142.06
243.298	166.06
243.531	162.06
243.765	159.06
243.998	158.06
244.232	152.06
244.465	154.06
244.699	147.06
244.932	163.06
245.166	168.06
245.399	138.06
245.633	142.06
245.866	156.06
246.099	160.06
246.333	168.06
246.566	164.06
246.8	191.06
247.033	172.06
247.266	156.06
247.5	168.06
247.733	163.06
247.966	154.06
248.2	151.06
248.433	166.06
248.666	187.06
248.899	178.06
249.133	185.06
249.366	216.06
249.599	219.06
249.832	203.06
250.066	166.06
250.299	193.06
250.532	193.06
250.765	179.06
250.998	174.06
251.231	155.06
251.465	167.06
251.698	184.06
251.931	195.06
252.164	181.06
252.397	203.06
252.63	221.06
252.863	256.06
253.096	249.06
253.329	221.06
253.562	221.06
253.795	259.06
254.028	275.06
254.261	276.06
254.494	236.06
254.727	263.06
254.96	221.06
255.193	236.06
255.426	247.06
255.659	202.06
255.892	182.06
256.124	199.06
256.357	243.06
256.59	248.06
256.823	258.06
257.056	225.06
257.289	203.06
257.521	212.06
257.754	230.06
257.987	278.06
258.22	247.06
258.452	213.06
258.685	248.06
258.918	269.06
259.151	256.06
259.383	261.06
259.616	310.06
259.849	311.06
260.081	319.06
260.314	344.06
260.547	293.06
260.779	274.06
261.012	339.06
261.244	334.06
261.477	328.06
261.71	295.06
261.942	256.06
262.175	270.06
262.407	272.06
262.64	253.06
262.872	278.06
263.105	312.06
263.337	325.06
263.57	291.06
263.802	223.06
264.035	214.06
264.267	201.06
264.499	171.06
264.732	178.06
264.964	172.06
265.197	162.06
265.429	178.06
265.661	186.06
265.894	187.06
266.126	203.06
266.358	220.06
266.591	258.06
266.823	292.06
267.055	286.06
267.287	269.06
267.52	254.06
267.752	273.06
267.984	283.06
268.216	283.06
268.448	238.06
268.681	249.06
268.913	244.06
269.145	243.06
269.377	281.06
269.609	274.06
269.841	245.06
270.073	270.06
270.306	293.06
270.538	294.06
270.77	287.06
271.002	291.06
271.234	301.06
271.466	301.06
271.698	282.06
271.93	292.06
272.162	267.06
272.394	268.06
272.626	278.06
272.858	312.06
273.09	319.06
273.322	264.06
273.553	231.06
273.785	264.06
274.017	346.06
274.249	411.06
274.481	430.06
274.713	476.06
274.945	547.06
275.176	578.06
275.408	506.06
275.64	478.06
275.872	462.06
276.104	406.06
276.335	372.06
276.567	350.06
276.799	368.06
277.031	388.06
277.262	298.06
277.494	270.06
277.726	231.06
277.957	255.06
278.189	292.06
278.421	289.06
278.652	281.06
278.884	260.06
279.115	236.06
279.347	253.06
279.579	248.06
279.81	251.06
280.042	266.06
280.273	253.06
280.505	245.06
280.736	226.06
280.968	216.06
281.199	227.06
281.431	247.06
281.662	258.06
281.894	256.06
282.125	264.06
282.356	274.06
282.588	287.06
282.819	255.06
283.051	270.06
283.282	308.06
283.513	354.06
283.745	399.06
283.976	397.06
284.207	378.06
284.439	390.06
284.67	372.06
284.901	313.06
285.132	335.06
285.364	376.06
285.595	346.06
285.826	370.06
286.057	391.06
286.288	370.06
286.52	354.06
286.751	388.06
286.982	399.06
287.213	346.06
287.444	304.06
287.675	344.06
287.906	348.06
288.138	303.06
288.369	272.06
288.6	268.06
288.831	276.06
289.062	319.06
289.293	349.06
289.524	310.06
289.755	312.06
289.986	312.06
290.217	296.06
290.448	238.06
290.679	208.06
290.91	202.06
291.141	209.06
291.371	213.06
291.602	219.06
291.833	214.06
292.064	223.06
292.295	232.06
292.526	273.06
292.757	262.06
292.987	284.06
293.218	310.06
293.449	315.06
293.68	341.06
293.91	320.06
294.141	324.06
294.372	294.06
294.603	284.06
294.833	314.06
295.064	373.06
295.295	372.06
295.525	290.06
295.756	236.06
295.987	219.06
296.217	208.06
296.448	216.06
296.679	235.06
296.909	242.06
297.14	251.06
297.37	264.06
297.601	260.06
297.831	236.06
298.062	263.06
298.292	295.06
298.523	289.06
298.753	310.06
298.984	299.06
299.214	240.06
299.445	229.06
299.675	209.06
299.905	198.06
300.136	224.06
300.366	225.06
300.597	222.06
300.827	223.06
301.057	191.06
301.288	213.06
301.518	213.06
301.748	231.06
301.979	264.06
302.209	247.06
302.439	263.06
302.669	235.06
302.9	254.06
303.13	250.06
303.36	234.06
303.59	213.06
303.82	217.06
304.051	255.06
304.281	274.06
304.511	264.06
304.741	234.06
304.971	266.06
305.201	254.06
305.431	244.06
305.661	225.06
305.891	212.06
306.121	226.06
306.352	206.06
306.582	191.06
306.812	207.06
307.042	175.06
307.272	197.06
307.502	185.06
307.731	199.06
307.961	207.06
308.191	179.06
308.421	174.06
308.651	181.06
308.881	178.06
309.111	180.06
309.341	189.06
309.571	183.06
309.8	196.06
310.03	207.06
310.26	218.06
310.49	213.06
310.72	197.06
310.949	183.06
311.179	178.06
311.409	218.06
311.639	205.06
311.868	252.06
312.098	333.06
312.328	375.06
312.557	326.06
312.787	335.06
313.017	330.06
313.246	332.06
313.476	378.06
313.706	322.06
313.935	242.06
314.165	214.06
314.394	188.06
314.624	220.06
314.853	223.06
315.083	213.06
315.312	219.06
315.542	204.06
315.771	187.06
316.001	196.06
316.23	175.06
316.46	186.06
316.689	175.06
316.919	172.06
317.148	164.06
317.377	199.06
317.607	190.06
317.836	203.06
318.065	228.06
318.295	242.06
318.524	218.06
318.753	189.06
318.983	205.06
319.212	202.06
319.441	212.06
319.67	217.06
319.9	242.06
320.129	223.06
320.358	214.06
320.587	202.06
320.816	207.06
321.046	220.06
321.275	227.06
321.504	250.06
321.733	244.06
321.962	222.06
322.191	217.06
322.42	214.06
322.649	222.06
322.878	242.06
323.108	239.06
323.337	211.06
323.566	231.06
323.795	215.06
324.024	206.06
324.253	196.06
324.482	185.06
324.71	208.06
324.939	205.06
325.168	213.06
325.397	206.06
325.626	205.06
325.855	202.06
326.084	181.06
326.313	182.06
326.542	174.06
326.77	179.06
326.999	197.06
327.228	201.06
327.457	205.06
327.686	185.06
327.914	187.06
328.143	183.06
328.372	183.06
328.6	194.06
328.829	184.06
329.058	199.06
329.287	174.06
329.515	193.06
329.744	199.06
329.972	182.06
330.201	185.06
330.43	191.06
330.658	188.06
330.887	211.06
331.115	202.06
331.344	216.06
331.572	210.06
331.801	188.06
332.03	177.06
332.258	178.06
332.486	203.06
332.715	207.06
332.943	189.06
333.172	205.06
333.4	200.06
333.629	207.06
333.857	235.06
334.085	248.06
334.314	217.06
334.542	238.06
334.771	193.06
334.999	198.06
335.227	192.06
335.455	207.06
335.684	218.06
335.912	240.06
336.14	263.06
336.369	254.06
336.597	226.06
336.825	256.06
337.053	288.06
337.281	231.06
337.51	195.06
337.738	193.06
337.966	238.06
338.194	247.06
338.422	235.06
338.65	215.06
338.878	194.06
339.106	206.06
339.334	197.06
339.562	211.06
339.79	201.06
340.018	191.06
340.246	222.06
340.474	212.06
340.702	247.06
340.93	246.06
341.158	251.06
341.386	207.06
341.614	207.06
341.842	227.06
342.07	219.06
342.298	228.06
342.526	262.06
342.754	245.06
342.981	218.06
343.209	199.06
343.437	235.06
343.665	241.06
343.893	235.06
344.12	272.06
344.348	297.06
344.576	276.06
344.804	227.06
345.031	218.06
345.259	209.06
345.487	212.06
345.714	213.06
345.942	214.06
346.17	248.06
346.397	232.06
346.625	204.06
346.853	205.06
347.08	185.06
347.308	205.06
347.535	231.06
347.763	242.06
347.99	215.06
348.218	194.06
348.445	194.06
348.673	196.06
348.9	205.06
349.128	202.06
349.355	213.06
349.583	211.06
349.81	205.06
350.037	210.06
350.265	201.06
350.492	177.06
350.72	160.06
350.947	178.06
351.174	173.06
351.402	180.06
351.629	198.06
351.856	200.06
352.083	179.06
352.311	192.06
352.538	208.06
352.765	221.06
352.992	219.06
353.22	195.06
353.447	217.06
353.674	212.06
353.901	199.06
354.128	189.06
354.355	198.06
354.583	186.06
354.81	221.06
355.037	230.06
355.264	202.06
355.491	208.06
355.718	218.06
355.945	219.06
356.172	211.06
356.399	214.06
356.626	223.06
356.853	282.06
357.08	281.06
357.307	302.06
357.534	241.06
357.761	245.06
357.988	292.06
358.215	336.06
358.441	324.06
358.668	303.06
358.895	286.06
359.122	252.06
359.349	224.06
359.576	254.06
359.802	211.06
360.029	197.06
360.256	195.06
360.483	223.06
360.709	253.06
360.936	287.06
361.163	266.06
361.39	212.06
361.616	194.06
361.843	211.06
362.07	258.06
362.296	220.06
362.523	206.06
362.749	179.06
362.976	184.06
363.203	221.06
363.429	229.06
363.656	199.06
363.882	198.06
364.109	190.06
364.335	206.06
364.562	188.06
364.788	202.06
365.015	253.06
365.241	223.06
365.468	195.06
365.694	175.06
365.92	164.06
366.147	159.06
366.373	155.06
366.599	182.06
366.826	169.06
367.052	170.06
367.278	182.06
367.505	160.06
367.731	178.06
367.957	200.06
368.184	212.06
368.41	195.06
368.636	190.06
368.862	212.06
369.089	197.06
369.315	180.06
369.541	173.06
369.767	192.06
369.993	176.06
370.219	176.06
370.445	174.06
370.672	191.06
370.898	229.06
371.124	217.06
371.35	201.06
371.576	192.06
371.802	189.06
372.028	206.06
372.254	232.06
372.48	223.06
372.706	196.06
372.932	219.06
373.158	216.06
373.384	228.06
373.61	291.06
373.835	316.06
374.061	232.06
374.287	212.06
374.513	251.06
374.739	288.06
374.965	283.06
375.191	293.06
375.416	214.06
375.642	192.06
375.868	219.06
376.094	251.06
376.319	219.06
376.545	224.06
376.771	249.06
376.997	220.06
377.222	162.06
377.448	162.06
377.674	171.06
377.899	162.06
378.125	163.06
378.35	173.06
378.576	166.06
378.802	168.06
379.027	186.06
379.253	191.06
379.478	186.06
379.704	201.06
379.929	216.06
380.155	206.06
380.38	206.06
380.606	189.06
380.831	216.06
381.057	216.06
381.282	198.06
381.507	218.06
381.733	264.06
381.958	272.06
382.184	270.06
382.409	285.06
382.634	287.06
382.86	299.06
383.085	258.06
383.31	208.06
383.535	227.06
383.761	248.06
383.986	227.06
384.211	254.06
384.436	237.06
384.662	202.06
384.887	212.06
385.112	216.06
385.337	222.06
385.562	208.06
385.787	216.06
386.013	224.06
386.238	214.06
386.463	205.06
386.688	218.06
386.913	200.06
387.138	180.06
387.363	184.06
387.588	205.06
387.813	212.06
388.038	223.06
388.263	211.06
388.488	214.06
388.713	228.06
388.938	245.06
389.163	208.06
389.387	176.06
389.612	180.06
389.837	188.06
390.062	198.06
390.287	222.06
390.512	226.06
390.736	199.06
390.961	201.06
391.186	187.06
391.411	194.06
391.636	206.06
391.86	190.06
392.085	211.06
392.31	220.06
392.534	214.06
392.759	200.06
392.984	207.06
393.208	210.06
393.433	195.06
393.658	195.06
393.882	196.06
394.107	186.06
394.331	186.06
394.556	179.06
394.78	196.06
395.005	174.06
395.229	184.06
395.454	199.06
395.678	190.06
395.903	207.06
396.127	186.06
396.352	193.06
396.576	204.06
396.801	223.06
397.025	246.06
397.249	239.06
397.474	184.06
397.698	214.06
397.922	219.06
398.147	190.06
398.371	194.06
398.595	214.06
398.82	206.06
399.044	206.06
399.268	228.06
399.492	233.06
399.717	242.06
399.941	230.06
400.165	213.06
400.389	229.06
400.613	221.06
400.837	208.06
401.062	188.06
401.286	209.06
401.51	202.06
401.734	185.06
401.958	209.06
402.182	203.06
402.406	201.06
402.63	200.06
402.854	211.06
403.078	223.06
403.302	262.06
403.526	300.06
403.75	251.06
403.974	232.06
404.198	236.06
404.422	265.06
404.645	262.06
404.869	303.06
405.093	233.06
405.317	224.06
405.541	211.06
405.765	228.06
405.988	213.06
406.212	218.06
406.436	242.06
406.66	273.06
406.883	226.06
407.107	228.06
407.331	267.06
407.555	251.06
407.778	227.06
408.002	229.06
408.226	239.06
408.449	244.06
408.673	223.06
408.896	215.06
409.12	211.06
409.344	208.06
409.567	206.06
409.791	217.06
410.014	188.06
410.238	216.06
410.461	204.06
410.685	207.06
410.908	179.06
411.132	205.06
411.355	222.06
411.578	202.06
411.802	215.06
412.025	222.06
412.249	220.06
412.472	214.06
412.695	217.06
412.919	211.06
413.142	224.06
413.365	216.06
413.589	205.06
413.812	217.06
414.035	212.06
414.258	202.06
414.482	225.06
414.705	229.06
414.928	199.06
415.151	210.06
415.374	205.06
415.597	213.06
415.821	204.06
416.044	194.06
416.267	215.06
416.49	191.06
416.713	189.06
416.936	188.06
417.159	208.06
417.382	202.06
417.605	191.06
417.828	205.06
418.051	203.06
418.274	215.06
418.497	207.06
418.72	205.06
418.943	201.06
419.166	214.06
419.389	218.06
419.611	228.06
419.834	215.06
420.057	234.06
420.28	221.06
420.503	209.06
420.726	196.06
420.948	204.06
421.171	194.06
421.394	197.06
421.617	194.06
421.839	200.06
422.062	203.06
422.285	204.06
422.507	207.06
422.73	199.06
422.953	212.06
423.175	194.06
423.398	197.06
423.621	240.06
423.843	235.06
424.066	208.06
424.288	215.06
424.511	195.06
424.733	205.06
424.956	214.06
425.178	247.06
425.401	250.06
425.623	277.06
425.846	245.06
426.068	205.06
426.291	234.06
426.513	202.06
426.735	197.06
426.958	202.06
427.18	201.06
427.402	293.06
427.625	289.06
427.847	236.06
428.069	209.06
428.292	207.06
428.514	200.06
428.736	184.06
428.958	223.06
429.181	234.06
429.403	214.06
429.625	202.06
429.847	201.06
430.069	192.06
430.292	205.06
430.514	194.06
430.736	200.06
430.958	234.06
431.18	221.06
431.402	174.06
431.624	168.06
431.846	184.06
432.068	194.06
432.29	188.06
432.512	194.06
432.734	212.06
432.956	229.06
433.178	188.06
433.4	197.06
433.622	208.06
433.844	191.06
434.066	212.06
434.287	224.06
434.509	200.06
434.731	205.06
434.953	204.06
435.175	215.06
435.397	229.06
435.618	188.06
435.84	188.06
436.062	201.06
436.284	195.06
436.505	182.06
436.727	190.06
436.949	186.06
437.17	184.06
437.392	186.06
437.614	179.06
437.835	183.06
438.057	192.06
438.278	217.06
438.5	249.06
438.721	270.06
438.943	201.06
439.165	178.06
439.386	184.06
439.608	174.06
439.829	159.06
440.05	166.06
440.272	197.06
440.493	208.06
440.715	237.06
440.936	202.06
441.158	182.06
441.379	199.06
441.6	219.06
441.822	236.06
442.043	195.06
442.264	198.06
442.486	188.06
442.707	194.06
442.928	208.06
443.149	198.06
443.371	187.06
443.592	202.06
443.813	212.06
444.034	195.06
444.255	213.06
444.476	220.06
444.698	197.06
444.919	204.06
445.14	338.06
445.361	269.06
445.582	203.06
445.803	208.06
446.024	198.06
446.245	220.06
446.466	202.06
446.687	188.06
446.908	201.06
447.129	172.06
447.35	186.06
447.571	202.06
447.792	181.06
448.013	168.06
448.234	192.06
448.455	166.06
448.675	178.06
448.896	176.06
449.117	190.06
449.338	190.06
449.559	195.06
449.779	206.06
450	196.06
450.221	195.06
450.442	193.06
450.662	166.06
450.883	190.06
451.104	182.06
451.324	175.06
451.545	186.06
451.766	182.06
451.986	182.06
452.207	160.06
452.428	173.06
452.648	178.06
452.869	178.06
453.089	185.06
453.31	178.06
453.53	178.06
453.751	171.06
453.971	184.06
454.192	171.06
454.412	188.06
454.633	176.06
454.853	184.06
455.073	181.06
455.294	180.06
455.514	179.06
455.734	174.06
455.955	175.06
456.175	197.06
456.395	180.06
456.616	165.06
456.836	166.06
457.056	155.06
457.276	173.06
457.497	171.06
457.717	167.06
457.937	172.06
458.157	170.06
458.377	155.06
458.598	169.06
458.818	171.06
459.038	186.06
459.258	182.06
459.478	194.06
459.698	209.06
459.918	206.06
460.138	207.06
460.358	202.06
460.578	198.06
460.798	207.06
461.018	197.06
461.238	194.06
461.458	204.06
461.678	207.06
461.898	214.06
462.118	208.06
462.338	208.06
462.558	218.06
462.777	219.06
462.997	232.06
463.217	207.06
463.437	222.06
463.657	221.06
463.876	213.06
464.096	230.06
464.316	213.06
464.536	212.06
464.755	222.06
464.975	236.06
465.195	209.06
465.414	239.06
465.634	216.06
465.854	201.06
466.073	191.06
466.293	186.06
466.512	199.06
466.732	227.06
466.951	225.06
467.171	182.06
467.391	182.06
467.61	190.06
467.829	185.06
468.049	195.06
468.268	188.06
468.488	178.06
468.707	178.06
468.927	209.06
469.146	232.06
469.365	210.06
469.585	199.06
469.804	208.06
470.023	214.06
470.243	216.06
470.462	191.06
470.681	209.06
470.901	192.06
471.12	204.06
471.339	211.06
471.558	191.06
471.777	202.06
471.997	214.06
472.216	223.06
472.435	229.06
472.654	187.06
472.873	205.06
473.092	222.06
473.311	196.06
473.53	196.06
473.749	193.06
473.968	196.06
474.187	196.06
474.406	200.06
474.625	208.06
474.844	207.06
475.063	216.06
475.282	206.06
475.501	232.06
475.72	245.06
475.939	226.06
476.158	229.06
476.377	268.06
476.596	279.06
476.814	291.06
477.033	251.06
477.252	233.06
477.471	200.06
477.69	216.06
477.908	227.06
478.127	239.06
478.346	227.06
478.564	266.06
478.783	235.06
479.002	212.06
479.22	253.06
479.439	257.06
479.658	261.06
479.876	226.06
480.095	251.06
480.313	243.06
480.532	230.06
480.751	232.06
480.969	221.06
481.188	247.06
481.406	249.06
481.624	237.06
481.843	221.06
482.061	210.06
482.28	246.06
482.498	294.06
482.717	282.06
482.935	227.06
483.153	236.06
483.372	207.06
483.59	218.06
483.808	204.06
484.027	206.06
484.245	211.06
484.463	207.06
484.681	214.06
484.9	221.06
485.118	249.06
485.336	211.06
485.554	205.06
485.772	224.06
485.99	219.06
486.209	242.06
486.427	238.06
486.645	238.06
486.863	255.06
487.081	240.06
487.299	273.06
487.517	264.06
487.735	239.06
487.953	237.06
488.171	239.06
488.389	216.06
488.607	229.06
488.825	219.06
489.043	232.06
489.261	274.06
489.479	296.06
489.696	245.06
489.914	238.06
490.132	215.06
490.35	219.06
490.568	211.06
490.786	236.06
491.003	218.06
491.221	240.06
491.439	229.06
491.657	228.06
491.874	222.06
492.092	285.06
492.31	335.06
492.527	300.06
492.745	273.06
492.963	243.06
493.18	253.06
493.398	263.06
493.615	245.06
493.833	248.06
494.05	264.06
494.268	255.06
494.485	248.06
494.703	216.06
494.92	239.06
495.138	225.06
495.355	246.06
495.573	242.06
495.79	244.06
496.008	336.06
496.225	278.06
496.442	252.06
496.66	258.06
496.877	262.06
497.094	266.06
497.312	266.06
497.529	253.06
497.746	264.06
497.963	269.06
498.181	294.06
498.398	306.06
498.615	323.06
498.832	335.06
499.049	352.06
499.267	340.06
499.484	321.06
499.701	333.06
499.918	361.06
500.135	392.06
500.352	400.06
500.569	420.06
500.786	417.06
501.003	418.06
501.22	398.06
501.437	358.06
501.654	330.06
501.871	333.06
502.088	325.06
502.305	308.06
502.522	294.06
502.739	291.06
