Data from NickelSpatula.Lamp.E5.5.P2_HRD10591_11-52-48-552.txt Node
Date: Tue Jul 23 11:52:48 EDT 2019
User: cochatt
Spectrometer: HR+D1059
Trigger mode: 1
Integration Time (sec): 1.000000E-1
Scans to average: 1
Electric dark correction enabled: true
Nonlinearity correction enabled: false
Boxcar width: 0
XAxis mode: Wavelengths
Number of Pixels in Spectrum: 2048
>>>>>Begin Spectral Data<<<<<
223.165	-12.44
223.4	-12.44
223.635	-12.44
223.869	-10.44
224.104	-31.44
224.338	-15.44
224.573	-28.44
224.808	-12.44
225.042	-4.44
225.277	-9.44
225.511	-14.44
225.746	11.56
225.98	11.56
226.215	14.56
226.449	18.56
226.683	17.56
226.918	31.56
227.152	33.56
227.387	37.56
227.621	38.56
227.856	37.56
228.09	33.56
228.324	43.56
228.559	58.56
228.793	50.56
229.027	55.56
229.262	72.56
229.496	75.56
229.73	89.56
229.964	81.56
230.199	99.56
230.433	107.56
230.667	103.56
230.901	102.56
231.136	96.56
231.37	95.56
231.604	99.56
231.838	99.56
232.072	97.56
232.306	113.56
232.541	117.56
232.775	102.56
233.009	113.56
233.243	97.56
233.477	113.56
233.711	117.56
233.945	126.56
234.179	111.56
234.413	119.56
234.647	122.56
234.881	137.56
235.115	138.56
235.349	131.56
235.583	120.56
235.817	133.56
236.051	120.56
236.285	133.56
236.519	133.56
236.753	142.56
236.987	119.56
237.221	113.56
237.455	135.56
237.689	145.56
237.922	137.56
238.156	132.56
238.39	151.56
238.624	176.56
238.858	149.56
239.091	133.56
239.325	139.56
239.559	128.56
239.793	141.56
240.027	187.56
240.26	160.56
240.494	158.56
240.728	177.56
240.961	176.56
241.195	164.56
241.429	166.56
241.662	166.56
241.896	142.56
242.13	159.56
242.363	126.56
242.597	147.56
242.83	159.56
243.064	150.56
243.298	163.56
243.531	169.56
243.765	178.56
243.998	168.56
244.232	174.56
244.465	168.56
244.699	161.56
244.932	187.56
245.166	181.56
245.399	157.56
245.633	155.56
245.866	176.56
246.099	167.56
246.333	162.56
246.566	195.56
246.8	192.56
247.033	201.56
247.266	159.56
247.5	192.56
247.733	177.56
247.966	165.56
248.2	151.56
248.433	181.56
248.666	205.56
248.899	212.56
249.133	200.56
249.366	219.56
249.599	243.56
249.832	222.56
250.066	202.56
250.299	204.56
250.532	209.56
250.765	214.56
250.998	187.56
251.231	173.56
251.465	181.56
251.698	189.56
251.931	198.56
252.164	193.56
252.397	207.56
252.63	241.56
252.863	265.56
253.096	264.56
253.329	272.56
253.562	272.56
253.795	281.56
254.028	286.56
254.261	313.56
254.494	299.56
254.727	260.56
254.96	260.56
255.193	280.56
255.426	257.56
255.659	195.56
255.892	204.56
256.124	201.56
256.357	240.56
256.59	246.56
256.823	264.56
257.056	221.56
257.289	212.56
257.521	241.56
257.754	275.56
257.987	306.56
258.22	256.56
258.452	241.56
258.685	266.56
258.918	273.56
259.151	296.56
259.383	302.56
259.616	339.56
259.849	347.56
260.081	358.56
260.314	392.56
260.547	336.56
260.779	311.56
261.012	388.56
261.244	345.56
261.477	354.56
261.71	327.56
261.942	276.56
262.175	281.56
262.407	269.56
262.64	274.56
262.872	343.56
263.105	356.56
263.337	371.56
263.57	335.56
263.802	246.56
264.035	223.56
264.267	205.56
264.499	184.56
264.732	180.56
264.964	183.56
265.197	183.56
265.429	216.56
265.661	198.56
265.894	204.56
266.126	216.56
266.358	243.56
266.591	278.56
266.823	327.56
267.055	319.56
267.287	282.56
267.52	297.56
267.752	288.56
267.984	321.56
268.216	305.56
268.448	250.56
268.681	257.56
268.913	273.56
269.145	297.56
269.377	312.56
269.609	295.56
269.841	285.56
270.073	289.56
270.306	316.56
270.538	317.56
270.77	293.56
271.002	330.56
271.234	335.56
271.466	349.56
271.698	316.56
271.93	293.56
272.162	293.56
272.394	293.56
272.626	296.56
272.858	307.56
273.09	338.56
273.322	291.56
273.553	246.56
273.785	277.56
274.017	383.56
274.249	489.56
274.481	513.56
274.713	535.56
274.945	614.56
275.176	638.56
275.408	559.56
275.64	511.56
275.872	543.56
276.104	465.56
276.335	389.56
276.567	391.56
276.799	394.56
277.031	408.56
277.262	353.56
277.494	286.56
277.726	251.56
277.957	277.56
278.189	311.56
278.421	311.56
278.652	316.56
278.884	307.56
279.115	274.56
279.347	275.56
279.579	265.56
279.81	263.56
280.042	275.56
280.273	280.56
280.505	263.56
280.736	240.56
280.968	220.56
281.199	249.56
281.431	279.56
281.662	286.56
281.894	244.56
282.125	269.56
282.356	298.56
282.588	305.56
282.819	264.56
283.051	293.56
283.282	356.56
283.513	408.56
283.745	444.56
283.976	426.56
284.207	404.56
284.439	427.56
284.67	432.56
284.901	366.56
285.132	384.56
285.364	412.56
285.595	383.56
285.826	417.56
286.057	410.56
286.288	409.56
286.52	405.56
286.751	445.56
286.982	423.56
287.213	368.56
287.444	361.56
287.675	391.56
287.906	365.56
288.138	332.56
288.369	299.56
288.6	278.56
288.831	298.56
289.062	339.56
289.293	365.56
289.524	358.56
289.755	330.56
289.986	335.56
290.217	321.56
290.448	248.56
290.679	227.56
290.91	205.56
291.141	220.56
291.371	245.56
291.602	216.56
291.833	235.56
292.064	237.56
292.295	263.56
292.526	295.56
292.757	302.56
292.987	357.56
293.218	335.56
293.449	345.56
293.68	370.56
293.91	348.56
294.141	361.56
294.372	351.56
294.603	308.56
294.833	348.56
295.064	418.56
295.295	411.56
295.525	297.56
295.756	255.56
295.987	232.56
296.217	239.56
296.448	247.56
296.679	236.56
296.909	261.56
297.14	265.56
297.37	319.56
297.601	303.56
297.831	255.56
298.062	284.56
298.292	313.56
298.523	342.56
298.753	386.56
298.984	323.56
299.214	267.56
299.445	260.56
299.675	236.56
299.905	248.56
300.136	237.56
300.366	264.56
300.597	240.56
300.827	255.56
301.057	241.56
301.288	216.56
301.518	251.56
301.748	273.56
301.979	301.56
302.209	295.56
302.439	313.56
302.669	270.56
302.9	288.56
303.13	276.56
303.36	256.56
303.59	257.56
303.82	255.56
304.051	261.56
304.281	285.56
304.511	279.56
304.741	239.56
304.971	251.56
305.201	293.56
305.431	258.56
305.661	240.56
305.891	262.56
306.121	257.56
306.352	217.56
306.582	192.56
306.812	191.56
307.042	189.56
307.272	205.56
307.502	180.56
307.731	213.56
307.961	220.56
308.191	194.56
308.421	198.56
308.651	184.56
308.881	183.56
309.111	191.56
309.341	201.56
309.571	212.56
309.8	229.56
310.03	213.56
310.26	239.56
310.49	211.56
310.72	204.56
310.949	201.56
311.179	206.56
311.409	212.56
311.639	237.56
311.868	295.56
312.098	381.56
312.328	380.56
312.557	359.56
312.787	379.56
313.017	357.56
313.246	366.56
313.476	399.56
313.706	364.56
313.935	266.56
314.165	236.56
314.394	223.56
314.624	221.56
314.853	241.56
315.083	239.56
315.312	213.56
315.542	217.56
315.771	217.56
316.001	204.56
316.23	191.56
316.46	203.56
316.689	183.56
316.919	200.56
317.148	221.56
317.377	207.56
317.607	206.56
317.836	223.56
318.065	227.56
318.295	235.56
318.524	261.56
318.753	216.56
318.983	195.56
319.212	213.56
319.441	224.56
319.67	239.56
319.9	253.56
320.129	245.56
320.358	229.56
320.587	210.56
320.816	210.56
321.046	253.56
321.275	268.56
321.504	257.56
321.733	265.56
321.962	259.56
322.191	253.56
322.42	231.56
322.649	247.56
322.878	240.56
323.108	230.56
323.337	236.56
323.566	241.56
323.795	235.56
324.024	227.56
324.253	217.56
324.482	214.56
324.71	243.56
324.939	265.56
325.168	256.56
325.397	224.56
325.626	225.56
325.855	207.56
326.084	213.56
326.313	195.56
326.542	198.56
326.77	192.56
326.999	204.56
327.228	207.56
327.457	222.56
327.686	236.56
327.914	198.56
328.143	208.56
328.372	216.56
328.6	187.56
328.829	194.56
329.058	198.56
329.287	205.56
329.515	214.56
329.744	207.56
329.972	189.56
330.201	189.56
330.43	188.56
330.658	228.56
330.887	228.56
331.115	227.56
331.344	228.56
331.572	206.56
331.801	211.56
332.03	188.56
332.258	189.56
332.486	219.56
332.715	230.56
332.943	223.56
333.172	217.56
333.4	231.56
333.629	242.56
333.857	248.56
334.085	261.56
334.314	269.56
334.542	228.56
334.771	213.56
334.999	224.56
335.227	212.56
335.455	235.56
335.684	243.56
335.912	263.56
336.14	293.56
336.369	280.56
336.597	262.56
336.825	291.56
337.053	320.56
337.281	278.56
337.51	227.56
337.738	215.56
337.966	234.56
338.194	262.56
338.422	239.56
338.65	213.56
338.878	221.56
339.106	207.56
339.334	220.56
339.562	226.56
339.79	218.56
340.018	205.56
340.246	199.56
340.474	251.56
340.702	243.56
340.93	273.56
341.158	279.56
341.386	234.56
341.614	241.56
341.842	235.56
342.07	245.56
342.298	274.56
342.526	299.56
342.754	254.56
342.981	220.56
343.209	228.56
343.437	241.56
343.665	253.56
343.893	277.56
344.12	344.56
344.348	348.56
344.576	328.56
344.804	244.56
345.031	212.56
345.259	208.56
345.487	229.56
345.714	228.56
345.942	249.56
346.17	268.56
346.397	264.56
346.625	225.56
346.853	238.56
347.08	187.56
347.308	243.56
347.535	254.56
347.763	259.56
347.99	241.56
348.218	209.56
348.445	213.56
348.673	220.56
348.9	230.56
349.128	229.56
349.355	236.56
349.583	243.56
349.81	222.56
350.037	216.56
350.265	210.56
350.492	184.56
350.72	205.56
350.947	189.56
351.174	206.56
351.402	211.56
351.629	223.56
351.856	197.56
352.083	213.56
352.311	214.56
352.538	228.56
352.765	245.56
352.992	253.56
353.22	220.56
353.447	230.56
353.674	208.56
353.901	216.56
354.128	204.56
354.355	203.56
354.583	220.56
354.81	223.56
355.037	239.56
355.264	212.56
355.491	237.56
355.718	249.56
355.945	221.56
356.172	235.56
356.399	248.56
356.626	262.56
356.853	333.56
357.08	329.56
357.307	359.56
357.534	271.56
357.761	280.56
357.988	353.56
358.215	407.56
358.441	386.56
358.668	328.56
358.895	311.56
359.122	278.56
359.349	274.56
359.576	308.56
359.802	231.56
360.029	222.56
360.256	235.56
360.483	267.56
360.709	336.56
360.936	347.56
361.163	301.56
361.39	239.56
361.616	213.56
361.843	256.56
362.07	293.56
362.296	275.56
362.523	236.56
362.749	209.56
362.976	221.56
363.203	265.56
363.429	265.56
363.656	220.56
363.882	213.56
364.109	225.56
364.335	212.56
364.562	225.56
364.788	251.56
365.015	294.56
365.241	244.56
365.468	198.56
365.694	191.56
365.92	189.56
366.147	198.56
366.373	168.56
366.599	200.56
366.826	185.56
367.052	181.56
367.278	196.56
367.505	180.56
367.731	200.56
367.957	228.56
368.184	228.56
368.41	216.56
368.636	214.56
368.862	250.56
369.089	212.56
369.315	205.56
369.541	204.56
369.767	207.56
369.993	199.56
370.219	192.56
370.445	213.56
370.672	232.56
370.898	242.56
371.124	235.56
371.35	221.56
371.576	191.56
371.802	211.56
372.028	244.56
372.254	292.56
372.48	247.56
372.706	236.56
372.932	233.56
373.158	259.56
373.384	292.56
373.61	369.56
373.835	371.56
374.061	302.56
374.287	241.56
374.513	278.56
374.739	323.56
374.965	353.56
375.191	345.56
375.416	267.56
375.642	243.56
375.868	275.56
376.094	283.56
376.319	269.56
376.545	263.56
376.771	292.56
376.997	242.56
377.222	203.56
377.448	191.56
377.674	179.56
377.899	187.56
378.125	189.56
378.35	179.56
378.576	195.56
378.802	196.56
379.027	218.56
379.253	211.56
379.478	222.56
379.704	242.56
379.929	238.56
380.155	240.56
380.38	219.56
380.606	245.56
380.831	249.56
381.057	247.56
381.282	224.56
381.507	249.56
381.733	285.56
381.958	302.56
382.184	315.56
382.409	342.56
382.634	341.56
382.86	349.56
383.085	311.56
383.31	247.56
383.535	255.56
383.761	282.56
383.986	248.56
384.211	294.56
384.436	295.56
384.662	241.56
384.887	240.56
385.112	247.56
385.337	239.56
385.562	218.56
385.787	255.56
386.013	271.56
386.238	276.56
386.463	232.56
386.688	238.56
386.913	221.56
387.138	215.56
387.363	224.56
387.588	250.56
387.813	235.56
388.038	263.56
388.263	235.56
388.488	223.56
388.713	266.56
388.938	272.56
389.163	245.56
389.387	209.56
389.612	220.56
389.837	209.56
390.062	200.56
390.287	226.56
390.512	235.56
390.736	247.56
390.961	209.56
391.186	205.56
391.411	210.56
391.636	225.56
391.86	239.56
392.085	245.56
392.31	250.56
392.534	221.56
392.759	229.56
392.984	231.56
393.208	229.56
393.433	203.56
393.658	207.56
393.882	209.56
394.107	213.56
394.331	195.56
394.556	201.56
394.78	210.56
395.005	198.56
395.229	204.56
395.454	220.56
395.678	216.56
395.903	220.56
396.127	212.56
396.352	216.56
396.576	230.56
396.801	220.56
397.025	243.56
397.249	273.56
397.474	220.56
397.698	229.56
397.922	230.56
398.147	214.56
398.371	232.56
398.595	220.56
398.82	228.56
399.044	230.56
399.268	255.56
399.492	278.56
399.717	286.56
399.941	286.56
400.165	253.56
400.389	231.56
400.613	264.56
400.837	236.56
401.062	221.56
401.286	219.56
401.51	203.56
401.734	231.56
401.958	229.56
402.182	232.56
402.406	224.56
402.63	238.56
402.854	232.56
403.078	272.56
403.302	345.56
403.526	377.56
403.75	337.56
403.974	255.56
404.198	261.56
404.422	309.56
404.645	313.56
404.869	336.56
405.093	284.56
405.317	239.56
405.541	253.56
405.765	263.56
405.988	254.56
406.212	250.56
406.436	286.56
406.66	311.56
406.883	278.56
407.107	266.56
407.331	324.56
407.555	319.56
407.778	283.56
408.002	262.56
408.226	280.56
408.449	267.56
408.673	259.56
408.896	259.56
409.12	236.56
409.344	238.56
409.567	237.56
409.791	225.56
410.014	239.56
410.238	238.56
410.461	238.56
410.685	236.56
410.908	239.56
411.132	222.56
411.355	235.56
411.578	230.56
411.802	220.56
412.025	231.56
412.249	247.56
412.472	253.56
412.695	246.56
412.919	239.56
413.142	233.56
413.365	246.56
413.589	252.56
413.812	217.56
414.035	237.56
414.258	232.56
414.482	222.56
414.705	236.56
414.928	218.56
415.151	216.56
415.374	214.56
415.597	206.56
415.821	232.56
416.044	229.56
416.267	240.56
416.49	219.56
416.713	224.56
416.936	224.56
417.159	209.56
417.382	228.56
417.605	232.56
417.828	214.56
418.051	224.56
418.274	239.56
418.497	235.56
418.72	253.56
418.943	217.56
419.166	249.56
419.389	257.56
419.611	244.56
419.834	249.56
420.057	269.56
420.28	261.56
420.503	234.56
420.726	231.56
420.948	227.56
421.171	223.56
421.394	226.56
421.617	230.56
421.839	218.56
422.062	240.56
422.285	222.56
422.507	238.56
422.73	211.56
422.953	240.56
423.175	236.56
423.398	244.56
423.621	243.56
423.843	265.56
424.066	231.56
424.288	233.56
424.511	212.56
424.733	242.56
424.956	230.56
425.178	257.56
425.401	281.56
425.623	347.56
425.846	309.56
426.068	237.56
426.291	259.56
426.513	240.56
426.735	227.56
426.958	228.56
427.18	268.56
427.402	339.56
427.625	364.56
427.847	300.56
428.069	235.56
428.292	214.56
428.514	209.56
428.736	208.56
428.958	235.56
429.181	305.56
429.403	253.56
429.625	233.56
429.847	232.56
430.069	221.56
430.292	220.56
430.514	224.56
430.736	233.56
430.958	270.56
431.18	259.56
431.402	218.56
431.624	199.56
431.846	211.56
432.068	215.56
432.29	226.56
432.512	224.56
432.734	247.56
432.956	264.56
433.178	232.56
433.4	221.56
433.622	220.56
433.844	241.56
434.066	248.56
434.287	233.56
434.509	237.56
434.731	233.56
434.953	213.56
435.175	240.56
435.397	265.56
435.618	239.56
435.84	229.56
436.062	220.56
436.284	217.56
436.505	210.56
436.727	193.56
436.949	207.56
437.17	204.56
437.392	211.56
437.614	215.56
437.835	201.56
438.057	200.56
438.278	233.56
438.5	303.56
438.721	313.56
438.943	224.56
439.165	207.56
439.386	200.56
439.608	208.56
439.829	208.56
440.05	201.56
440.272	201.56
440.493	228.56
440.715	268.56
440.936	231.56
441.158	209.56
441.379	220.56
441.6	251.56
441.822	248.56
442.043	228.56
442.264	223.56
442.486	225.56
442.707	216.56
442.928	226.56
443.149	223.56
443.371	224.56
443.592	262.56
443.813	237.56
444.034	238.56
444.255	233.56
444.476	256.56
444.698	244.56
444.919	254.56
445.14	365.56
445.361	291.56
445.582	251.56
445.803	231.56
446.024	231.56
446.245	237.56
446.466	235.56
446.687	210.56
446.908	225.56
447.129	222.56
447.35	212.56
447.571	211.56
447.792	203.56
448.013	205.56
448.234	197.56
448.455	196.56
448.675	202.56
448.896	192.56
449.117	205.56
449.338	196.56
449.559	217.56
449.779	236.56
450	226.56
450.221	222.56
450.442	205.56
450.662	198.56
450.883	216.56
451.104	228.56
451.324	226.56
451.545	204.56
451.766	213.56
451.986	224.56
452.207	206.56
452.428	224.56
452.648	217.56
452.869	209.56
453.089	225.56
453.31	221.56
453.53	211.56
453.751	207.56
453.971	190.56
454.192	212.56
454.412	211.56
454.633	203.56
454.853	192.56
455.073	197.56
455.294	179.56
455.514	184.56
455.734	195.56
455.955	215.56
456.175	209.56
456.395	205.56
456.616	188.56
456.836	179.56
457.056	181.56
457.276	187.56
457.497	187.56
457.717	193.56
457.937	184.56
458.157	190.56
458.377	213.56
458.598	188.56
458.818	204.56
459.038	212.56
459.258	196.56
459.478	214.56
459.698	202.56
459.918	225.56
460.138	229.56
460.358	239.56
460.578	237.56
460.798	224.56
461.018	219.56
461.238	228.56
461.458	228.56
461.678	233.56
461.898	255.56
462.118	226.56
462.338	249.56
462.558	247.56
462.777	263.56
462.997	272.56
463.217	281.56
463.437	290.56
463.657	273.56
463.876	257.56
464.096	267.56
464.316	268.56
464.536	248.56
464.755	283.56
464.975	269.56
465.195	242.56
465.414	252.56
465.634	239.56
465.854	218.56
466.073	198.56
466.293	214.56
466.512	220.56
466.732	255.56
466.951	236.56
467.171	219.56
467.391	216.56
467.61	231.56
467.829	253.56
468.049	230.56
468.268	220.56
468.488	232.56
468.707	225.56
468.927	255.56
469.146	273.56
469.365	272.56
469.585	225.56
469.804	261.56
470.023	267.56
470.243	263.56
470.462	254.56
470.681	233.56
470.901	239.56
471.12	245.56
471.339	246.56
471.558	227.56
471.777	211.56
471.997	245.56
472.216	274.56
472.435	257.56
472.654	232.56
472.873	237.56
473.092	249.56
473.311	236.56
473.53	241.56
473.749	216.56
473.968	248.56
474.187	230.56
474.406	249.56
474.625	225.56
474.844	238.56
475.063	239.56
475.282	237.56
475.501	263.56
475.72	279.56
475.939	248.56
476.158	260.56
476.377	291.56
476.596	341.56
476.814	345.56
477.033	299.56
477.252	248.56
477.471	228.56
477.69	235.56
477.908	260.56
478.127	280.56
478.346	250.56
478.564	284.56
478.783	255.56
479.002	302.56
479.22	309.56
479.439	315.56
479.658	296.56
479.876	231.56
480.095	271.56
480.313	291.56
480.532	273.56
480.751	266.56
480.969	260.56
481.188	275.56
481.406	293.56
481.624	274.56
481.843	265.56
482.061	255.56
482.28	273.56
482.498	346.56
482.717	330.56
482.935	284.56
483.153	282.56
483.372	236.56
483.59	254.56
483.808	238.56
484.027	244.56
484.245	243.56
484.463	238.56
484.681	244.56
484.9	262.56
485.118	260.56
485.336	247.56
485.554	253.56
485.772	257.56
485.99	272.56
486.209	295.56
486.427	291.56
486.645	284.56
486.863	285.56
487.081	307.56
487.299	293.56
487.517	275.56
487.735	257.56
487.953	286.56
488.171	294.56
488.389	283.56
488.607	240.56
488.825	252.56
489.043	289.56
489.261	307.56
489.479	335.56
489.696	279.56
489.914	258.56
490.132	272.56
490.35	256.56
490.568	264.56
490.786	262.56
491.003	272.56
491.221	279.56
491.439	260.56
491.657	273.56
491.874	260.56
492.092	324.56
492.31	363.56
492.527	363.56
492.745	328.56
492.963	305.56
493.18	288.56
493.398	288.56
493.615	280.56
493.833	285.56
494.05	275.56
494.268	279.56
494.485	283.56
494.703	253.56
494.92	301.56
495.138	259.56
495.355	281.56
495.573	299.56
495.79	307.56
496.008	354.56
496.225	307.56
496.442	287.56
496.66	303.56
496.877	314.56
497.094	297.56
497.312	284.56
497.529	291.56
497.746	288.56
497.963	291.56
498.181	321.56
498.398	348.56
498.615	348.56
498.832	377.56
499.049	363.56
499.267	351.56
499.484	381.56
499.701	407.56
499.918	441.56
500.135	483.56
500.352	506.56
500.569	527.56
500.786	533.56
501.003	501.56
501.22	465.56
501.437	418.56
501.654	388.56
501.871	353.56
502.088	371.56
502.305	337.56
502.522	349.56
