Data from NickelSpatula_HRD10591_16-36-40-127.txt Node
Date: Mon Jul 22 16:36:40 EDT 2019
User: cochatt
Spectrometer: HR+D1059
Trigger mode: 1
Integration Time (sec): 1.000000E-1
Scans to average: 1
Electric dark correction enabled: true
Nonlinearity correction enabled: false
Boxcar width: 0
XAxis mode: Wavelengths
Number of Pixels in Spectrum: 2048
>>>>>Begin Spectral Data<<<<<
223.165	-15.62
223.4	-15.62
223.635	-15.62
223.869	-24.62
224.104	-8.62
224.338	-7.62
224.573	-15.62
224.808	-12.62
225.042	-3.62
225.277	-1.62
225.511	-8.62
225.746	8.38
225.98	-1.62
226.215	-0.62
226.449	20.38
226.683	19.38
226.918	18.38
227.152	34.38
227.387	37.38
227.621	51.38
227.856	48.38
228.09	40.38
228.324	48.38
228.559	47.38
228.793	63.38
229.027	65.38
229.262	78.38
229.496	63.38
229.73	71.38
229.964	73.38
230.199	93.38
230.433	83.38
230.667	86.38
230.901	88.38
231.136	92.38
231.37	80.38
231.604	89.38
231.838	86.38
232.072	100.38
232.306	101.38
232.541	96.38
232.775	80.38
233.009	85.38
233.243	95.38
233.477	108.38
233.711	83.38
233.945	84.38
234.179	85.38
234.413	108.38
234.647	83.38
234.881	98.38
235.115	106.38
235.349	100.38
235.583	95.38
235.817	82.38
236.051	102.38
236.285	82.38
236.519	89.38
236.753	93.38
236.987	82.38
237.221	92.38
237.455	117.38
237.689	94.38
237.922	103.38
238.156	94.38
238.39	90.38
238.624	96.38
238.858	96.38
239.091	111.38
239.325	100.38
239.559	99.38
239.793	97.38
240.027	107.38
240.26	107.38
240.494	106.38
240.728	93.38
240.961	105.38
241.195	109.38
241.429	104.38
241.662	118.38
241.896	104.38
242.13	98.38
242.363	97.38
242.597	103.38
242.83	105.38
243.064	98.38
243.298	100.38
243.531	86.38
243.765	109.38
243.998	118.38
244.232	105.38
244.465	105.38
244.699	95.38
244.932	107.38
245.166	101.38
245.399	111.38
245.633	97.38
245.866	96.38
246.099	111.38
246.333	113.38
246.566	98.38
246.8	111.38
247.033	102.38
247.266	102.38
247.5	117.38
247.733	99.38
247.966	87.38
248.2	103.38
248.433	100.38
248.666	119.38
248.899	120.38
249.133	107.38
249.366	122.38
249.599	121.38
249.832	102.38
250.066	122.38
250.299	117.38
250.532	106.38
250.765	111.38
250.998	104.38
251.231	103.38
251.465	118.38
251.698	117.38
251.931	124.38
252.164	96.38
252.397	117.38
252.63	112.38
252.863	132.38
253.096	127.38
253.329	113.38
253.562	120.38
253.795	128.38
254.028	133.38
254.261	139.38
254.494	129.38
254.727	124.38
254.96	113.38
255.193	124.38
255.426	124.38
255.659	112.38
255.892	107.38
256.124	119.38
256.357	109.38
256.59	130.38
256.823	116.38
257.056	119.38
257.289	138.38
257.521	122.38
257.754	103.38
257.987	127.38
258.22	124.38
258.452	108.38
258.685	119.38
258.918	130.38
259.151	124.38
259.383	125.38
259.616	134.38
259.849	142.38
260.081	149.38
260.314	135.38
260.547	146.38
260.779	142.38
261.012	139.38
261.244	151.38
261.477	146.38
261.71	135.38
261.942	138.38
262.175	123.38
262.407	129.38
262.64	140.38
262.872	144.38
263.105	142.38
263.337	151.38
263.57	141.38
263.802	107.38
264.035	124.38
264.267	112.38
264.499	102.38
264.732	102.38
264.964	110.38
265.197	120.38
265.429	107.38
265.661	111.38
265.894	118.38
266.126	113.38
266.358	123.38
266.591	129.38
266.823	129.38
267.055	129.38
267.287	129.38
267.52	132.38
267.752	125.38
267.984	141.38
268.216	141.38
268.448	130.38
268.681	128.38
268.913	126.38
269.145	128.38
269.377	126.38
269.609	133.38
269.841	117.38
270.073	126.38
270.306	141.38
270.538	152.38
270.77	134.38
271.002	132.38
271.234	141.38
271.466	160.38
271.698	146.38
271.93	132.38
272.162	124.38
272.394	141.38
272.626	133.38
272.858	135.38
273.09	140.38
273.322	122.38
273.553	136.38
273.785	142.38
274.017	156.38
274.249	157.38
274.481	173.38
274.713	178.38
274.945	189.38
275.176	185.38
275.408	186.38
275.64	181.38
275.872	184.38
276.104	164.38
276.335	144.38
276.567	143.38
276.799	152.38
277.031	143.38
277.262	158.38
277.494	123.38
277.726	128.38
277.957	112.38
278.189	129.38
278.421	131.38
278.652	128.38
278.884	127.38
279.115	139.38
279.347	127.38
279.579	123.38
279.81	120.38
280.042	136.38
280.273	115.38
280.505	132.38
280.736	126.38
280.968	128.38
281.199	124.38
281.431	125.38
281.662	124.38
281.894	126.38
282.125	128.38
282.356	118.38
282.588	134.38
282.819	134.38
283.051	127.38
283.282	126.38
283.513	154.38
283.745	165.38
283.976	155.38
284.207	158.38
284.439	156.38
284.67	142.38
284.901	140.38
285.132	152.38
285.364	165.38
285.595	156.38
285.826	156.38
286.057	160.38
286.288	156.38
286.52	142.38
286.751	165.38
286.982	163.38
287.213	149.38
287.444	156.38
287.675	153.38
287.906	156.38
288.138	131.38
288.369	130.38
288.6	118.38
288.831	127.38
289.062	146.38
289.293	155.38
289.524	140.38
289.755	131.38
289.986	140.38
290.217	152.38
290.448	132.38
290.679	105.38
290.91	121.38
291.141	115.38
291.371	121.38
291.602	124.38
291.833	117.38
292.064	120.38
292.295	125.38
292.526	132.38
292.757	128.38
292.987	127.38
293.218	132.38
293.449	152.38
293.68	135.38
293.91	153.38
294.141	130.38
294.372	148.38
294.603	144.38
294.833	132.38
295.064	144.38
295.295	153.38
295.525	126.38
295.756	125.38
295.987	120.38
296.217	106.38
296.448	126.38
296.679	117.38
296.909	127.38
297.14	128.38
297.37	140.38
297.601	106.38
297.831	116.38
298.062	125.38
298.292	116.38
298.523	135.38
298.753	145.38
298.984	121.38
299.214	124.38
299.445	120.38
299.675	121.38
299.905	126.38
300.136	106.38
300.366	129.38
300.597	128.38
300.827	112.38
301.057	124.38
301.288	109.38
301.518	111.38
301.748	122.38
301.979	143.38
302.209	120.38
302.439	132.38
302.669	126.38
302.9	121.38
303.13	122.38
303.36	113.38
303.59	116.38
303.82	125.38
304.051	109.38
304.281	140.38
304.511	145.38
304.741	120.38
304.971	124.38
305.201	114.38
305.431	118.38
305.661	108.38
305.891	120.38
306.121	119.38
306.352	116.38
306.582	128.38
306.812	111.38
307.042	104.38
307.272	107.38
307.502	102.38
307.731	106.38
307.961	114.38
308.191	109.38
308.421	110.38
308.651	104.38
308.881	119.38
309.111	127.38
309.341	111.38
309.571	113.38
309.8	121.38
310.03	104.38
310.26	111.38
310.49	114.38
310.72	119.38
310.949	118.38
311.179	125.38
311.409	120.38
311.639	116.38
311.868	129.38
312.098	143.38
312.328	150.38
312.557	128.38
312.787	130.38
313.017	128.38
313.246	144.38
313.476	143.38
313.706	132.38
313.935	118.38
314.165	117.38
314.394	117.38
314.624	111.38
314.853	122.38
315.083	120.38
315.312	121.38
315.542	118.38
315.771	121.38
316.001	95.38
316.23	98.38
316.46	107.38
316.689	103.38
316.919	112.38
317.148	112.38
317.377	127.38
317.607	116.38
317.836	124.38
318.065	130.38
318.295	129.38
318.524	129.38
318.753	114.38
318.983	106.38
319.212	115.38
319.441	120.38
319.67	125.38
319.9	111.38
320.129	116.38
320.358	117.38
320.587	103.38
320.816	110.38
321.046	109.38
321.275	126.38
321.504	130.38
321.733	124.38
321.962	118.38
322.191	110.38
322.42	120.38
322.649	112.38
322.878	122.38
323.108	122.38
323.337	116.38
323.566	113.38
323.795	119.38
324.024	119.38
324.253	113.38
324.482	122.38
324.71	119.38
324.939	116.38
325.168	112.38
325.397	115.38
325.626	111.38
325.855	109.38
326.084	113.38
326.313	113.38
326.542	107.38
326.77	123.38
326.999	108.38
327.228	107.38
327.457	108.38
327.686	110.38
327.914	108.38
328.143	109.38
328.372	97.38
328.6	116.38
328.829	110.38
329.058	101.38
329.287	97.38
329.515	93.38
329.744	120.38
329.972	112.38
330.201	107.38
330.43	107.38
330.658	118.38
330.887	114.38
331.115	123.38
331.344	107.38
331.572	123.38
331.801	124.38
332.03	109.38
332.258	118.38
332.486	117.38
332.715	109.38
332.943	110.38
333.172	100.38
333.4	121.38
333.629	121.38
333.857	111.38
334.085	97.38
334.314	113.38
334.542	112.38
334.771	123.38
334.999	120.38
335.227	129.38
335.455	110.38
335.684	112.38
335.912	130.38
336.14	125.38
336.369	114.38
336.597	115.38
336.825	134.38
337.053	129.38
337.281	124.38
337.51	116.38
337.738	100.38
337.966	112.38
338.194	97.38
338.422	118.38
338.65	114.38
338.878	111.38
339.106	110.38
339.334	113.38
339.562	107.38
339.79	114.38
340.018	111.38
340.246	118.38
340.474	121.38
340.702	134.38
340.93	123.38
341.158	129.38
341.386	116.38
341.614	128.38
341.842	124.38
342.07	114.38
342.298	118.38
342.526	128.38
342.754	127.38
342.981	113.38
343.209	118.38
343.437	127.38
343.665	140.38
343.893	118.38
344.12	126.38
344.348	140.38
344.576	134.38
344.804	129.38
345.031	126.38
345.259	124.38
345.487	112.38
345.714	107.38
345.942	107.38
346.17	121.38
346.397	117.38
346.625	128.38
346.853	106.38
347.08	104.38
347.308	111.38
347.535	105.38
347.763	117.38
347.99	113.38
348.218	106.38
348.445	121.38
348.673	97.38
348.9	109.38
349.128	110.38
349.355	123.38
349.583	96.38
349.81	111.38
350.037	105.38
350.265	110.38
350.492	105.38
350.72	97.38
350.947	113.38
351.174	120.38
351.402	102.38
351.629	108.38
351.856	111.38
352.083	107.38
352.311	96.38
352.538	114.38
352.765	126.38
352.992	113.38
353.22	113.38
353.447	128.38
353.674	104.38
353.901	112.38
354.128	108.38
354.355	87.38
354.583	100.38
354.81	96.38
355.037	110.38
355.264	120.38
355.491	127.38
355.718	116.38
355.945	113.38
356.172	124.38
356.399	122.38
356.626	127.38
356.853	150.38
357.08	131.38
357.307	128.38
357.534	124.38
357.761	122.38
357.988	131.38
358.215	139.38
358.441	135.38
358.668	130.38
358.895	140.38
359.122	124.38
359.349	129.38
359.576	126.38
359.802	108.38
360.029	103.38
360.256	107.38
360.483	126.38
360.709	120.38
360.936	125.38
361.163	136.38
361.39	107.38
361.616	100.38
361.843	117.38
362.07	109.38
362.296	124.38
362.523	117.38
362.749	118.38
362.976	126.38
363.203	123.38
363.429	118.38
363.656	116.38
363.882	116.38
364.109	122.38
364.335	122.38
364.562	129.38
364.788	107.38
365.015	131.38
365.241	121.38
365.468	112.38
365.694	110.38
365.92	107.38
366.147	100.38
366.373	106.38
366.599	108.38
366.826	122.38
367.052	111.38
367.278	108.38
367.505	104.38
367.731	98.38
367.957	116.38
368.184	128.38
368.41	118.38
368.636	126.38
368.862	105.38
369.089	102.38
369.315	112.38
369.541	128.38
369.767	129.38
369.993	108.38
370.219	124.38
370.445	108.38
370.672	114.38
370.898	113.38
371.124	119.38
371.35	102.38
371.576	113.38
371.802	105.38
372.028	111.38
372.254	126.38
372.48	126.38
372.706	118.38
372.932	87.38
373.158	122.38
373.384	129.38
373.61	155.38
373.835	129.38
374.061	126.38
374.287	130.38
374.513	114.38
374.739	136.38
374.965	128.38
375.191	138.38
375.416	122.38
375.642	114.38
375.868	116.38
376.094	122.38
376.319	138.38
376.545	118.38
376.771	117.38
376.997	124.38
377.222	115.38
377.448	116.38
377.674	97.38
377.899	112.38
378.125	92.38
378.35	117.38
378.576	113.38
378.802	120.38
379.027	109.38
379.253	106.38
379.478	116.38
379.704	116.38
379.929	117.38
380.155	116.38
380.38	126.38
380.606	105.38
380.831	131.38
381.057	126.38
381.282	134.38
381.507	136.38
381.733	118.38
381.958	130.38
382.184	127.38
382.409	124.38
382.634	146.38
382.86	134.38
383.085	129.38
383.31	113.38
383.535	126.38
383.761	118.38
383.986	111.38
384.211	124.38
384.436	125.38
384.662	113.38
384.887	114.38
385.112	125.38
385.337	111.38
385.562	114.38
385.787	114.38
386.013	121.38
386.238	138.38
386.463	119.38
386.688	110.38
386.913	94.38
387.138	118.38
387.363	108.38
387.588	119.38
387.813	131.38
388.038	123.38
388.263	106.38
388.488	114.38
388.713	116.38
388.938	109.38
389.163	124.38
389.387	112.38
389.612	104.38
389.837	112.38
390.062	111.38
390.287	118.38
390.512	115.38
390.736	110.38
390.961	121.38
391.186	106.38
391.411	108.38
391.636	118.38
391.86	92.38
392.085	111.38
392.31	107.38
392.534	125.38
392.759	121.38
392.984	136.38
393.208	130.38
393.433	120.38
393.658	121.38
393.882	111.38
394.107	107.38
394.331	100.38
394.556	116.38
394.78	122.38
395.005	113.38
395.229	102.38
395.454	122.38
395.678	121.38
395.903	121.38
396.127	131.38
396.352	102.38
396.576	109.38
396.801	134.38
397.025	144.38
397.249	132.38
397.474	109.38
397.698	126.38
397.922	107.38
398.147	106.38
398.371	112.38
398.595	118.38
398.82	121.38
399.044	119.38
399.268	127.38
399.492	101.38
399.717	108.38
399.941	122.38
400.165	114.38
400.389	118.38
400.613	118.38
400.837	115.38
401.062	134.38
401.286	109.38
401.51	102.38
401.734	128.38
401.958	100.38
402.182	108.38
402.406	111.38
402.63	109.38
402.854	132.38
403.078	127.38
403.302	132.38
403.526	138.38
403.75	135.38
403.974	117.38
404.198	116.38
404.422	126.38
404.645	121.38
404.869	122.38
405.093	116.38
405.317	133.38
405.541	125.38
405.765	132.38
405.988	131.38
406.212	128.38
406.436	136.38
406.66	130.38
406.883	113.38
407.107	134.38
407.331	140.38
407.555	126.38
407.778	134.38
408.002	112.38
408.226	120.38
408.449	119.38
408.673	120.38
408.896	117.38
409.12	112.38
409.344	122.38
409.567	117.38
409.791	123.38
410.014	109.38
410.238	103.38
410.461	108.38
410.685	122.38
410.908	116.38
411.132	113.38
411.355	121.38
411.578	126.38
411.802	122.38
412.025	117.38
412.249	116.38
412.472	112.38
412.695	125.38
412.919	116.38
413.142	116.38
413.365	113.38
413.589	100.38
413.812	111.38
414.035	114.38
414.258	120.38
414.482	102.38
414.705	113.38
414.928	108.38
415.151	109.38
415.374	118.38
415.597	109.38
415.821	108.38
416.044	124.38
416.267	116.38
416.49	117.38
416.713	110.38
416.936	107.38
417.159	102.38
417.382	105.38
417.605	102.38
417.828	125.38
418.051	115.38
418.274	121.38
418.497	116.38
418.72	110.38
418.943	111.38
419.166	113.38
419.389	113.38
419.611	109.38
419.834	123.38
420.057	114.38
420.28	112.38
420.503	102.38
420.726	123.38
420.948	125.38
421.171	131.38
421.394	112.38
421.617	110.38
421.839	119.38
422.062	124.38
422.285	121.38
422.507	114.38
422.73	113.38
422.953	126.38
423.175	119.38
423.398	116.38
423.621	122.38
423.843	121.38
424.066	104.38
424.288	114.38
424.511	119.38
424.733	126.38
424.956	124.38
425.178	114.38
425.401	128.38
425.623	126.38
425.846	124.38
426.068	123.38
426.291	122.38
426.513	117.38
426.735	121.38
426.958	114.38
427.18	120.38
427.402	134.38
427.625	123.38
427.847	121.38
428.069	118.38
428.292	107.38
428.514	118.38
428.736	116.38
428.958	123.38
429.181	139.38
429.403	137.38
429.625	114.38
429.847	129.38
430.069	125.38
430.292	118.38
430.514	132.38
430.736	112.38
430.958	122.38
431.18	113.38
431.402	105.38
431.624	120.38
431.846	110.38
432.068	109.38
432.29	105.38
432.512	112.38
432.734	113.38
432.956	129.38
433.178	125.38
433.4	125.38
433.622	129.38
433.844	121.38
434.066	125.38
434.287	108.38
434.509	111.38
434.731	124.38
434.953	106.38
435.175	107.38
435.397	113.38
435.618	113.38
435.84	123.38
436.062	121.38
436.284	122.38
436.505	111.38
436.727	113.38
436.949	107.38
437.17	123.38
437.392	126.38
437.614	105.38
437.835	113.38
438.057	124.38
438.278	136.38
438.5	141.38
438.721	147.38
438.943	125.38
439.165	97.38
439.386	113.38
439.608	114.38
439.829	101.38
440.05	112.38
440.272	116.38
440.493	128.38
440.715	127.38
440.936	107.38
441.158	110.38
441.379	109.38
441.6	111.38
441.822	124.38
442.043	118.38
442.264	114.38
442.486	115.38
442.707	118.38
442.928	108.38
443.149	122.38
443.371	125.38
443.592	131.38
443.813	127.38
444.034	105.38
444.255	122.38
444.476	108.38
444.698	124.38
444.919	120.38
445.14	234.38
445.361	173.38
445.582	114.38
445.803	108.38
446.024	130.38
446.245	122.38
446.466	120.38
446.687	112.38
446.908	107.38
447.129	118.38
447.35	92.38
447.571	109.38
447.792	123.38
448.013	121.38
448.234	117.38
448.455	117.38
448.675	106.38
448.896	110.38
449.117	122.38
449.338	121.38
449.559	126.38
449.779	117.38
450	100.38
450.221	112.38
450.442	111.38
450.662	107.38
450.883	124.38
451.104	102.38
451.324	117.38
451.545	106.38
451.766	124.38
451.986	116.38
452.207	117.38
452.428	105.38
452.648	111.38
452.869	125.38
453.089	134.38
453.31	122.38
453.53	118.38
453.751	115.38
453.971	103.38
454.192	124.38
454.412	116.38
454.633	116.38
454.853	109.38
455.073	110.38
455.294	108.38
455.514	125.38
455.734	118.38
455.955	102.38
456.175	130.38
456.395	110.38
456.616	116.38
456.836	109.38
457.056	96.38
457.276	109.38
457.497	109.38
457.717	96.38
457.937	102.38
458.157	110.38
458.377	90.38
458.598	107.38
458.818	120.38
459.038	104.38
459.258	118.38
459.478	129.38
459.698	133.38
459.918	125.38
460.138	113.38
460.358	100.38
460.578	98.38
460.798	133.38
461.018	126.38
461.238	118.38
461.458	116.38
461.678	120.38
461.898	107.38
462.118	116.38
462.338	122.38
462.558	130.38
462.777	128.38
462.997	117.38
463.217	119.38
463.437	120.38
463.657	116.38
463.876	121.38
464.096	111.38
464.316	111.38
464.536	112.38
464.755	128.38
464.975	116.38
465.195	116.38
465.414	117.38
465.634	124.38
465.854	118.38
466.073	121.38
466.293	123.38
466.512	106.38
466.732	117.38
466.951	120.38
467.171	122.38
467.391	114.38
467.61	121.38
467.829	120.38
468.049	116.38
468.268	109.38
468.488	90.38
468.707	116.38
468.927	122.38
469.146	124.38
469.365	131.38
469.585	103.38
469.804	121.38
470.023	125.38
470.243	121.38
470.462	119.38
470.681	120.38
470.901	123.38
471.12	107.38
471.339	112.38
471.558	109.38
471.777	103.38
471.997	105.38
472.216	140.38
472.435	133.38
472.654	120.38
472.873	126.38
473.092	115.38
473.311	119.38
473.53	140.38
473.749	118.38
473.968	119.38
474.187	121.38
474.406	112.38
474.625	119.38
474.844	118.38
475.063	120.38
475.282	114.38
475.501	120.38
475.72	128.38
475.939	123.38
476.158	127.38
476.377	149.38
476.596	144.38
476.814	146.38
477.033	119.38
477.252	110.38
477.471	124.38
477.69	112.38
477.908	124.38
478.127	140.38
478.346	119.38
478.564	122.38
478.783	129.38
479.002	132.38
479.22	146.38
479.439	142.38
479.658	141.38
479.876	121.38
480.095	138.38
480.313	136.38
480.532	125.38
480.751	122.38
480.969	126.38
481.188	137.38
481.406	127.38
481.624	131.38
481.843	121.38
482.061	118.38
482.28	118.38
482.498	133.38
482.717	143.38
482.935	132.38
483.153	138.38
483.372	142.38
483.59	123.38
483.808	114.38
484.027	112.38
484.245	140.38
484.463	129.38
484.681	126.38
484.9	134.38
485.118	139.38
485.336	133.38
485.554	117.38
485.772	116.38
485.99	138.38
486.209	138.38
486.427	116.38
486.645	128.38
486.863	130.38
487.081	126.38
487.299	129.38
487.517	123.38
487.735	109.38
487.953	136.38
488.171	149.38
488.389	128.38
488.607	118.38
488.825	131.38
489.043	143.38
489.261	143.38
489.479	129.38
489.696	114.38
489.914	134.38
490.132	132.38
490.35	141.38
490.568	126.38
490.786	121.38
491.003	132.38
491.221	127.38
491.439	130.38
491.657	127.38
491.874	120.38
492.092	135.38
492.31	156.38
492.527	137.38
492.745	143.38
492.963	150.38
493.18	128.38
493.398	128.38
493.615	128.38
493.833	138.38
494.05	121.38
494.268	137.38
494.485	132.38
494.703	122.38
494.92	120.38
495.138	130.38
495.355	136.38
495.573	128.38
495.79	138.38
496.008	148.38
496.225	128.38
496.442	131.38
496.66	135.38
496.877	136.38
497.094	141.38
497.312	125.38
497.529	127.38
497.746	125.38
497.963	130.38
498.181	128.38
498.398	152.38
498.615	160.38
498.832	152.38
499.049	126.38
499.267	135.38
499.484	129.38
499.701	150.38
499.918	147.38
500.135	152.38
500.352	189.38
500.569	159.38
500.786	175.38
501.003	155.38
501.22	168.38
501.437	148.38
501.654	152.38
501.871	129.38
502.088	145.38
502.305	153.38
502.522	146.38
502.739	144.38
502.956	141.38
503.172	129.38
503.389	130.38
