Data from NickelSpatula_HRD10591_16-35-58-126.txt Node
Date: Mon Jul 22 16:35:58 EDT 2019
User: cochatt
Spectrometer: HR+D1059
Trigger mode: 1
Integration Time (sec): 1.000000E-1
Scans to average: 1
Electric dark correction enabled: true
Nonlinearity correction enabled: false
Boxcar width: 0
XAxis mode: Wavelengths
Number of Pixels in Spectrum: 2048
>>>>>Begin Spectral Data<<<<<
223.165	-17.88
223.4	-17.88
223.635	-17.88
223.869	-23.88
224.104	-7.88
224.338	-2.88
224.573	-7.88
224.808	-12.88
225.042	-22.88
225.277	-8.88
225.511	-15.88
225.746	6.12
225.98	14.12
226.215	19.12
226.449	9.12
226.683	10.12
226.918	22.12
227.152	40.12
227.387	40.12
227.621	46.12
227.856	53.12
228.09	37.12
228.324	42.12
228.559	50.12
228.793	64.12
229.027	77.12
229.262	74.12
229.496	62.12
229.73	60.12
229.964	77.12
230.199	78.12
230.433	91.12
230.667	98.12
230.901	82.12
231.136	95.12
231.37	87.12
231.604	97.12
231.838	93.12
232.072	98.12
232.306	101.12
232.541	88.12
232.775	88.12
233.009	104.12
233.243	114.12
233.477	106.12
233.711	100.12
233.945	81.12
234.179	85.12
234.413	107.12
234.647	106.12
234.881	137.12
235.115	114.12
235.349	113.12
235.583	96.12
235.817	97.12
236.051	106.12
236.285	116.12
236.519	103.12
236.753	110.12
236.987	91.12
237.221	90.12
237.455	106.12
237.689	97.12
237.922	123.12
238.156	116.12
238.39	125.12
238.624	117.12
238.858	129.12
239.091	120.12
239.325	115.12
239.559	120.12
239.793	119.12
240.027	128.12
240.26	124.12
240.494	121.12
240.728	117.12
240.961	134.12
241.195	124.12
241.429	127.12
241.662	116.12
241.896	100.12
242.13	109.12
242.363	101.12
242.597	117.12
242.83	124.12
243.064	119.12
243.298	131.12
243.531	136.12
243.765	125.12
243.998	138.12
244.232	127.12
244.465	125.12
244.699	125.12
244.932	137.12
245.166	134.12
245.399	123.12
245.633	122.12
245.866	129.12
246.099	127.12
246.333	126.12
246.566	146.12
246.8	138.12
247.033	138.12
247.266	146.12
247.5	143.12
247.733	116.12
247.966	120.12
248.2	117.12
248.433	134.12
248.666	137.12
248.899	146.12
249.133	148.12
249.366	174.12
249.599	166.12
249.832	159.12
250.066	152.12
250.299	145.12
250.532	140.12
250.765	146.12
250.998	132.12
251.231	141.12
251.465	131.12
251.698	142.12
251.931	133.12
252.164	143.12
252.397	148.12
252.63	175.12
252.863	182.12
253.096	172.12
253.329	179.12
253.562	169.12
253.795	189.12
254.028	196.12
254.261	201.12
254.494	191.12
254.727	184.12
254.96	200.12
255.193	174.12
255.426	171.12
255.659	144.12
255.892	161.12
256.124	145.12
256.357	161.12
256.59	179.12
256.823	188.12
257.056	167.12
257.289	148.12
257.521	161.12
257.754	176.12
257.987	205.12
258.22	171.12
258.452	164.12
258.685	181.12
258.918	197.12
259.151	201.12
259.383	182.12
259.616	221.12
259.849	201.12
260.081	209.12
260.314	219.12
260.547	195.12
260.779	187.12
261.012	225.12
261.244	207.12
261.477	224.12
261.71	206.12
261.942	176.12
262.175	196.12
262.407	200.12
262.64	176.12
262.872	197.12
263.105	229.12
263.337	237.12
263.57	209.12
263.802	179.12
264.035	150.12
264.267	151.12
264.499	126.12
264.732	131.12
264.964	122.12
265.197	133.12
265.429	134.12
265.661	142.12
265.894	137.12
266.126	172.12
266.358	172.12
266.591	186.12
266.823	203.12
267.055	207.12
267.287	173.12
267.52	185.12
267.752	192.12
267.984	180.12
268.216	195.12
268.448	181.12
268.681	177.12
268.913	177.12
269.145	193.12
269.377	176.12
269.609	186.12
269.841	182.12
270.073	194.12
270.306	184.12
270.538	205.12
270.77	200.12
271.002	190.12
271.234	209.12
271.466	222.12
271.698	216.12
271.93	194.12
272.162	195.12
272.394	194.12
272.626	215.12
272.858	201.12
273.09	202.12
273.322	191.12
273.553	189.12
273.785	195.12
274.017	243.12
274.249	282.12
274.481	281.12
274.713	310.12
274.945	330.12
275.176	345.12
275.408	348.12
275.64	293.12
275.872	301.12
276.104	270.12
276.335	241.12
276.567	245.12
276.799	253.12
277.031	252.12
277.262	217.12
277.494	178.12
277.726	171.12
277.957	192.12
278.189	198.12
278.421	205.12
278.652	193.12
278.884	195.12
279.115	184.12
279.347	172.12
279.579	170.12
279.81	170.12
280.042	185.12
280.273	176.12
280.505	187.12
280.736	152.12
280.968	161.12
281.199	171.12
281.431	174.12
281.662	178.12
281.894	190.12
282.125	179.12
282.356	196.12
282.588	188.12
282.819	187.12
283.051	202.12
283.282	224.12
283.513	251.12
283.745	247.12
283.976	269.12
284.207	249.12
284.439	245.12
284.67	229.12
284.901	243.12
285.132	243.12
285.364	245.12
285.595	255.12
285.826	233.12
286.057	253.12
286.288	232.12
286.52	245.12
286.751	259.12
286.982	259.12
287.213	237.12
287.444	232.12
287.675	221.12
287.906	235.12
288.138	204.12
288.369	184.12
288.6	192.12
288.831	192.12
289.062	221.12
289.293	226.12
289.524	206.12
289.755	226.12
289.986	230.12
290.217	176.12
290.448	153.12
290.679	143.12
290.91	151.12
291.141	150.12
291.371	152.12
291.602	148.12
291.833	133.12
292.064	151.12
292.295	170.12
292.526	202.12
292.757	194.12
292.987	202.12
293.218	197.12
293.449	217.12
293.68	231.12
293.91	208.12
294.141	213.12
294.372	190.12
294.603	201.12
294.833	237.12
295.064	228.12
295.295	230.12
295.525	176.12
295.756	160.12
295.987	173.12
296.217	153.12
296.448	156.12
296.679	165.12
296.909	178.12
297.14	176.12
297.37	191.12
297.601	173.12
297.831	180.12
298.062	190.12
298.292	202.12
298.523	197.12
298.753	226.12
298.984	200.12
299.214	173.12
299.445	166.12
299.675	150.12
299.905	147.12
300.136	165.12
300.366	163.12
300.597	165.12
300.827	147.12
301.057	150.12
301.288	160.12
301.518	167.12
301.748	181.12
301.979	196.12
302.209	177.12
302.439	188.12
302.669	188.12
302.9	170.12
303.13	181.12
303.36	155.12
303.59	153.12
303.82	154.12
304.051	172.12
304.281	193.12
304.511	194.12
304.741	173.12
304.971	161.12
305.201	176.12
305.431	167.12
305.661	150.12
305.891	139.12
306.121	160.12
306.352	140.12
306.582	141.12
306.812	136.12
307.042	140.12
307.272	136.12
307.502	146.12
307.731	142.12
307.961	152.12
308.191	147.12
308.421	154.12
308.651	137.12
308.881	157.12
309.111	150.12
309.341	151.12
309.571	151.12
309.8	147.12
310.03	142.12
310.26	138.12
310.49	158.12
310.72	141.12
310.949	134.12
311.179	133.12
311.409	142.12
311.639	183.12
311.868	195.12
312.098	226.12
312.328	235.12
312.557	226.12
312.787	220.12
313.017	221.12
313.246	235.12
313.476	235.12
313.706	193.12
313.935	169.12
314.165	147.12
314.394	149.12
314.624	146.12
314.853	140.12
315.083	152.12
315.312	145.12
315.542	152.12
315.771	152.12
316.001	137.12
316.23	140.12
316.46	119.12
316.689	146.12
316.919	144.12
317.148	139.12
317.377	136.12
317.607	151.12
317.836	157.12
318.065	171.12
318.295	172.12
318.524	156.12
318.753	138.12
318.983	157.12
319.212	131.12
319.441	154.12
319.67	170.12
319.9	164.12
320.129	160.12
320.358	156.12
320.587	149.12
320.816	152.12
321.046	165.12
321.275	183.12
321.504	184.12
321.733	196.12
321.962	169.12
322.191	165.12
322.42	158.12
322.649	164.12
322.878	186.12
323.108	201.12
323.337	156.12
323.566	173.12
323.795	155.12
324.024	152.12
324.253	146.12
324.482	156.12
324.71	162.12
324.939	150.12
325.168	176.12
325.397	154.12
325.626	143.12
325.855	140.12
326.084	134.12
326.313	136.12
326.542	123.12
326.77	121.12
326.999	137.12
327.228	156.12
327.457	136.12
327.686	140.12
327.914	133.12
328.143	160.12
328.372	134.12
328.6	136.12
328.829	137.12
329.058	142.12
329.287	148.12
329.515	137.12
329.744	130.12
329.972	128.12
330.201	129.12
330.43	124.12
330.658	146.12
330.887	168.12
331.115	165.12
331.344	158.12
331.572	146.12
331.801	146.12
332.03	140.12
332.258	129.12
332.486	152.12
332.715	146.12
332.943	148.12
333.172	142.12
333.4	143.12
333.629	160.12
333.857	155.12
334.085	160.12
334.314	162.12
334.542	136.12
334.771	156.12
334.999	133.12
335.227	162.12
335.455	153.12
335.684	163.12
335.912	171.12
336.14	170.12
336.369	157.12
336.597	161.12
336.825	196.12
337.053	189.12
337.281	168.12
337.51	146.12
337.738	155.12
337.966	155.12
338.194	165.12
338.422	154.12
338.65	138.12
338.878	145.12
339.106	142.12
339.334	147.12
339.562	151.12
339.79	139.12
340.018	139.12
340.246	152.12
340.474	161.12
340.702	182.12
340.93	197.12
341.158	180.12
341.386	148.12
341.614	162.12
341.842	163.12
342.07	167.12
342.298	183.12
342.526	200.12
342.754	179.12
342.981	170.12
343.209	149.12
343.437	157.12
343.665	159.12
343.893	181.12
344.12	188.12
344.348	196.12
344.576	202.12
344.804	153.12
345.031	156.12
345.259	139.12
345.487	165.12
345.714	169.12
345.942	157.12
346.17	181.12
346.397	153.12
346.625	157.12
346.853	154.12
347.08	144.12
347.308	176.12
347.535	184.12
347.763	176.12
347.99	152.12
348.218	156.12
348.445	143.12
348.673	174.12
348.9	158.12
349.128	175.12
349.355	158.12
349.583	164.12
349.81	147.12
350.037	135.12
350.265	133.12
350.492	141.12
350.72	135.12
350.947	137.12
351.174	141.12
351.402	152.12
351.629	140.12
351.856	131.12
352.083	140.12
352.311	149.12
352.538	159.12
352.765	173.12
352.992	160.12
353.22	163.12
353.447	160.12
353.674	153.12
353.901	140.12
354.128	150.12
354.355	164.12
354.583	161.12
354.81	167.12
355.037	174.12
355.264	177.12
355.491	174.12
355.718	176.12
355.945	173.12
356.172	168.12
356.399	171.12
356.626	209.12
356.853	219.12
357.08	241.12
357.307	224.12
357.534	201.12
357.761	202.12
357.988	245.12
358.215	242.12
358.441	250.12
358.668	209.12
358.895	211.12
359.122	185.12
359.349	170.12
359.576	188.12
359.802	167.12
360.029	134.12
360.256	172.12
360.483	170.12
360.709	201.12
360.936	220.12
361.163	212.12
361.39	154.12
361.616	170.12
361.843	171.12
362.07	193.12
362.296	188.12
362.523	141.12
362.749	143.12
362.976	152.12
363.203	185.12
363.429	192.12
363.656	165.12
363.882	169.12
364.109	179.12
364.335	167.12
364.562	169.12
364.788	149.12
365.015	187.12
365.241	178.12
365.468	154.12
365.694	134.12
365.92	128.12
366.147	121.12
366.373	132.12
366.599	149.12
366.826	130.12
367.052	139.12
367.278	128.12
367.505	139.12
367.731	140.12
367.957	163.12
368.184	162.12
368.41	151.12
368.636	174.12
368.862	162.12
369.089	157.12
369.315	130.12
369.541	153.12
369.767	155.12
369.993	162.12
370.219	140.12
370.445	154.12
370.672	155.12
370.898	178.12
371.124	160.12
371.35	151.12
371.576	140.12
371.802	153.12
372.028	162.12
372.254	190.12
372.48	169.12
372.706	169.12
372.932	169.12
373.158	177.12
373.384	208.12
373.61	233.12
373.835	233.12
374.061	174.12
374.287	181.12
374.513	192.12
374.739	203.12
374.965	234.12
375.191	214.12
375.416	172.12
375.642	153.12
375.868	178.12
376.094	193.12
376.319	171.12
376.545	184.12
376.771	181.12
376.997	167.12
377.222	154.12
377.448	145.12
377.674	119.12
377.899	129.12
378.125	122.12
378.35	141.12
378.576	132.12
378.802	145.12
379.027	148.12
379.253	157.12
379.478	165.12
379.704	171.12
379.929	166.12
380.155	170.12
380.38	152.12
380.606	157.12
380.831	184.12
381.057	173.12
381.282	144.12
381.507	167.12
381.733	208.12
381.958	221.12
382.184	227.12
382.409	236.12
382.634	202.12
382.86	233.12
383.085	199.12
383.31	177.12
383.535	184.12
383.761	187.12
383.986	185.12
384.211	210.12
384.436	202.12
384.662	162.12
384.887	166.12
385.112	163.12
385.337	166.12
385.562	142.12
385.787	162.12
386.013	172.12
386.238	178.12
386.463	160.12
386.688	164.12
386.913	147.12
387.138	137.12
387.363	158.12
387.588	158.12
387.813	172.12
388.038	171.12
388.263	160.12
388.488	146.12
388.713	177.12
388.938	182.12
389.163	162.12
389.387	158.12
389.612	153.12
389.837	149.12
390.062	168.12
390.287	164.12
390.512	162.12
390.736	137.12
390.961	149.12
391.186	147.12
391.411	140.12
391.636	133.12
391.86	151.12
392.085	168.12
392.31	169.12
392.534	163.12
392.759	152.12
392.984	163.12
393.208	159.12
393.433	142.12
393.658	134.12
393.882	152.12
394.107	132.12
394.331	134.12
394.556	137.12
394.78	130.12
395.005	145.12
395.229	135.12
395.454	139.12
395.678	161.12
395.903	146.12
396.127	142.12
396.352	146.12
396.576	162.12
396.801	153.12
397.025	169.12
397.249	183.12
397.474	152.12
397.698	146.12
397.922	153.12
398.147	158.12
398.371	160.12
398.595	150.12
398.82	140.12
399.044	161.12
399.268	152.12
399.492	163.12
399.717	163.12
399.941	172.12
400.165	145.12
400.389	164.12
400.613	168.12
400.837	164.12
401.062	150.12
401.286	150.12
401.51	137.12
401.734	146.12
401.958	145.12
402.182	137.12
402.406	135.12
402.63	139.12
402.854	149.12
403.078	164.12
403.302	184.12
403.526	218.12
403.75	172.12
403.974	162.12
404.198	160.12
404.422	186.12
404.645	210.12
404.869	210.12
405.093	177.12
405.317	154.12
405.541	165.12
405.765	154.12
405.988	151.12
406.212	176.12
406.436	176.12
406.66	198.12
406.883	169.12
407.107	179.12
407.331	200.12
407.555	183.12
407.778	164.12
408.002	172.12
408.226	148.12
408.449	152.12
408.673	138.12
408.896	139.12
409.12	156.12
409.344	143.12
409.567	125.12
409.791	139.12
410.014	145.12
410.238	141.12
410.461	145.12
410.685	148.12
410.908	145.12
411.132	148.12
411.355	146.12
411.578	154.12
411.802	143.12
412.025	156.12
412.249	155.12
412.472	155.12
412.695	152.12
412.919	149.12
413.142	169.12
413.365	169.12
413.589	173.12
413.812	161.12
414.035	171.12
414.258	153.12
414.482	151.12
414.705	162.12
414.928	167.12
415.151	135.12
415.374	162.12
415.597	157.12
415.821	153.12
416.044	139.12
416.267	153.12
416.49	141.12
416.713	150.12
416.936	151.12
417.159	136.12
417.382	143.12
417.605	169.12
417.828	154.12
418.051	141.12
418.274	154.12
418.497	151.12
418.72	171.12
418.943	163.12
419.166	168.12
419.389	156.12
419.611	158.12
419.834	164.12
420.057	166.12
420.28	166.12
420.503	153.12
420.726	162.12
420.948	147.12
421.171	138.12
421.394	144.12
421.617	134.12
421.839	146.12
422.062	160.12
422.285	152.12
422.507	152.12
422.73	137.12
422.953	158.12
423.175	162.12
423.398	170.12
423.621	155.12
423.843	171.12
424.066	178.12
424.288	138.12
424.511	143.12
424.733	150.12
424.956	152.12
425.178	195.12
425.401	197.12
425.623	230.12
425.846	191.12
426.068	164.12
426.291	174.12
426.513	169.12
426.735	163.12
426.958	155.12
427.18	187.12
427.402	225.12
427.625	220.12
427.847	193.12
428.069	155.12
428.292	144.12
428.514	143.12
428.736	138.12
428.958	152.12
429.181	177.12
429.403	153.12
429.625	170.12
429.847	153.12
430.069	168.12
430.292	166.12
430.514	168.12
430.736	149.12
430.958	180.12
431.18	163.12
431.402	138.12
431.624	151.12
431.846	152.12
432.068	148.12
432.29	133.12
432.512	144.12
432.734	183.12
432.956	169.12
433.178	154.12
433.4	145.12
433.622	152.12
433.844	151.12
434.066	156.12
434.287	165.12
434.509	159.12
434.731	163.12
434.953	155.12
435.175	163.12
435.397	164.12
435.618	154.12
435.84	131.12
436.062	140.12
436.284	142.12
436.505	129.12
436.727	130.12
436.949	140.12
437.17	160.12
437.392	141.12
437.614	150.12
437.835	157.12
438.057	130.12
438.278	156.12
438.5	206.12
438.721	218.12
438.943	160.12
439.165	136.12
439.386	128.12
439.608	137.12
439.829	160.12
440.05	140.12
440.272	147.12
440.493	176.12
440.715	197.12
440.936	169.12
441.158	139.12
441.379	155.12
441.6	178.12
441.822	164.12
442.043	148.12
442.264	152.12
442.486	142.12
442.707	151.12
442.928	153.12
443.149	148.12
443.371	143.12
443.592	157.12
443.813	165.12
444.034	147.12
444.255	155.12
444.476	145.12
444.698	139.12
444.919	159.12
445.14	294.12
445.361	229.12
445.582	147.12
445.803	164.12
446.024	165.12
446.245	156.12
446.466	157.12
446.687	156.12
446.908	157.12
447.129	144.12
447.35	144.12
447.571	136.12
447.792	138.12
448.013	119.12
448.234	137.12
448.455	134.12
448.675	132.12
448.896	130.12
449.117	152.12
449.338	141.12
449.559	144.12
449.779	136.12
450	137.12
450.221	155.12
450.442	139.12
450.662	139.12
450.883	131.12
451.104	134.12
451.324	132.12
451.545	142.12
451.766	147.12
451.986	133.12
452.207	138.12
452.428	140.12
452.648	129.12
452.869	151.12
453.089	154.12
453.31	139.12
453.53	142.12
453.751	132.12
453.971	140.12
454.192	132.12
454.412	146.12
454.633	133.12
454.853	148.12
455.073	136.12
455.294	121.12
455.514	138.12
455.734	146.12
455.955	141.12
456.175	143.12
456.395	147.12
456.616	131.12
456.836	135.12
457.056	136.12
457.276	126.12
457.497	124.12
457.717	133.12
457.937	136.12
458.157	135.12
458.377	133.12
458.598	125.12
458.818	140.12
459.038	149.12
459.258	141.12
459.478	152.12
459.698	145.12
459.918	134.12
460.138	156.12
460.358	152.12
460.578	130.12
460.798	140.12
461.018	160.12
461.238	135.12
461.458	139.12
461.678	155.12
461.898	142.12
462.118	155.12
462.338	162.12
462.558	155.12
462.777	168.12
462.997	160.12
463.217	151.12
463.437	168.12
463.657	172.12
463.876	165.12
464.096	162.12
464.316	153.12
464.536	156.12
464.755	173.12
464.975	163.12
465.195	160.12
465.414	164.12
465.634	163.12
465.854	176.12
466.073	151.12
466.293	148.12
466.512	160.12
466.732	160.12
466.951	156.12
467.171	146.12
467.391	161.12
467.61	142.12
467.829	158.12
468.049	158.12
468.268	154.12
468.488	158.12
468.707	149.12
468.927	176.12
469.146	184.12
469.365	147.12
469.585	152.12
469.804	160.12
470.023	171.12
470.243	153.12
470.462	165.12
470.681	143.12
470.901	154.12
471.12	167.12
471.339	160.12
471.558	136.12
471.777	162.12
471.997	165.12
472.216	181.12
472.435	159.12
472.654	141.12
472.873	150.12
473.092	159.12
473.311	166.12
473.53	136.12
473.749	165.12
473.968	159.12
474.187	150.12
474.406	160.12
474.625	147.12
474.844	171.12
475.063	156.12
475.282	154.12
475.501	178.12
475.72	194.12
475.939	188.12
476.158	171.12
476.377	205.12
476.596	236.12
476.814	225.12
477.033	195.12
477.252	152.12
477.471	154.12
477.69	161.12
477.908	182.12
478.127	159.12
478.346	168.12
478.564	187.12
478.783	188.12
479.002	178.12
479.22	181.12
479.439	209.12
479.658	195.12
479.876	180.12
480.095	181.12
480.313	187.12
480.532	163.12
480.751	156.12
480.969	173.12
481.188	182.12
481.406	170.12
481.624	190.12
481.843	169.12
482.061	171.12
482.28	190.12
482.498	187.12
482.717	221.12
482.935	162.12
483.153	172.12
483.372	180.12
483.59	173.12
483.808	157.12
484.027	153.12
484.245	168.12
484.463	147.12
484.681	169.12
484.9	165.12
485.118	180.12
485.336	166.12
485.554	176.12
485.772	157.12
485.99	182.12
486.209	184.12
486.427	169.12
486.645	157.12
486.863	192.12
487.081	181.12
487.299	215.12
487.517	221.12
487.735	180.12
487.953	192.12
488.171	188.12
488.389	167.12
488.607	180.12
488.825	183.12
489.043	204.12
489.261	225.12
489.479	224.12
489.696	186.12
489.914	180.12
490.132	165.12
490.35	177.12
490.568	169.12
490.786	174.12
491.003	158.12
491.221	155.12
491.439	157.12
491.657	160.12
491.874	175.12
492.092	223.12
492.31	276.12
492.527	236.12
492.745	204.12
492.963	168.12
493.18	202.12
493.398	179.12
493.615	193.12
493.833	198.12
494.05	193.12
494.268	190.12
494.485	179.12
494.703	171.12
494.92	164.12
495.138	176.12
495.355	173.12
495.573	171.12
495.79	214.12
496.008	276.12
496.225	227.12
496.442	188.12
496.66	199.12
496.877	192.12
497.094	176.12
497.312	188.12
497.529	195.12
497.746	188.12
497.963	177.12
498.181	197.12
498.398	207.12
498.615	222.12
498.832	216.12
499.049	216.12
499.267	204.12
499.484	200.12
499.701	230.12
499.918	231.12
500.135	234.12
500.352	238.12
500.569	283.12
500.786	269.12
501.003	252.12
501.22	246.12
501.437	225.12
501.654	217.12
501.871	215.12
502.088	227.12
502.305	208.12
502.522	216.12
502.739	202.12
