Data from NickelSpatula.Lamp.E5.5.P2_HRD10591_11-53-30-548.txt Node
Date: Tue Jul 23 11:53:30 EDT 2019
User: cochatt
Spectrometer: HR+D1059
Trigger mode: 1
Integration Time (sec): 1.000000E-1
Scans to average: 1
Electric dark correction enabled: true
Nonlinearity correction enabled: false
Boxcar width: 0
XAxis mode: Wavelengths
Number of Pixels in Spectrum: 2048
>>>>>Begin Spectral Data<<<<<
223.165	-5.81
223.4	-5.81
223.635	-5.81
223.869	-9.81
224.104	-29.81
224.338	-20.81
224.573	-13.81
224.808	-9.81
225.042	-9.81
225.277	-1.81
225.511	2.19
225.746	-11.81
225.98	5.19
226.215	6.19
226.449	16.19
226.683	22.19
226.918	35.19
227.152	26.19
227.387	29.19
227.621	26.19
227.856	53.19
228.09	42.19
228.324	58.19
228.559	59.19
228.793	50.19
229.027	72.19
229.262	70.19
229.496	86.19
229.73	63.19
229.964	88.19
230.199	91.19
230.433	102.19
230.667	98.19
230.901	91.19
231.136	83.19
231.37	95.19
231.604	112.19
231.838	105.19
232.072	104.19
232.306	107.19
232.541	97.19
232.775	111.19
233.009	113.19
233.243	98.19
233.477	110.19
233.711	120.19
233.945	140.19
234.179	111.19
234.413	117.19
234.647	138.19
234.881	147.19
235.115	127.19
235.349	121.19
235.583	109.19
235.817	119.19
236.051	123.19
236.285	127.19
236.519	148.19
236.753	137.19
236.987	145.19
237.221	135.19
237.455	120.19
237.689	138.19
237.922	135.19
238.156	129.19
238.39	158.19
238.624	171.19
238.858	149.19
239.091	141.19
239.325	141.19
239.559	152.19
239.793	152.19
240.027	164.19
240.26	174.19
240.494	145.19
240.728	158.19
240.961	161.19
241.195	170.19
241.429	176.19
241.662	175.19
241.896	143.19
242.13	134.19
242.363	140.19
242.597	150.19
242.83	151.19
243.064	148.19
243.298	159.19
243.531	152.19
243.765	179.19
243.998	159.19
244.232	186.19
244.465	169.19
244.699	161.19
244.932	194.19
245.166	182.19
245.399	140.19
245.633	151.19
245.866	161.19
246.099	164.19
246.333	173.19
246.566	202.19
246.8	189.19
247.033	197.19
247.266	165.19
247.5	169.19
247.733	161.19
247.966	165.19
248.2	163.19
248.433	183.19
248.666	199.19
248.899	182.19
249.133	220.19
249.366	239.19
249.599	246.19
249.832	226.19
250.066	198.19
250.299	187.19
250.532	184.19
250.765	182.19
250.998	193.19
251.231	179.19
251.465	202.19
251.698	191.19
251.931	184.19
252.164	198.19
252.397	219.19
252.63	246.19
252.863	239.19
253.096	257.19
253.329	246.19
253.562	242.19
253.795	272.19
254.028	302.19
254.261	296.19
254.494	262.19
254.727	263.19
254.96	257.19
255.193	261.19
255.426	257.19
255.659	229.19
255.892	198.19
256.124	216.19
256.357	229.19
256.59	285.19
256.823	256.19
257.056	229.19
257.289	206.19
257.521	234.19
257.754	281.19
257.987	294.19
258.22	267.19
258.452	219.19
258.685	266.19
258.918	294.19
259.151	262.19
259.383	296.19
259.616	326.19
259.849	342.19
260.081	359.19
260.314	417.19
260.547	325.19
260.779	336.19
261.012	377.19
261.244	336.19
261.477	372.19
261.71	324.19
261.942	276.19
262.175	293.19
262.407	263.19
262.64	277.19
262.872	317.19
263.105	350.19
263.337	350.19
263.57	344.19
263.802	235.19
264.035	236.19
264.267	201.19
264.499	202.19
264.732	167.19
264.964	173.19
265.197	182.19
265.429	193.19
265.661	196.19
265.894	217.19
266.126	192.19
266.358	233.19
266.591	264.19
266.823	324.19
267.055	307.19
267.287	271.19
267.52	265.19
267.752	307.19
267.984	307.19
268.216	310.19
268.448	248.19
268.681	232.19
268.913	284.19
269.145	285.19
269.377	289.19
269.609	287.19
269.841	275.19
270.073	282.19
270.306	301.19
270.538	287.19
270.77	289.19
271.002	305.19
271.234	327.19
271.466	339.19
271.698	329.19
271.93	290.19
272.162	287.19
272.394	303.19
272.626	294.19
272.858	308.19
273.09	308.19
273.322	275.19
273.553	256.19
273.785	323.19
274.017	391.19
274.249	465.19
274.481	486.19
274.713	510.19
274.945	593.19
275.176	617.19
275.408	539.19
275.64	516.19
275.872	532.19
276.104	458.19
276.335	402.19
276.567	394.19
276.799	414.19
277.031	420.19
277.262	347.19
277.494	280.19
277.726	277.19
277.957	275.19
278.189	311.19
278.421	298.19
278.652	306.19
278.884	287.19
279.115	262.19
279.347	265.19
279.579	251.19
279.81	286.19
280.042	272.19
280.273	280.19
280.505	258.19
280.736	232.19
280.968	232.19
281.199	250.19
281.431	281.19
281.662	271.19
281.894	281.19
282.125	269.19
282.356	289.19
282.588	297.19
282.819	277.19
283.051	269.19
283.282	340.19
283.513	389.19
283.745	445.19
283.976	444.19
284.207	399.19
284.439	424.19
284.67	403.19
284.901	375.19
285.132	394.19
285.364	411.19
285.595	382.19
285.826	415.19
286.057	393.19
286.288	381.19
286.52	412.19
286.751	419.19
286.982	415.19
287.213	361.19
287.444	343.19
287.675	379.19
287.906	375.19
288.138	309.19
288.369	297.19
288.6	296.19
288.831	293.19
289.062	353.19
289.293	368.19
289.524	336.19
289.755	326.19
289.986	355.19
290.217	324.19
290.448	234.19
290.679	222.19
290.91	218.19
291.141	230.19
291.371	243.19
291.602	242.19
291.833	235.19
292.064	234.19
292.295	260.19
292.526	286.19
292.757	301.19
292.987	330.19
293.218	335.19
293.449	362.19
293.68	376.19
293.91	343.19
294.141	348.19
294.372	342.19
294.603	287.19
294.833	336.19
295.064	401.19
295.295	387.19
295.525	293.19
295.756	263.19
295.987	229.19
296.217	230.19
296.448	232.19
296.679	265.19
296.909	251.19
297.14	283.19
297.37	329.19
297.601	308.19
297.831	254.19
298.062	256.19
298.292	307.19
298.523	321.19
298.753	383.19
298.984	327.19
299.214	290.19
299.445	247.19
299.675	229.19
299.905	227.19
300.136	228.19
300.366	256.19
300.597	254.19
300.827	246.19
301.057	232.19
301.288	233.19
301.518	242.19
301.748	268.19
301.979	281.19
302.209	290.19
302.439	310.19
302.669	281.19
302.9	267.19
303.13	258.19
303.36	234.19
303.59	241.19
303.82	233.19
304.051	288.19
304.281	291.19
304.511	292.19
304.741	281.19
304.971	287.19
305.201	301.19
305.431	278.19
305.661	233.19
305.891	235.19
306.121	241.19
306.352	227.19
306.582	201.19
306.812	211.19
307.042	205.19
307.272	205.19
307.502	204.19
307.731	207.19
307.961	212.19
308.191	208.19
308.421	199.19
308.651	197.19
308.881	184.19
309.111	193.19
309.341	197.19
309.571	207.19
309.8	206.19
310.03	216.19
310.26	206.19
310.49	228.19
310.72	212.19
310.949	200.19
311.179	203.19
311.409	232.19
311.639	242.19
311.868	283.19
312.098	375.19
312.328	383.19
312.557	370.19
312.787	373.19
313.017	333.19
313.246	365.19
313.476	402.19
313.706	350.19
313.935	283.19
314.165	240.19
314.394	218.19
314.624	209.19
314.853	229.19
315.083	230.19
315.312	221.19
315.542	217.19
315.771	202.19
316.001	206.19
316.23	188.19
316.46	187.19
316.689	182.19
316.919	200.19
317.148	205.19
317.377	206.19
317.607	189.19
317.836	215.19
318.065	241.19
318.295	267.19
318.524	257.19
318.753	205.19
318.983	200.19
319.212	214.19
319.441	230.19
319.67	223.19
319.9	265.19
320.129	248.19
320.358	214.19
320.587	201.19
320.816	232.19
321.046	253.19
321.275	264.19
321.504	253.19
321.733	250.19
321.962	241.19
322.191	252.19
322.42	225.19
322.649	239.19
322.878	265.19
323.108	248.19
323.337	242.19
323.566	224.19
323.795	221.19
324.024	224.19
324.253	234.19
324.482	210.19
324.71	237.19
324.939	239.19
325.168	249.19
325.397	197.19
325.626	207.19
325.855	206.19
326.084	211.19
326.313	216.19
326.542	192.19
326.77	218.19
326.999	207.19
327.228	218.19
327.457	231.19
327.686	230.19
327.914	193.19
328.143	204.19
328.372	181.19
328.6	213.19
328.829	195.19
329.058	207.19
329.287	216.19
329.515	208.19
329.744	205.19
329.972	197.19
330.201	193.19
330.43	202.19
330.658	203.19
330.887	242.19
331.115	229.19
331.344	229.19
331.572	211.19
331.801	201.19
332.03	211.19
332.258	218.19
332.486	195.19
332.715	233.19
332.943	202.19
333.172	221.19
333.4	234.19
333.629	245.19
333.857	261.19
334.085	244.19
334.314	256.19
334.542	255.19
334.771	226.19
334.999	225.19
335.227	223.19
335.455	226.19
335.684	237.19
335.912	259.19
336.14	290.19
336.369	279.19
336.597	258.19
336.825	272.19
337.053	328.19
337.281	258.19
337.51	231.19
337.738	221.19
337.966	243.19
338.194	244.19
338.422	241.19
338.65	213.19
338.878	201.19
339.106	218.19
339.334	223.19
339.562	230.19
339.79	216.19
340.018	198.19
340.246	208.19
340.474	254.19
340.702	274.19
340.93	273.19
341.158	275.19
341.386	248.19
341.614	227.19
341.842	234.19
342.07	233.19
342.298	288.19
342.526	283.19
342.754	251.19
342.981	242.19
343.209	230.19
343.437	242.19
343.665	261.19
343.893	271.19
344.12	307.19
344.348	362.19
344.576	320.19
344.804	254.19
345.031	219.19
345.259	211.19
345.487	226.19
345.714	231.19
345.942	252.19
346.17	257.19
346.397	266.19
346.625	228.19
346.853	218.19
347.08	213.19
347.308	241.19
347.535	262.19
347.763	265.19
347.99	230.19
348.218	222.19
348.445	242.19
348.673	234.19
348.9	224.19
349.128	252.19
349.355	234.19
349.583	235.19
349.81	220.19
350.037	229.19
350.265	210.19
350.492	168.19
350.72	197.19
350.947	190.19
351.174	201.19
351.402	215.19
351.629	215.19
351.856	206.19
352.083	208.19
352.311	219.19
352.538	233.19
352.765	244.19
352.992	235.19
353.22	229.19
353.447	228.19
353.674	209.19
353.901	207.19
354.128	208.19
354.355	211.19
354.583	216.19
354.81	222.19
355.037	228.19
355.264	221.19
355.491	232.19
355.718	257.19
355.945	257.19
356.172	241.19
356.399	253.19
356.626	270.19
356.853	329.19
357.08	369.19
357.307	355.19
357.534	281.19
357.761	303.19
357.988	377.19
358.215	397.19
358.441	392.19
358.668	321.19
358.895	309.19
359.122	249.19
359.349	291.19
359.576	293.19
359.802	250.19
360.029	216.19
360.256	232.19
360.483	286.19
360.709	336.19
360.936	330.19
361.163	307.19
361.39	253.19
361.616	233.19
361.843	271.19
362.07	296.19
362.296	268.19
362.523	245.19
362.749	219.19
362.976	213.19
363.203	254.19
363.429	276.19
363.656	234.19
363.882	214.19
364.109	224.19
364.335	234.19
364.562	218.19
364.788	238.19
365.015	277.19
365.241	242.19
365.468	209.19
365.694	192.19
365.92	179.19
366.147	171.19
366.373	191.19
366.599	199.19
366.826	196.19
367.052	197.19
367.278	199.19
367.505	199.19
367.731	209.19
367.957	234.19
368.184	216.19
368.41	226.19
368.636	234.19
368.862	226.19
369.089	233.19
369.315	207.19
369.541	213.19
369.767	209.19
369.993	194.19
370.219	193.19
370.445	201.19
370.672	235.19
370.898	251.19
371.124	241.19
371.35	217.19
371.576	213.19
371.802	213.19
372.028	263.19
372.254	290.19
372.48	254.19
372.706	227.19
372.932	233.19
373.158	248.19
373.384	294.19
373.61	362.19
373.835	363.19
374.061	283.19
374.287	261.19
374.513	295.19
374.739	348.19
374.965	354.19
375.191	346.19
375.416	262.19
375.642	251.19
375.868	252.19
376.094	285.19
376.319	247.19
376.545	268.19
376.771	299.19
376.997	263.19
377.222	201.19
377.448	191.19
377.674	179.19
377.899	163.19
378.125	189.19
378.35	196.19
378.576	198.19
378.802	221.19
379.027	221.19
379.253	214.19
379.478	212.19
379.704	243.19
379.929	247.19
380.155	260.19
380.38	224.19
380.606	209.19
380.831	232.19
381.057	242.19
381.282	204.19
381.507	261.19
381.733	301.19
381.958	307.19
382.184	318.19
382.409	346.19
382.634	334.19
382.86	350.19
383.085	304.19
383.31	257.19
383.535	265.19
383.761	270.19
383.986	248.19
384.211	285.19
384.436	304.19
384.662	237.19
384.887	233.19
385.112	251.19
385.337	240.19
385.562	233.19
385.787	258.19
386.013	273.19
386.238	289.19
386.463	258.19
386.688	240.19
386.913	231.19
387.138	227.19
387.363	216.19
387.588	221.19
387.813	235.19
388.038	245.19
388.263	227.19
388.488	223.19
388.713	244.19
388.938	271.19
389.163	229.19
389.387	199.19
389.612	214.19
389.837	218.19
390.062	222.19
390.287	239.19
390.512	242.19
390.736	232.19
390.961	226.19
391.186	220.19
391.411	221.19
391.636	213.19
391.86	238.19
392.085	234.19
392.31	261.19
392.534	235.19
392.759	233.19
392.984	250.19
393.208	242.19
393.433	228.19
393.658	221.19
393.882	201.19
394.107	194.19
394.331	205.19
394.556	191.19
394.78	205.19
395.005	195.19
395.229	224.19
395.454	215.19
395.678	223.19
395.903	231.19
396.127	221.19
396.352	225.19
396.576	236.19
396.801	246.19
397.025	251.19
397.249	270.19
397.474	239.19
397.698	231.19
397.922	244.19
398.147	219.19
398.371	229.19
398.595	241.19
398.82	247.19
399.044	246.19
399.268	250.19
399.492	293.19
399.717	285.19
399.941	303.19
400.165	262.19
400.389	261.19
400.613	262.19
400.837	233.19
401.062	217.19
401.286	222.19
401.51	207.19
401.734	215.19
401.958	218.19
402.182	234.19
402.406	238.19
402.63	238.19
402.854	249.19
403.078	263.19
403.302	367.19
403.526	375.19
403.75	319.19
403.974	277.19
404.198	281.19
404.422	314.19
404.645	338.19
404.869	354.19
405.093	288.19
405.317	256.19
405.541	249.19
405.765	245.19
405.988	280.19
406.212	266.19
406.436	296.19
406.66	309.19
406.883	279.19
407.107	264.19
407.331	325.19
407.555	300.19
407.778	265.19
408.002	295.19
408.226	257.19
408.449	261.19
408.673	260.19
408.896	238.19
409.12	235.19
409.344	246.19
409.567	238.19
409.791	243.19
410.014	244.19
410.238	245.19
410.461	237.19
410.685	226.19
410.908	251.19
411.132	253.19
411.355	230.19
411.578	246.19
411.802	228.19
412.025	234.19
412.249	223.19
412.472	227.19
412.695	247.19
412.919	246.19
413.142	237.19
413.365	266.19
413.589	248.19
413.812	220.19
414.035	216.19
414.258	239.19
414.482	243.19
414.705	249.19
414.928	222.19
415.151	218.19
415.374	231.19
415.597	234.19
415.821	227.19
416.044	237.19
416.267	237.19
416.49	223.19
416.713	217.19
416.936	225.19
417.159	230.19
417.382	226.19
417.605	225.19
417.828	237.19
418.051	253.19
418.274	222.19
418.497	245.19
418.72	253.19
418.943	249.19
419.166	258.19
419.389	257.19
419.611	237.19
419.834	244.19
420.057	257.19
420.28	253.19
420.503	248.19
420.726	228.19
420.948	218.19
421.171	213.19
421.394	216.19
421.617	221.19
421.839	238.19
422.062	226.19
422.285	223.19
422.507	235.19
422.73	245.19
422.953	241.19
423.175	232.19
423.398	237.19
423.621	261.19
423.843	243.19
424.066	257.19
424.288	242.19
424.511	240.19
424.733	230.19
424.956	241.19
425.178	257.19
425.401	288.19
425.623	349.19
425.846	290.19
426.068	241.19
426.291	257.19
426.513	256.19
426.735	248.19
426.958	261.19
427.18	277.19
427.402	332.19
427.625	356.19
427.847	296.19
428.069	217.19
428.292	227.19
428.514	239.19
428.736	213.19
428.958	273.19
429.181	295.19
429.403	268.19
429.625	232.19
429.847	215.19
430.069	228.19
430.292	231.19
430.514	227.19
430.736	234.19
430.958	273.19
431.18	242.19
431.402	213.19
431.624	200.19
431.846	219.19
432.068	207.19
432.29	211.19
432.512	232.19
432.734	277.19
432.956	271.19
433.178	229.19
433.4	211.19
433.622	229.19
433.844	232.19
434.066	239.19
434.287	239.19
434.509	235.19
434.731	246.19
434.953	226.19
435.175	253.19
435.397	271.19
435.618	216.19
435.84	218.19
436.062	220.19
436.284	217.19
436.505	222.19
436.727	201.19
436.949	197.19
437.17	217.19
437.392	234.19
437.614	217.19
437.835	222.19
438.057	216.19
438.278	253.19
438.5	307.19
438.721	308.19
438.943	218.19
439.165	222.19
439.386	208.19
439.608	194.19
439.829	199.19
440.05	206.19
440.272	223.19
440.493	250.19
440.715	273.19
440.936	245.19
441.158	223.19
441.379	244.19
441.6	251.19
441.822	243.19
442.043	255.19
442.264	241.19
442.486	266.19
442.707	223.19
442.928	231.19
443.149	219.19
443.371	227.19
443.592	226.19
443.813	229.19
444.034	227.19
444.255	224.19
444.476	246.19
444.698	264.19
444.919	260.19
445.14	377.19
445.361	298.19
445.582	253.19
445.803	233.19
446.024	235.19
446.245	226.19
446.466	245.19
446.687	215.19
446.908	218.19
447.129	221.19
447.35	216.19
447.571	220.19
447.792	213.19
448.013	209.19
448.234	192.19
448.455	206.19
448.675	209.19
448.896	200.19
449.117	218.19
449.338	212.19
449.559	222.19
449.779	232.19
450	225.19
450.221	226.19
450.442	217.19
450.662	201.19
450.883	208.19
451.104	205.19
451.324	211.19
451.545	221.19
451.766	218.19
451.986	215.19
452.207	209.19
452.428	195.19
452.648	199.19
452.869	212.19
453.089	215.19
453.31	218.19
453.53	217.19
453.751	207.19
453.971	202.19
454.192	198.19
454.412	207.19
454.633	186.19
454.853	200.19
455.073	221.19
455.294	196.19
455.514	187.19
455.734	206.19
455.955	205.19
456.175	204.19
456.395	194.19
456.616	181.19
456.836	191.19
457.056	209.19
457.276	189.19
457.497	191.19
457.717	187.19
457.937	184.19
458.157	189.19
458.377	182.19
458.598	184.19
458.818	185.19
459.038	208.19
459.258	229.19
459.478	218.19
459.698	240.19
459.918	218.19
460.138	218.19
460.358	262.19
460.578	230.19
460.798	233.19
461.018	254.19
461.238	229.19
461.458	233.19
461.678	242.19
461.898	249.19
462.118	258.19
462.338	253.19
462.558	259.19
462.777	252.19
462.997	277.19
463.217	295.19
463.437	301.19
463.657	258.19
463.876	278.19
464.096	259.19
464.316	279.19
464.536	278.19
464.755	273.19
464.975	289.19
465.195	251.19
465.414	278.19
465.634	243.19
465.854	241.19
466.073	222.19
466.293	208.19
466.512	231.19
466.732	271.19
466.951	247.19
467.171	242.19
467.391	221.19
467.61	234.19
467.829	217.19
468.049	242.19
468.268	229.19
468.488	210.19
468.707	221.19
468.927	273.19
469.146	280.19
469.365	233.19
469.585	223.19
469.804	238.19
470.023	269.19
470.243	239.19
470.462	241.19
470.681	233.19
470.901	231.19
471.12	242.19
471.339	254.19
471.558	213.19
471.777	225.19
471.997	230.19
472.216	255.19
472.435	262.19
472.654	228.19
472.873	262.19
473.092	252.19
473.311	249.19
473.53	225.19
473.749	230.19
473.968	251.19
474.187	229.19
474.406	239.19
474.625	223.19
474.844	234.19
475.063	242.19
475.282	257.19
475.501	269.19
475.72	274.19
475.939	262.19
476.158	261.19
476.377	294.19
476.596	321.19
476.814	329.19
477.033	290.19
477.252	240.19
477.471	251.19
477.69	234.19
477.908	263.19
478.127	269.19
478.346	256.19
478.564	275.19
478.783	270.19
479.002	274.19
479.22	296.19
479.439	339.19
479.658	294.19
479.876	273.19
480.095	272.19
480.313	285.19
480.532	272.19
480.751	277.19
480.969	277.19
481.188	284.19
481.406	305.19
481.624	275.19
481.843	267.19
482.061	239.19
482.28	275.19
482.498	346.19
482.717	336.19
482.935	290.19
483.153	261.19
483.372	257.19
483.59	258.19
483.808	252.19
484.027	239.19
484.245	234.19
484.463	234.19
484.681	242.19
484.9	266.19
485.118	270.19
485.336	270.19
485.554	256.19
485.772	268.19
485.99	260.19
486.209	278.19
486.427	287.19
486.645	270.19
486.863	290.19
487.081	275.19
487.299	315.19
487.517	298.19
487.735	291.19
487.953	303.19
488.171	305.19
488.389	283.19
488.607	255.19
488.825	260.19
489.043	275.19
489.261	289.19
489.479	325.19
489.696	299.19
489.914	267.19
490.132	263.19
490.35	254.19
490.568	242.19
490.786	258.19
491.003	255.19
491.221	249.19
491.439	245.19
491.657	256.19
491.874	289.19
492.092	311.19
492.31	353.19
492.527	339.19
492.745	313.19
492.963	298.19
493.18	271.19
493.398	283.19
493.615	303.19
493.833	282.19
494.05	290.19
494.268	294.19
494.485	259.19
494.703	273.19
494.92	274.19
495.138	274.19
495.355	281.19
495.573	284.19
495.79	308.19
496.008	362.19
496.225	328.19
496.442	294.19
496.66	305.19
496.877	317.19
497.094	309.19
497.312	299.19
497.529	295.19
497.746	310.19
497.963	285.19
498.181	313.19
498.398	353.19
498.615	353.19
498.832	377.19
499.049	394.19
499.267	396.19
499.484	393.19
499.701	391.19
499.918	436.19
500.135	497.19
500.352	521.19
500.569	519.19
500.786	533.19
501.003	507.19
501.22	467.19
501.437	425.19
501.654	413.19
501.871	385.19
502.088	374.19
502.305	340.19
502.522	337.19
