Data from NickelSpatula.Lamp.E5.5.P2_HRD10591_11-53-23-548.txt Node
Date: Tue Jul 23 11:53:23 EDT 2019
User: cochatt
Spectrometer: HR+D1059
Trigger mode: 1
Integration Time (sec): 1.000000E-1
Scans to average: 1
Electric dark correction enabled: true
Nonlinearity correction enabled: false
Boxcar width: 0
XAxis mode: Wavelengths
Number of Pixels in Spectrum: 2048
>>>>>Begin Spectral Data<<<<<
223.165	-10.44
223.4	-10.44
223.635	-10.44
223.869	-11.44
224.104	-33.44
224.338	-8.44
224.573	-22.44
224.808	-16.44
225.042	-12.44
225.277	-7.44
225.511	12.56
225.746	8.56
225.98	9.56
226.215	12.56
226.449	12.56
226.683	19.56
226.918	30.56
227.152	16.56
227.387	35.56
227.621	43.56
227.856	53.56
228.09	48.56
228.324	38.56
228.559	49.56
228.793	60.56
229.027	75.56
229.262	78.56
229.496	88.56
229.73	72.56
229.964	76.56
230.199	97.56
230.433	86.56
230.667	99.56
230.901	100.56
231.136	88.56
231.37	98.56
231.604	104.56
231.838	107.56
232.072	108.56
232.306	98.56
232.541	106.56
232.775	87.56
233.009	107.56
233.243	106.56
233.477	118.56
233.711	116.56
233.945	121.56
234.179	112.56
234.413	121.56
234.647	128.56
234.881	136.56
235.115	122.56
235.349	123.56
235.583	111.56
235.817	127.56
236.051	113.56
236.285	129.56
236.519	141.56
236.753	130.56
236.987	123.56
237.221	116.56
237.455	110.56
237.689	127.56
237.922	146.56
238.156	126.56
238.39	148.56
238.624	159.56
238.858	162.56
239.091	139.56
239.325	146.56
239.559	147.56
239.793	140.56
240.027	169.56
240.26	156.56
240.494	161.56
240.728	148.56
240.961	184.56
241.195	159.56
241.429	143.56
241.662	157.56
241.896	148.56
242.13	142.56
242.363	138.56
242.597	124.56
242.83	145.56
243.064	143.56
243.298	150.56
243.531	182.56
243.765	173.56
243.998	164.56
244.232	142.56
244.465	153.56
244.699	155.56
244.932	171.56
245.166	162.56
245.399	162.56
245.633	158.56
245.866	140.56
246.099	164.56
246.333	180.56
246.566	189.56
246.8	168.56
247.033	170.56
247.266	161.56
247.5	165.56
247.733	160.56
247.966	156.56
248.2	177.56
248.433	182.56
248.666	191.56
248.899	187.56
249.133	182.56
249.366	230.56
249.599	223.56
249.832	202.56
250.066	193.56
250.299	187.56
250.532	186.56
250.765	210.56
250.998	167.56
251.231	168.56
251.465	167.56
251.698	198.56
251.931	185.56
252.164	192.56
252.397	216.56
252.63	240.56
252.863	250.56
253.096	258.56
253.329	259.56
253.562	240.56
253.795	278.56
254.028	276.56
254.261	286.56
254.494	244.56
254.727	240.56
254.96	246.56
255.193	256.56
255.426	243.56
255.659	188.56
255.892	177.56
256.124	203.56
256.357	227.56
256.59	240.56
256.823	244.56
257.056	238.56
257.289	188.56
257.521	210.56
257.754	255.56
257.987	287.56
258.22	267.56
258.452	235.56
258.685	245.56
258.918	268.56
259.151	268.56
259.383	283.56
259.616	323.56
259.849	341.56
260.081	344.56
260.314	371.56
260.547	312.56
260.779	325.56
261.012	349.56
261.244	339.56
261.477	350.56
261.71	315.56
261.942	289.56
262.175	278.56
262.407	255.56
262.64	270.56
262.872	307.56
263.105	319.56
263.337	343.56
263.57	320.56
263.802	233.56
264.035	212.56
264.267	201.56
264.499	184.56
264.732	180.56
264.964	169.56
265.197	168.56
265.429	184.56
265.661	198.56
265.894	211.56
266.126	224.56
266.358	224.56
266.591	268.56
266.823	335.56
267.055	310.56
267.287	275.56
267.52	266.56
267.752	290.56
267.984	303.56
268.216	293.56
268.448	250.56
268.681	259.56
268.913	258.56
269.145	280.56
269.377	276.56
269.609	296.56
269.841	269.56
270.073	279.56
270.306	280.56
270.538	302.56
270.77	298.56
271.002	318.56
271.234	308.56
271.466	318.56
271.698	294.56
271.93	279.56
272.162	288.56
272.394	299.56
272.626	275.56
272.858	277.56
273.09	290.56
273.322	247.56
273.553	244.56
273.785	283.56
274.017	376.56
274.249	434.56
274.481	448.56
274.713	499.56
274.945	555.56
275.176	598.56
275.408	530.56
275.64	468.56
275.872	506.56
276.104	418.56
276.335	360.56
276.567	369.56
276.799	386.56
277.031	404.56
277.262	318.56
277.494	259.56
277.726	230.56
277.957	265.56
278.189	292.56
278.421	290.56
278.652	298.56
278.884	264.56
279.115	253.56
279.347	256.56
279.579	262.56
279.81	266.56
280.042	267.56
280.273	265.56
280.505	245.56
280.736	222.56
280.968	231.56
281.199	239.56
281.431	279.56
281.662	274.56
281.894	247.56
282.125	266.56
282.356	280.56
282.588	307.56
282.819	261.56
283.051	272.56
283.282	318.56
283.513	375.56
283.745	418.56
283.976	414.56
284.207	372.56
284.439	410.56
284.67	379.56
284.901	328.56
285.132	361.56
285.364	376.56
285.595	357.56
285.826	378.56
286.057	397.56
286.288	379.56
286.52	416.56
286.751	398.56
286.982	394.56
287.213	356.56
287.444	334.56
287.675	355.56
287.906	353.56
288.138	307.56
288.369	281.56
288.6	290.56
288.831	308.56
289.062	323.56
289.293	358.56
289.524	342.56
289.755	299.56
289.986	332.56
290.217	314.56
290.448	242.56
290.679	219.56
290.91	215.56
291.141	227.56
291.371	233.56
291.602	219.56
291.833	228.56
292.064	220.56
292.295	250.56
292.526	294.56
292.757	302.56
292.987	310.56
293.218	305.56
293.449	341.56
293.68	356.56
293.91	344.56
294.141	350.56
294.372	339.56
294.603	290.56
294.833	311.56
295.064	388.56
295.295	394.56
295.525	272.56
295.756	243.56
295.987	219.56
296.217	221.56
296.448	232.56
296.679	242.56
296.909	252.56
297.14	258.56
297.37	292.56
297.601	276.56
297.831	255.56
298.062	251.56
298.292	275.56
298.523	294.56
298.753	342.56
298.984	296.56
299.214	244.56
299.445	242.56
299.675	225.56
299.905	232.56
300.136	217.56
300.366	235.56
300.597	224.56
300.827	231.56
301.057	209.56
301.288	217.56
301.518	249.56
301.748	264.56
301.979	277.56
302.209	290.56
302.439	286.56
302.669	275.56
302.9	278.56
303.13	254.56
303.36	257.56
303.59	235.56
303.82	242.56
304.051	262.56
304.281	287.56
304.511	292.56
304.741	247.56
304.971	270.56
305.201	278.56
305.431	274.56
305.661	230.56
305.891	227.56
306.121	255.56
306.352	219.56
306.582	212.56
306.812	196.56
307.042	203.56
307.272	194.56
307.502	199.56
307.731	201.56
307.961	213.56
308.191	198.56
308.421	198.56
308.651	192.56
308.881	188.56
309.111	188.56
309.341	202.56
309.571	194.56
309.8	205.56
310.03	212.56
310.26	222.56
310.49	207.56
310.72	196.56
310.949	206.56
311.179	208.56
311.409	204.56
311.639	242.56
311.868	280.56
312.098	364.56
312.328	382.56
312.557	368.56
312.787	360.56
313.017	351.56
313.246	339.56
313.476	368.56
313.706	314.56
313.935	265.56
314.165	242.56
314.394	224.56
314.624	224.56
314.853	220.56
315.083	224.56
315.312	219.56
315.542	215.56
315.771	210.56
316.001	214.56
316.23	208.56
316.46	197.56
316.689	199.56
316.919	185.56
317.148	212.56
317.377	202.56
317.607	182.56
317.836	203.56
318.065	228.56
318.295	231.56
318.524	251.56
318.753	219.56
318.983	199.56
319.212	194.56
319.441	204.56
319.67	230.56
319.9	240.56
320.129	245.56
320.358	219.56
320.587	194.56
320.816	222.56
321.046	224.56
321.275	257.56
321.504	261.56
321.733	256.56
321.962	262.56
322.191	222.56
322.42	218.56
322.649	229.56
322.878	254.56
323.108	240.56
323.337	234.56
323.566	231.56
323.795	248.56
324.024	215.56
324.253	202.56
324.482	202.56
324.71	224.56
324.939	244.56
325.168	235.56
325.397	213.56
325.626	207.56
325.855	215.56
326.084	214.56
326.313	200.56
326.542	196.56
326.77	202.56
326.999	199.56
327.228	215.56
327.457	227.56
327.686	217.56
327.914	202.56
328.143	202.56
328.372	191.56
328.6	182.56
328.829	201.56
329.058	191.56
329.287	179.56
329.515	193.56
329.744	191.56
329.972	200.56
330.201	194.56
330.43	204.56
330.658	200.56
330.887	236.56
331.115	236.56
331.344	230.56
331.572	224.56
331.801	204.56
332.03	210.56
332.258	213.56
332.486	231.56
332.715	233.56
332.943	218.56
333.172	238.56
333.4	213.56
333.629	234.56
333.857	268.56
334.085	234.56
334.314	242.56
334.542	244.56
334.771	207.56
334.999	219.56
335.227	222.56
335.455	225.56
335.684	213.56
335.912	257.56
336.14	263.56
336.369	285.56
336.597	267.56
336.825	264.56
337.053	320.56
337.281	266.56
337.51	224.56
337.738	210.56
337.966	206.56
338.194	252.56
338.422	231.56
338.65	211.56
338.878	206.56
339.106	214.56
339.334	223.56
339.562	246.56
339.79	233.56
340.018	218.56
340.246	230.56
340.474	257.56
340.702	254.56
340.93	256.56
341.158	268.56
341.386	233.56
341.614	247.56
341.842	234.56
342.07	230.56
342.298	281.56
342.526	282.56
342.754	243.56
342.981	231.56
343.209	240.56
343.437	238.56
343.665	251.56
343.893	255.56
344.12	295.56
344.348	334.56
344.576	303.56
344.804	268.56
345.031	226.56
345.259	217.56
345.487	221.56
345.714	219.56
345.942	223.56
346.17	250.56
346.397	252.56
346.625	219.56
346.853	220.56
347.08	205.56
347.308	226.56
347.535	237.56
347.763	271.56
347.99	243.56
348.218	232.56
348.445	228.56
348.673	222.56
348.9	220.56
349.128	233.56
349.355	242.56
349.583	228.56
349.81	223.56
350.037	210.56
350.265	176.56
350.492	217.56
350.72	194.56
350.947	192.56
351.174	207.56
351.402	204.56
351.629	203.56
351.856	215.56
352.083	198.56
352.311	211.56
352.538	226.56
352.765	216.56
352.992	243.56
353.22	235.56
353.447	235.56
353.674	227.56
353.901	223.56
354.128	206.56
354.355	226.56
354.583	218.56
354.81	222.56
355.037	231.56
355.264	215.56
355.491	220.56
355.718	234.56
355.945	241.56
356.172	227.56
356.399	229.56
356.626	275.56
356.853	300.56
357.08	330.56
357.307	320.56
357.534	286.56
357.761	297.56
357.988	349.56
358.215	370.56
358.441	362.56
358.668	315.56
358.895	300.56
359.122	280.56
359.349	269.56
359.576	295.56
359.802	238.56
360.029	210.56
360.256	244.56
360.483	260.56
360.709	332.56
360.936	352.56
361.163	274.56
361.39	242.56
361.616	219.56
361.843	249.56
362.07	284.56
362.296	261.56
362.523	220.56
362.749	217.56
362.976	218.56
363.203	230.56
363.429	272.56
363.656	242.56
363.882	224.56
364.109	223.56
364.335	214.56
364.562	218.56
364.788	239.56
365.015	252.56
365.241	239.56
365.468	215.56
365.694	183.56
365.92	200.56
366.147	194.56
366.373	193.56
366.599	198.56
366.826	187.56
367.052	180.56
367.278	194.56
367.505	217.56
367.731	208.56
367.957	213.56
368.184	221.56
368.41	233.56
368.636	245.56
368.862	218.56
369.089	222.56
369.315	189.56
369.541	206.56
369.767	201.56
369.993	202.56
370.219	210.56
370.445	219.56
370.672	230.56
370.898	239.56
371.124	226.56
371.35	208.56
371.576	199.56
371.802	233.56
372.028	256.56
372.254	274.56
372.48	243.56
372.706	224.56
372.932	230.56
373.158	261.56
373.384	279.56
373.61	334.56
373.835	350.56
374.061	281.56
374.287	250.56
374.513	282.56
374.739	341.56
374.965	321.56
375.191	333.56
375.416	251.56
375.642	235.56
375.868	259.56
376.094	286.56
376.319	251.56
376.545	268.56
376.771	264.56
376.997	251.56
377.222	211.56
377.448	203.56
377.674	187.56
377.899	175.56
378.125	178.56
378.35	191.56
378.576	191.56
378.802	204.56
379.027	215.56
379.253	227.56
379.478	221.56
379.704	221.56
379.929	242.56
380.155	247.56
380.38	235.56
380.606	229.56
380.831	232.56
381.057	225.56
381.282	228.56
381.507	245.56
381.733	292.56
381.958	294.56
382.184	306.56
382.409	332.56
382.634	325.56
382.86	359.56
383.085	304.56
383.31	239.56
383.535	250.56
383.761	278.56
383.986	257.56
384.211	306.56
384.436	280.56
384.662	247.56
384.887	254.56
385.112	235.56
385.337	235.56
385.562	233.56
385.787	238.56
386.013	264.56
386.238	274.56
386.463	230.56
386.688	220.56
386.913	204.56
387.138	232.56
387.363	229.56
387.588	231.56
387.813	223.56
388.038	249.56
388.263	238.56
388.488	224.56
388.713	264.56
388.938	270.56
389.163	240.56
389.387	209.56
389.612	218.56
389.837	231.56
390.062	220.56
390.287	235.56
390.512	242.56
390.736	240.56
390.961	220.56
391.186	206.56
391.411	207.56
391.636	217.56
391.86	225.56
392.085	256.56
392.31	232.56
392.534	223.56
392.759	233.56
392.984	229.56
393.208	217.56
393.433	204.56
393.658	194.56
393.882	207.56
394.107	201.56
394.331	191.56
394.556	197.56
394.78	206.56
395.005	216.56
395.229	199.56
395.454	204.56
395.678	211.56
395.903	234.56
396.127	208.56
396.352	205.56
396.576	232.56
396.801	227.56
397.025	245.56
397.249	236.56
397.474	222.56
397.698	231.56
397.922	225.56
398.147	222.56
398.371	212.56
398.595	223.56
398.82	232.56
399.044	235.56
399.268	240.56
399.492	270.56
399.717	271.56
399.941	284.56
400.165	262.56
400.389	270.56
400.613	251.56
400.837	239.56
401.062	235.56
401.286	217.56
401.51	224.56
401.734	200.56
401.958	226.56
402.182	235.56
402.406	226.56
402.63	227.56
402.854	253.56
403.078	268.56
403.302	338.56
403.526	368.56
403.75	328.56
403.974	267.56
404.198	273.56
404.422	318.56
404.645	323.56
404.869	337.56
405.093	295.56
405.317	256.56
405.541	250.56
405.765	260.56
405.988	251.56
406.212	258.56
406.436	302.56
406.66	315.56
406.883	276.56
407.107	272.56
407.331	310.56
407.555	310.56
407.778	277.56
408.002	283.56
408.226	258.56
408.449	250.56
408.673	260.56
408.896	247.56
409.12	238.56
409.344	240.56
409.567	230.56
409.791	225.56
410.014	235.56
410.238	243.56
410.461	242.56
410.685	221.56
410.908	223.56
411.132	247.56
411.355	226.56
411.578	241.56
411.802	224.56
412.025	242.56
412.249	238.56
412.472	227.56
412.695	229.56
412.919	225.56
413.142	233.56
413.365	246.56
413.589	249.56
413.812	231.56
414.035	235.56
414.258	225.56
414.482	247.56
414.705	250.56
414.928	227.56
415.151	226.56
415.374	229.56
415.597	231.56
415.821	238.56
416.044	234.56
416.267	236.56
416.49	228.56
416.713	210.56
416.936	235.56
417.159	235.56
417.382	218.56
417.605	220.56
417.828	226.56
418.051	216.56
418.274	228.56
418.497	232.56
418.72	233.56
418.943	222.56
419.166	234.56
419.389	241.56
419.611	229.56
419.834	227.56
420.057	247.56
420.28	278.56
420.503	245.56
420.726	231.56
420.948	240.56
421.171	236.56
421.394	225.56
421.617	219.56
421.839	221.56
422.062	223.56
422.285	242.56
422.507	240.56
422.73	238.56
422.953	239.56
423.175	253.56
423.398	244.56
423.621	243.56
423.843	245.56
424.066	235.56
424.288	222.56
424.511	256.56
424.733	236.56
424.956	254.56
425.178	254.56
425.401	271.56
425.623	321.56
425.846	297.56
426.068	245.56
426.291	264.56
426.513	240.56
426.735	217.56
426.958	233.56
427.18	278.56
427.402	317.56
427.625	350.56
427.847	303.56
428.069	213.56
428.292	236.56
428.514	225.56
428.736	215.56
428.958	226.56
429.181	304.56
429.403	254.56
429.625	227.56
429.847	216.56
430.069	233.56
430.292	220.56
430.514	214.56
430.736	222.56
430.958	273.56
431.18	249.56
431.402	185.56
431.624	213.56
431.846	204.56
432.068	208.56
432.29	201.56
432.512	229.56
432.734	273.56
432.956	263.56
433.178	223.56
433.4	213.56
433.622	217.56
433.844	249.56
434.066	256.56
434.287	226.56
434.509	228.56
434.731	230.56
434.953	235.56
435.175	247.56
435.397	260.56
435.618	239.56
435.84	218.56
436.062	207.56
436.284	218.56
436.505	217.56
436.727	206.56
436.949	215.56
437.17	223.56
437.392	213.56
437.614	219.56
437.835	195.56
438.057	209.56
438.278	226.56
438.5	289.56
438.721	302.56
438.943	239.56
439.165	208.56
439.386	223.56
439.608	209.56
439.829	193.56
440.05	217.56
440.272	227.56
440.493	230.56
440.715	269.56
440.936	241.56
441.158	215.56
441.379	218.56
441.6	240.56
441.822	263.56
442.043	217.56
442.264	228.56
442.486	226.56
442.707	217.56
442.928	208.56
443.149	235.56
443.371	248.56
443.592	246.56
443.813	241.56
444.034	243.56
444.255	252.56
444.476	227.56
444.698	248.56
444.919	247.56
445.14	355.56
445.361	302.56
445.582	262.56
445.803	239.56
446.024	240.56
446.245	237.56
446.466	228.56
446.687	232.56
446.908	213.56
447.129	228.56
447.35	216.56
447.571	211.56
447.792	200.56
448.013	211.56
448.234	202.56
448.455	221.56
448.675	215.56
448.896	202.56
449.117	204.56
449.338	210.56
449.559	206.56
449.779	231.56
450	221.56
450.221	218.56
450.442	199.56
450.662	211.56
450.883	234.56
451.104	214.56
451.324	196.56
451.545	193.56
451.766	214.56
451.986	198.56
452.207	190.56
452.428	186.56
452.648	215.56
452.869	209.56
453.089	216.56
453.31	212.56
453.53	190.56
453.751	203.56
453.971	204.56
454.192	208.56
454.412	199.56
454.633	206.56
454.853	193.56
455.073	204.56
455.294	195.56
455.514	203.56
455.734	192.56
455.955	195.56
456.175	229.56
456.395	192.56
456.616	202.56
456.836	195.56
457.056	200.56
457.276	201.56
457.497	200.56
457.717	178.56
457.937	201.56
458.157	191.56
458.377	186.56
458.598	186.56
458.818	202.56
459.038	217.56
459.258	206.56
459.478	224.56
459.698	225.56
459.918	224.56
460.138	225.56
460.358	242.56
460.578	238.56
460.798	241.56
461.018	228.56
461.238	230.56
461.458	227.56
461.678	246.56
461.898	246.56
462.118	226.56
462.338	261.56
462.558	255.56
462.777	275.56
462.997	286.56
463.217	297.56
463.437	278.56
463.657	281.56
463.876	262.56
464.096	228.56
464.316	249.56
464.536	289.56
464.755	277.56
464.975	279.56
465.195	240.56
465.414	268.56
465.634	243.56
465.854	230.56
466.073	229.56
466.293	241.56
466.512	229.56
466.732	235.56
466.951	258.56
467.171	218.56
467.391	226.56
467.61	214.56
467.829	228.56
468.049	223.56
468.268	228.56
468.488	215.56
468.707	227.56
468.927	259.56
469.146	259.56
469.365	256.56
469.585	228.56
469.804	242.56
470.023	266.56
470.243	210.56
470.462	224.56
470.681	232.56
470.901	248.56
471.12	228.56
471.339	239.56
471.558	205.56
471.777	218.56
471.997	229.56
472.216	256.56
472.435	258.56
472.654	225.56
472.873	248.56
473.092	243.56
473.311	258.56
473.53	220.56
473.749	230.56
473.968	240.56
474.187	218.56
474.406	214.56
474.625	234.56
474.844	237.56
475.063	242.56
475.282	239.56
475.501	240.56
475.72	260.56
475.939	239.56
476.158	242.56
476.377	296.56
476.596	324.56
476.814	336.56
477.033	276.56
477.252	249.56
477.471	243.56
477.69	236.56
477.908	262.56
478.127	247.56
478.346	255.56
478.564	281.56
478.783	272.56
479.002	265.56
479.22	290.56
479.439	289.56
479.658	273.56
479.876	251.56
480.095	289.56
480.313	291.56
480.532	268.56
480.751	255.56
480.969	262.56
481.188	288.56
481.406	291.56
481.624	287.56
481.843	263.56
482.061	234.56
482.28	291.56
482.498	330.56
482.717	312.56
482.935	271.56
483.153	264.56
483.372	235.56
483.59	254.56
483.808	242.56
484.027	260.56
484.245	247.56
484.463	245.56
484.681	254.56
484.9	263.56
485.118	276.56
485.336	258.56
485.554	253.56
485.772	248.56
485.99	261.56
486.209	282.56
486.427	275.56
486.645	271.56
486.863	275.56
487.081	285.56
487.299	297.56
487.517	274.56
487.735	269.56
487.953	269.56
488.171	266.56
488.389	254.56
488.607	247.56
488.825	271.56
489.043	274.56
489.261	311.56
489.479	300.56
489.696	271.56
489.914	246.56
490.132	257.56
490.35	256.56
490.568	268.56
490.786	263.56
491.003	264.56
491.221	275.56
491.439	270.56
491.657	260.56
491.874	280.56
492.092	315.56
492.31	348.56
492.527	352.56
492.745	327.56
492.963	283.56
493.18	282.56
493.398	278.56
493.615	278.56
493.833	283.56
494.05	290.56
494.268	289.56
494.485	279.56
494.703	263.56
494.92	274.56
495.138	279.56
495.355	262.56
495.573	268.56
495.79	295.56
496.008	335.56
496.225	315.56
496.442	291.56
496.66	292.56
496.877	315.56
497.094	285.56
497.312	307.56
497.529	296.56
497.746	289.56
497.963	292.56
498.181	324.56
498.398	361.56
498.615	344.56
498.832	373.56
499.049	366.56
499.267	354.56
499.484	402.56
499.701	391.56
499.918	424.56
500.135	500.56
500.352	511.56
500.569	531.56
500.786	540.56
501.003	507.56
501.22	444.56
501.437	431.56
501.654	398.56
501.871	352.56
502.088	367.56
502.305	350.56
502.522	352.56
