Data from NickelSpatula.Lamp.E10.P2_HRD10591_11-59-38-525.txt Node
Date: Tue Jul 23 11:59:38 EDT 2019
User: cochatt
Spectrometer: HR+D1059
Trigger mode: 1
Integration Time (sec): 1.000000E-1
Scans to average: 1
Electric dark correction enabled: true
Nonlinearity correction enabled: false
Boxcar width: 0
XAxis mode: Wavelengths
Number of Pixels in Spectrum: 2048
>>>>>Begin Spectral Data<<<<<
223.165	-4.19
223.4	-4.19
223.635	-4.19
223.869	-19.19
224.104	-15.19
224.338	-16.19
224.573	-10.19
224.808	-12.19
225.042	-15.19
225.277	-2.19
225.511	-14.19
225.746	2.81
225.98	7.81
226.215	14.81
226.449	5.81
226.683	21.81
226.918	22.81
227.152	32.81
227.387	16.81
227.621	29.81
227.856	39.81
228.09	42.81
228.324	36.81
228.559	43.81
228.793	74.81
229.027	136.81
229.262	142.81
229.496	148.81
229.73	159.81
229.964	175.81
230.199	203.81
230.433	202.81
230.667	207.81
230.901	200.81
231.136	206.81
231.37	220.81
231.604	239.81
231.838	251.81
232.072	237.81
232.306	255.81
232.541	222.81
232.775	245.81
233.009	256.81
233.243	295.81
233.477	321.81
233.711	344.81
233.945	324.81
234.179	329.81
234.413	359.81
234.647	407.81
234.881	453.81
235.115	419.81
235.349	398.81
235.583	354.81
235.817	337.81
236.051	379.81
236.285	427.81
236.519	484.81
236.753	441.81
236.987	419.81
237.221	425.81
237.455	425.81
237.689	417.81
237.922	484.81
238.156	471.81
238.39	573.81
238.624	663.81
238.858	601.81
239.091	505.81
239.325	512.81
239.559	480.81
239.793	561.81
240.027	687.81
240.26	626.81
240.494	592.81
240.728	595.81
240.961	680.81
241.195	647.81
241.429	645.81
241.662	642.81
241.896	537.81
242.13	476.81
242.363	447.81
242.597	501.81
242.83	553.81
243.064	533.81
243.298	592.81
243.531	645.81
243.765	641.81
243.998	613.81
244.232	625.81
244.465	611.81
244.699	589.81
244.932	680.81
245.166	641.81
245.399	557.81
245.633	549.81
245.866	565.81
246.099	604.81
246.333	732.81
246.566	789.81
246.8	791.81
247.033	762.81
247.266	680.81
247.5	695.81
247.733	664.81
247.966	677.81
248.2	687.81
248.433	823.81
248.666	842.81
248.899	863.81
249.133	889.81
249.366	986.81
249.599	1046.81
249.832	942.81
250.066	823.81
250.299	871.81
250.532	835.81
250.765	781.81
250.998	738.81
251.231	720.81
251.465	788.81
251.698	847.81
251.931	819.81
252.164	886.81
252.397	958.81
252.63	1055.81
252.863	1165.81
253.096	1213.81
253.329	1183.81
253.562	1120.81
253.795	1250.81
254.028	1401.81
254.261	1418.81
254.494	1281.81
254.727	1175.81
254.96	1124.81
255.193	1212.81
255.426	1138.81
255.659	866.81
255.892	817.81
256.124	875.81
256.357	1020.81
256.59	1216.81
256.823	1151.81
257.056	966.81
257.289	921.81
257.521	955.81
257.754	1139.81
257.987	1312.81
258.22	1121.81
258.452	995.81
258.685	1123.81
258.918	1288.81
259.151	1261.81
259.383	1312.81
259.616	1535.81
259.849	1551.81
260.081	1731.81
260.314	1936.81
260.547	1485.81
260.779	1514.81
261.012	1738.81
261.244	1647.81
261.477	1636.81
261.71	1556.81
261.942	1282.81
262.175	1307.81
262.407	1272.81
262.64	1288.81
262.872	1542.81
263.105	1679.81
263.337	1732.81
263.57	1543.81
263.802	1073.81
264.035	884.81
264.267	883.81
264.499	778.81
264.732	722.81
264.964	670.81
265.197	709.81
265.429	781.81
265.661	852.81
265.894	868.81
266.126	914.81
266.358	1037.81
266.591	1253.81
266.823	1499.81
267.055	1417.81
267.287	1257.81
267.52	1278.81
267.752	1321.81
267.984	1476.81
268.216	1385.81
268.448	1133.81
268.681	1105.81
268.913	1201.81
269.145	1278.81
269.377	1321.81
269.609	1311.81
269.841	1236.81
270.073	1299.81
270.306	1357.81
270.538	1365.81
270.77	1368.81
271.002	1411.81
271.234	1463.81
271.466	1530.81
271.698	1498.81
271.93	1484.81
272.162	1439.81
272.394	1435.81
272.626	1417.81
272.858	1466.81
273.09	1514.81
273.322	1316.81
273.553	1283.81
273.785	1565.81
274.017	1967.81
274.249	2476.81
274.481	2561.81
274.713	2800.81
274.945	3213.81
275.176	3297.81
275.408	2926.81
275.64	2687.81
275.872	2698.81
276.104	2256.81
276.335	1949.81
276.567	1930.81
276.799	1980.81
277.031	2119.81
277.262	1637.81
277.494	1253.81
277.726	1222.81
277.957	1340.81
278.189	1523.81
278.421	1505.81
278.652	1424.81
278.884	1364.81
279.115	1299.81
279.347	1227.81
279.579	1223.81
279.81	1219.81
280.042	1229.81
280.273	1290.81
280.505	1161.81
280.736	1013.81
280.968	1035.81
281.199	1110.81
281.431	1221.81
281.662	1200.81
281.894	1163.81
282.125	1265.81
282.356	1374.81
282.588	1389.81
282.819	1271.81
283.051	1407.81
283.282	1718.81
283.513	1997.81
283.745	2213.81
283.976	2196.81
284.207	2019.81
284.439	2119.81
284.67	1995.81
284.901	1827.81
285.132	1951.81
285.364	2055.81
285.595	1889.81
285.826	2019.81
286.057	2065.81
286.288	2010.81
286.52	2016.81
286.751	2121.81
286.982	2132.81
287.213	1890.81
287.444	1807.81
287.675	1872.81
287.906	1853.81
288.138	1595.81
288.369	1380.81
288.6	1301.81
288.831	1345.81
289.062	1532.81
289.293	1720.81
289.524	1624.81
289.755	1596.81
289.986	1627.81
290.217	1421.81
290.448	1128.81
290.679	975.81
290.91	921.81
291.141	915.81
291.371	971.81
291.602	963.81
291.833	1007.81
292.064	1058.81
292.295	1225.81
292.526	1447.81
292.757	1460.81
292.987	1597.81
293.218	1582.81
293.449	1600.81
293.68	1684.81
293.91	1635.81
294.141	1641.81
294.372	1546.81
294.603	1414.81
294.833	1605.81
295.064	1824.81
295.295	1759.81
295.525	1334.81
295.756	1140.81
295.987	985.81
296.217	1035.81
296.448	1045.81
296.679	1103.81
296.909	1256.81
297.14	1323.81
297.37	1458.81
297.601	1390.81
297.831	1178.81
298.062	1275.81
298.292	1461.81
298.523	1601.81
298.753	1814.81
298.984	1631.81
299.214	1294.81
299.445	1063.81
299.675	1058.81
299.905	1053.81
300.136	1103.81
300.366	1216.81
300.597	1199.81
300.827	1042.81
301.057	1011.81
301.288	1025.81
301.518	1075.81
301.748	1264.81
301.979	1361.81
302.209	1516.81
302.439	1503.81
302.669	1272.81
302.9	1283.81
303.13	1197.81
303.36	1130.81
303.59	1058.81
303.82	1109.81
304.051	1239.81
304.281	1341.81
304.511	1312.81
304.741	1140.81
304.971	1203.81
305.201	1276.81
305.431	1200.81
305.661	1088.81
305.891	1106.81
306.121	1116.81
306.352	977.81
306.582	904.81
306.812	876.81
307.042	907.81
307.272	797.81
307.502	833.81
307.731	912.81
307.961	933.81
308.191	835.81
308.421	820.81
308.651	809.81
308.881	786.81
309.111	801.81
309.341	817.81
309.571	879.81
309.8	915.81
310.03	985.81
310.26	1031.81
310.49	988.81
310.72	901.81
310.949	851.81
311.179	881.81
311.409	940.81
311.639	1073.81
311.868	1443.81
312.098	1837.81
312.328	1947.81
312.557	1876.81
312.787	1900.81
313.017	1655.81
313.246	1846.81
313.476	2010.81
313.706	1631.81
313.935	1305.81
314.165	1047.81
314.394	948.81
314.624	977.81
314.853	1018.81
315.083	1050.81
315.312	1013.81
315.542	1004.81
315.771	946.81
316.001	863.81
316.23	863.81
316.46	817.81
316.689	880.81
316.919	885.81
317.148	919.81
317.377	862.81
317.607	894.81
317.836	943.81
318.065	1123.81
318.295	1275.81
318.524	1202.81
318.753	1011.81
318.983	971.81
319.212	947.81
319.441	1043.81
319.67	1143.81
319.9	1215.81
320.129	1116.81
320.358	1003.81
320.587	949.81
320.816	1052.81
321.046	1193.81
321.275	1357.81
321.504	1389.81
321.733	1327.81
321.962	1238.81
322.191	1185.81
322.42	1128.81
322.649	1161.81
322.878	1251.81
323.108	1249.81
323.337	1128.81
323.566	1114.81
323.795	1102.81
324.024	1035.81
324.253	1023.81
324.482	1003.81
324.71	1092.81
324.939	1224.81
325.168	1147.81
325.397	957.81
325.626	946.81
325.855	941.81
326.084	935.81
326.313	891.81
326.542	846.81
326.77	913.81
326.999	893.81
327.228	959.81
327.457	1039.81
327.686	1003.81
327.914	897.81
328.143	847.81
328.372	857.81
328.6	843.81
328.829	907.81
329.058	928.81
329.287	895.81
329.515	930.81
329.744	887.81
329.972	837.81
330.201	799.81
330.43	852.81
330.658	968.81
330.887	1104.81
331.115	1078.81
331.344	1016.81
331.572	979.81
331.801	911.81
332.03	872.81
332.258	900.81
332.486	988.81
332.715	986.81
332.943	928.81
333.172	937.81
333.4	960.81
333.629	1039.81
333.857	1109.81
334.085	1116.81
334.314	1113.81
334.542	1052.81
334.771	991.81
334.999	965.81
335.227	943.81
335.455	959.81
335.684	1039.81
335.912	1202.81
336.14	1368.81
336.369	1293.81
336.597	1232.81
336.825	1371.81
337.053	1555.81
337.281	1275.81
337.51	994.81
337.738	971.81
337.966	1076.81
338.194	1182.81
338.422	1141.81
338.65	962.81
338.878	876.81
339.106	921.81
339.334	1033.81
339.562	1092.81
339.79	1014.81
340.018	969.81
340.246	1075.81
340.474	1217.81
340.702	1302.81
340.93	1380.81
341.158	1346.81
341.386	1147.81
341.614	1139.81
341.842	1124.81
342.07	1163.81
342.298	1374.81
342.526	1453.81
342.754	1233.81
342.981	1176.81
343.209	1089.81
343.437	1143.81
343.665	1216.81
343.893	1221.81
344.12	1413.81
344.348	1690.81
344.576	1469.81
344.804	1237.81
345.031	1094.81
345.259	997.81
345.487	1013.81
345.714	1040.81
345.942	1096.81
346.17	1216.81
346.397	1191.81
346.625	1020.81
346.853	981.81
347.08	955.81
347.308	992.81
347.535	1120.81
347.763	1166.81
347.99	1039.81
348.218	943.81
348.445	987.81
348.673	989.81
348.9	972.81
349.128	1073.81
349.355	1127.81
349.583	1058.81
349.81	1013.81
350.037	952.81
350.265	838.81
350.492	795.81
350.72	796.81
350.947	844.81
351.174	932.81
351.402	989.81
351.629	1009.81
351.856	943.81
352.083	913.81
352.311	995.81
352.538	1150.81
352.765	1183.81
352.992	1088.81
353.22	988.81
353.447	1024.81
353.674	992.81
353.901	974.81
354.128	996.81
354.355	1049.81
354.583	1010.81
354.81	1018.81
355.037	1031.81
355.264	1017.81
355.491	1104.81
355.718	1218.81
355.945	1181.81
356.172	1145.81
356.399	1135.81
356.626	1385.81
356.853	1679.81
357.08	1810.81
357.307	1863.81
357.534	1433.81
357.761	1455.81
357.988	1845.81
358.215	2199.81
358.441	2057.81
358.668	1691.81
358.895	1580.81
359.122	1242.81
359.349	1234.81
359.576	1394.81
359.802	1121.81
360.029	953.81
360.256	1084.81
360.483	1336.81
360.709	1709.81
360.936	1707.81
361.163	1499.81
361.39	1175.81
361.616	1092.81
361.843	1263.81
362.07	1579.81
362.296	1429.81
362.523	1097.81
362.749	962.81
362.976	961.81
363.203	1271.81
363.429	1411.81
363.656	1137.81
363.882	1035.81
364.109	1063.81
364.335	1011.81
364.562	1008.81
364.788	1142.81
365.015	1337.81
365.241	1213.81
365.468	985.81
365.694	861.81
365.92	807.81
366.147	804.81
366.373	790.81
366.599	791.81
366.826	834.81
367.052	859.81
367.278	849.81
367.505	857.81
367.731	906.81
367.957	1044.81
368.184	1074.81
368.41	1047.81
368.636	1061.81
368.862	1105.81
369.089	1076.81
369.315	915.81
369.541	917.81
369.767	914.81
369.993	873.81
370.219	859.81
370.445	955.81
370.672	1046.81
370.898	1142.81
371.124	1093.81
371.35	977.81
371.576	915.81
371.802	1010.81
372.028	1223.81
372.254	1373.81
372.48	1170.81
372.706	1068.81
372.932	1122.81
373.158	1165.81
373.384	1429.81
373.61	1933.81
373.835	1945.81
374.061	1465.81
374.287	1216.81
374.513	1463.81
374.739	1751.81
374.965	1800.81
375.191	1766.81
375.416	1145.81
375.642	1035.81
375.868	1239.81
376.094	1425.81
376.319	1199.81
376.545	1348.81
376.771	1427.81
376.997	1193.81
377.222	882.81
377.448	775.81
377.674	753.81
377.899	749.81
378.125	765.81
378.35	786.81
378.576	811.81
378.802	869.81
379.027	936.81
379.253	923.81
379.478	944.81
379.704	1087.81
379.929	1145.81
380.155	1080.81
380.38	983.81
380.606	1037.81
380.831	1143.81
381.057	1053.81
381.282	999.81
381.507	1188.81
381.733	1521.81
381.958	1623.81
382.184	1690.81
382.409	1775.81
382.634	1703.81
382.86	1837.81
383.085	1485.81
383.31	1167.81
383.535	1233.81
383.761	1239.81
383.986	1199.81
384.211	1491.81
384.436	1414.81
384.662	1052.81
384.887	1017.81
385.112	1058.81
385.337	1101.81
385.562	1010.81
385.787	1136.81
386.013	1279.81
386.238	1309.81
386.463	1043.81
386.688	1002.81
386.913	970.81
387.138	909.81
387.363	988.81
387.588	993.81
387.813	1023.81
388.038	1133.81
388.263	1009.81
388.488	970.81
388.713	1137.81
388.938	1234.81
389.163	1053.81
389.387	925.81
389.612	924.81
389.837	997.81
390.062	965.81
390.287	1010.81
390.512	1035.81
390.736	968.81
390.961	914.81
391.186	823.81
391.411	833.81
391.636	872.81
391.86	939.81
392.085	1028.81
392.31	1014.81
392.534	965.81
392.759	968.81
392.984	1021.81
393.208	988.81
393.433	914.81
393.658	804.81
393.882	796.81
394.107	795.81
394.331	832.81
394.556	780.81
394.78	807.81
395.005	837.81
395.229	880.81
395.454	884.81
395.678	928.81
395.903	941.81
396.127	885.81
396.352	883.81
396.576	977.81
396.801	1032.81
397.025	1150.81
397.249	1196.81
397.474	953.81
397.698	936.81
397.922	964.81
398.147	945.81
398.371	947.81
398.595	990.81
398.82	956.81
399.044	962.81
399.268	1041.81
399.492	1061.81
399.717	1067.81
399.941	1083.81
400.165	1060.81
400.389	1053.81
400.613	1082.81
400.837	1037.81
401.062	940.81
401.286	896.81
401.51	947.81
401.734	901.81
401.958	928.81
402.182	927.81
402.406	912.81
402.63	924.81
402.854	960.81
403.078	1047.81
403.302	1323.81
403.526	1392.81
403.75	1205.81
403.974	1089.81
404.198	1083.81
404.422	1259.81
404.645	1473.81
404.869	1651.81
405.093	1183.81
405.317	1011.81
405.541	1004.81
405.765	1043.81
405.988	1025.81
406.212	1121.81
406.436	1328.81
406.66	1517.81
406.883	1169.81
407.107	1204.81
407.331	1403.81
407.555	1325.81
407.778	1124.81
408.002	1063.81
408.226	1122.81
408.449	1067.81
408.673	1050.81
408.896	951.81
409.12	908.81
409.344	925.81
409.567	888.81
409.791	885.81
410.014	893.81
410.238	891.81
410.461	914.81
410.685	893.81
410.908	932.81
411.132	939.81
411.355	939.81
411.578	956.81
411.802	959.81
412.025	1025.81
412.249	1004.81
412.472	949.81
412.695	953.81
412.919	979.81
413.142	992.81
413.365	1066.81
413.589	1058.81
413.812	991.81
414.035	920.81
414.258	931.81
414.482	1098.81
414.705	1106.81
414.928	919.81
415.151	881.81
415.374	916.81
415.597	950.81
415.821	917.81
416.044	931.81
416.267	877.81
416.49	900.81
416.713	873.81
416.936	849.81
417.159	887.81
417.382	916.81
417.605	908.81
417.828	936.81
418.051	911.81
418.274	940.81
418.497	941.81
418.72	933.81
418.943	998.81
419.166	1030.81
419.389	1054.81
419.611	1009.81
419.834	1041.81
420.057	1153.81
420.28	1151.81
420.503	1025.81
420.726	941.81
420.948	888.81
421.171	892.81
421.394	910.81
421.617	854.81
421.839	907.81
422.062	957.81
422.285	914.81
422.507	959.81
422.73	984.81
422.953	973.81
423.175	969.81
423.398	962.81
423.621	1023.81
423.843	1072.81
424.066	988.81
424.288	935.81
424.511	913.81
424.733	908.81
424.956	972.81
425.178	1119.81
425.401	1267.81
425.623	1438.81
425.846	1186.81
426.068	1018.81
426.291	1157.81
426.513	1065.81
426.735	973.81
426.958	991.81
427.18	1186.81
427.402	1572.81
427.625	1506.81
427.847	1194.81
428.069	931.81
428.292	897.81
428.514	886.81
428.736	895.81
428.958	973.81
429.181	1145.81
429.403	993.81
429.625	904.81
429.847	861.81
430.069	900.81
430.292	942.81
430.514	897.81
430.736	981.81
430.958	1264.81
431.18	1107.81
431.402	866.81
431.624	809.81
431.846	811.81
432.068	808.81
432.29	817.81
432.512	933.81
432.734	1259.81
432.956	1155.81
433.178	893.81
433.4	831.81
433.622	861.81
433.844	898.81
434.066	964.81
434.287	948.81
434.509	898.81
434.731	946.81
434.953	884.81
435.175	932.81
435.397	1051.81
435.618	928.81
435.84	819.81
436.062	831.81
436.284	867.81
436.505	808.81
436.727	791.81
436.949	799.81
437.17	845.81
437.392	880.81
437.614	866.81
437.835	825.81
438.057	865.81
438.278	1014.81
438.5	1459.81
438.721	1409.81
438.943	972.81
439.165	815.81
439.386	805.81
439.608	809.81
439.829	796.81
440.05	784.81
440.272	846.81
440.493	1050.81
440.715	1263.81
440.936	1003.81
441.158	848.81
441.379	868.81
441.6	980.81
441.822	1042.81
442.043	884.81
442.264	883.81
442.486	866.81
442.707	875.81
442.928	873.81
443.149	902.81
443.371	884.81
443.592	935.81
443.813	919.81
444.034	878.81
444.255	902.81
444.476	971.81
444.698	960.81
444.919	951.81
445.14	1090.81
445.361	1026.81
445.582	974.81
445.803	940.81
446.024	960.81
446.245	943.81
446.466	945.81
446.687	901.81
446.908	886.81
447.129	811.81
447.35	795.81
447.571	803.81
447.792	804.81
448.013	803.81
448.234	780.81
448.455	789.81
448.675	797.81
448.896	820.81
449.117	829.81
449.338	811.81
449.559	850.81
449.779	910.81
450	865.81
450.221	838.81
450.442	795.81
450.662	807.81
450.883	811.81
451.104	814.81
451.324	793.81
451.545	789.81
451.766	789.81
451.986	810.81
452.207	788.81
452.428	800.81
452.648	769.81
452.869	834.81
453.089	864.81
453.31	850.81
453.53	779.81
453.751	751.81
453.971	736.81
454.192	748.81
454.412	807.81
454.633	783.81
454.853	770.81
455.073	740.81
455.294	751.81
455.514	738.81
455.734	792.81
455.955	817.81
456.175	848.81
456.395	761.81
456.616	717.81
456.836	719.81
457.056	697.81
457.276	701.81
457.497	745.81
457.717	723.81
457.937	734.81
458.157	731.81
458.377	739.81
458.598	735.81
458.818	779.81
459.038	820.81
459.258	827.81
459.478	841.81
459.698	886.81
459.918	919.81
460.138	905.81
460.358	884.81
460.578	876.81
460.798	909.81
461.018	894.81
461.238	852.81
461.458	871.81
461.678	897.81
461.898	926.81
462.118	940.81
462.338	958.81
462.558	966.81
462.777	1017.81
462.997	1017.81
463.217	986.81
463.437	1027.81
463.657	1040.81
463.876	982.81
464.096	963.81
464.316	976.81
464.536	938.81
464.755	1046.81
464.975	1026.81
465.195	968.81
465.414	1033.81
465.634	994.81
465.854	971.81
466.073	868.81
466.293	870.81
466.512	919.81
466.732	1039.81
466.951	1045.81
467.171	970.81
467.391	871.81
467.61	902.81
467.829	915.81
468.049	938.81
468.268	856.81
468.488	878.81
468.707	940.81
468.927	1055.81
469.146	1173.81
469.365	1044.81
469.585	949.81
469.804	1041.81
470.023	1134.81
470.243	971.81
470.462	934.81
470.681	898.81
470.901	943.81
471.12	1004.81
471.339	976.81
471.558	935.81
471.777	938.81
471.997	1022.81
472.216	1109.81
472.435	1103.81
472.654	1010.81
472.873	959.81
473.092	1012.81
473.311	1071.81
473.53	937.81
473.749	940.81
473.968	1001.81
474.187	1001.81
474.406	965.81
474.625	926.81
474.844	959.81
475.063	1034.81
475.282	1027.81
475.501	1079.81
475.72	1135.81
475.939	1084.81
476.158	1109.81
476.377	1261.81
476.596	1469.81
476.814	1535.81
477.033	1268.81
477.252	1070.81
477.471	990.81
477.69	1017.81
477.908	1125.81
478.127	1158.81
478.346	1076.81
478.564	1165.81
478.783	1115.81
479.002	1128.81
479.22	1320.81
479.439	1405.81
479.658	1237.81
479.876	1118.81
480.095	1213.81
480.313	1235.81
480.532	1139.81
480.751	1082.81
480.969	1124.81
481.188	1294.81
481.406	1312.81
481.624	1256.81
481.843	1117.81
482.061	1091.81
482.28	1211.81
482.498	1439.81
482.717	1415.81
482.935	1218.81
483.153	1154.81
483.372	1083.81
483.59	1076.81
483.808	1094.81
484.027	1021.81
484.245	1000.81
484.463	1001.81
484.681	1041.81
484.9	1124.81
485.118	1192.81
485.336	1106.81
485.554	1060.81
485.772	1085.81
485.99	1167.81
486.209	1279.81
486.427	1255.81
486.645	1215.81
486.863	1292.81
487.081	1252.81
487.299	1393.81
487.517	1429.81
487.735	1257.81
487.953	1268.81
488.171	1285.81
488.389	1184.81
488.607	1137.81
488.825	1205.81
489.043	1315.81
489.261	1487.81
489.479	1568.81
489.696	1319.81
489.914	1218.81
490.132	1139.81
490.35	1137.81
490.568	1146.81
490.786	1138.81
491.003	1161.81
491.221	1182.81
491.439	1156.81
491.657	1139.81
491.874	1233.81
492.092	1513.81
492.31	1849.81
492.527	1825.81
492.745	1542.81
492.963	1355.81
493.18	1311.81
493.398	1300.81
493.615	1316.81
493.833	1271.81
