Data from NickelSpatula.Lamp.E5.5.P2_HRD10591_11-52-17-555.txt Node
Date: Tue Jul 23 11:52:17 EDT 2019
User: cochatt
Spectrometer: HR+D1059
Trigger mode: 1
Integration Time (sec): 1.000000E-1
Scans to average: 1
Electric dark correction enabled: true
Nonlinearity correction enabled: false
Boxcar width: 0
XAxis mode: Wavelengths
Number of Pixels in Spectrum: 2048
>>>>>Begin Spectral Data<<<<<
223.165	-6.75
223.4	-6.75
223.635	-6.75
223.869	-3.75
224.104	-8.75
224.338	-7.75
224.573	-0.75
224.808	-10.75
225.042	-11.75
225.277	-21.75
225.511	-21.75
225.746	7.25
225.98	5.25
226.215	14.25
226.449	10.25
226.683	17.25
226.918	22.25
227.152	17.25
227.387	35.25
227.621	35.25
227.856	48.25
228.09	46.25
228.324	52.25
228.559	69.25
228.793	69.25
229.027	78.25
229.262	70.25
229.496	84.25
229.73	90.25
229.964	93.25
230.199	106.25
230.433	100.25
230.667	113.25
230.901	113.25
231.136	107.25
231.37	119.25
231.604	102.25
231.838	110.25
232.072	111.25
232.306	114.25
232.541	108.25
232.775	108.25
233.009	126.25
233.243	110.25
233.477	133.25
233.711	115.25
233.945	125.25
234.179	126.25
234.413	129.25
234.647	140.25
234.881	141.25
235.115	155.25
235.349	133.25
235.583	118.25
235.817	136.25
236.051	133.25
236.285	142.25
236.519	142.25
236.753	129.25
236.987	134.25
237.221	126.25
237.455	142.25
237.689	152.25
237.922	142.25
238.156	142.25
238.39	164.25
238.624	188.25
238.858	180.25
239.091	149.25
239.325	141.25
239.559	148.25
239.793	165.25
240.027	167.25
240.26	169.25
240.494	153.25
240.728	166.25
240.961	193.25
241.195	192.25
241.429	182.25
241.662	187.25
241.896	162.25
242.13	165.25
242.363	136.25
242.597	152.25
242.83	172.25
243.064	160.25
243.298	173.25
243.531	168.25
243.765	195.25
243.998	183.25
244.232	178.25
244.465	178.25
244.699	172.25
244.932	191.25
245.166	178.25
245.399	161.25
245.633	158.25
245.866	167.25
246.099	173.25
246.333	201.25
246.566	206.25
246.8	221.25
247.033	204.25
247.266	196.25
247.5	194.25
247.733	193.25
247.966	183.25
248.2	189.25
248.433	199.25
248.666	200.25
248.899	220.25
249.133	234.25
249.366	226.25
249.599	253.25
249.832	235.25
250.066	231.25
250.299	221.25
250.532	227.25
250.765	217.25
250.998	198.25
251.231	189.25
251.465	224.25
251.698	221.25
251.931	205.25
252.164	229.25
252.397	246.25
252.63	244.25
252.863	271.25
253.096	295.25
253.329	274.25
253.562	280.25
253.795	291.25
254.028	321.25
254.261	325.25
254.494	301.25
254.727	277.25
254.96	275.25
255.193	278.25
255.426	290.25
255.659	212.25
255.892	219.25
256.124	225.25
256.357	270.25
256.59	290.25
256.823	287.25
257.056	249.25
257.289	233.25
257.521	251.25
257.754	269.25
257.987	312.25
258.22	261.25
258.452	230.25
258.685	279.25
258.918	303.25
259.151	300.25
259.383	318.25
259.616	366.25
259.849	388.25
260.081	377.25
260.314	421.25
260.547	344.25
260.779	342.25
261.012	380.25
261.244	375.25
261.477	390.25
261.71	365.25
261.942	311.25
262.175	317.25
262.407	317.25
262.64	304.25
262.872	353.25
263.105	351.25
263.337	395.25
263.57	371.25
263.802	277.25
264.035	235.25
264.267	245.25
264.499	220.25
264.732	187.25
264.964	199.25
265.197	196.25
265.429	207.25
265.661	222.25
265.894	224.25
266.126	244.25
266.358	271.25
266.591	299.25
266.823	346.25
267.055	338.25
267.287	282.25
267.52	308.25
267.752	320.25
267.984	349.25
268.216	345.25
268.448	291.25
268.681	283.25
268.913	281.25
269.145	312.25
269.377	322.25
269.609	315.25
269.841	276.25
270.073	319.25
270.306	316.25
270.538	346.25
270.77	353.25
271.002	349.25
271.234	358.25
271.466	329.25
271.698	333.25
271.93	320.25
272.162	327.25
272.394	338.25
272.626	343.25
272.858	338.25
273.09	329.25
273.322	319.25
273.553	299.25
273.785	339.25
274.017	416.25
274.249	502.25
274.481	521.25
274.713	550.25
274.945	636.25
275.176	654.25
275.408	611.25
275.64	563.25
275.872	551.25
276.104	505.25
276.335	420.25
276.567	424.25
276.799	460.25
277.031	460.25
277.262	363.25
277.494	301.25
277.726	274.25
277.957	309.25
278.189	340.25
278.421	344.25
278.652	336.25
278.884	334.25
279.115	305.25
279.347	279.25
279.579	285.25
279.81	306.25
280.042	301.25
280.273	311.25
280.505	300.25
280.736	261.25
280.968	257.25
281.199	270.25
281.431	301.25
281.662	291.25
281.894	286.25
282.125	291.25
282.356	334.25
282.588	334.25
282.819	310.25
283.051	322.25
283.282	384.25
283.513	433.25
283.745	485.25
283.976	475.25
284.207	440.25
284.439	451.25
284.67	440.25
284.901	403.25
285.132	433.25
285.364	444.25
285.595	426.25
285.826	421.25
286.057	446.25
286.288	437.25
286.52	441.25
286.751	471.25
286.982	466.25
287.213	395.25
287.444	394.25
287.675	420.25
287.906	426.25
288.138	364.25
288.369	335.25
288.6	333.25
288.831	344.25
289.062	380.25
289.293	400.25
289.524	385.25
289.755	372.25
289.986	390.25
290.217	342.25
290.448	281.25
290.679	248.25
290.91	225.25
291.141	224.25
291.371	257.25
291.602	246.25
291.833	243.25
292.064	238.25
292.295	277.25
292.526	301.25
292.757	332.25
292.987	363.25
293.218	387.25
293.449	397.25
293.68	413.25
293.91	375.25
294.141	396.25
294.372	379.25
294.603	336.25
294.833	353.25
295.064	441.25
295.295	409.25
295.525	323.25
295.756	283.25
295.987	267.25
296.217	259.25
296.448	251.25
296.679	281.25
296.909	283.25
297.14	291.25
297.37	324.25
297.601	306.25
297.831	286.25
298.062	286.25
298.292	328.25
298.523	346.25
298.753	404.25
298.984	375.25
299.214	302.25
299.445	257.25
299.675	256.25
299.905	233.25
300.136	253.25
300.366	273.25
300.597	284.25
300.827	250.25
301.057	253.25
301.288	265.25
301.518	269.25
301.748	297.25
301.979	314.25
302.209	326.25
302.439	330.25
302.669	291.25
302.9	298.25
303.13	288.25
303.36	288.25
303.59	280.25
303.82	266.25
304.051	292.25
304.281	315.25
304.511	317.25
304.741	286.25
304.971	287.25
305.201	301.25
305.431	291.25
305.661	265.25
305.891	263.25
306.121	261.25
306.352	229.25
306.582	225.25
306.812	233.25
307.042	206.25
307.272	210.25
307.502	211.25
307.731	206.25
307.961	214.25
308.191	225.25
308.421	204.25
308.651	206.25
308.881	204.25
309.111	179.25
309.341	197.25
309.571	232.25
309.8	237.25
310.03	248.25
310.26	239.25
310.49	233.25
310.72	200.25
310.949	207.25
311.179	221.25
311.409	233.25
311.639	269.25
311.868	343.25
312.098	412.25
312.328	435.25
312.557	405.25
312.787	423.25
313.017	375.25
313.246	404.25
313.476	452.25
313.706	365.25
313.935	310.25
314.165	257.25
314.394	230.25
314.624	244.25
314.853	253.25
315.083	240.25
315.312	241.25
315.542	243.25
315.771	219.25
316.001	217.25
316.23	217.25
316.46	222.25
316.689	188.25
316.919	208.25
317.148	222.25
317.377	229.25
317.607	212.25
317.836	220.25
318.065	253.25
318.295	278.25
318.524	287.25
318.753	243.25
318.983	226.25
319.212	223.25
319.441	243.25
319.67	250.25
319.9	296.25
320.129	268.25
320.358	225.25
320.587	237.25
320.816	242.25
321.046	269.25
321.275	299.25
321.504	291.25
321.733	282.25
321.962	284.25
322.191	266.25
322.42	271.25
322.649	257.25
322.878	253.25
323.108	276.25
323.337	260.25
323.566	259.25
323.795	266.25
324.024	250.25
324.253	245.25
324.482	237.25
324.71	250.25
324.939	273.25
325.168	270.25
325.397	227.25
325.626	241.25
325.855	232.25
326.084	249.25
326.313	226.25
326.542	218.25
326.77	225.25
326.999	234.25
327.228	245.25
327.457	245.25
327.686	241.25
327.914	220.25
328.143	221.25
328.372	215.25
328.6	219.25
328.829	220.25
329.058	227.25
329.287	215.25
329.515	225.25
329.744	202.25
329.972	218.25
330.201	217.25
330.43	214.25
330.658	236.25
330.887	265.25
331.115	241.25
331.344	246.25
331.572	230.25
331.801	236.25
332.03	215.25
332.258	218.25
332.486	229.25
332.715	225.25
332.943	233.25
333.172	241.25
333.4	248.25
333.629	261.25
333.857	271.25
334.085	258.25
334.314	246.25
334.542	257.25
334.771	228.25
334.999	242.25
335.227	234.25
335.455	241.25
335.684	259.25
335.912	292.25
336.14	309.25
336.369	293.25
336.597	301.25
336.825	291.25
337.053	349.25
337.281	289.25
337.51	243.25
337.738	244.25
337.966	258.25
338.194	281.25
338.422	257.25
338.65	243.25
338.878	211.25
339.106	224.25
339.334	237.25
339.562	247.25
339.79	238.25
340.018	225.25
340.246	254.25
340.474	265.25
340.702	286.25
340.93	285.25
341.158	300.25
341.386	260.25
341.614	254.25
341.842	258.25
342.07	268.25
342.298	301.25
342.526	321.25
342.754	265.25
342.981	257.25
343.209	249.25
343.437	277.25
343.665	303.25
343.893	285.25
344.12	351.25
344.348	391.25
344.576	345.25
344.804	306.25
345.031	244.25
345.259	234.25
345.487	226.25
345.714	253.25
345.942	263.25
346.17	283.25
346.397	248.25
346.625	241.25
346.853	257.25
347.08	231.25
347.308	251.25
347.535	273.25
347.763	272.25
347.99	244.25
348.218	225.25
348.445	245.25
348.673	243.25
348.9	236.25
349.128	268.25
349.355	272.25
349.583	247.25
349.81	247.25
350.037	243.25
350.265	225.25
350.492	206.25
350.72	206.25
350.947	209.25
351.174	209.25
351.402	228.25
351.629	251.25
351.856	237.25
352.083	226.25
352.311	249.25
352.538	267.25
352.765	271.25
352.992	267.25
353.22	232.25
353.447	238.25
353.674	236.25
353.901	253.25
354.128	237.25
354.355	237.25
354.583	225.25
354.81	222.25
355.037	259.25
355.264	239.25
355.491	251.25
355.718	245.25
355.945	243.25
356.172	247.25
356.399	266.25
356.626	301.25
356.853	367.25
357.08	380.25
357.307	391.25
357.534	307.25
357.761	330.25
357.988	388.25
358.215	430.25
358.441	394.25
358.668	340.25
358.895	329.25
359.122	293.25
359.349	314.25
359.576	318.25
359.802	283.25
360.029	242.25
360.256	252.25
360.483	313.25
360.709	369.25
360.936	354.25
361.163	350.25
361.39	266.25
361.616	255.25
361.843	276.25
362.07	333.25
362.296	312.25
362.523	261.25
362.749	234.25
362.976	234.25
363.203	264.25
363.429	310.25
363.656	261.25
363.882	229.25
364.109	254.25
364.335	257.25
364.562	243.25
364.788	259.25
365.015	290.25
365.241	249.25
365.468	245.25
365.694	216.25
365.92	212.25
366.147	204.25
366.373	210.25
366.599	215.25
366.826	198.25
367.052	202.25
367.278	204.25
367.505	207.25
367.731	237.25
367.957	242.25
368.184	242.25
368.41	233.25
368.636	245.25
368.862	236.25
369.089	252.25
369.315	217.25
369.541	220.25
369.767	218.25
369.993	215.25
370.219	217.25
370.445	236.25
370.672	254.25
370.898	263.25
371.124	259.25
371.35	245.25
371.576	228.25
371.802	234.25
372.028	267.25
372.254	307.25
372.48	261.25
372.706	259.25
372.932	245.25
373.158	263.25
373.384	314.25
373.61	397.25
373.835	403.25
374.061	319.25
374.287	286.25
374.513	323.25
374.739	365.25
374.965	397.25
375.191	365.25
375.416	301.25
375.642	256.25
375.868	289.25
376.094	295.25
376.319	275.25
376.545	295.25
376.771	299.25
376.997	279.25
377.222	221.25
377.448	206.25
377.674	203.25
377.899	200.25
378.125	209.25
378.35	214.25
378.576	200.25
378.802	226.25
379.027	238.25
379.253	230.25
379.478	235.25
379.704	257.25
379.929	277.25
380.155	269.25
380.38	235.25
380.606	235.25
380.831	281.25
381.057	259.25
381.282	243.25
381.507	272.25
381.733	312.25
381.958	353.25
382.184	365.25
382.409	372.25
382.634	375.25
382.86	385.25
383.085	344.25
383.31	294.25
383.535	293.25
383.761	301.25
383.986	281.25
384.211	323.25
384.436	319.25
384.662	262.25
384.887	220.25
385.112	257.25
385.337	245.25
385.562	265.25
385.787	275.25
386.013	310.25
386.238	313.25
386.463	256.25
386.688	245.25
386.913	230.25
387.138	213.25
387.363	235.25
387.588	253.25
387.813	266.25
388.038	295.25
388.263	268.25
388.488	260.25
388.713	276.25
388.938	290.25
389.163	240.25
389.387	228.25
389.612	249.25
389.837	242.25
390.062	251.25
390.287	245.25
390.512	244.25
390.736	225.25
390.961	234.25
391.186	222.25
391.411	207.25
391.636	236.25
391.86	246.25
392.085	266.25
392.31	270.25
392.534	251.25
392.759	247.25
392.984	260.25
393.208	253.25
393.433	224.25
393.658	213.25
393.882	209.25
394.107	198.25
394.331	199.25
394.556	199.25
394.78	204.25
395.005	204.25
395.229	215.25
395.454	233.25
395.678	219.25
395.903	242.25
396.127	222.25
396.352	213.25
396.576	255.25
396.801	259.25
397.025	249.25
397.249	252.25
397.474	257.25
397.698	243.25
397.922	236.25
398.147	249.25
398.371	224.25
398.595	257.25
398.82	243.25
399.044	252.25
399.268	257.25
399.492	277.25
399.717	292.25
399.941	287.25
400.165	278.25
400.389	252.25
400.613	248.25
400.837	264.25
401.062	219.25
401.286	225.25
401.51	248.25
401.734	236.25
401.958	242.25
402.182	239.25
402.406	232.25
402.63	227.25
402.854	254.25
403.078	288.25
403.302	393.25
403.526	403.25
403.75	348.25
403.974	313.25
404.198	291.25
404.422	321.25
404.645	352.25
404.869	359.25
405.093	306.25
405.317	269.25
405.541	253.25
405.765	269.25
405.988	281.25
406.212	292.25
406.436	305.25
406.66	333.25
406.883	302.25
407.107	313.25
407.331	314.25
407.555	323.25
407.778	278.25
408.002	281.25
408.226	306.25
408.449	279.25
408.673	243.25
408.896	254.25
409.12	237.25
409.344	252.25
409.567	257.25
409.791	245.25
410.014	255.25
410.238	248.25
410.461	237.25
410.685	236.25
410.908	242.25
411.132	247.25
411.355	255.25
411.578	253.25
411.802	260.25
412.025	259.25
412.249	262.25
412.472	260.25
412.695	254.25
412.919	246.25
413.142	250.25
413.365	278.25
413.589	271.25
413.812	254.25
414.035	261.25
414.258	234.25
414.482	261.25
414.705	275.25
414.928	251.25
415.151	228.25
415.374	233.25
415.597	228.25
415.821	247.25
416.044	232.25
416.267	238.25
416.49	228.25
416.713	238.25
416.936	225.25
417.159	245.25
417.382	249.25
417.605	226.25
417.828	246.25
418.051	234.25
418.274	246.25
418.497	233.25
418.72	223.25
418.943	249.25
419.166	255.25
419.389	273.25
419.611	265.25
419.834	269.25
420.057	287.25
420.28	258.25
420.503	273.25
420.726	263.25
420.948	234.25
421.171	251.25
421.394	224.25
421.617	217.25
421.839	230.25
422.062	239.25
422.285	228.25
422.507	266.25
422.73	241.25
422.953	264.25
423.175	252.25
423.398	265.25
423.621	266.25
423.843	277.25
424.066	263.25
424.288	240.25
424.511	236.25
424.733	248.25
424.956	253.25
425.178	276.25
425.401	307.25
425.623	382.25
425.846	319.25
426.068	266.25
426.291	285.25
426.513	267.25
426.735	243.25
426.958	254.25
427.18	265.25
427.402	369.25
427.625	380.25
427.847	311.25
428.069	236.25
428.292	266.25
428.514	246.25
428.736	229.25
428.958	271.25
429.181	327.25
429.403	278.25
429.625	250.25
429.847	225.25
430.069	232.25
430.292	215.25
430.514	213.25
430.736	243.25
430.958	279.25
431.18	270.25
431.402	242.25
431.624	242.25
431.846	220.25
432.068	237.25
432.29	234.25
432.512	242.25
432.734	297.25
432.956	262.25
433.178	236.25
433.4	232.25
433.622	230.25
433.844	227.25
434.066	255.25
434.287	259.25
434.509	250.25
434.731	271.25
434.953	262.25
435.175	249.25
435.397	288.25
435.618	238.25
435.84	239.25
436.062	226.25
436.284	220.25
436.505	207.25
436.727	210.25
436.949	211.25
437.17	239.25
437.392	223.25
437.614	202.25
437.835	235.25
438.057	235.25
438.278	271.25
438.5	332.25
438.721	331.25
438.943	257.25
439.165	231.25
439.386	223.25
439.608	227.25
439.829	211.25
440.05	218.25
440.272	224.25
440.493	270.25
440.715	302.25
440.936	265.25
441.158	236.25
441.379	238.25
441.6	271.25
441.822	271.25
442.043	244.25
442.264	235.25
442.486	263.25
442.707	254.25
442.928	230.25
443.149	237.25
443.371	231.25
443.592	255.25
443.813	255.25
444.034	262.25
444.255	238.25
444.476	265.25
444.698	259.25
444.919	264.25
445.14	370.25
445.361	307.25
445.582	268.25
445.803	252.25
446.024	264.25
446.245	260.25
446.466	246.25
446.687	252.25
446.908	218.25
447.129	223.25
447.35	227.25
447.571	232.25
447.792	219.25
448.013	220.25
448.234	219.25
448.455	215.25
448.675	206.25
448.896	231.25
449.117	227.25
449.338	230.25
449.559	237.25
449.779	245.25
450	237.25
450.221	213.25
450.442	209.25
450.662	220.25
450.883	219.25
451.104	214.25
451.324	207.25
451.545	222.25
451.766	211.25
451.986	226.25
452.207	222.25
452.428	210.25
452.648	221.25
452.869	226.25
453.089	230.25
453.31	235.25
453.53	216.25
453.751	213.25
453.971	186.25
454.192	214.25
454.412	233.25
454.633	211.25
454.853	229.25
455.073	216.25
455.294	206.25
455.514	230.25
455.734	219.25
455.955	221.25
456.175	209.25
456.395	194.25
456.616	196.25
456.836	194.25
457.056	200.25
457.276	217.25
457.497	192.25
457.717	214.25
457.937	201.25
458.157	206.25
458.377	205.25
458.598	192.25
458.818	217.25
459.038	230.25
459.258	237.25
459.478	229.25
459.698	244.25
459.918	262.25
460.138	244.25
460.358	239.25
460.578	250.25
460.798	241.25
461.018	263.25
461.238	235.25
461.458	247.25
461.678	262.25
461.898	245.25
462.118	247.25
462.338	233.25
462.558	285.25
462.777	275.25
462.997	294.25
463.217	276.25
463.437	306.25
463.657	279.25
463.876	277.25
464.096	283.25
464.316	277.25
464.536	270.25
464.755	289.25
464.975	275.25
465.195	264.25
465.414	291.25
465.634	246.25
465.854	234.25
466.073	232.25
466.293	230.25
466.512	229.25
466.732	267.25
466.951	269.25
467.171	231.25
467.391	232.25
467.61	221.25
467.829	250.25
468.049	223.25
468.268	221.25
468.488	224.25
468.707	217.25
468.927	251.25
469.146	272.25
469.365	257.25
469.585	233.25
469.804	263.25
470.023	290.25
470.243	278.25
470.462	238.25
470.681	259.25
470.901	246.25
471.12	254.25
471.339	238.25
471.558	239.25
471.777	249.25
471.997	251.25
472.216	278.25
472.435	270.25
472.654	263.25
472.873	249.25
473.092	250.25
473.311	250.25
473.53	226.25
473.749	240.25
473.968	268.25
474.187	277.25
474.406	248.25
474.625	245.25
474.844	225.25
475.063	246.25
475.282	248.25
475.501	276.25
475.72	293.25
475.939	269.25
476.158	260.25
476.377	299.25
476.596	357.25
476.814	371.25
477.033	303.25
477.252	276.25
477.471	245.25
477.69	249.25
477.908	265.25
478.127	276.25
478.346	291.25
478.564	312.25
478.783	297.25
479.002	296.25
479.22	315.25
479.439	345.25
479.658	305.25
479.876	281.25
480.095	305.25
480.313	316.25
480.532	314.25
480.751	291.25
480.969	265.25
481.188	306.25
481.406	325.25
481.624	329.25
481.843	283.25
482.061	286.25
482.28	306.25
482.498	332.25
482.717	345.25
482.935	305.25
483.153	293.25
483.372	281.25
483.59	275.25
483.808	256.25
484.027	266.25
484.245	267.25
484.463	248.25
484.681	266.25
484.9	277.25
485.118	313.25
485.336	278.25
485.554	282.25
485.772	258.25
485.99	281.25
486.209	307.25
486.427	319.25
486.645	291.25
486.863	315.25
487.081	300.25
487.299	324.25
487.517	309.25
487.735	293.25
487.953	306.25
488.171	331.25
488.389	294.25
488.607	272.25
488.825	291.25
489.043	302.25
489.261	333.25
489.479	368.25
489.696	299.25
489.914	285.25
490.132	269.25
490.35	273.25
490.568	276.25
490.786	292.25
491.003	278.25
491.221	279.25
491.439	290.25
491.657	302.25
491.874	291.25
492.092	354.25
492.31	381.25
492.527	385.25
492.745	347.25
492.963	337.25
493.18	310.25
493.398	305.25
493.615	329.25
493.833	279.25
494.05	301.25
494.268	297.25
494.485	299.25
494.703	293.25
494.92	284.25
495.138	294.25
495.355	284.25
495.573	273.25
495.79	322.25
496.008	397.25
496.225	332.25
496.442	309.25
496.66	317.25
496.877	327.25
497.094	325.25
497.312	298.25
497.529	305.25
497.746	308.25
497.963	332.25
498.181	350.25
498.398	382.25
498.615	385.25
498.832	396.25
499.049	404.25
499.267	390.25
499.484	388.25
499.701	414.25
499.918	461.25
500.135	489.25
500.352	528.25
500.569	563.25
500.786	554.25
501.003	549.25
501.22	477.25
501.437	451.25
501.654	402.25
501.871	405.25
502.088	387.25
502.305	369.25
502.522	356.25
