Data from NickelSpatula.Lamp.E10.P2_HRD10591_11-59-11-525.txt Node
Date: Tue Jul 23 11:59:11 EDT 2019
User: cochatt
Spectrometer: HR+D1059
Trigger mode: 1
Integration Time (sec): 1.000000E-1
Scans to average: 1
Electric dark correction enabled: true
Nonlinearity correction enabled: false
Boxcar width: 0
XAxis mode: Wavelengths
Number of Pixels in Spectrum: 2048
>>>>>Begin Spectral Data<<<<<
223.165	-14.62
223.4	-14.62
223.635	-14.62
223.869	-14.62
224.104	-9.62
224.338	-6.62
224.573	-15.62
224.808	-25.62
225.042	-10.62
225.277	-8.62
225.511	2.38
225.746	-9.62
225.98	21.38
226.215	-0.62
226.449	20.38
226.683	18.38
226.918	31.38
227.152	22.38
227.387	20.38
227.621	22.38
227.856	55.38
228.09	66.38
228.324	63.38
228.559	52.38
228.793	86.38
229.027	148.38
229.262	151.38
229.496	160.38
229.73	164.38
229.964	184.38
230.199	212.38
230.433	217.38
230.667	202.38
230.901	203.38
231.136	209.38
231.37	197.38
231.604	214.38
231.838	228.38
232.072	247.38
232.306	236.38
232.541	234.38
232.775	239.38
233.009	258.38
233.243	298.38
233.477	312.38
233.711	343.38
233.945	319.38
234.179	330.38
234.413	332.38
234.647	372.38
234.881	449.38
235.115	414.38
235.349	417.38
235.583	358.38
235.817	351.38
236.051	371.38
236.285	442.38
236.519	452.38
236.753	429.38
236.987	433.38
237.221	398.38
237.455	417.38
237.689	436.38
237.922	469.38
238.156	481.38
238.39	558.38
238.624	656.38
238.858	578.38
239.091	486.38
239.325	511.38
239.559	479.38
239.793	526.38
240.027	653.38
240.26	588.38
240.494	572.38
240.728	582.38
240.961	695.38
241.195	643.38
241.429	670.38
241.662	608.38
241.896	535.38
242.13	484.38
242.363	454.38
242.597	468.38
242.83	511.38
243.064	528.38
243.298	594.38
243.531	614.38
243.765	633.38
243.998	620.38
244.232	585.38
244.465	614.38
244.699	585.38
244.932	663.38
245.166	631.38
245.399	562.38
245.633	507.38
245.866	567.38
246.099	621.38
246.333	721.38
246.566	794.38
246.8	750.38
247.033	724.38
247.266	688.38
247.5	700.38
247.733	706.38
247.966	655.38
248.2	702.38
248.433	801.38
248.666	851.38
248.899	851.38
249.133	860.38
249.366	975.38
249.599	1062.38
249.832	942.38
250.066	840.38
250.299	823.38
250.532	811.38
250.765	783.38
250.998	712.38
251.231	709.38
251.465	762.38
251.698	820.38
251.931	786.38
252.164	833.38
252.397	962.38
252.63	1050.38
252.863	1165.38
253.096	1219.38
253.329	1167.38
253.562	1095.38
253.795	1211.38
254.028	1327.38
254.261	1406.38
254.494	1247.38
254.727	1123.38
254.96	1115.38
255.193	1183.38
255.426	1118.38
255.659	843.38
255.892	786.38
256.124	855.38
256.357	1024.38
256.59	1200.38
256.823	1127.38
257.056	991.38
257.289	934.38
257.521	968.38
257.754	1101.38
257.987	1276.38
258.22	1103.38
258.452	1012.38
258.685	1145.38
258.918	1266.38
259.151	1210.38
259.383	1309.38
259.616	1499.38
259.849	1540.38
260.081	1729.38
260.314	1890.38
260.547	1470.38
260.779	1468.38
261.012	1745.38
261.244	1627.38
261.477	1606.38
261.71	1547.38
261.942	1306.38
262.175	1274.38
262.407	1231.38
262.64	1288.38
262.872	1475.38
263.105	1625.38
263.337	1710.38
263.57	1517.38
263.802	1018.38
264.035	902.38
264.267	871.38
264.499	766.38
264.732	688.38
264.964	700.38
265.197	724.38
265.429	751.38
265.661	821.38
265.894	861.38
266.126	894.38
266.358	1011.38
266.591	1238.38
266.823	1463.38
267.055	1368.38
267.287	1224.38
267.52	1248.38
267.752	1298.38
267.984	1451.38
268.216	1338.38
268.448	1133.38
268.681	1106.38
268.913	1188.38
269.145	1231.38
269.377	1288.38
269.609	1304.38
269.841	1216.38
270.073	1272.38
270.306	1351.38
270.538	1348.38
270.77	1375.38
271.002	1390.38
271.234	1474.38
271.466	1508.38
271.698	1435.38
271.93	1426.38
272.162	1415.38
272.394	1458.38
272.626	1407.38
272.858	1432.38
273.09	1439.38
273.322	1282.38
273.553	1262.38
273.785	1488.38
274.017	1991.38
274.249	2444.38
274.481	2557.38
274.713	2778.38
274.945	3180.38
275.176	3261.38
275.408	2842.38
275.64	2611.38
275.872	2664.38
276.104	2228.38
276.335	1920.38
276.567	1922.38
276.799	1968.38
277.031	2082.38
277.262	1570.38
277.494	1229.38
277.726	1178.38
277.957	1328.38
278.189	1493.38
278.421	1475.38
278.652	1426.38
278.884	1367.38
279.115	1235.38
279.347	1179.38
279.579	1213.38
279.81	1228.38
280.042	1198.38
280.273	1220.38
280.505	1108.38
280.736	1002.38
280.968	987.38
281.199	1073.38
281.431	1216.38
281.662	1194.38
281.894	1144.38
282.125	1239.38
282.356	1341.38
282.588	1367.38
282.819	1221.38
283.051	1390.38
283.282	1678.38
283.513	1979.38
283.745	2117.38
283.976	2179.38
284.207	1988.38
284.439	2092.38
284.67	2022.38
284.901	1787.38
285.132	1889.38
285.364	2003.38
285.595	1830.38
285.826	1962.38
286.057	2026.38
286.288	1974.38
286.52	1972.38
286.751	2087.38
286.982	2102.38
287.213	1784.38
287.444	1699.38
287.675	1841.38
287.906	1790.38
288.138	1491.38
288.369	1315.38
288.6	1259.38
288.831	1310.38
289.062	1543.38
289.293	1683.38
289.524	1582.38
289.755	1583.38
289.986	1606.38
290.217	1407.38
290.448	1085.38
290.679	947.38
290.91	887.38
291.141	923.38
291.371	955.38
291.602	988.38
291.833	980.38
292.064	1050.38
292.295	1204.38
292.526	1364.38
292.757	1438.38
292.987	1533.38
293.218	1546.38
293.449	1586.38
293.68	1688.38
293.91	1606.38
294.141	1608.38
294.372	1495.38
294.603	1398.38
294.833	1538.38
295.064	1795.38
295.295	1701.38
295.525	1292.38
295.756	1134.38
295.987	962.38
296.217	1015.38
296.448	1020.38
296.679	1094.38
296.909	1217.38
297.14	1311.38
297.37	1440.38
297.601	1318.38
297.831	1169.38
298.062	1215.38
298.292	1427.38
298.523	1562.38
298.753	1763.38
298.984	1586.38
299.214	1251.38
299.445	1078.38
299.675	1025.38
299.905	1034.38
300.136	1079.38
300.366	1182.38
300.597	1150.38
300.827	1009.38
301.057	978.38
301.288	1032.38
301.518	1088.38
301.748	1220.38
301.979	1316.38
302.209	1432.38
302.439	1450.38
302.669	1246.38
302.9	1252.38
303.13	1141.38
303.36	1076.38
303.59	1050.38
303.82	1090.38
304.051	1222.38
304.281	1328.38
304.511	1247.38
304.741	1115.38
304.971	1187.38
305.201	1272.38
305.431	1179.38
305.661	1038.38
305.891	1058.38
306.121	1050.38
306.352	963.38
306.582	866.38
306.812	844.38
307.042	838.38
307.272	792.38
307.502	796.38
307.731	890.38
307.961	906.38
308.191	890.38
308.421	778.38
308.651	798.38
308.881	741.38
309.111	756.38
309.341	782.38
309.571	876.38
309.8	916.38
310.03	890.38
310.26	998.38
310.49	945.38
310.72	886.38
310.949	824.38
311.179	878.38
311.409	944.38
311.639	1081.38
311.868	1354.38
312.098	1748.38
312.328	1893.38
312.557	1822.38
312.787	1880.38
313.017	1657.38
313.246	1734.38
313.476	1948.38
313.706	1620.38
313.935	1271.38
314.165	1036.38
314.394	926.38
314.624	926.38
314.853	1021.38
315.083	997.38
315.312	967.38
315.542	982.38
315.771	940.38
316.001	867.38
316.23	825.38
316.46	833.38
316.689	840.38
316.919	851.38
317.148	886.38
317.377	854.38
317.607	868.38
317.836	972.38
318.065	1068.38
318.295	1217.38
318.524	1156.38
318.753	967.38
318.983	909.38
319.212	911.38
319.441	1009.38
319.67	1134.38
319.9	1202.38
320.129	1127.38
320.358	964.38
320.587	965.38
320.816	999.38
321.046	1172.38
321.275	1310.38
321.504	1350.38
321.733	1255.38
321.962	1236.38
322.191	1166.38
322.42	1095.38
322.649	1121.38
322.878	1226.38
323.108	1178.38
323.337	1095.38
323.566	1088.38
323.795	1047.38
324.024	1004.38
324.253	966.38
324.482	943.38
324.71	1054.38
324.939	1263.38
325.168	1107.38
325.397	918.38
325.626	901.38
325.855	895.38
326.084	930.38
326.313	867.38
326.542	828.38
326.77	875.38
326.999	891.38
327.228	933.38
327.457	998.38
327.686	1000.38
327.914	867.38
328.143	818.38
328.372	840.38
328.6	849.38
328.829	886.38
329.058	878.38
329.287	878.38
329.515	895.38
329.744	839.38
329.972	821.38
330.201	811.38
330.43	826.38
330.658	940.38
330.887	1063.38
331.115	1006.38
331.344	1004.38
331.572	952.38
331.801	905.38
332.03	854.38
332.258	871.38
332.486	950.38
332.715	975.38
332.943	879.38
333.172	842.38
333.4	941.38
333.629	1022.38
333.857	1111.38
334.085	1115.38
334.314	1099.38
334.542	1012.38
334.771	948.38
334.999	938.38
335.227	916.38
335.455	965.38
335.684	1035.38
335.912	1157.38
336.14	1298.38
336.369	1260.38
336.597	1183.38
336.825	1366.38
337.053	1509.38
337.281	1221.38
337.51	990.38
337.738	948.38
337.966	1077.38
338.194	1176.38
338.422	1074.38
338.65	942.38
338.878	898.38
339.106	893.38
339.334	1013.38
339.562	1051.38
339.79	972.38
340.018	956.38
340.246	1006.38
340.474	1148.38
340.702	1239.38
340.93	1315.38
341.158	1302.38
341.386	1092.38
341.614	1100.38
341.842	1084.38
342.07	1121.38
342.298	1320.38
342.526	1377.38
342.754	1172.38
342.981	1101.38
343.209	1059.38
343.437	1097.38
343.665	1146.38
343.893	1173.38
344.12	1362.38
344.348	1562.38
344.576	1399.38
344.804	1166.38
345.031	1012.38
345.259	954.38
345.487	977.38
345.714	1010.38
345.942	1109.38
346.17	1202.38
346.397	1107.38
346.625	999.38
346.853	945.38
347.08	941.38
347.308	988.38
347.535	1106.38
347.763	1094.38
347.99	956.38
348.218	931.38
348.445	970.38
348.673	974.38
348.9	967.38
349.128	1044.38
349.355	1070.38
349.583	1045.38
349.81	980.38
350.037	932.38
350.265	812.38
350.492	798.38
350.72	785.38
350.947	821.38
351.174	881.38
351.402	914.38
351.629	972.38
351.856	919.38
352.083	878.38
352.311	969.38
352.538	1046.38
352.765	1112.38
352.992	1019.38
353.22	975.38
353.447	986.38
353.674	950.38
353.901	940.38
354.128	986.38
354.355	1008.38
354.583	980.38
354.81	958.38
355.037	988.38
355.264	990.38
355.491	1072.38
355.718	1149.38
355.945	1112.38
356.172	1076.38
356.399	1089.38
356.626	1294.38
356.853	1599.38
357.08	1695.38
357.307	1761.38
357.534	1356.38
357.761	1380.38
357.988	1744.38
358.215	2004.38
358.441	1896.38
358.668	1586.38
358.895	1494.38
359.122	1200.38
359.349	1197.38
359.576	1306.38
359.802	1057.38
360.029	928.38
360.256	1023.38
360.483	1296.38
360.709	1630.38
360.936	1639.38
361.163	1395.38
361.39	1123.38
361.616	1055.38
361.843	1242.38
362.07	1541.38
362.296	1374.38
362.523	1074.38
362.749	915.38
362.976	980.38
363.203	1173.38
363.429	1337.38
363.656	1095.38
363.882	977.38
364.109	950.38
364.335	974.38
364.562	980.38
364.788	1132.38
365.015	1345.38
365.241	1164.38
365.468	970.38
365.694	827.38
365.92	806.38
366.147	814.38
366.373	772.38
366.599	782.38
366.826	814.38
367.052	813.38
367.278	826.38
367.505	796.38
367.731	897.38
367.957	994.38
368.184	1043.38
368.41	991.38
368.636	1029.38
368.862	1084.38
369.089	1002.38
369.315	903.38
369.541	904.38
369.767	890.38
369.993	849.38
370.219	851.38
370.445	893.38
370.672	1024.38
370.898	1046.38
371.124	1055.38
371.35	927.38
371.576	887.38
371.802	954.38
372.028	1144.38
372.254	1318.38
372.48	1146.38
372.706	1018.38
372.932	1103.38
373.158	1142.38
373.384	1370.38
373.61	1773.38
373.835	1838.38
374.061	1352.38
374.287	1175.38
374.513	1352.38
374.739	1678.38
374.965	1692.38
375.191	1628.38
375.416	1148.38
375.642	1007.38
375.868	1215.38
376.094	1345.38
376.319	1150.38
376.545	1288.38
376.771	1363.38
376.997	1127.38
377.222	859.38
377.448	747.38
377.674	743.38
377.899	728.38
378.125	762.38
378.35	750.38
378.576	791.38
378.802	862.38
379.027	922.38
379.253	908.38
379.478	930.38
379.704	1032.38
379.929	1060.38
380.155	1059.38
380.38	938.38
380.606	964.38
380.831	1118.38
381.057	1047.38
381.282	985.38
381.507	1167.38
381.733	1477.38
381.958	1503.38
382.184	1630.38
382.409	1692.38
382.634	1621.38
382.86	1722.38
383.085	1430.38
383.31	1114.38
383.535	1210.38
383.761	1205.38
383.986	1148.38
384.211	1380.38
384.436	1366.38
384.662	1019.38
384.887	998.38
385.112	1026.38
385.337	1060.38
385.562	1015.38
385.787	1084.38
386.013	1198.38
386.238	1236.38
386.463	1012.38
386.688	982.38
386.913	935.38
387.138	884.38
387.363	945.38
387.588	995.38
387.813	1002.38
388.038	1099.38
388.263	983.38
388.488	954.38
388.713	1126.38
388.938	1206.38
389.163	1033.38
389.387	894.38
389.612	900.38
389.837	925.38
390.062	952.38
390.287	1012.38
390.512	1029.38
390.736	929.38
390.961	871.38
391.186	806.38
391.411	844.38
391.636	858.38
391.86	961.38
392.085	1027.38
392.31	1005.38
392.534	964.38
392.759	928.38
392.984	987.38
393.208	956.38
393.433	847.38
393.658	812.38
393.882	786.38
394.107	770.38
394.331	799.38
394.556	812.38
394.78	819.38
395.005	845.38
395.229	886.38
395.454	848.38
395.678	867.38
395.903	910.38
396.127	860.38
396.352	891.38
396.576	954.38
396.801	1012.38
397.025	1094.38
397.249	1103.38
397.474	920.38
397.698	935.38
397.922	957.38
398.147	896.38
398.371	903.38
398.595	990.38
398.82	949.38
399.044	935.38
399.268	1011.38
399.492	1050.38
399.717	1060.38
399.941	1082.38
400.165	1046.38
400.389	1029.38
400.613	1064.38
400.837	1036.38
401.062	935.38
401.286	883.38
401.51	893.38
401.734	908.38
401.958	927.38
402.182	899.38
402.406	926.38
402.63	903.38
402.854	945.38
403.078	1052.38
403.302	1294.38
403.526	1295.38
403.75	1153.38
403.974	1051.38
404.198	1100.38
404.422	1221.38
404.645	1434.38
404.869	1571.38
405.093	1166.38
405.317	1006.38
405.541	968.38
405.765	993.38
405.988	973.38
406.212	1099.38
406.436	1301.38
406.66	1426.38
406.883	1149.38
407.107	1189.38
407.331	1365.38
407.555	1291.38
407.778	1108.38
408.002	1048.38
408.226	1043.38
408.449	1024.38
408.673	1020.38
408.896	951.38
409.12	927.38
409.344	892.38
409.567	876.38
409.791	865.38
410.014	892.38
410.238	909.38
410.461	886.38
410.685	886.38
410.908	893.38
411.132	928.38
411.355	938.38
411.578	952.38
411.802	935.38
412.025	963.38
412.249	998.38
412.472	962.38
412.695	959.38
412.919	973.38
413.142	955.38
413.365	1031.38
413.589	1040.38
413.812	975.38
414.035	913.38
414.258	950.38
414.482	1045.38
414.705	1087.38
414.928	906.38
415.151	871.38
415.374	878.38
415.597	886.38
415.821	910.38
416.044	909.38
416.267	892.38
416.49	885.38
416.713	856.38
416.936	858.38
417.159	869.38
417.382	895.38
417.605	886.38
417.828	922.38
418.051	893.38
418.274	901.38
418.497	934.38
418.72	914.38
418.943	954.38
419.166	989.38
419.389	1008.38
419.611	1011.38
419.834	1041.38
420.057	1109.38
420.28	1099.38
420.503	992.38
420.726	914.38
420.948	872.38
421.171	890.38
421.394	867.38
421.617	846.38
421.839	881.38
422.062	930.38
422.285	950.38
422.507	919.38
422.73	946.38
422.953	982.38
423.175	966.38
423.398	935.38
423.621	998.38
423.843	1037.38
424.066	942.38
424.288	931.38
424.511	927.38
424.733	909.38
424.956	935.38
425.178	1103.38
425.401	1249.38
425.623	1415.38
425.846	1141.38
426.068	1005.38
426.291	1088.38
426.513	1030.38
426.735	956.38
426.958	986.38
427.18	1122.38
427.402	1491.38
427.625	1431.38
427.847	1158.38
428.069	891.38
428.292	898.38
428.514	894.38
428.736	836.38
428.958	949.38
429.181	1104.38
429.403	970.38
429.625	882.38
429.847	879.38
430.069	892.38
430.292	934.38
430.514	887.38
430.736	956.38
430.958	1181.38
431.18	1098.38
431.402	841.38
431.624	823.38
431.846	818.38
432.068	790.38
432.29	814.38
432.512	951.38
432.734	1223.38
432.956	1135.38
433.178	892.38
433.4	829.38
433.622	838.38
433.844	883.38
434.066	919.38
434.287	908.38
434.509	864.38
434.731	924.38
434.953	867.38
435.175	914.38
435.397	1052.38
435.618	891.38
435.84	805.38
436.062	824.38
436.284	827.38
436.505	795.38
436.727	812.38
436.949	771.38
437.17	835.38
437.392	829.38
437.614	840.38
437.835	833.38
438.057	848.38
438.278	986.38
438.5	1404.38
438.721	1404.38
438.943	935.38
439.165	830.38
439.386	784.38
439.608	778.38
439.829	793.38
440.05	792.38
440.272	848.38
440.493	1004.38
440.715	1230.38
440.936	988.38
441.158	848.38
441.379	880.38
441.6	962.38
441.822	1024.38
442.043	881.38
442.264	895.38
442.486	858.38
442.707	832.38
442.928	865.38
443.149	898.38
443.371	912.38
443.592	923.38
443.813	908.38
444.034	884.38
444.255	891.38
444.476	946.38
444.698	954.38
444.919	936.38
445.14	1064.38
445.361	1003.38
445.582	960.38
445.803	907.38
446.024	947.38
446.245	923.38
446.466	921.38
446.687	869.38
446.908	903.38
447.129	851.38
447.35	799.38
447.571	803.38
447.792	806.38
448.013	786.38
448.234	767.38
448.455	804.38
448.675	824.38
448.896	790.38
449.117	774.38
449.338	795.38
449.559	857.38
449.779	863.38
450	874.38
450.221	837.38
450.442	814.38
450.662	775.38
450.883	799.38
451.104	817.38
451.324	812.38
451.545	817.38
451.766	796.38
451.986	758.38
452.207	741.38
452.428	758.38
452.648	780.38
452.869	818.38
453.089	850.38
453.31	834.38
453.53	739.38
453.751	738.38
453.971	743.38
454.192	772.38
454.412	801.38
454.633	727.38
454.853	754.38
455.073	718.38
455.294	740.38
455.514	718.38
455.734	783.38
455.955	804.38
456.175	834.38
456.395	723.38
456.616	709.38
456.836	704.38
457.056	706.38
457.276	684.38
457.497	711.38
457.717	698.38
457.937	680.38
458.157	710.38
458.377	726.38
458.598	730.38
458.818	754.38
459.038	806.38
459.258	803.38
459.478	865.38
459.698	888.38
459.918	906.38
460.138	892.38
460.358	910.38
460.578	860.38
460.798	860.38
461.018	888.38
461.238	846.38
461.458	833.38
461.678	871.38
461.898	946.38
462.118	908.38
462.338	930.38
462.558	966.38
462.777	971.38
462.997	996.38
463.217	1009.38
463.437	1028.38
463.657	1003.38
463.876	963.38
464.096	960.38
464.316	965.38
464.536	1002.38
464.755	1005.38
464.975	1016.38
465.195	955.38
465.414	1006.38
465.634	949.38
465.854	934.38
466.073	863.38
466.293	876.38
466.512	927.38
466.732	998.38
466.951	1040.38
467.171	912.38
467.391	868.38
467.61	882.38
467.829	931.38
468.049	936.38
468.268	860.38
468.488	872.38
468.707	904.38
468.927	1055.38
469.146	1145.38
469.365	1032.38
469.585	940.38
469.804	1003.38
470.023	1101.38
470.243	942.38
470.462	903.38
470.681	925.38
470.901	882.38
471.12	955.38
471.339	964.38
471.558	906.38
471.777	942.38
471.997	1012.38
472.216	1105.38
472.435	1066.38
472.654	944.38
472.873	926.38
473.092	973.38
473.311	1029.38
473.53	948.38
473.749	916.38
473.968	961.38
474.187	962.38
474.406	927.38
474.625	914.38
474.844	959.38
475.063	1042.38
475.282	1024.38
475.501	1066.38
475.72	1101.38
475.939	1061.38
476.158	1110.38
476.377	1253.38
476.596	1442.38
476.814	1478.38
477.033	1239.38
477.252	1076.38
477.471	997.38
477.69	1006.38
477.908	1094.38
478.127	1166.38
478.346	1040.38
478.564	1124.38
478.783	1082.38
479.002	1095.38
479.22	1300.38
479.439	1406.38
479.658	1213.38
479.876	1125.38
480.095	1218.38
480.313	1234.38
480.532	1115.38
480.751	1086.38
480.969	1108.38
481.188	1256.38
481.406	1303.38
481.624	1212.38
481.843	1119.38
482.061	1096.38
482.28	1206.38
482.498	1483.38
482.717	1374.38
482.935	1223.38
483.153	1135.38
483.372	1046.38
483.59	1066.38
483.808	1086.38
484.027	1000.38
484.245	976.38
484.463	964.38
484.681	989.38
484.9	1110.38
485.118	1192.38
485.336	1118.38
485.554	1053.38
485.772	1083.38
485.99	1184.38
486.209	1214.38
486.427	1238.38
486.645	1173.38
486.863	1248.38
487.081	1220.38
487.299	1383.38
487.517	1322.38
487.735	1216.38
487.953	1247.38
488.171	1272.38
488.389	1155.38
488.607	1103.38
488.825	1141.38
489.043	1288.38
489.261	1446.38
489.479	1531.38
489.696	1274.38
489.914	1171.38
490.132	1097.38
490.35	1141.38
490.568	1144.38
490.786	1108.38
491.003	1114.38
491.221	1156.38
491.439	1132.38
491.657	1123.38
491.874	1218.38
492.092	1467.38
492.31	1788.38
492.527	1707.38
492.745	1512.38
492.963	1319.38
493.18	1286.38
493.398	1272.38
493.615	1300.38
493.833	1236.38
494.05	1228.38
494.268	1238.38
494.485	1195.38
