Data from NickelSpatula.Lamp.E10.P2_HRD10591_11-59-12-526.txt Node
Date: Tue Jul 23 11:59:12 EDT 2019
User: cochatt
Spectrometer: HR+D1059
Trigger mode: 1
Integration Time (sec): 1.000000E-1
Scans to average: 1
Electric dark correction enabled: true
Nonlinearity correction enabled: false
Boxcar width: 0
XAxis mode: Wavelengths
Number of Pixels in Spectrum: 2048
>>>>>Begin Spectral Data<<<<<
223.165	-25.44
223.4	-25.44
223.635	-25.44
223.869	-26.44
224.104	-22.44
224.338	-20.44
224.573	-1.44
224.808	-2.44
225.042	-14.44
225.277	-11.44
225.511	-8.44
225.746	13.56
225.98	7.56
226.215	15.56
226.449	26.56
226.683	15.56
226.918	21.56
227.152	32.56
227.387	28.56
227.621	41.56
227.856	37.56
228.09	41.56
228.324	51.56
228.559	59.56
228.793	76.56
229.027	129.56
229.262	136.56
229.496	142.56
229.73	157.56
229.964	177.56
230.199	209.56
230.433	236.56
230.667	200.56
230.901	205.56
231.136	187.56
231.37	197.56
231.604	225.56
231.838	238.56
232.072	245.56
232.306	249.56
232.541	245.56
232.775	245.56
233.009	251.56
233.243	292.56
233.477	302.56
233.711	345.56
233.945	308.56
234.179	345.56
234.413	367.56
234.647	419.56
234.881	439.56
235.115	414.56
235.349	396.56
235.583	332.56
235.817	350.56
236.051	373.56
236.285	425.56
236.519	468.56
236.753	457.56
236.987	427.56
237.221	410.56
237.455	421.56
237.689	445.56
237.922	466.56
238.156	466.56
238.39	533.56
238.624	677.56
238.858	603.56
239.091	501.56
239.325	516.56
239.559	480.56
239.793	549.56
240.027	651.56
240.26	605.56
240.494	608.56
240.728	589.56
240.961	702.56
241.195	653.56
241.429	642.56
241.662	621.56
241.896	527.56
242.13	464.56
242.363	433.56
242.597	447.56
242.83	545.56
243.064	541.56
243.298	606.56
243.531	614.56
243.765	652.56
243.998	629.56
244.232	605.56
244.465	597.56
244.699	574.56
244.932	667.56
245.166	634.56
245.399	570.56
245.633	546.56
245.866	561.56
246.099	608.56
246.333	701.56
246.566	780.56
246.8	781.56
247.033	764.56
247.266	705.56
247.5	684.56
247.733	684.56
247.966	641.56
248.2	694.56
248.433	771.56
248.666	838.56
248.899	850.56
249.133	893.56
249.366	993.56
249.599	1101.56
249.832	961.56
250.066	833.56
250.299	823.56
250.532	828.56
250.765	825.56
250.998	725.56
251.231	740.56
251.465	796.56
251.698	842.56
251.931	817.56
252.164	846.56
252.397	931.56
252.63	1064.56
252.863	1174.56
253.096	1220.56
253.329	1153.56
253.562	1110.56
253.795	1253.56
254.028	1373.56
254.261	1411.56
254.494	1243.56
254.727	1149.56
254.96	1124.56
255.193	1194.56
255.426	1137.56
255.659	867.56
255.892	785.56
256.124	855.56
256.357	1028.56
256.59	1237.56
256.823	1148.56
257.056	973.56
257.289	923.56
257.521	970.56
257.754	1172.56
257.987	1291.56
258.22	1118.56
258.452	1033.56
258.685	1157.56
258.918	1267.56
259.151	1245.56
259.383	1285.56
259.616	1543.56
259.849	1541.56
260.081	1722.56
260.314	1895.56
260.547	1474.56
260.779	1501.56
261.012	1734.56
261.244	1618.56
261.477	1628.56
261.71	1527.56
261.942	1289.56
262.175	1265.56
262.407	1231.56
262.64	1294.56
262.872	1533.56
263.105	1655.56
263.337	1732.56
263.57	1550.56
263.802	1029.56
264.035	909.56
264.267	861.56
264.499	782.56
264.732	698.56
264.964	710.56
265.197	709.56
265.429	788.56
265.661	863.56
265.894	825.56
266.126	935.56
266.358	1044.56
266.591	1224.56
266.823	1476.56
267.055	1433.56
267.287	1271.56
267.52	1273.56
267.752	1309.56
267.984	1454.56
268.216	1376.56
268.448	1147.56
268.681	1109.56
268.913	1225.56
269.145	1262.56
269.377	1306.56
269.609	1306.56
269.841	1202.56
270.073	1313.56
270.306	1388.56
270.538	1395.56
270.77	1407.56
271.002	1393.56
271.234	1467.56
271.466	1507.56
271.698	1462.56
271.93	1452.56
272.162	1430.56
272.394	1406.56
272.626	1385.56
272.858	1484.56
273.09	1463.56
273.322	1341.56
273.553	1292.56
273.785	1527.56
274.017	2032.56
274.249	2480.56
274.481	2523.56
274.713	2795.56
274.945	3183.56
275.176	3343.56
275.408	2912.56
275.64	2685.56
275.872	2621.56
276.104	2218.56
276.335	1952.56
276.567	1901.56
276.799	1950.56
277.031	2065.56
277.262	1621.56
277.494	1257.56
277.726	1185.56
277.957	1323.56
278.189	1529.56
278.421	1476.56
278.652	1441.56
278.884	1361.56
279.115	1284.56
279.347	1175.56
279.579	1210.56
279.81	1219.56
280.042	1205.56
280.273	1259.56
280.505	1141.56
280.736	1019.56
280.968	999.56
281.199	1110.56
281.431	1233.56
281.662	1205.56
281.894	1163.56
282.125	1234.56
282.356	1354.56
282.588	1392.56
282.819	1237.56
283.051	1382.56
283.282	1676.56
283.513	1953.56
283.745	2185.56
283.976	2198.56
284.207	2001.56
284.439	2133.56
284.67	2032.56
284.901	1819.56
285.132	1955.56
285.364	2033.56
285.595	1860.56
285.826	1997.56
286.057	2068.56
286.288	1985.56
286.52	2001.56
286.751	2119.56
286.982	2129.56
287.213	1835.56
287.444	1826.56
287.675	1832.56
287.906	1805.56
288.138	1561.56
288.369	1378.56
288.6	1281.56
288.831	1332.56
289.062	1579.56
289.293	1708.56
289.524	1613.56
289.755	1590.56
289.986	1636.56
290.217	1423.56
290.448	1134.56
290.679	969.56
290.91	929.56
291.141	917.56
291.371	958.56
291.602	973.56
291.833	1022.56
292.064	1060.56
292.295	1206.56
292.526	1393.56
292.757	1461.56
292.987	1565.56
293.218	1564.56
293.449	1584.56
293.68	1673.56
293.91	1571.56
294.141	1566.56
294.372	1526.56
294.603	1405.56
294.833	1581.56
295.064	1817.56
295.295	1718.56
295.525	1301.56
295.756	1147.56
295.987	987.56
296.217	1005.56
296.448	1047.56
296.679	1107.56
296.909	1218.56
297.14	1279.56
297.37	1456.56
297.601	1353.56
297.831	1166.56
298.062	1249.56
298.292	1413.56
298.523	1566.56
298.753	1762.56
298.984	1566.56
299.214	1271.56
299.445	1098.56
299.675	1039.56
299.905	1066.56
300.136	1069.56
300.366	1179.56
300.597	1139.56
300.827	1016.56
301.057	987.56
301.288	1019.56
301.518	1083.56
301.748	1226.56
301.979	1320.56
302.209	1465.56
302.439	1425.56
302.669	1241.56
302.9	1248.56
303.13	1149.56
303.36	1081.56
303.59	1041.56
303.82	1084.56
304.051	1210.56
304.281	1351.56
304.511	1285.56
304.741	1124.56
304.971	1193.56
305.201	1314.56
305.431	1207.56
305.661	1070.56
305.891	1059.56
306.121	1084.56
306.352	970.56
306.582	878.56
306.812	854.56
307.042	861.56
307.272	796.56
307.502	800.56
307.731	883.56
307.961	918.56
308.191	838.56
308.421	791.56
308.651	773.56
308.881	758.56
309.111	756.56
309.341	824.56
309.571	907.56
309.8	921.56
310.03	917.56
310.26	989.56
310.49	966.56
310.72	891.56
310.949	831.56
311.179	891.56
311.409	914.56
311.639	1108.56
311.868	1390.56
312.098	1797.56
312.328	1963.56
312.557	1871.56
312.787	1886.56
313.017	1663.56
313.246	1826.56
313.476	1966.56
313.706	1614.56
313.935	1263.56
314.165	1030.56
314.394	962.56
314.624	961.56
314.853	998.56
315.083	1028.56
315.312	1027.56
315.542	1011.56
315.771	933.56
316.001	830.56
316.23	830.56
316.46	829.56
316.689	860.56
316.919	889.56
317.148	897.56
317.377	894.56
317.607	889.56
317.836	950.56
318.065	1099.56
318.295	1241.56
318.524	1171.56
318.753	978.56
318.983	939.56
319.212	895.56
319.441	976.56
319.67	1143.56
319.9	1181.56
320.129	1141.56
320.358	988.56
320.587	917.56
320.816	1008.56
321.046	1153.56
321.275	1325.56
321.504	1340.56
321.733	1274.56
321.962	1235.56
322.191	1159.56
322.42	1105.56
322.649	1137.56
322.878	1202.56
323.108	1224.56
323.337	1105.56
323.566	1095.56
323.795	1067.56
324.024	1030.56
324.253	958.56
324.482	953.56
324.71	1057.56
324.939	1215.56
325.168	1147.56
325.397	920.56
325.626	937.56
325.855	921.56
326.084	916.56
326.313	870.56
326.542	828.56
326.77	858.56
326.999	906.56
327.228	952.56
327.457	992.56
327.686	1012.56
327.914	857.56
328.143	866.56
328.372	831.56
328.6	849.56
328.829	857.56
329.058	893.56
329.287	885.56
329.515	892.56
329.744	883.56
329.972	815.56
330.201	804.56
330.43	844.56
330.658	928.56
330.887	1062.56
331.115	1034.56
331.344	995.56
331.572	962.56
331.801	908.56
332.03	861.56
332.258	899.56
332.486	954.56
332.715	972.56
332.943	895.56
333.172	895.56
333.4	943.56
333.629	1014.56
333.857	1102.56
334.085	1095.56
334.314	1098.56
334.542	1057.56
334.771	971.56
334.999	927.56
335.227	901.56
335.455	945.56
335.684	1016.56
335.912	1177.56
336.14	1324.56
336.369	1271.56
336.597	1194.56
336.825	1393.56
337.053	1529.56
337.281	1206.56
337.51	983.56
337.738	967.56
337.966	1060.56
338.194	1180.56
338.422	1111.56
338.65	945.56
338.878	910.56
339.106	890.56
339.334	1009.56
339.562	1121.56
339.79	975.56
340.018	971.56
340.246	999.56
340.474	1175.56
340.702	1278.56
340.93	1317.56
341.158	1331.56
341.386	1109.56
341.614	1085.56
341.842	1125.56
342.07	1157.56
342.298	1333.56
342.526	1399.56
342.754	1185.56
342.981	1107.56
343.209	1031.56
343.437	1112.56
343.665	1172.56
343.893	1177.56
344.12	1363.56
344.348	1617.56
344.576	1429.56
344.804	1182.56
345.031	1007.56
345.259	963.56
345.487	1005.56
345.714	993.56
345.942	1097.56
346.17	1182.56
346.397	1129.56
346.625	979.56
346.853	948.56
347.08	949.56
347.308	997.56
347.535	1106.56
347.763	1107.56
347.99	978.56
348.218	915.56
348.445	958.56
348.673	981.56
348.9	984.56
349.128	1032.56
349.355	1092.56
349.583	1070.56
349.81	982.56
350.037	917.56
350.265	798.56
350.492	788.56
350.72	788.56
350.947	822.56
351.174	880.56
351.402	947.56
351.629	993.56
351.856	955.56
352.083	897.56
352.311	943.56
352.538	1076.56
352.765	1135.56
352.992	1035.56
353.22	973.56
353.447	1003.56
353.674	941.56
353.901	958.56
354.128	951.56
354.355	1006.56
354.583	966.56
354.81	973.56
355.037	1035.56
355.264	996.56
355.491	1063.56
355.718	1155.56
355.945	1147.56
356.172	1085.56
356.399	1111.56
356.626	1317.56
356.853	1574.56
357.08	1705.56
357.307	1800.56
357.534	1333.56
357.761	1393.56
357.988	1750.56
358.215	2043.56
358.441	1919.56
358.668	1626.56
358.895	1512.56
359.122	1207.56
359.349	1197.56
359.576	1359.56
359.802	1063.56
360.029	939.56
360.256	1055.56
360.483	1237.56
360.709	1591.56
360.936	1654.56
361.163	1433.56
361.39	1117.56
361.616	1033.56
361.843	1237.56
362.07	1522.56
362.296	1359.56
362.523	1074.56
362.749	930.56
362.976	968.56
363.203	1186.56
363.429	1384.56
363.656	1114.56
363.882	1001.56
364.109	1019.56
364.335	985.56
364.562	991.56
364.788	1119.56
365.015	1307.56
365.241	1161.56
365.468	970.56
365.694	824.56
365.92	793.56
366.147	780.56
366.373	788.56
366.599	774.56
366.826	769.56
367.052	836.56
367.278	837.56
367.505	809.56
367.731	902.56
367.957	994.56
368.184	1053.56
368.41	998.56
368.636	1033.56
368.862	1060.56
369.089	1006.56
369.315	902.56
369.541	865.56
369.767	876.56
369.993	841.56
370.219	883.56
370.445	916.56
370.672	1023.56
370.898	1074.56
371.124	1088.56
371.35	938.56
371.576	885.56
371.802	1007.56
372.028	1168.56
372.254	1323.56
372.48	1139.56
372.706	1039.56
372.932	1109.56
373.158	1132.56
373.384	1369.56
373.61	1804.56
373.835	1874.56
374.061	1381.56
374.287	1163.56
374.513	1397.56
374.739	1654.56
374.965	1748.56
375.191	1670.56
375.416	1148.56
375.642	1015.56
375.868	1226.56
376.094	1345.56
376.319	1159.56
376.545	1303.56
376.771	1351.56
376.997	1162.56
377.222	888.56
377.448	756.56
377.674	747.56
377.899	754.56
378.125	755.56
378.35	758.56
378.576	760.56
378.802	876.56
379.027	915.56
379.253	877.56
379.478	917.56
379.704	1021.56
379.929	1072.56
380.155	1092.56
380.38	934.56
380.606	975.56
380.831	1103.56
381.057	1014.56
381.282	945.56
381.507	1177.56
381.733	1467.56
381.958	1555.56
382.184	1635.56
382.409	1708.56
382.634	1670.56
382.86	1803.56
383.085	1413.56
383.31	1159.56
383.535	1223.56
383.761	1228.56
383.986	1165.56
384.211	1437.56
384.436	1351.56
384.662	1037.56
384.887	975.56
385.112	1046.56
385.337	1033.56
385.562	981.56
385.787	1117.56
386.013	1230.56
386.238	1249.56
386.463	1003.56
386.688	966.56
386.913	954.56
387.138	887.56
387.363	974.56
387.588	975.56
387.813	985.56
388.038	1109.56
388.263	986.56
388.488	959.56
388.713	1089.56
388.938	1213.56
389.163	1018.56
389.387	917.56
389.612	932.56
389.837	968.56
390.062	973.56
390.287	979.56
390.512	998.56
390.736	940.56
390.961	933.56
391.186	839.56
391.411	843.56
391.636	871.56
391.86	918.56
392.085	1031.56
392.31	1003.56
392.534	957.56
392.759	927.56
392.984	983.56
393.208	954.56
393.433	869.56
393.658	808.56
393.882	799.56
394.107	786.56
394.331	806.56
394.556	770.56
394.78	813.56
395.005	835.56
395.229	848.56
395.454	859.56
395.678	893.56
395.903	903.56
396.127	857.56
396.352	875.56
396.576	965.56
396.801	993.56
397.025	1137.56
397.249	1134.56
397.474	907.56
397.698	917.56
397.922	973.56
398.147	888.56
398.371	919.56
398.595	962.56
398.82	951.56
399.044	948.56
399.268	983.56
399.492	1025.56
399.717	1061.56
399.941	1074.56
400.165	1049.56
400.389	1022.56
400.613	1051.56
400.837	1042.56
401.062	894.56
401.286	870.56
401.51	915.56
401.734	909.56
401.958	893.56
402.182	898.56
402.406	908.56
402.63	939.56
402.854	940.56
403.078	1034.56
403.302	1299.56
403.526	1317.56
403.75	1189.56
403.974	1012.56
404.198	1097.56
404.422	1207.56
404.645	1425.56
404.869	1606.56
405.093	1154.56
405.317	976.56
405.541	1009.56
405.765	1041.56
405.988	1042.56
406.212	1098.56
406.436	1311.56
406.66	1449.56
406.883	1122.56
407.107	1164.56
407.331	1335.56
407.555	1303.56
407.778	1089.56
408.002	1057.56
408.226	1027.56
408.449	1066.56
408.673	967.56
408.896	941.56
409.12	914.56
409.344	887.56
409.567	873.56
409.791	868.56
410.014	871.56
410.238	869.56
410.461	903.56
410.685	893.56
410.908	882.56
411.132	945.56
411.355	920.56
411.578	950.56
411.802	911.56
412.025	979.56
412.249	995.56
412.472	970.56
412.695	973.56
412.919	938.56
413.142	1001.56
413.365	1057.56
413.589	1047.56
413.812	936.56
414.035	913.56
414.258	943.56
414.482	1046.56
414.705	1068.56
414.928	877.56
415.151	865.56
415.374	887.56
415.597	924.56
415.821	895.56
416.044	897.56
416.267	865.56
416.49	871.56
416.713	842.56
416.936	844.56
417.159	867.56
417.382	859.56
417.605	900.56
417.828	902.56
418.051	900.56
418.274	918.56
418.497	911.56
418.72	914.56
418.943	964.56
419.166	991.56
419.389	1052.56
419.611	1009.56
419.834	1041.56
420.057	1106.56
420.28	1091.56
420.503	1030.56
420.726	922.56
420.948	881.56
421.171	862.56
421.394	875.56
421.617	852.56
421.839	887.56
422.062	924.56
422.285	940.56
422.507	923.56
422.73	937.56
422.953	973.56
423.175	922.56
423.398	947.56
423.621	980.56
423.843	1056.56
424.066	991.56
424.288	923.56
424.511	917.56
424.733	915.56
424.956	945.56
425.178	1089.56
425.401	1277.56
425.623	1351.56
425.846	1138.56
426.068	1022.56
426.291	1131.56
426.513	1035.56
426.735	954.56
426.958	968.56
427.18	1166.56
427.402	1483.56
427.625	1498.56
427.847	1153.56
428.069	919.56
428.292	907.56
428.514	918.56
428.736	866.56
428.958	961.56
429.181	1134.56
429.403	987.56
429.625	911.56
429.847	862.56
430.069	902.56
430.292	935.56
430.514	869.56
430.736	931.56
430.958	1195.56
431.18	1104.56
431.402	850.56
431.624	799.56
431.846	795.56
432.068	784.56
432.29	825.56
432.512	925.56
432.734	1223.56
432.956	1122.56
433.178	879.56
433.4	835.56
433.622	839.56
433.844	883.56
434.066	943.56
434.287	928.56
434.509	869.56
434.731	929.56
434.953	875.56
435.175	902.56
435.397	1058.56
435.618	889.56
435.84	817.56
436.062	828.56
436.284	858.56
436.505	785.56
436.727	790.56
436.949	808.56
437.17	834.56
437.392	854.56
437.614	819.56
437.835	811.56
438.057	847.56
438.278	970.56
438.5	1403.56
438.721	1388.56
438.943	947.56
439.165	819.56
439.386	794.56
439.608	800.56
439.829	759.56
440.05	787.56
440.272	868.56
440.493	997.56
440.715	1248.56
440.936	977.56
441.158	863.56
441.379	881.56
441.6	945.56
441.822	1036.56
442.043	877.56
442.264	885.56
442.486	882.56
442.707	846.56
442.928	847.56
443.149	876.56
443.371	909.56
443.592	952.56
443.813	923.56
444.034	901.56
444.255	915.56
444.476	941.56
444.698	925.56
444.919	961.56
445.14	1079.56
445.361	1025.56
445.582	963.56
445.803	903.56
446.024	922.56
446.245	950.56
446.466	917.56
446.687	889.56
446.908	881.56
447.129	833.56
447.35	806.56
447.571	791.56
447.792	783.56
448.013	797.56
448.234	787.56
448.455	781.56
448.675	804.56
448.896	802.56
449.117	781.56
449.338	805.56
449.559	819.56
449.779	858.56
450	860.56
450.221	802.56
450.442	808.56
450.662	793.56
450.883	795.56
451.104	815.56
451.324	839.56
451.545	798.56
451.766	803.56
451.986	777.56
452.207	785.56
452.428	783.56
452.648	783.56
452.869	799.56
453.089	868.56
453.31	829.56
453.53	729.56
453.751	741.56
453.971	733.56
454.192	768.56
454.412	784.56
454.633	732.56
454.853	751.56
455.073	721.56
455.294	730.56
455.514	755.56
455.734	789.56
455.955	814.56
456.175	825.56
456.395	773.56
456.616	677.56
456.836	691.56
457.056	702.56
457.276	673.56
457.497	667.56
457.717	700.56
457.937	716.56
458.157	738.56
458.377	720.56
458.598	723.56
458.818	745.56
459.038	794.56
459.258	806.56
459.478	866.56
459.698	910.56
459.918	886.56
460.138	886.56
460.358	902.56
460.578	874.56
460.798	905.56
461.018	889.56
461.238	860.56
461.458	836.56
461.678	885.56
461.898	909.56
462.118	904.56
462.338	939.56
462.558	947.56
462.777	978.56
462.997	1007.56
463.217	1009.56
463.437	1039.56
463.657	997.56
463.876	954.56
464.096	953.56
464.316	948.56
464.536	991.56
464.755	1023.56
464.975	1020.56
465.195	971.56
465.414	992.56
465.634	973.56
465.854	934.56
466.073	882.56
466.293	875.56
466.512	936.56
466.732	1041.56
466.951	1030.56
467.171	957.56
467.391	882.56
467.61	889.56
467.829	943.56
468.049	923.56
468.268	897.56
468.488	894.56
468.707	926.56
468.927	1085.56
469.146	1161.56
469.365	1058.56
469.585	954.56
469.804	998.56
470.023	1086.56
470.243	974.56
470.462	933.56
470.681	927.56
470.901	902.56
471.12	950.56
471.339	982.56
471.558	926.56
471.777	972.56
471.997	1011.56
472.216	1115.56
472.435	1116.56
472.654	970.56
472.873	955.56
473.092	989.56
473.311	1052.56
473.53	942.56
473.749	919.56
473.968	1001.56
474.187	992.56
474.406	919.56
474.625	908.56
474.844	957.56
475.063	1019.56
475.282	1029.56
475.501	1069.56
475.72	1119.56
475.939	1090.56
476.158	1099.56
476.377	1227.56
476.596	1411.56
476.814	1535.56
477.033	1263.56
477.252	1067.56
477.471	1014.56
477.69	1015.56
477.908	1114.56
478.127	1157.56
478.346	1087.56
478.564	1149.56
478.783	1098.56
479.002	1108.56
479.22	1310.56
479.439	1416.56
479.658	1204.56
479.876	1159.56
480.095	1250.56
480.313	1233.56
480.532	1118.56
480.751	1098.56
480.969	1133.56
481.188	1287.56
481.406	1307.56
481.624	1207.56
481.843	1125.56
482.061	1061.56
482.28	1217.56
482.498	1453.56
482.717	1411.56
482.935	1218.56
483.153	1121.56
483.372	1053.56
483.59	1073.56
483.808	1064.56
484.027	1024.56
484.245	989.56
484.463	998.56
484.681	1016.56
484.9	1097.56
485.118	1219.56
485.336	1129.56
485.554	1082.56
485.772	1079.56
485.99	1160.56
486.209	1219.56
486.427	1244.56
486.645	1220.56
486.863	1215.56
487.081	1203.56
487.299	1361.56
487.517	1342.56
487.735	1209.56
487.953	1223.56
488.171	1266.56
488.389	1167.56
488.607	1092.56
488.825	1159.56
489.043	1252.56
489.261	1459.56
489.479	1519.56
489.696	1287.56
489.914	1213.56
490.132	1131.56
490.35	1107.56
490.568	1157.56
490.786	1109.56
491.003	1135.56
491.221	1168.56
491.439	1139.56
491.657	1149.56
491.874	1261.56
492.092	1528.56
492.31	1801.56
492.527	1733.56
492.745	1539.56
492.963	1345.56
493.18	1348.56
493.398	1307.56
493.615	1297.56
493.833	1295.56
494.05	1234.56
494.268	1263.56
494.485	1220.56
