Data from NickelSpatula.Lamp.E10.P2_HRD10591_11-57-20-532.txt Node
Date: Tue Jul 23 11:57:20 EDT 2019
User: cochatt
Spectrometer: HR+D1059
Trigger mode: 1
Integration Time (sec): 1.000000E-1
Scans to average: 1
Electric dark correction enabled: true
Nonlinearity correction enabled: false
Boxcar width: 0
XAxis mode: Wavelengths
Number of Pixels in Spectrum: 2048
>>>>>Begin Spectral Data<<<<<
223.165	-21.75
223.4	-21.75
223.635	-21.75
223.869	-12.75
224.104	-21.75
224.338	-18.75
224.573	-13.75
224.808	-19.75
225.042	-4.75
225.277	7.25
225.511	9.25
225.746	-3.75
225.98	14.25
226.215	13.25
226.449	8.25
226.683	15.25
226.918	27.25
227.152	22.25
227.387	40.25
227.621	45.25
227.856	50.25
228.09	52.25
228.324	52.25
228.559	67.25
228.793	71.25
229.027	149.25
229.262	141.25
229.496	154.25
229.73	166.25
229.964	201.25
230.199	215.25
230.433	203.25
230.667	213.25
230.901	204.25
231.136	194.25
231.37	206.25
231.604	200.25
231.838	239.25
232.072	252.25
232.306	260.25
232.541	223.25
232.775	225.25
233.009	248.25
233.243	268.25
233.477	317.25
233.711	339.25
233.945	315.25
234.179	349.25
234.413	347.25
234.647	374.25
234.881	456.25
235.115	421.25
235.349	380.25
235.583	351.25
235.817	353.25
236.051	381.25
236.285	378.25
236.519	442.25
236.753	422.25
236.987	432.25
237.221	395.25
237.455	397.25
237.689	407.25
237.922	452.25
238.156	474.25
238.39	562.25
238.624	653.25
238.858	580.25
239.091	482.25
239.325	506.25
239.559	478.25
239.793	530.25
240.027	646.25
240.26	573.25
240.494	566.25
240.728	585.25
240.961	644.25
241.195	627.25
241.429	626.25
241.662	590.25
241.896	518.25
242.13	471.25
242.363	433.25
242.597	460.25
242.83	512.25
243.064	541.25
243.298	583.25
243.531	627.25
243.765	627.25
243.998	621.25
244.232	578.25
244.465	591.25
244.699	582.25
244.932	650.25
245.166	602.25
245.399	527.25
245.633	537.25
245.866	564.25
246.099	574.25
246.333	717.25
246.566	729.25
246.8	753.25
247.033	739.25
247.266	682.25
247.5	682.25
247.733	653.25
247.966	631.25
248.2	693.25
248.433	747.25
248.666	828.25
248.899	823.25
249.133	851.25
249.366	988.25
249.599	1020.25
249.832	927.25
250.066	807.25
250.299	828.25
250.532	796.25
250.765	768.25
250.998	718.25
251.231	692.25
251.465	764.25
251.698	807.25
251.931	807.25
252.164	835.25
252.397	926.25
252.63	1022.25
252.863	1111.25
253.096	1198.25
253.329	1126.25
253.562	1078.25
253.795	1219.25
254.028	1352.25
254.261	1351.25
254.494	1221.25
254.727	1108.25
254.96	1072.25
255.193	1163.25
255.426	1093.25
255.659	814.25
255.892	801.25
256.124	845.25
256.357	986.25
256.59	1189.25
256.823	1108.25
257.056	921.25
257.289	885.25
257.521	961.25
257.754	1127.25
257.987	1283.25
258.22	1080.25
258.452	992.25
258.685	1094.25
258.918	1234.25
259.151	1196.25
259.383	1292.25
259.616	1489.25
259.849	1530.25
260.081	1695.25
260.314	1860.25
260.547	1442.25
260.779	1467.25
261.012	1665.25
261.244	1561.25
261.477	1581.25
261.71	1489.25
261.942	1275.25
262.175	1265.25
262.407	1206.25
262.64	1255.25
262.872	1485.25
263.105	1627.25
263.337	1695.25
263.57	1484.25
263.802	998.25
264.035	886.25
264.267	861.25
264.499	744.25
264.732	708.25
264.964	694.25
265.197	716.25
265.429	743.25
265.661	807.25
265.894	824.25
266.126	900.25
266.358	980.25
266.591	1207.25
266.823	1425.25
267.055	1379.25
267.287	1226.25
267.52	1200.25
267.752	1291.25
267.984	1428.25
268.216	1363.25
268.448	1119.25
268.681	1102.25
268.913	1181.25
269.145	1279.25
269.377	1295.25
269.609	1281.25
269.841	1222.25
270.073	1314.25
270.306	1342.25
270.538	1332.25
270.77	1367.25
271.002	1374.25
271.234	1439.25
271.466	1484.25
271.698	1432.25
271.93	1364.25
272.162	1396.25
272.394	1372.25
272.626	1406.25
272.858	1398.25
273.09	1427.25
273.322	1251.25
273.553	1220.25
273.785	1461.25
274.017	1891.25
274.249	2348.25
274.481	2438.25
274.713	2646.25
274.945	3096.25
275.176	3118.25
275.408	2769.25
275.64	2618.25
275.872	2538.25
276.104	2156.25
276.335	1871.25
276.567	1861.25
276.799	1923.25
277.031	2020.25
277.262	1590.25
277.494	1221.25
277.726	1178.25
277.957	1288.25
278.189	1456.25
278.421	1462.25
278.652	1419.25
278.884	1322.25
279.115	1226.25
279.347	1202.25
279.579	1217.25
279.81	1226.25
280.042	1187.25
280.273	1219.25
280.505	1125.25
280.736	1002.25
280.968	974.25
281.199	1072.25
281.431	1225.25
281.662	1209.25
281.894	1161.25
282.125	1212.25
282.356	1339.25
282.588	1346.25
282.819	1250.25
283.051	1362.25
283.282	1668.25
283.513	1893.25
283.745	2078.25
283.976	2086.25
284.207	1914.25
284.439	2081.25
284.67	1994.25
284.901	1738.25
285.132	1893.25
285.364	1945.25
285.595	1796.25
285.826	1967.25
286.057	1979.25
286.288	1935.25
286.52	1951.25
286.751	2062.25
286.982	2038.25
287.213	1764.25
287.444	1717.25
287.675	1822.25
287.906	1800.25
288.138	1497.25
288.369	1352.25
288.6	1302.25
288.831	1323.25
289.062	1554.25
289.293	1676.25
289.524	1590.25
289.755	1548.25
289.986	1620.25
290.217	1440.25
290.448	1092.25
290.679	938.25
290.91	909.25
291.141	914.25
291.371	959.25
291.602	964.25
291.833	981.25
292.064	1028.25
292.295	1208.25
292.526	1362.25
292.757	1394.25
292.987	1555.25
293.218	1546.25
293.449	1575.25
293.68	1671.25
293.91	1582.25
294.141	1584.25
294.372	1535.25
294.603	1405.25
294.833	1558.25
295.064	1817.25
295.295	1722.25
295.525	1310.25
295.756	1136.25
295.987	956.25
296.217	996.25
296.448	1023.25
296.679	1057.25
296.909	1195.25
297.14	1291.25
297.37	1364.25
297.601	1336.25
297.831	1146.25
298.062	1239.25
298.292	1413.25
298.523	1524.25
298.753	1758.25
298.984	1514.25
299.214	1202.25
299.445	1068.25
299.675	1011.25
299.905	1000.25
300.136	1011.25
300.366	1119.25
300.597	1117.25
300.827	981.25
301.057	929.25
301.288	962.25
301.518	1077.25
301.748	1187.25
301.979	1232.25
302.209	1359.25
302.439	1352.25
302.669	1194.25
302.9	1235.25
303.13	1128.25
303.36	1076.25
303.59	1032.25
303.82	1070.25
304.051	1208.25
304.281	1282.25
304.511	1270.25
304.741	1114.25
304.971	1212.25
305.201	1251.25
305.431	1173.25
305.661	1033.25
305.891	1046.25
306.121	1030.25
306.352	926.25
306.582	853.25
306.812	835.25
307.042	827.25
307.272	770.25
307.502	761.25
307.731	856.25
307.961	875.25
308.191	846.25
308.421	778.25
308.651	782.25
308.881	715.25
309.111	739.25
309.341	809.25
309.571	879.25
309.8	916.25
310.03	918.25
310.26	984.25
310.49	930.25
310.72	832.25
310.949	838.25
311.179	866.25
311.409	918.25
311.639	1083.25
311.868	1366.25
312.098	1758.25
312.328	1908.25
312.557	1818.25
312.787	1830.25
313.017	1642.25
313.246	1763.25
313.476	1909.25
313.706	1595.25
313.935	1233.25
314.165	1026.25
314.394	947.25
314.624	933.25
314.853	996.25
315.083	1052.25
315.312	954.25
315.542	962.25
315.771	934.25
316.001	862.25
316.23	819.25
316.46	822.25
316.689	843.25
316.919	860.25
317.148	889.25
317.377	867.25
317.607	866.25
317.836	924.25
318.065	1092.25
318.295	1196.25
318.524	1115.25
318.753	962.25
318.983	923.25
319.212	902.25
319.441	995.25
319.67	1077.25
319.9	1158.25
320.129	1101.25
320.358	957.25
320.587	919.25
320.816	998.25
321.046	1124.25
321.275	1262.25
321.504	1247.25
321.733	1230.25
321.962	1159.25
322.191	1152.25
322.42	1054.25
322.649	1074.25
322.878	1164.25
323.108	1160.25
323.337	1066.25
323.566	1054.25
323.795	1006.25
324.024	1007.25
324.253	925.25
324.482	925.25
324.71	1039.25
324.939	1169.25
325.168	1094.25
325.397	901.25
325.626	885.25
325.855	890.25
326.084	888.25
326.313	871.25
326.542	816.25
326.77	851.25
326.999	875.25
327.228	940.25
327.457	967.25
327.686	976.25
327.914	866.25
328.143	794.25
328.372	827.25
328.6	838.25
328.829	835.25
329.058	854.25
329.287	854.25
329.515	883.25
329.744	850.25
329.972	830.25
330.201	805.25
330.43	836.25
330.658	945.25
330.887	1052.25
331.115	988.25
331.344	992.25
331.572	950.25
331.801	883.25
332.03	843.25
332.258	858.25
332.486	943.25
332.715	957.25
332.943	899.25
333.172	906.25
333.4	934.25
333.629	1007.25
333.857	1073.25
334.085	1061.25
334.314	1082.25
334.542	1057.25
334.771	979.25
334.999	936.25
335.227	888.25
335.455	909.25
335.684	1035.25
335.912	1185.25
336.14	1310.25
336.369	1243.25
336.597	1185.25
336.825	1323.25
337.053	1491.25
337.281	1216.25
337.51	951.25
337.738	960.25
337.966	1010.25
338.194	1157.25
338.422	1090.25
338.65	961.25
338.878	874.25
339.106	900.25
339.334	993.25
339.562	1055.25
339.79	965.25
340.018	916.25
340.246	992.25
340.474	1161.25
340.702	1224.25
340.93	1284.25
341.158	1291.25
341.386	1081.25
341.614	1059.25
341.842	1068.25
342.07	1112.25
342.298	1317.25
342.526	1330.25
342.754	1146.25
342.981	1055.25
343.209	1018.25
343.437	1127.25
343.665	1165.25
343.893	1144.25
344.12	1335.25
344.348	1567.25
344.576	1383.25
344.804	1160.25
345.031	1022.25
345.259	954.25
345.487	972.25
345.714	1014.25
345.942	1081.25
346.17	1108.25
346.397	1106.25
346.625	997.25
346.853	926.25
347.08	932.25
347.308	1006.25
347.535	1077.25
347.763	1099.25
347.99	941.25
348.218	921.25
348.445	916.25
348.673	970.25
348.9	961.25
349.128	1020.25
349.355	1058.25
349.583	1055.25
349.81	981.25
350.037	906.25
350.265	827.25
350.492	771.25
350.72	769.25
350.947	801.25
351.174	880.25
351.402	918.25
351.629	934.25
351.856	922.25
352.083	878.25
352.311	926.25
352.538	1016.25
352.765	1087.25
352.992	1011.25
353.22	948.25
353.447	960.25
353.674	908.25
353.901	927.25
354.128	924.25
354.355	978.25
354.583	956.25
354.81	974.25
355.037	984.25
355.264	968.25
355.491	1044.25
355.718	1127.25
355.945	1070.25
356.172	1043.25
356.399	1069.25
356.626	1290.25
356.853	1509.25
357.08	1617.25
357.307	1680.25
357.534	1283.25
357.761	1352.25
357.988	1634.25
358.215	1938.25
358.441	1829.25
358.668	1534.25
358.895	1395.25
359.122	1145.25
359.349	1146.25
359.576	1279.25
359.802	1047.25
360.029	903.25
360.256	997.25
360.483	1202.25
360.709	1535.25
360.936	1562.25
361.163	1368.25
361.39	1077.25
361.616	1001.25
361.843	1166.25
362.07	1462.25
362.296	1294.25
362.523	1025.25
362.749	898.25
362.976	966.25
363.203	1141.25
363.429	1237.25
363.656	1040.25
363.882	930.25
364.109	990.25
364.335	950.25
364.562	929.25
364.788	1081.25
365.015	1246.25
365.241	1110.25
365.468	933.25
365.694	772.25
365.92	798.25
366.147	775.25
366.373	766.25
366.599	753.25
366.826	779.25
367.052	803.25
367.278	814.25
367.505	807.25
367.731	880.25
367.957	1002.25
368.184	986.25
368.41	946.25
368.636	958.25
368.862	1005.25
369.089	994.25
369.315	865.25
369.541	865.25
369.767	848.25
369.993	822.25
370.219	846.25
370.445	867.25
370.672	972.25
370.898	1031.25
371.124	1034.25
371.35	909.25
371.576	900.25
371.802	948.25
372.028	1128.25
372.254	1278.25
372.48	1096.25
372.706	967.25
372.932	1024.25
373.158	1108.25
373.384	1284.25
373.61	1667.25
373.835	1716.25
374.061	1296.25
374.287	1100.25
374.513	1326.25
374.739	1512.25
374.965	1595.25
375.191	1579.25
375.416	1114.25
375.642	979.25
375.868	1119.25
376.094	1260.25
376.319	1096.25
376.545	1237.25
376.771	1285.25
376.997	1110.25
377.222	848.25
377.448	731.25
377.674	743.25
377.899	737.25
378.125	734.25
378.35	744.25
378.576	766.25
378.802	807.25
379.027	882.25
379.253	852.25
379.478	896.25
379.704	986.25
379.929	1038.25
380.155	1023.25
380.38	925.25
380.606	968.25
380.831	1077.25
381.057	972.25
381.282	914.25
381.507	1111.25
381.733	1334.25
381.958	1448.25
382.184	1510.25
382.409	1593.25
382.634	1534.25
382.86	1658.25
383.085	1347.25
383.31	1096.25
383.535	1116.25
383.761	1146.25
383.986	1106.25
384.211	1374.25
384.436	1300.25
384.662	996.25
384.887	955.25
385.112	1018.25
385.337	999.25
385.562	968.25
385.787	1021.25
386.013	1175.25
386.238	1206.25
386.463	984.25
386.688	884.25
386.913	939.25
387.138	885.25
387.363	936.25
387.588	975.25
387.813	950.25
388.038	1060.25
388.263	950.25
388.488	917.25
388.713	1088.25
388.938	1130.25
389.163	954.25
389.387	889.25
389.612	888.25
389.837	915.25
390.062	924.25
390.287	962.25
390.512	965.25
390.736	911.25
390.961	870.25
391.186	831.25
391.411	836.25
391.636	849.25
391.86	891.25
392.085	959.25
392.31	946.25
392.534	904.25
392.759	914.25
392.984	977.25
393.208	925.25
393.433	844.25
393.658	793.25
393.882	789.25
394.107	748.25
394.331	788.25
394.556	783.25
394.78	807.25
395.005	831.25
395.229	850.25
395.454	866.25
395.678	870.25
395.903	908.25
396.127	880.25
396.352	886.25
396.576	948.25
396.801	960.25
397.025	1083.25
397.249	1102.25
397.474	952.25
397.698	904.25
397.922	948.25
398.147	896.25
398.371	883.25
398.595	946.25
398.82	931.25
399.044	926.25
399.268	990.25
399.492	1038.25
399.717	1079.25
399.941	1067.25
400.165	1035.25
400.389	1035.25
400.613	1045.25
400.837	1010.25
401.062	894.25
401.286	896.25
401.51	890.25
401.734	891.25
401.958	885.25
402.182	868.25
402.406	918.25
402.63	918.25
402.854	925.25
403.078	1046.25
403.302	1284.25
403.526	1270.25
403.75	1178.25
403.974	1030.25
404.198	1048.25
404.422	1189.25
404.645	1352.25
404.869	1522.25
405.093	1156.25
405.317	965.25
405.541	942.25
405.765	1010.25
405.988	992.25
406.212	1077.25
406.436	1260.25
406.66	1358.25
406.883	1115.25
407.107	1162.25
407.331	1310.25
407.555	1263.25
407.778	1078.25
408.002	1036.25
408.226	1024.25
408.449	1044.25
408.673	1020.25
408.896	926.25
409.12	890.25
409.344	905.25
409.567	886.25
409.791	893.25
410.014	884.25
410.238	874.25
410.461	887.25
410.685	894.25
410.908	887.25
411.132	916.25
411.355	912.25
411.578	939.25
411.802	910.25
412.025	962.25
412.249	970.25
412.472	940.25
412.695	958.25
412.919	918.25
413.142	968.25
413.365	1018.25
413.589	1027.25
413.812	967.25
414.035	920.25
414.258	924.25
414.482	1034.25
414.705	1051.25
414.928	879.25
415.151	850.25
415.374	854.25
415.597	921.25
415.821	902.25
416.044	881.25
416.267	866.25
416.49	834.25
416.713	870.25
416.936	820.25
417.159	858.25
417.382	886.25
417.605	896.25
417.828	921.25
418.051	931.25
418.274	898.25
418.497	923.25
418.72	923.25
418.943	924.25
419.166	975.25
419.389	1016.25
419.611	955.25
419.834	985.25
420.057	1074.25
420.28	1075.25
420.503	986.25
420.726	861.25
420.948	863.25
421.171	891.25
421.394	902.25
421.617	871.25
421.839	919.25
422.062	897.25
422.285	938.25
422.507	933.25
422.73	952.25
422.953	951.25
423.175	925.25
423.398	934.25
423.621	990.25
423.843	1040.25
424.066	964.25
424.288	936.25
424.511	934.25
424.733	882.25
424.956	933.25
425.178	1061.25
425.401	1187.25
425.623	1342.25
425.846	1093.25
426.068	996.25
426.291	1097.25
426.513	990.25
426.735	912.25
426.958	983.25
427.18	1123.25
427.402	1434.25
427.625	1396.25
427.847	1159.25
428.069	894.25
428.292	886.25
428.514	856.25
428.736	856.25
428.958	932.25
429.181	1073.25
429.403	978.25
429.625	899.25
429.847	857.25
430.069	894.25
430.292	898.25
430.514	855.25
430.736	940.25
430.958	1144.25
431.18	1010.25
431.402	860.25
431.624	782.25
431.846	812.25
432.068	783.25
432.29	820.25
432.512	907.25
432.734	1199.25
432.956	1074.25
433.178	867.25
433.4	827.25
433.622	847.25
433.844	863.25
434.066	911.25
434.287	892.25
434.509	871.25
434.731	894.25
434.953	869.25
435.175	927.25
435.397	1009.25
435.618	885.25
435.84	785.25
436.062	798.25
436.284	837.25
436.505	808.25
436.727	819.25
436.949	764.25
437.17	810.25
437.392	833.25
437.614	804.25
437.835	796.25
438.057	834.25
438.278	976.25
438.5	1345.25
438.721	1322.25
438.943	940.25
439.165	816.25
439.386	787.25
439.608	824.25
439.829	764.25
440.05	799.25
440.272	831.25
440.493	990.25
440.715	1177.25
440.936	969.25
441.158	855.25
441.379	826.25
441.6	944.25
441.822	994.25
442.043	874.25
442.264	874.25
442.486	856.25
442.707	839.25
442.928	852.25
443.149	887.25
443.371	870.25
443.592	920.25
443.813	904.25
444.034	903.25
444.255	916.25
444.476	922.25
444.698	953.25
444.919	971.25
445.14	1042.25
445.361	996.25
445.582	932.25
445.803	902.25
446.024	940.25
446.245	928.25
446.466	910.25
446.687	866.25
446.908	862.25
447.129	808.25
447.35	819.25
447.571	816.25
447.792	778.25
448.013	786.25
448.234	776.25
448.455	777.25
448.675	794.25
448.896	791.25
449.117	816.25
449.338	820.25
449.559	826.25
449.779	867.25
450	853.25
450.221	811.25
450.442	822.25
450.662	803.25
450.883	806.25
451.104	785.25
451.324	782.25
451.545	807.25
451.766	808.25
451.986	777.25
452.207	766.25
452.428	769.25
452.648	754.25
452.869	808.25
453.089	827.25
453.31	840.25
453.53	744.25
453.751	773.25
453.971	749.25
454.192	766.25
454.412	768.25
454.633	726.25
454.853	743.25
455.073	744.25
455.294	706.25
455.514	743.25
455.734	779.25
455.955	779.25
456.175	819.25
456.395	746.25
456.616	699.25
456.836	694.25
457.056	693.25
457.276	687.25
457.497	676.25
457.717	717.25
457.937	734.25
458.157	709.25
458.377	712.25
458.598	712.25
458.818	765.25
459.038	814.25
459.258	820.25
459.478	854.25
459.698	906.25
459.918	890.25
460.138	856.25
460.358	892.25
460.578	836.25
460.798	881.25
461.018	908.25
461.238	840.25
461.458	857.25
461.678	861.25
461.898	924.25
462.118	888.25
462.338	933.25
462.558	901.25
462.777	954.25
462.997	1027.25
463.217	988.25
463.437	1028.25
463.657	993.25
463.876	946.25
464.096	967.25
464.316	950.25
464.536	1004.25
464.755	1043.25
464.975	999.25
465.195	973.25
465.414	1015.25
465.634	971.25
465.854	910.25
466.073	851.25
466.293	874.25
466.512	915.25
466.732	1002.25
466.951	1040.25
467.171	916.25
467.391	901.25
467.61	842.25
467.829	920.25
468.049	919.25
468.268	876.25
468.488	840.25
468.707	901.25
468.927	1053.25
469.146	1134.25
469.365	1022.25
469.585	935.25
469.804	1002.25
470.023	1110.25
470.243	974.25
470.462	910.25
470.681	890.25
470.901	931.25
471.12	929.25
471.339	948.25
471.558	924.25
471.777	923.25
471.997	1004.25
472.216	1091.25
472.435	1060.25
472.654	983.25
472.873	942.25
473.092	960.25
473.311	1003.25
473.53	933.25
473.749	954.25
473.968	991.25
474.187	965.25
474.406	925.25
474.625	894.25
474.844	936.25
475.063	1004.25
475.282	996.25
475.501	1027.25
475.72	1104.25
475.939	1033.25
476.158	1090.25
476.377	1256.25
476.596	1383.25
476.814	1470.25
477.033	1225.25
477.252	1047.25
477.471	1000.25
477.69	1020.25
477.908	1072.25
478.127	1121.25
478.346	1039.25
478.564	1113.25
478.783	1096.25
479.002	1087.25
479.22	1269.25
479.439	1417.25
479.658	1213.25
479.876	1124.25
480.095	1178.25
480.313	1224.25
480.532	1120.25
480.751	1076.25
480.969	1090.25
481.188	1248.25
481.406	1308.25
481.624	1185.25
481.843	1122.25
482.061	1047.25
482.28	1191.25
482.498	1417.25
482.717	1361.25
482.935	1152.25
483.153	1097.25
483.372	1042.25
483.59	1060.25
483.808	1034.25
484.027	1020.25
484.245	990.25
484.463	989.25
484.681	1038.25
484.9	1112.25
485.118	1178.25
485.336	1087.25
485.554	1028.25
485.772	1074.25
485.99	1144.25
486.209	1196.25
486.427	1203.25
486.645	1182.25
486.863	1215.25
487.081	1220.25
487.299	1363.25
487.517	1318.25
487.735	1169.25
487.953	1240.25
488.171	1239.25
488.389	1189.25
488.607	1096.25
488.825	1164.25
489.043	1221.25
489.261	1423.25
489.479	1492.25
489.696	1282.25
489.914	1178.25
490.132	1103.25
490.35	1112.25
490.568	1110.25
490.786	1136.25
491.003	1139.25
491.221	1166.25
491.439	1150.25
491.657	1136.25
491.874	1228.25
492.092	1468.25
492.31	1687.25
492.527	1711.25
492.745	1489.25
492.963	1292.25
493.18	1264.25
493.398	1295.25
493.615	1279.25
493.833	1237.25
494.05	1224.25
494.268	1245.25
494.485	1213.25
494.703	1170.25
494.92	1222.25
