Data from NickelSpatula.Lamp.E10.P2_HRD10591_11-59-40-524.txt Node
Date: Tue Jul 23 11:59:40 EDT 2019
User: cochatt
Spectrometer: HR+D1059
Trigger mode: 1
Integration Time (sec): 1.000000E-1
Scans to average: 1
Electric dark correction enabled: true
Nonlinearity correction enabled: false
Boxcar width: 0
XAxis mode: Wavelengths
Number of Pixels in Spectrum: 2048
>>>>>Begin Spectral Data<<<<<
223.165	-15.81
223.4	-15.81
223.635	-15.81
223.869	-18.81
224.104	-13.81
224.338	-11.81
224.573	-15.81
224.808	-0.81
225.042	-14.81
225.277	0.19
225.511	-8.81
225.746	-5.81
225.98	23.19
226.215	-2.81
226.449	0.19
226.683	23.19
226.918	23.19
227.152	39.19
227.387	27.19
227.621	41.19
227.856	42.19
228.09	32.19
228.324	45.19
228.559	49.19
228.793	88.19
229.027	149.19
229.262	183.19
229.496	168.19
229.73	188.19
229.964	183.19
230.199	224.19
230.433	242.19
230.667	207.19
230.901	217.19
231.136	200.19
231.37	215.19
231.604	217.19
231.838	239.19
232.072	256.19
232.306	259.19
232.541	253.19
232.775	244.19
233.009	265.19
233.243	305.19
233.477	299.19
233.711	357.19
233.945	359.19
234.179	352.19
234.413	339.19
234.647	404.19
234.881	482.19
235.115	437.19
235.349	413.19
235.583	358.19
235.817	364.19
236.051	373.19
236.285	429.19
236.519	482.19
236.753	445.19
236.987	444.19
237.221	426.19
237.455	422.19
237.689	439.19
237.922	473.19
238.156	487.19
238.39	565.19
238.624	703.19
238.858	612.19
239.091	511.19
239.325	512.19
239.559	507.19
239.793	573.19
240.027	673.19
240.26	629.19
240.494	586.19
240.728	602.19
240.961	728.19
241.195	665.19
241.429	667.19
241.662	628.19
241.896	527.19
242.13	507.19
242.363	465.19
242.597	491.19
242.83	561.19
243.064	561.19
243.298	623.19
243.531	637.19
243.765	671.19
243.998	648.19
244.232	614.19
244.465	599.19
244.699	584.19
244.932	697.19
245.166	621.19
245.399	552.19
245.633	543.19
245.866	561.19
246.099	630.19
246.333	727.19
246.566	813.19
246.8	786.19
247.033	738.19
247.266	723.19
247.5	701.19
247.733	688.19
247.966	666.19
248.2	711.19
248.433	782.19
248.666	867.19
248.899	874.19
249.133	896.19
249.366	1029.19
249.599	1077.19
249.832	965.19
250.066	828.19
250.299	864.19
250.532	847.19
250.765	817.19
250.998	767.19
251.231	744.19
251.465	796.19
251.698	862.19
251.931	819.19
252.164	856.19
252.397	947.19
252.63	1106.19
252.863	1205.19
253.096	1233.19
253.329	1206.19
253.562	1154.19
253.795	1280.19
254.028	1386.19
254.261	1452.19
254.494	1325.19
254.727	1169.19
254.96	1136.19
255.193	1235.19
255.426	1152.19
255.659	877.19
255.892	817.19
256.124	882.19
256.357	1066.19
256.59	1216.19
256.823	1177.19
257.056	1031.19
257.289	944.19
257.521	974.19
257.754	1178.19
257.987	1310.19
258.22	1130.19
258.452	1044.19
258.685	1167.19
258.918	1311.19
259.151	1260.19
259.383	1373.19
259.616	1533.19
259.849	1595.19
260.081	1756.19
260.314	1911.19
260.547	1479.19
260.779	1533.19
261.012	1766.19
261.244	1653.19
261.477	1681.19
261.71	1599.19
261.942	1336.19
262.175	1327.19
262.407	1247.19
262.64	1315.19
262.872	1570.19
263.105	1712.19
263.337	1762.19
263.57	1558.19
263.802	1059.19
264.035	945.19
264.267	899.19
264.499	786.19
264.732	709.19
264.964	694.19
265.197	714.19
265.429	803.19
265.661	852.19
265.894	870.19
266.126	923.19
266.358	1063.19
266.591	1305.19
266.823	1543.19
267.055	1427.19
267.287	1281.19
267.52	1287.19
267.752	1357.19
267.984	1438.19
268.216	1407.19
268.448	1139.19
268.681	1139.19
268.913	1215.19
269.145	1283.19
269.377	1335.19
269.609	1343.19
269.841	1243.19
270.073	1348.19
270.306	1405.19
270.538	1407.19
270.77	1452.19
271.002	1414.19
271.234	1482.19
271.466	1589.19
271.698	1521.19
271.93	1457.19
272.162	1479.19
272.394	1463.19
272.626	1435.19
272.858	1479.19
273.09	1507.19
273.322	1333.19
273.553	1285.19
273.785	1530.19
274.017	2075.19
274.249	2515.19
274.481	2605.19
274.713	2823.19
274.945	3257.19
275.176	3373.19
275.408	2967.19
275.64	2758.19
275.872	2695.19
276.104	2274.19
276.335	1949.19
276.567	1936.19
276.799	2049.19
277.031	2103.19
277.262	1624.19
277.494	1300.19
277.726	1248.19
277.957	1339.19
278.189	1517.19
278.421	1537.19
278.652	1441.19
278.884	1423.19
279.115	1307.19
279.347	1223.19
279.579	1256.19
279.81	1300.19
280.042	1276.19
280.273	1311.19
280.505	1125.19
280.736	1023.19
280.968	1042.19
281.199	1113.19
281.431	1300.19
281.662	1243.19
281.894	1167.19
282.125	1283.19
282.356	1371.19
282.588	1442.19
282.819	1288.19
283.051	1390.19
283.282	1739.19
283.513	1967.19
283.745	2269.19
283.976	2226.19
284.207	2061.19
284.439	2129.19
284.67	2059.19
284.901	1813.19
285.132	2011.19
285.364	2107.19
285.595	1931.19
285.826	2049.19
286.057	2104.19
286.288	1990.19
286.52	2056.19
286.751	2180.19
286.982	2133.19
287.213	1853.19
287.444	1794.19
287.675	1897.19
287.906	1885.19
288.138	1584.19
288.369	1392.19
288.6	1321.19
288.831	1345.19
289.062	1567.19
289.293	1725.19
289.524	1621.19
289.755	1607.19
289.986	1665.19
290.217	1469.19
290.448	1099.19
290.679	976.19
290.91	971.19
291.141	939.19
291.371	970.19
291.602	1014.19
291.833	1035.19
292.064	1086.19
292.295	1275.19
292.526	1438.19
292.757	1473.19
292.987	1593.19
293.218	1589.19
293.449	1653.19
293.68	1714.19
293.91	1656.19
294.141	1660.19
294.372	1513.19
294.603	1438.19
294.833	1624.19
295.064	1903.19
295.295	1764.19
295.525	1313.19
295.756	1161.19
295.987	1028.19
296.217	1041.19
296.448	1101.19
296.679	1152.19
296.909	1289.19
297.14	1343.19
297.37	1490.19
297.601	1389.19
297.831	1180.19
298.062	1289.19
298.292	1473.19
298.523	1620.19
298.753	1846.19
298.984	1643.19
299.214	1313.19
299.445	1142.19
299.675	1054.19
299.905	1062.19
300.136	1111.19
300.366	1234.19
300.597	1192.19
300.827	1044.19
301.057	1032.19
301.288	1075.19
301.518	1110.19
301.748	1282.19
301.979	1407.19
302.209	1531.19
302.439	1526.19
302.669	1333.19
302.9	1303.19
303.13	1166.19
303.36	1123.19
303.59	1099.19
303.82	1147.19
304.051	1296.19
304.281	1354.19
304.511	1327.19
304.741	1163.19
304.971	1243.19
305.201	1304.19
305.431	1219.19
305.661	1110.19
305.891	1120.19
306.121	1124.19
306.352	1008.19
306.582	908.19
306.812	873.19
307.042	909.19
307.272	817.19
307.502	846.19
307.731	891.19
307.961	916.19
308.191	898.19
308.421	798.19
308.651	810.19
308.881	795.19
309.111	777.19
309.341	853.19
309.571	897.19
309.8	951.19
310.03	941.19
310.26	1034.19
310.49	975.19
310.72	883.19
310.949	891.19
311.179	902.19
311.409	937.19
311.639	1119.19
311.868	1425.19
312.098	1826.19
312.328	1991.19
312.557	1914.19
312.787	1947.19
313.017	1706.19
313.246	1847.19
313.476	1982.19
313.706	1659.19
313.935	1287.19
314.165	1065.19
314.394	993.19
314.624	1013.19
314.853	1043.19
315.083	1071.19
315.312	1034.19
315.542	1055.19
315.771	994.19
316.001	899.19
316.23	863.19
316.46	870.19
316.689	892.19
316.919	913.19
317.148	893.19
317.377	931.19
317.607	911.19
317.836	985.19
318.065	1162.19
318.295	1270.19
318.524	1206.19
318.753	1040.19
318.983	969.19
319.212	965.19
319.441	1053.19
319.67	1152.19
319.9	1224.19
320.129	1158.19
320.358	1019.19
320.587	986.19
320.816	1051.19
321.046	1244.19
321.275	1369.19
321.504	1378.19
321.733	1339.19
321.962	1255.19
322.191	1210.19
322.42	1170.19
322.649	1157.19
322.878	1275.19
323.108	1222.19
323.337	1139.19
323.566	1120.19
323.795	1055.19
324.024	1072.19
324.253	1025.19
324.482	1000.19
324.71	1127.19
324.939	1257.19
325.168	1188.19
325.397	970.19
325.626	952.19
325.855	932.19
326.084	961.19
326.313	893.19
326.542	848.19
326.77	880.19
326.999	911.19
327.228	989.19
327.457	1062.19
327.686	1037.19
327.914	888.19
328.143	869.19
328.372	871.19
328.6	879.19
328.829	906.19
329.058	926.19
329.287	901.19
329.515	949.19
329.744	908.19
329.972	857.19
330.201	801.19
330.43	872.19
330.658	979.19
330.887	1097.19
331.115	1064.19
331.344	1007.19
331.572	1001.19
331.801	901.19
332.03	879.19
332.258	892.19
332.486	999.19
332.715	993.19
332.943	944.19
333.172	933.19
333.4	953.19
333.629	1056.19
333.857	1157.19
334.085	1133.19
334.314	1116.19
334.542	1065.19
334.771	983.19
334.999	954.19
335.227	938.19
335.455	965.19
335.684	1073.19
335.912	1207.19
336.14	1307.19
336.369	1270.19
336.597	1232.19
336.825	1399.19
337.053	1563.19
337.281	1248.19
337.51	1035.19
337.738	1001.19
337.966	1107.19
338.194	1233.19
338.422	1157.19
338.65	966.19
338.878	873.19
339.106	918.19
339.334	1059.19
339.562	1096.19
339.79	1024.19
340.018	1018.19
340.246	1097.19
340.474	1222.19
340.702	1327.19
340.93	1401.19
341.158	1350.19
341.386	1112.19
341.614	1122.19
341.842	1138.19
342.07	1189.19
342.298	1368.19
342.526	1411.19
342.754	1254.19
342.981	1132.19
343.209	1077.19
343.437	1146.19
343.665	1241.19
343.893	1241.19
344.12	1398.19
344.348	1695.19
344.576	1500.19
344.804	1224.19
345.031	1088.19
345.259	995.19
345.487	1031.19
345.714	1093.19
345.942	1116.19
346.17	1210.19
346.397	1165.19
346.625	1025.19
346.853	1010.19
347.08	1010.19
347.308	1042.19
347.535	1168.19
347.763	1178.19
347.99	1073.19
348.218	949.19
348.445	1004.19
348.673	996.19
348.9	996.19
349.128	1076.19
349.355	1126.19
349.583	1097.19
349.81	1028.19
350.037	955.19
350.265	862.19
350.492	813.19
350.72	795.19
350.947	877.19
351.174	930.19
351.402	983.19
351.629	1025.19
351.856	976.19
352.083	917.19
352.311	1025.19
352.538	1131.19
352.765	1187.19
352.992	1094.19
353.22	1055.19
353.447	1045.19
353.674	1007.19
353.901	989.19
354.128	999.19
354.355	1061.19
354.583	1053.19
354.81	1029.19
355.037	1073.19
355.264	1059.19
355.491	1144.19
355.718	1249.19
355.945	1189.19
356.172	1172.19
356.399	1150.19
356.626	1387.19
356.853	1739.19
357.08	1830.19
357.307	1833.19
357.534	1412.19
357.761	1498.19
357.988	1864.19
358.215	2210.19
358.441	2051.19
358.668	1729.19
358.895	1580.19
359.122	1265.19
359.349	1261.19
359.576	1383.19
359.802	1156.19
360.029	994.19
360.256	1089.19
360.483	1345.19
360.709	1724.19
360.936	1723.19
361.163	1510.19
361.39	1182.19
361.616	1126.19
361.843	1309.19
362.07	1633.19
362.296	1461.19
362.523	1117.19
362.749	973.19
362.976	1043.19
363.203	1291.19
363.429	1449.19
363.656	1133.19
363.882	1025.19
364.109	1075.19
364.335	1039.19
364.562	1017.19
364.788	1167.19
365.015	1359.19
365.241	1233.19
365.468	999.19
365.694	864.19
365.92	849.19
366.147	820.19
366.373	790.19
366.599	798.19
366.826	838.19
367.052	853.19
367.278	842.19
367.505	863.19
367.731	933.19
367.957	1052.19
368.184	1083.19
368.41	1049.19
368.636	1106.19
368.862	1117.19
369.089	1084.19
369.315	945.19
369.541	922.19
369.767	899.19
369.993	862.19
370.219	914.19
370.445	921.19
370.672	1082.19
370.898	1149.19
371.124	1116.19
371.35	982.19
371.576	944.19
371.802	1023.19
372.028	1243.19
372.254	1414.19
372.48	1229.19
372.706	1081.19
372.932	1167.19
373.158	1169.19
373.384	1457.19
373.61	1964.19
373.835	2013.19
374.061	1470.19
374.287	1227.19
374.513	1461.19
374.739	1799.19
374.965	1811.19
375.191	1788.19
375.416	1215.19
375.642	1066.19
375.868	1270.19
376.094	1416.19
376.319	1237.19
376.545	1384.19
376.771	1443.19
376.997	1207.19
377.222	914.19
377.448	767.19
377.674	777.19
377.899	779.19
378.125	770.19
378.35	784.19
378.576	805.19
378.802	891.19
379.027	997.19
379.253	933.19
379.478	966.19
379.704	1103.19
379.929	1151.19
380.155	1135.19
380.38	997.19
380.606	1043.19
380.831	1163.19
381.057	1059.19
381.282	996.19
381.507	1233.19
381.733	1553.19
381.958	1661.19
382.184	1721.19
382.409	1822.19
382.634	1763.19
382.86	1894.19
383.085	1496.19
383.31	1211.19
383.535	1270.19
383.761	1268.19
383.986	1217.19
384.211	1503.19
384.436	1415.19
384.662	1065.19
384.887	1039.19
385.112	1081.19
385.337	1091.19
385.562	1035.19
385.787	1149.19
386.013	1338.19
386.238	1305.19
386.463	1065.19
386.688	1043.19
386.913	1014.19
387.138	899.19
387.363	971.19
387.588	1054.19
387.813	1017.19
388.038	1166.19
388.263	1022.19
388.488	986.19
388.713	1171.19
388.938	1299.19
389.163	1050.19
389.387	953.19
389.612	970.19
389.837	957.19
390.062	1013.19
390.287	1028.19
390.512	1066.19
390.736	961.19
390.961	909.19
391.186	882.19
391.411	859.19
391.636	866.19
391.86	958.19
392.085	1067.19
392.31	1053.19
392.534	990.19
392.759	968.19
392.984	1035.19
393.208	1017.19
393.433	898.19
393.658	829.19
393.882	838.19
394.107	800.19
394.331	825.19
394.556	807.19
394.78	850.19
395.005	862.19
395.229	880.19
395.454	904.19
395.678	903.19
395.903	928.19
396.127	911.19
396.352	898.19
396.576	1007.19
396.801	1025.19
397.025	1149.19
397.249	1189.19
397.474	1001.19
397.698	954.19
397.922	1025.19
398.147	920.19
398.371	954.19
398.595	1025.19
398.82	976.19
399.044	974.19
399.268	1039.19
399.492	1063.19
399.717	1065.19
399.941	1125.19
400.165	1063.19
400.389	1056.19
400.613	1066.19
400.837	1045.19
401.062	945.19
401.286	917.19
401.51	911.19
401.734	937.19
401.958	916.19
402.182	917.19
402.406	919.19
402.63	953.19
402.854	980.19
403.078	1096.19
403.302	1365.19
403.526	1392.19
403.75	1217.19
403.974	1082.19
404.198	1142.19
404.422	1277.19
404.645	1511.19
404.869	1631.19
405.093	1191.19
405.317	1005.19
405.541	1035.19
405.765	1049.19
405.988	1055.19
406.212	1117.19
406.436	1366.19
406.66	1520.19
406.883	1162.19
407.107	1207.19
407.331	1448.19
407.555	1311.19
407.778	1148.19
408.002	1089.19
408.226	1058.19
408.449	1075.19
408.673	1039.19
408.896	953.19
409.12	937.19
409.344	922.19
409.567	927.19
409.791	938.19
410.014	908.19
410.238	917.19
410.461	906.19
410.685	922.19
410.908	923.19
411.132	943.19
411.355	935.19
411.578	984.19
411.802	968.19
412.025	1027.19
412.249	1010.19
412.472	990.19
412.695	937.19
412.919	994.19
413.142	1013.19
413.365	1104.19
413.589	1095.19
413.812	971.19
414.035	912.19
414.258	987.19
414.482	1114.19
414.705	1131.19
414.928	923.19
415.151	935.19
415.374	883.19
415.597	935.19
415.821	943.19
416.044	917.19
416.267	912.19
416.49	905.19
416.713	882.19
416.936	907.19
417.159	869.19
417.382	905.19
417.605	886.19
417.828	959.19
418.051	926.19
418.274	944.19
418.497	945.19
418.72	952.19
418.943	973.19
419.166	1027.19
419.389	1079.19
419.611	1021.19
419.834	1079.19
420.057	1144.19
420.28	1135.19
420.503	1063.19
420.726	904.19
420.948	887.19
421.171	896.19
421.394	898.19
421.617	884.19
421.839	889.19
422.062	959.19
422.285	949.19
422.507	982.19
422.73	986.19
422.953	997.19
423.175	967.19
423.398	976.19
423.621	1033.19
423.843	1093.19
424.066	1024.19
424.288	943.19
424.511	921.19
424.733	934.19
424.956	1000.19
425.178	1132.19
425.401	1313.19
425.623	1474.19
425.846	1173.19
426.068	1035.19
426.291	1199.19
426.513	1054.19
426.735	969.19
426.958	1001.19
427.18	1238.19
427.402	1613.19
427.625	1551.19
427.847	1229.19
428.069	939.19
428.292	902.19
428.514	925.19
428.736	891.19
428.958	973.19
429.181	1186.19
429.403	999.19
429.625	917.19
429.847	891.19
430.069	927.19
430.292	957.19
430.514	910.19
430.736	978.19
430.958	1262.19
431.18	1132.19
431.402	861.19
431.624	830.19
431.846	852.19
432.068	797.19
432.29	837.19
432.512	949.19
432.734	1275.19
432.956	1171.19
433.178	885.19
433.4	850.19
433.622	855.19
433.844	880.19
434.066	963.19
434.287	960.19
434.509	902.19
434.731	944.19
434.953	871.19
435.175	949.19
435.397	1117.19
435.618	921.19
435.84	836.19
436.062	851.19
436.284	833.19
436.505	802.19
436.727	787.19
436.949	814.19
437.17	847.19
437.392	887.19
437.614	865.19
437.835	819.19
438.057	854.19
438.278	1028.19
438.5	1471.19
438.721	1473.19
438.943	990.19
439.165	829.19
439.386	817.19
439.608	816.19
439.829	763.19
440.05	813.19
440.272	877.19
440.493	1070.19
440.715	1318.19
440.936	1013.19
441.158	872.19
441.379	875.19
441.6	991.19
441.822	1056.19
442.043	918.19
442.264	879.19
442.486	909.19
442.707	906.19
442.928	898.19
443.149	894.19
443.371	933.19
443.592	989.19
443.813	923.19
444.034	905.19
444.255	932.19
444.476	982.19
444.698	977.19
444.919	970.19
445.14	1077.19
445.361	1040.19
445.582	968.19
445.803	953.19
446.024	960.19
446.245	966.19
446.466	925.19
446.687	897.19
446.908	890.19
447.129	867.19
447.35	835.19
447.571	784.19
447.792	807.19
448.013	810.19
448.234	789.19
448.455	814.19
448.675	801.19
448.896	830.19
449.117	811.19
449.338	818.19
449.559	851.19
449.779	902.19
450	887.19
450.221	834.19
450.442	841.19
450.662	833.19
450.883	813.19
451.104	817.19
451.324	803.19
451.545	812.19
451.766	820.19
451.986	810.19
452.207	778.19
452.428	800.19
452.648	801.19
452.869	833.19
453.089	871.19
453.31	846.19
453.53	759.19
453.751	776.19
453.971	737.19
454.192	801.19
454.412	809.19
454.633	746.19
454.853	780.19
455.073	729.19
455.294	757.19
455.514	771.19
455.734	818.19
455.955	820.19
456.175	841.19
456.395	752.19
456.616	747.19
456.836	721.19
457.056	724.19
457.276	704.19
457.497	716.19
457.717	736.19
457.937	741.19
458.157	716.19
458.377	760.19
458.598	754.19
458.818	792.19
459.038	819.19
459.258	825.19
459.478	877.19
459.698	917.19
459.918	907.19
460.138	899.19
460.358	894.19
460.578	879.19
460.798	897.19
461.018	904.19
461.238	849.19
461.458	890.19
461.678	893.19
461.898	959.19
462.118	952.19
462.338	933.19
462.558	968.19
462.777	1031.19
462.997	1034.19
463.217	999.19
463.437	1013.19
463.657	1003.19
463.876	990.19
464.096	970.19
464.316	982.19
464.536	985.19
464.755	1049.19
464.975	1067.19
465.195	965.19
465.414	1061.19
465.634	963.19
465.854	955.19
466.073	884.19
466.293	881.19
466.512	933.19
466.732	1057.19
466.951	1035.19
467.171	954.19
467.391	891.19
467.61	893.19
467.829	951.19
468.049	963.19
468.268	911.19
468.488	899.19
468.707	920.19
468.927	1108.19
469.146	1182.19
469.365	1045.19
469.585	974.19
469.804	1045.19
470.023	1119.19
470.243	1022.19
470.462	943.19
470.681	919.19
470.901	925.19
471.12	1005.19
471.339	993.19
471.558	933.19
471.777	944.19
471.997	1053.19
472.216	1154.19
472.435	1115.19
472.654	995.19
472.873	979.19
473.092	1008.19
473.311	1078.19
473.53	982.19
473.749	942.19
473.968	1008.19
474.187	1004.19
474.406	934.19
474.625	971.19
474.844	977.19
475.063	1034.19
475.282	1049.19
475.501	1088.19
475.72	1155.19
475.939	1101.19
476.158	1109.19
476.377	1275.19
476.596	1509.19
476.814	1539.19
477.033	1263.19
477.252	1083.19
477.471	1008.19
477.69	1028.19
477.908	1124.19
478.127	1182.19
478.346	1063.19
478.564	1172.19
478.783	1092.19
479.002	1124.19
479.22	1333.19
479.439	1471.19
479.658	1261.19
479.876	1126.19
480.095	1245.19
480.313	1270.19
480.532	1141.19
480.751	1112.19
480.969	1143.19
481.188	1291.19
481.406	1346.19
481.624	1282.19
481.843	1160.19
482.061	1079.19
482.28	1227.19
482.498	1486.19
482.717	1397.19
482.935	1209.19
483.153	1179.19
483.372	1093.19
483.59	1085.19
483.808	1074.19
484.027	1049.19
484.245	1025.19
484.463	984.19
484.681	1057.19
484.9	1130.19
485.118	1241.19
485.336	1131.19
485.554	1067.19
485.772	1118.19
485.99	1194.19
486.209	1283.19
486.427	1263.19
486.645	1259.19
486.863	1291.19
487.081	1240.19
487.299	1436.19
487.517	1398.19
487.735	1231.19
487.953	1289.19
488.171	1320.19
488.389	1213.19
488.607	1143.19
488.825	1217.19
489.043	1299.19
489.261	1503.19
489.479	1619.19
489.696	1367.19
489.914	1217.19
490.132	1167.19
490.35	1141.19
490.568	1143.19
490.786	1145.19
491.003	1167.19
491.221	1187.19
491.439	1169.19
491.657	1174.19
491.874	1262.19
492.092	1571.19
492.31	1905.19
492.527	1839.19
492.745	1531.19
492.963	1365.19
493.18	1344.19
493.398	1359.19
