Data from NickelSpatula_HRD10591_16-36-11-125.txt Node
Date: Mon Jul 22 16:36:11 EDT 2019
User: cochatt
Spectrometer: HR+D1059
Trigger mode: 1
Integration Time (sec): 1.000000E-1
Scans to average: 1
Electric dark correction enabled: true
Nonlinearity correction enabled: false
Boxcar width: 0
XAxis mode: Wavelengths
Number of Pixels in Spectrum: 2048
>>>>>Begin Spectral Data<<<<<
223.165	-10.25
223.4	-10.25
223.635	-10.25
223.869	-8.25
224.104	-6.25
224.338	-8.25
224.573	-20.25
224.808	-17.25
225.042	-16.25
225.277	-17.25
225.511	-10.25
225.746	7.75
225.98	5.75
226.215	11.75
226.449	16.75
226.683	9.75
226.918	21.75
227.152	40.75
227.387	35.75
227.621	39.75
227.856	48.75
228.09	51.75
228.324	37.75
228.559	52.75
228.793	69.75
229.027	86.75
229.262	83.75
229.496	72.75
229.73	70.75
229.964	80.75
230.199	90.75
230.433	84.75
230.667	87.75
230.901	90.75
231.136	98.75
231.37	76.75
231.604	89.75
231.838	107.75
232.072	90.75
232.306	91.75
232.541	98.75
232.775	88.75
233.009	94.75
233.243	104.75
233.477	97.75
233.711	101.75
233.945	110.75
234.179	113.75
234.413	97.75
234.647	106.75
234.881	105.75
235.115	109.75
235.349	98.75
235.583	91.75
235.817	77.75
236.051	114.75
236.285	106.75
236.519	118.75
236.753	112.75
236.987	122.75
237.221	101.75
237.455	98.75
237.689	106.75
237.922	113.75
238.156	113.75
238.39	117.75
238.624	129.75
238.858	135.75
239.091	121.75
239.325	121.75
239.559	109.75
239.793	115.75
240.027	104.75
240.26	121.75
240.494	115.75
240.728	110.75
240.961	119.75
241.195	113.75
241.429	123.75
241.662	117.75
241.896	108.75
242.13	117.75
242.363	108.75
242.597	114.75
242.83	122.75
243.064	143.75
243.298	130.75
243.531	137.75
243.765	116.75
243.998	127.75
244.232	129.75
244.465	110.75
244.699	123.75
244.932	121.75
245.166	116.75
245.399	126.75
245.633	107.75
245.866	126.75
246.099	119.75
246.333	133.75
246.566	131.75
246.8	159.75
247.033	137.75
247.266	135.75
247.5	138.75
247.733	123.75
247.966	126.75
248.2	130.75
248.433	121.75
248.666	135.75
248.899	149.75
249.133	143.75
249.366	149.75
249.599	143.75
249.832	142.75
250.066	155.75
250.299	148.75
250.532	137.75
250.765	144.75
250.998	137.75
251.231	141.75
251.465	127.75
251.698	155.75
251.931	135.75
252.164	147.75
252.397	146.75
252.63	164.75
252.863	158.75
253.096	186.75
253.329	185.75
253.562	156.75
253.795	171.75
254.028	189.75
254.261	200.75
254.494	178.75
254.727	167.75
254.96	161.75
255.193	186.75
255.426	163.75
255.659	133.75
255.892	147.75
256.124	143.75
256.357	161.75
256.59	180.75
256.823	180.75
257.056	150.75
257.289	151.75
257.521	153.75
257.754	185.75
257.987	202.75
258.22	182.75
258.452	168.75
258.685	175.75
258.918	173.75
259.151	185.75
259.383	195.75
259.616	226.75
259.849	227.75
260.081	222.75
260.314	231.75
260.547	205.75
260.779	208.75
261.012	216.75
261.244	217.75
261.477	234.75
261.71	214.75
261.942	188.75
262.175	197.75
262.407	191.75
262.64	184.75
262.872	196.75
263.105	217.75
263.337	234.75
263.57	220.75
263.802	169.75
264.035	149.75
264.267	144.75
264.499	142.75
264.732	139.75
264.964	126.75
265.197	141.75
265.429	143.75
265.661	150.75
265.894	148.75
266.126	143.75
266.358	164.75
266.591	179.75
266.823	197.75
267.055	186.75
267.287	193.75
267.52	193.75
267.752	204.75
267.984	209.75
268.216	191.75
268.448	190.75
268.681	173.75
268.913	190.75
269.145	190.75
269.377	204.75
269.609	194.75
269.841	197.75
270.073	200.75
270.306	204.75
270.538	211.75
270.77	201.75
271.002	215.75
271.234	218.75
271.466	219.75
271.698	195.75
271.93	204.75
272.162	198.75
272.394	193.75
272.626	202.75
272.858	211.75
273.09	211.75
273.322	190.75
273.553	187.75
273.785	215.75
274.017	237.75
274.249	272.75
274.481	305.75
274.713	308.75
274.945	354.75
275.176	335.75
275.408	317.75
275.64	310.75
275.872	287.75
276.104	283.75
276.335	238.75
276.567	246.75
276.799	244.75
277.031	271.75
277.262	209.75
277.494	176.75
277.726	183.75
277.957	194.75
278.189	214.75
278.421	203.75
278.652	191.75
278.884	206.75
279.115	185.75
279.347	172.75
279.579	196.75
279.81	203.75
280.042	197.75
280.273	188.75
280.505	188.75
280.736	160.75
280.968	159.75
281.199	177.75
281.431	188.75
281.662	195.75
281.894	179.75
282.125	190.75
282.356	211.75
282.588	205.75
282.819	189.75
283.051	216.75
283.282	241.75
283.513	257.75
283.745	261.75
283.976	275.75
284.207	266.75
284.439	265.75
284.67	252.75
284.901	234.75
285.132	238.75
285.364	252.75
285.595	238.75
285.826	242.75
286.057	253.75
286.288	238.75
286.52	264.75
286.751	285.75
286.982	256.75
287.213	235.75
287.444	233.75
287.675	235.75
287.906	246.75
288.138	217.75
288.369	206.75
288.6	196.75
288.831	208.75
289.062	219.75
289.293	243.75
289.524	218.75
289.755	230.75
289.986	235.75
290.217	202.75
290.448	175.75
290.679	152.75
290.91	148.75
291.141	153.75
291.371	163.75
291.602	170.75
291.833	152.75
292.064	159.75
292.295	175.75
292.526	197.75
292.757	214.75
292.987	214.75
293.218	223.75
293.449	234.75
293.68	230.75
293.91	222.75
294.141	246.75
294.372	242.75
294.603	220.75
294.833	233.75
295.064	258.75
295.295	247.75
295.525	188.75
295.756	171.75
295.987	153.75
296.217	165.75
296.448	141.75
296.679	158.75
296.909	161.75
297.14	187.75
297.37	190.75
297.601	179.75
297.831	192.75
298.062	181.75
298.292	196.75
298.523	226.75
298.753	227.75
298.984	216.75
299.214	179.75
299.445	159.75
299.675	165.75
299.905	155.75
300.136	157.75
300.366	155.75
300.597	164.75
300.827	150.75
301.057	155.75
301.288	157.75
301.518	171.75
301.748	194.75
301.979	198.75
302.209	200.75
302.439	202.75
302.669	195.75
302.9	195.75
303.13	201.75
303.36	188.75
303.59	181.75
303.82	177.75
304.051	186.75
304.281	198.75
304.511	194.75
304.741	187.75
304.971	177.75
305.201	193.75
305.431	199.75
305.661	170.75
305.891	162.75
306.121	166.75
306.352	149.75
306.582	133.75
306.812	144.75
307.042	142.75
307.272	145.75
307.502	138.75
307.731	149.75
307.961	142.75
308.191	143.75
308.421	128.75
308.651	130.75
308.881	146.75
309.111	131.75
309.341	121.75
309.571	158.75
309.8	141.75
310.03	149.75
310.26	133.75
310.49	166.75
310.72	143.75
310.949	151.75
311.179	167.75
311.409	154.75
311.639	177.75
311.868	205.75
312.098	239.75
312.328	268.75
312.557	245.75
312.787	252.75
313.017	231.75
313.246	235.75
313.476	252.75
313.706	221.75
313.935	165.75
314.165	145.75
314.394	149.75
314.624	155.75
314.853	170.75
315.083	160.75
315.312	166.75
315.542	167.75
315.771	158.75
316.001	139.75
316.23	135.75
316.46	141.75
316.689	137.75
316.919	137.75
317.148	141.75
317.377	150.75
317.607	145.75
317.836	157.75
318.065	157.75
318.295	171.75
318.524	179.75
318.753	163.75
318.983	147.75
319.212	152.75
319.441	162.75
319.67	168.75
319.9	176.75
320.129	167.75
320.358	159.75
320.587	138.75
320.816	147.75
321.046	156.75
321.275	182.75
321.504	183.75
321.733	190.75
321.962	173.75
322.191	177.75
322.42	160.75
322.649	176.75
322.878	190.75
323.108	181.75
323.337	179.75
323.566	165.75
323.795	154.75
324.024	147.75
324.253	152.75
324.482	163.75
324.71	155.75
324.939	177.75
325.168	169.75
325.397	162.75
325.626	140.75
325.855	135.75
326.084	151.75
326.313	147.75
326.542	142.75
326.77	149.75
326.999	133.75
327.228	146.75
327.457	143.75
327.686	156.75
327.914	142.75
328.143	134.75
328.372	138.75
328.6	133.75
328.829	138.75
329.058	141.75
329.287	135.75
329.515	159.75
329.744	133.75
329.972	147.75
330.201	142.75
330.43	139.75
330.658	152.75
330.887	186.75
331.115	163.75
331.344	149.75
331.572	141.75
331.801	143.75
332.03	138.75
332.258	148.75
332.486	149.75
332.715	157.75
332.943	149.75
333.172	154.75
333.4	158.75
333.629	151.75
333.857	157.75
334.085	164.75
334.314	158.75
334.542	162.75
334.771	161.75
334.999	157.75
335.227	143.75
335.455	153.75
335.684	151.75
335.912	153.75
336.14	189.75
336.369	177.75
336.597	169.75
336.825	180.75
337.053	192.75
337.281	186.75
337.51	161.75
337.738	134.75
337.966	156.75
338.194	177.75
338.422	144.75
338.65	140.75
338.878	149.75
339.106	145.75
339.334	157.75
339.562	149.75
339.79	154.75
340.018	164.75
340.246	157.75
340.474	162.75
340.702	171.75
340.93	194.75
341.158	186.75
341.386	167.75
341.614	173.75
341.842	158.75
342.07	174.75
342.298	181.75
342.526	195.75
342.754	160.75
342.981	162.75
343.209	153.75
343.437	169.75
343.665	174.75
343.893	166.75
344.12	201.75
344.348	247.75
344.576	208.75
344.804	169.75
345.031	163.75
345.259	152.75
345.487	149.75
345.714	157.75
345.942	154.75
346.17	172.75
346.397	163.75
346.625	161.75
346.853	149.75
347.08	146.75
347.308	161.75
347.535	165.75
347.763	170.75
347.99	162.75
348.218	165.75
348.445	166.75
348.673	155.75
348.9	150.75
349.128	158.75
349.355	162.75
349.583	161.75
349.81	146.75
350.037	149.75
350.265	138.75
350.492	127.75
350.72	130.75
350.947	125.75
351.174	137.75
351.402	158.75
351.629	148.75
351.856	137.75
352.083	130.75
352.311	147.75
352.538	166.75
352.765	167.75
352.992	169.75
353.22	175.75
353.447	167.75
353.674	147.75
353.901	152.75
354.128	149.75
354.355	155.75
354.583	161.75
354.81	173.75
355.037	177.75
355.264	167.75
355.491	164.75
355.718	177.75
355.945	169.75
356.172	157.75
356.399	178.75
356.626	213.75
356.853	226.75
357.08	238.75
357.307	262.75
357.534	196.75
357.761	227.75
357.988	250.75
358.215	279.75
358.441	257.75
358.668	215.75
358.895	196.75
359.122	193.75
359.349	208.75
359.576	201.75
359.802	179.75
360.029	158.75
360.256	185.75
360.483	201.75
360.709	234.75
360.936	227.75
361.163	205.75
361.39	172.75
361.616	172.75
361.843	179.75
362.07	200.75
362.296	182.75
362.523	168.75
362.749	160.75
362.976	157.75
363.203	185.75
363.429	194.75
363.656	144.75
363.882	150.75
364.109	168.75
364.335	166.75
364.562	149.75
364.788	165.75
365.015	182.75
365.241	183.75
365.468	164.75
365.694	155.75
365.92	133.75
366.147	130.75
366.373	121.75
366.599	134.75
366.826	135.75
367.052	150.75
367.278	136.75
367.505	131.75
367.731	145.75
367.957	163.75
368.184	164.75
368.41	155.75
368.636	144.75
368.862	149.75
369.089	165.75
369.315	152.75
369.541	144.75
369.767	139.75
369.993	143.75
370.219	138.75
370.445	129.75
370.672	143.75
370.898	173.75
371.124	154.75
371.35	137.75
371.576	134.75
371.802	143.75
372.028	166.75
372.254	191.75
372.48	178.75
372.706	161.75
372.932	139.75
373.158	166.75
373.384	207.75
373.61	243.75
373.835	248.75
374.061	194.75
374.287	180.75
374.513	226.75
374.739	217.75
374.965	242.75
375.191	225.75
375.416	183.75
375.642	150.75
375.868	190.75
376.094	189.75
376.319	177.75
376.545	192.75
376.771	196.75
376.997	172.75
377.222	134.75
377.448	127.75
377.674	140.75
377.899	131.75
378.125	127.75
378.35	128.75
378.576	148.75
378.802	133.75
379.027	158.75
379.253	147.75
379.478	167.75
379.704	179.75
379.929	168.75
380.155	183.75
380.38	166.75
380.606	185.75
380.831	177.75
381.057	161.75
381.282	171.75
381.507	175.75
381.733	198.75
381.958	227.75
382.184	228.75
382.409	233.75
382.634	241.75
382.86	229.75
383.085	211.75
383.31	168.75
383.535	197.75
383.761	185.75
383.986	191.75
384.211	209.75
384.436	214.75
384.662	173.75
384.887	167.75
385.112	152.75
385.337	172.75
385.562	165.75
385.787	179.75
386.013	189.75
386.238	181.75
386.463	175.75
386.688	156.75
386.913	140.75
387.138	139.75
387.363	184.75
387.588	173.75
387.813	164.75
388.038	158.75
388.263	157.75
388.488	149.75
388.713	167.75
388.938	177.75
389.163	161.75
389.387	136.75
389.612	151.75
389.837	137.75
390.062	176.75
390.287	148.75
390.512	161.75
390.736	150.75
390.961	143.75
391.186	131.75
391.411	143.75
391.636	142.75
391.86	151.75
392.085	191.75
392.31	167.75
392.534	156.75
392.759	163.75
392.984	151.75
393.208	156.75
393.433	143.75
393.658	143.75
393.882	127.75
394.107	116.75
394.331	137.75
394.556	126.75
394.78	141.75
395.005	126.75
395.229	134.75
395.454	137.75
395.678	139.75
395.903	147.75
396.127	147.75
396.352	148.75
396.576	176.75
396.801	153.75
397.025	179.75
397.249	167.75
397.474	161.75
397.698	146.75
397.922	156.75
398.147	143.75
398.371	151.75
398.595	161.75
398.82	143.75
399.044	137.75
399.268	168.75
399.492	165.75
399.717	161.75
399.941	162.75
400.165	155.75
400.389	143.75
400.613	155.75
400.837	155.75
401.062	138.75
401.286	138.75
401.51	134.75
401.734	149.75
401.958	129.75
402.182	153.75
402.406	132.75
402.63	153.75
402.854	144.75
403.078	190.75
403.302	221.75
403.526	241.75
403.75	203.75
403.974	167.75
404.198	188.75
404.422	187.75
404.645	222.75
404.869	219.75
405.093	181.75
405.317	153.75
405.541	161.75
405.765	165.75
405.988	166.75
406.212	195.75
406.436	195.75
406.66	212.75
406.883	160.75
407.107	158.75
407.331	197.75
407.555	193.75
407.778	166.75
408.002	181.75
408.226	191.75
408.449	156.75
408.673	138.75
408.896	156.75
409.12	139.75
409.344	134.75
409.567	151.75
409.791	147.75
410.014	143.75
410.238	129.75
410.461	133.75
410.685	148.75
410.908	140.75
411.132	146.75
411.355	147.75
411.578	157.75
411.802	152.75
412.025	149.75
412.249	152.75
412.472	142.75
412.695	143.75
412.919	134.75
413.142	144.75
413.365	161.75
413.589	157.75
413.812	142.75
414.035	147.75
414.258	145.75
414.482	163.75
414.705	169.75
414.928	152.75
415.151	149.75
415.374	163.75
415.597	139.75
415.821	133.75
416.044	139.75
416.267	145.75
416.49	138.75
416.713	152.75
416.936	139.75
417.159	134.75
417.382	134.75
417.605	138.75
417.828	153.75
418.051	142.75
418.274	157.75
418.497	167.75
418.72	143.75
418.943	140.75
419.166	157.75
419.389	163.75
419.611	166.75
419.834	167.75
420.057	169.75
420.28	182.75
420.503	163.75
420.726	131.75
420.948	155.75
421.171	146.75
421.394	152.75
421.617	133.75
421.839	149.75
422.062	147.75
422.285	151.75
422.507	165.75
422.73	175.75
422.953	169.75
423.175	150.75
423.398	147.75
423.621	173.75
423.843	172.75
424.066	157.75
424.288	158.75
424.511	154.75
424.733	154.75
424.956	139.75
425.178	166.75
425.401	186.75
425.623	218.75
425.846	196.75
426.068	176.75
426.291	170.75
426.513	158.75
426.735	157.75
426.958	162.75
427.18	177.75
427.402	214.75
427.625	220.75
427.847	203.75
428.069	154.75
428.292	149.75
428.514	163.75
428.736	164.75
428.958	175.75
429.181	184.75
429.403	155.75
429.625	148.75
429.847	147.75
430.069	151.75
430.292	157.75
430.514	150.75
430.736	147.75
430.958	187.75
431.18	151.75
431.402	142.75
431.624	131.75
431.846	138.75
432.068	151.75
432.29	138.75
432.512	152.75
432.734	183.75
432.956	181.75
433.178	150.75
433.4	140.75
433.622	148.75
433.844	152.75
434.066	168.75
434.287	149.75
434.509	163.75
434.731	149.75
434.953	150.75
435.175	152.75
435.397	171.75
435.618	154.75
435.84	141.75
436.062	143.75
436.284	133.75
436.505	134.75
436.727	145.75
436.949	157.75
437.17	168.75
437.392	142.75
437.614	146.75
437.835	139.75
438.057	142.75
438.278	154.75
438.5	211.75
438.721	199.75
438.943	153.75
439.165	135.75
439.386	135.75
439.608	137.75
439.829	136.75
440.05	147.75
440.272	152.75
440.493	171.75
440.715	171.75
440.936	154.75
441.158	145.75
441.379	161.75
441.6	165.75
441.822	166.75
442.043	131.75
442.264	141.75
442.486	134.75
442.707	131.75
442.928	145.75
443.149	138.75
443.371	156.75
443.592	153.75
443.813	153.75
444.034	158.75
444.255	156.75
444.476	143.75
444.698	167.75
444.919	152.75
445.14	285.75
445.361	209.75
445.582	167.75
445.803	161.75
446.024	138.75
446.245	167.75
446.466	165.75
446.687	153.75
446.908	160.75
447.129	138.75
447.35	148.75
447.571	145.75
447.792	137.75
448.013	133.75
448.234	129.75
448.455	141.75
448.675	129.75
448.896	139.75
449.117	127.75
449.338	133.75
449.559	140.75
449.779	138.75
450	142.75
450.221	126.75
450.442	152.75
450.662	134.75
450.883	129.75
451.104	143.75
451.324	136.75
451.545	143.75
451.766	131.75
451.986	142.75
452.207	123.75
452.428	137.75
452.648	129.75
452.869	150.75
453.089	137.75
453.31	154.75
453.53	123.75
453.751	132.75
453.971	131.75
454.192	137.75
454.412	143.75
454.633	133.75
454.853	159.75
455.073	145.75
455.294	134.75
455.514	121.75
455.734	120.75
455.955	133.75
456.175	138.75
456.395	127.75
456.616	134.75
456.836	114.75
457.056	129.75
457.276	125.75
457.497	147.75
457.717	129.75
457.937	131.75
458.157	133.75
458.377	139.75
458.598	133.75
458.818	129.75
459.038	132.75
459.258	138.75
459.478	140.75
459.698	129.75
459.918	133.75
460.138	138.75
460.358	141.75
460.578	137.75
460.798	162.75
461.018	133.75
461.238	136.75
461.458	142.75
461.678	160.75
461.898	165.75
462.118	150.75
462.338	149.75
462.558	155.75
462.777	150.75
462.997	150.75
463.217	150.75
463.437	165.75
463.657	152.75
463.876	138.75
464.096	134.75
464.316	135.75
464.536	158.75
464.755	153.75
464.975	189.75
465.195	159.75
465.414	162.75
465.634	156.75
465.854	150.75
466.073	145.75
466.293	142.75
466.512	155.75
466.732	161.75
466.951	170.75
467.171	149.75
467.391	149.75
467.61	139.75
467.829	151.75
468.049	145.75
468.268	134.75
468.488	141.75
468.707	134.75
468.927	153.75
469.146	170.75
469.365	146.75
469.585	141.75
469.804	153.75
470.023	179.75
470.243	151.75
470.462	138.75
470.681	137.75
470.901	140.75
471.12	162.75
471.339	156.75
471.558	133.75
471.777	154.75
471.997	135.75
472.216	157.75
472.435	157.75
472.654	154.75
472.873	148.75
473.092	170.75
473.311	171.75
473.53	142.75
473.749	147.75
473.968	147.75
474.187	156.75
474.406	146.75
474.625	156.75
474.844	149.75
475.063	143.75
475.282	163.75
475.501	167.75
475.72	204.75
475.939	165.75
476.158	168.75
476.377	211.75
476.596	198.75
476.814	215.75
477.033	204.75
477.252	153.75
477.471	161.75
477.69	151.75
477.908	159.75
478.127	157.75
478.346	178.75
478.564	195.75
478.783	169.75
479.002	177.75
479.22	182.75
479.439	181.75
479.658	172.75
479.876	162.75
480.095	158.75
480.313	163.75
480.532	176.75
480.751	155.75
480.969	167.75
481.188	173.75
481.406	177.75
481.624	165.75
481.843	163.75
482.061	173.75
482.28	193.75
482.498	231.75
482.717	223.75
482.935	187.75
483.153	168.75
483.372	155.75
483.59	168.75
483.808	170.75
484.027	163.75
484.245	147.75
484.463	150.75
484.681	150.75
484.9	153.75
485.118	170.75
485.336	159.75
485.554	159.75
485.772	152.75
485.99	154.75
486.209	182.75
486.427	188.75
486.645	166.75
486.863	168.75
487.081	177.75
487.299	187.75
487.517	182.75
487.735	164.75
487.953	169.75
488.171	174.75
488.389	166.75
488.607	150.75
488.825	167.75
489.043	174.75
489.261	197.75
489.479	195.75
489.696	173.75
489.914	167.75
490.132	171.75
490.35	163.75
490.568	169.75
490.786	162.75
491.003	173.75
491.221	167.75
491.439	166.75
491.657	170.75
491.874	161.75
492.092	201.75
492.31	257.75
492.527	243.75
492.745	193.75
492.963	185.75
493.18	167.75
493.398	171.75
493.615	186.75
493.833	171.75
494.05	172.75
494.268	177.75
494.485	183.75
494.703	172.75
494.92	185.75
495.138	167.75
495.355	169.75
495.573	181.75
495.79	192.75
496.008	234.75
496.225	212.75
496.442	185.75
496.66	175.75
496.877	196.75
497.094	186.75
497.312	179.75
497.529	176.75
497.746	171.75
497.963	182.75
498.181	199.75
498.398	207.75
498.615	222.75
498.832	211.75
499.049	217.75
499.267	194.75
499.484	197.75
499.701	208.75
499.918	220.75
500.135	223.75
500.352	226.75
500.569	234.75
500.786	242.75
501.003	248.75
501.22	217.75
501.437	200.75
501.654	204.75
501.871	195.75
502.088	191.75
502.305	193.75
502.522	212.75
502.739	192.75
