Data from NickelSpatula.Lamp.E10.P2_HRD10591_11-59-09-526.txt Node
Date: Tue Jul 23 11:59:09 EDT 2019
User: cochatt
Spectrometer: HR+D1059
Trigger mode: 1
Integration Time (sec): 1.000000E-1
Scans to average: 1
Electric dark correction enabled: true
Nonlinearity correction enabled: false
Boxcar width: 0
XAxis mode: Wavelengths
Number of Pixels in Spectrum: 2048
>>>>>Begin Spectral Data<<<<<
223.165	-1.75
223.4	-1.75
223.635	-1.75
223.869	-7.75
224.104	-26.75
224.338	-16.75
224.573	2.25
224.808	-7.75
225.042	-9.75
225.277	-11.75
225.511	-15.75
225.746	-1.75
225.98	11.25
226.215	9.25
226.449	12.25
226.683	21.25
226.918	24.25
227.152	19.25
227.387	39.25
227.621	40.25
227.856	35.25
228.09	30.25
228.324	65.25
228.559	70.25
228.793	81.25
229.027	160.25
229.262	153.25
229.496	154.25
229.73	179.25
229.964	192.25
230.199	241.25
230.433	212.25
230.667	210.25
230.901	207.25
231.136	218.25
231.37	222.25
231.604	237.25
231.838	274.25
232.072	261.25
232.306	264.25
232.541	247.25
232.775	248.25
233.009	273.25
233.243	309.25
233.477	300.25
233.711	354.25
233.945	333.25
234.179	345.25
234.413	363.25
234.647	397.25
234.881	475.25
235.115	412.25
235.349	426.25
235.583	358.25
235.817	372.25
236.051	389.25
236.285	438.25
236.519	443.25
236.753	448.25
236.987	446.25
237.221	391.25
237.455	424.25
237.689	435.25
237.922	484.25
238.156	502.25
238.39	576.25
238.624	672.25
238.858	589.25
239.091	522.25
239.325	525.25
239.559	479.25
239.793	574.25
240.027	670.25
240.26	613.25
240.494	603.25
240.728	616.25
240.961	730.25
241.195	681.25
241.429	645.25
241.662	643.25
241.896	560.25
242.13	496.25
242.363	482.25
242.597	469.25
242.83	539.25
243.064	576.25
243.298	610.25
243.531	648.25
243.765	638.25
243.998	635.25
244.232	627.25
244.465	617.25
244.699	605.25
244.932	686.25
245.166	641.25
245.399	574.25
245.633	548.25
245.866	565.25
246.099	618.25
246.333	716.25
246.566	788.25
246.8	782.25
247.033	759.25
247.266	716.25
247.5	695.25
247.733	706.25
247.966	681.25
248.2	681.25
248.433	804.25
248.666	866.25
248.899	864.25
249.133	890.25
249.366	1058.25
249.599	1088.25
249.832	999.25
250.066	843.25
250.299	883.25
250.532	860.25
250.765	809.25
250.998	745.25
251.231	720.25
251.465	811.25
251.698	844.25
251.931	812.25
252.164	863.25
252.397	987.25
252.63	1086.25
252.863	1192.25
253.096	1228.25
253.329	1177.25
253.562	1171.25
253.795	1281.25
254.028	1412.25
254.261	1451.25
254.494	1304.25
254.727	1184.25
254.96	1178.25
255.193	1207.25
255.426	1184.25
255.659	892.25
255.892	838.25
256.124	899.25
256.357	1049.25
256.59	1256.25
256.823	1192.25
257.056	1002.25
257.289	935.25
257.521	984.25
257.754	1165.25
257.987	1312.25
258.22	1143.25
258.452	1049.25
258.685	1202.25
258.918	1339.25
259.151	1283.25
259.383	1348.25
259.616	1510.25
259.849	1575.25
260.081	1755.25
260.314	1944.25
260.547	1494.25
260.779	1522.25
261.012	1760.25
261.244	1634.25
261.477	1714.25
261.71	1587.25
261.942	1332.25
262.175	1331.25
262.407	1295.25
262.64	1316.25
262.872	1542.25
263.105	1716.25
263.337	1755.25
263.57	1574.25
263.802	1043.25
264.035	910.25
264.267	896.25
264.499	791.25
264.732	716.25
264.964	726.25
265.197	732.25
265.429	783.25
265.661	839.25
265.894	891.25
266.126	946.25
266.358	1085.25
266.591	1301.25
266.823	1520.25
267.055	1462.25
267.287	1299.25
267.52	1275.25
267.752	1340.25
267.984	1457.25
268.216	1408.25
268.448	1152.25
268.681	1163.25
268.913	1219.25
269.145	1277.25
269.377	1347.25
269.609	1346.25
269.841	1264.25
270.073	1321.25
270.306	1378.25
270.538	1426.25
270.77	1441.25
271.002	1476.25
271.234	1521.25
271.466	1580.25
271.698	1519.25
271.93	1459.25
272.162	1501.25
272.394	1464.25
272.626	1456.25
272.858	1502.25
273.09	1542.25
273.322	1339.25
273.553	1306.25
273.785	1547.25
274.017	2074.25
274.249	2548.25
274.481	2642.25
274.713	2855.25
274.945	3233.25
275.176	3413.25
275.408	2928.25
275.64	2721.25
275.872	2722.25
276.104	2262.25
276.335	1970.25
276.567	2006.25
276.799	2069.25
277.031	2118.25
277.262	1652.25
277.494	1287.25
277.726	1254.25
277.957	1349.25
278.189	1555.25
278.421	1508.25
278.652	1497.25
278.884	1393.25
279.115	1297.25
279.347	1250.25
279.579	1234.25
279.81	1246.25
280.042	1254.25
280.273	1286.25
280.505	1195.25
280.736	1058.25
280.968	1070.25
281.199	1116.25
281.431	1318.25
281.662	1230.25
281.894	1198.25
282.125	1305.25
282.356	1362.25
282.588	1410.25
282.819	1256.25
283.051	1401.25
283.282	1760.25
283.513	1990.25
283.745	2235.25
283.976	2226.25
284.207	2113.25
284.439	2150.25
284.67	2122.25
284.901	1865.25
285.132	2021.25
285.364	2086.25
285.595	1932.25
285.826	2079.25
286.057	2148.25
286.288	2034.25
286.52	2031.25
286.751	2160.25
286.982	2163.25
287.213	1878.25
287.444	1859.25
287.675	1916.25
287.906	1863.25
288.138	1594.25
288.369	1391.25
288.6	1326.25
288.831	1393.25
289.062	1579.25
289.293	1747.25
289.524	1621.25
289.755	1635.25
289.986	1684.25
290.217	1483.25
290.448	1133.25
290.679	976.25
290.91	960.25
291.141	958.25
291.371	1016.25
291.602	995.25
291.833	1047.25
292.064	1089.25
292.295	1230.25
292.526	1460.25
292.757	1484.25
292.987	1592.25
293.218	1626.25
293.449	1675.25
293.68	1757.25
293.91	1649.25
294.141	1664.25
294.372	1592.25
294.603	1450.25
294.833	1633.25
295.064	1896.25
295.295	1752.25
295.525	1346.25
295.756	1202.25
295.987	1045.25
296.217	1040.25
296.448	1050.25
296.679	1124.25
296.909	1272.25
297.14	1383.25
297.37	1465.25
297.601	1428.25
297.831	1183.25
298.062	1283.25
298.292	1488.25
298.523	1636.25
298.753	1831.25
298.984	1667.25
299.214	1331.25
299.445	1119.25
299.675	1082.25
299.905	1078.25
300.136	1136.25
300.366	1229.25
300.597	1204.25
300.827	1070.25
301.057	1016.25
301.288	1053.25
301.518	1160.25
301.748	1281.25
301.979	1376.25
302.209	1514.25
302.439	1538.25
302.669	1326.25
302.9	1292.25
303.13	1199.25
303.36	1121.25
303.59	1106.25
303.82	1143.25
304.051	1298.25
304.281	1394.25
304.511	1343.25
304.741	1202.25
304.971	1216.25
305.201	1315.25
305.431	1248.25
305.661	1104.25
305.891	1099.25
306.121	1119.25
306.352	1003.25
306.582	884.25
306.812	862.25
307.042	889.25
307.272	852.25
307.502	843.25
307.731	886.25
307.961	965.25
308.191	890.25
308.421	852.25
308.651	830.25
308.881	776.25
309.111	800.25
309.341	811.25
309.571	894.25
309.8	951.25
310.03	994.25
310.26	1032.25
310.49	1039.25
310.72	894.25
310.949	892.25
311.179	925.25
311.409	959.25
311.639	1113.25
311.868	1432.25
312.098	1858.25
312.328	2029.25
312.557	1915.25
312.787	1940.25
313.017	1723.25
313.246	1857.25
313.476	2035.25
313.706	1662.25
313.935	1342.25
314.165	1094.25
314.394	970.25
314.624	1015.25
314.853	1063.25
315.083	1090.25
315.312	1040.25
315.542	1056.25
315.771	969.25
316.001	890.25
316.23	870.25
316.46	848.25
316.689	891.25
316.919	918.25
317.148	935.25
317.377	895.25
317.607	953.25
317.836	991.25
318.065	1169.25
318.295	1278.25
318.524	1192.25
318.753	1016.25
318.983	962.25
319.212	952.25
319.441	1016.25
319.67	1167.25
319.9	1252.25
320.129	1167.25
320.358	1010.25
320.587	996.25
320.816	1050.25
321.046	1226.25
321.275	1394.25
321.504	1416.25
321.733	1348.25
321.962	1308.25
322.191	1195.25
322.42	1144.25
322.649	1182.25
322.878	1298.25
323.108	1251.25
323.337	1134.25
323.566	1157.25
323.795	1131.25
324.024	1027.25
324.253	1018.25
324.482	1011.25
324.71	1114.25
324.939	1281.25
325.168	1162.25
325.397	971.25
325.626	929.25
325.855	951.25
326.084	974.25
326.313	922.25
326.542	873.25
326.77	913.25
326.999	932.25
327.228	1011.25
327.457	1055.25
327.686	1076.25
327.914	920.25
328.143	899.25
328.372	854.25
328.6	869.25
328.829	874.25
329.058	929.25
329.287	911.25
329.515	941.25
329.744	910.25
329.972	865.25
330.201	823.25
330.43	867.25
330.658	983.25
330.887	1115.25
331.115	1108.25
331.344	1025.25
331.572	982.25
331.801	944.25
332.03	861.25
332.258	895.25
332.486	992.25
332.715	991.25
332.943	928.25
333.172	917.25
333.4	962.25
333.629	1054.25
333.857	1150.25
334.085	1136.25
334.314	1155.25
334.542	1075.25
334.771	995.25
334.999	948.25
335.227	946.25
335.455	951.25
335.684	1038.25
335.912	1224.25
336.14	1348.25
336.369	1316.25
336.597	1264.25
336.825	1414.25
337.053	1590.25
337.281	1291.25
337.51	1010.25
337.738	1011.25
337.966	1087.25
338.194	1211.25
338.422	1146.25
338.65	965.25
338.878	929.25
339.106	955.25
339.334	1063.25
339.562	1135.25
339.79	1030.25
340.018	1012.25
340.246	1054.25
340.474	1255.25
340.702	1320.25
340.93	1409.25
341.158	1356.25
341.386	1158.25
341.614	1142.25
341.842	1141.25
342.07	1212.25
342.298	1356.25
342.526	1457.25
342.754	1242.25
342.981	1168.25
343.209	1086.25
343.437	1170.25
343.665	1225.25
343.893	1228.25
344.12	1423.25
344.348	1655.25
344.576	1474.25
344.804	1247.25
345.031	1044.25
345.259	1024.25
345.487	1031.25
345.714	1036.25
345.942	1135.25
346.17	1238.25
346.397	1200.25
346.625	1026.25
346.853	967.25
347.08	989.25
347.308	1057.25
347.535	1157.25
347.763	1226.25
347.99	1039.25
348.218	946.25
348.445	1027.25
348.673	1013.25
348.9	1028.25
349.128	1101.25
349.355	1147.25
349.583	1108.25
349.81	1043.25
350.037	980.25
350.265	851.25
350.492	842.25
350.72	804.25
350.947	840.25
351.174	924.25
351.402	990.25
351.629	1035.25
351.856	979.25
352.083	933.25
352.311	1032.25
352.538	1124.25
352.765	1192.25
352.992	1070.25
353.22	1021.25
353.447	1041.25
353.674	1034.25
353.901	1032.25
354.128	1037.25
354.355	1040.25
354.583	1049.25
354.81	1023.25
355.037	1040.25
355.264	1048.25
355.491	1136.25
355.718	1248.25
355.945	1204.25
356.172	1167.25
356.399	1145.25
356.626	1396.25
356.853	1721.25
357.08	1858.25
357.307	1868.25
357.534	1470.25
357.761	1478.25
357.988	1851.25
358.215	2169.25
358.441	2026.25
358.668	1704.25
358.895	1582.25
359.122	1262.25
359.349	1262.25
359.576	1382.25
359.802	1110.25
360.029	1006.25
360.256	1074.25
360.483	1332.25
360.709	1707.25
360.936	1718.25
361.163	1536.25
361.39	1202.25
361.616	1084.25
361.843	1299.25
362.07	1597.25
362.296	1434.25
362.523	1129.25
362.749	975.25
362.976	1026.25
363.203	1243.25
363.429	1443.25
363.656	1138.25
363.882	1028.25
364.109	1066.25
364.335	1051.25
364.562	1029.25
364.788	1168.25
365.015	1384.25
365.241	1217.25
365.468	976.25
365.694	859.25
365.92	818.25
366.147	800.25
366.373	804.25
366.599	803.25
366.826	851.25
367.052	879.25
367.278	892.25
367.505	848.25
367.731	942.25
367.957	1070.25
368.184	1104.25
368.41	1052.25
368.636	1081.25
368.862	1127.25
369.089	1086.25
369.315	940.25
369.541	920.25
369.767	908.25
369.993	892.25
370.219	890.25
370.445	943.25
370.672	1066.25
370.898	1194.25
371.124	1151.25
371.35	991.25
371.576	945.25
371.802	1032.25
372.028	1210.25
372.254	1391.25
372.48	1201.25
372.706	1072.25
372.932	1154.25
373.158	1190.25
373.384	1469.25
373.61	1932.25
373.835	1981.25
374.061	1428.25
374.287	1214.25
374.513	1474.25
374.739	1776.25
374.965	1822.25
375.191	1751.25
375.416	1230.25
375.642	1074.25
375.868	1287.25
376.094	1431.25
376.319	1227.25
376.545	1385.25
376.771	1414.25
376.997	1208.25
377.222	894.25
377.448	808.25
377.674	785.25
377.899	786.25
378.125	753.25
378.35	772.25
378.576	802.25
378.802	879.25
379.027	986.25
379.253	932.25
379.478	965.25
379.704	1092.25
379.929	1157.25
380.155	1160.25
380.38	1033.25
380.606	1043.25
380.831	1180.25
381.057	1050.25
381.282	1014.25
381.507	1243.25
381.733	1550.25
381.958	1632.25
382.184	1727.25
382.409	1799.25
382.634	1762.25
382.86	1866.25
383.085	1509.25
383.31	1187.25
383.535	1272.25
383.761	1332.25
383.986	1253.25
384.211	1505.25
384.436	1421.25
384.662	1084.25
384.887	1043.25
385.112	1088.25
385.337	1109.25
385.562	1035.25
385.787	1158.25
386.013	1286.25
386.238	1314.25
386.463	1075.25
386.688	993.25
386.913	1002.25
387.138	927.25
387.363	1029.25
387.588	1051.25
387.813	1038.25
388.038	1153.25
388.263	1022.25
388.488	1023.25
388.713	1188.25
388.938	1279.25
389.163	1066.25
389.387	961.25
389.612	952.25
389.837	1013.25
390.062	996.25
390.287	1051.25
390.512	1041.25
390.736	967.25
390.961	916.25
391.186	890.25
391.411	862.25
391.636	867.25
391.86	960.25
392.085	1053.25
392.31	1071.25
392.534	978.25
392.759	998.25
392.984	1040.25
393.208	1014.25
393.433	903.25
393.658	832.25
393.882	820.25
394.107	800.25
394.331	809.25
394.556	843.25
394.78	839.25
395.005	870.25
395.229	880.25
395.454	926.25
395.678	925.25
395.903	928.25
396.127	888.25
396.352	922.25
396.576	1022.25
396.801	1045.25
397.025	1182.25
397.249	1170.25
397.474	978.25
397.698	954.25
397.922	1002.25
398.147	938.25
398.371	937.25
398.595	990.25
398.82	959.25
399.044	998.25
399.268	1024.25
399.492	1068.25
399.717	1114.25
399.941	1105.25
400.165	1101.25
400.389	1040.25
400.613	1103.25
400.837	1052.25
401.062	957.25
401.286	923.25
401.51	942.25
401.734	929.25
401.958	946.25
402.182	939.25
402.406	934.25
402.63	950.25
402.854	996.25
403.078	1102.25
403.302	1365.25
403.526	1426.25
403.75	1210.25
403.974	1086.25
404.198	1124.25
404.422	1285.25
404.645	1500.25
404.869	1648.25
405.093	1234.25
405.317	1014.25
405.541	1001.25
405.765	1042.25
405.988	1048.25
406.212	1128.25
406.436	1365.25
406.66	1483.25
406.883	1169.25
407.107	1230.25
407.331	1419.25
407.555	1348.25
407.778	1143.25
408.002	1120.25
408.226	1085.25
408.449	1109.25
408.673	1060.25
408.896	964.25
409.12	952.25
409.344	947.25
409.567	879.25
409.791	934.25
410.014	914.25
410.238	894.25
410.461	923.25
410.685	928.25
410.908	909.25
411.132	973.25
411.355	951.25
411.578	967.25
411.802	924.25
412.025	1026.25
412.249	985.25
412.472	983.25
412.695	986.25
412.919	988.25
413.142	992.25
413.365	1102.25
413.589	1091.25
413.812	982.25
414.035	927.25
414.258	964.25
414.482	1101.25
414.705	1108.25
414.928	920.25
415.151	898.25
415.374	912.25
415.597	945.25
415.821	962.25
416.044	930.25
416.267	889.25
416.49	900.25
416.713	884.25
416.936	853.25
417.159	886.25
417.382	922.25
417.605	936.25
417.828	948.25
418.051	936.25
418.274	939.25
418.497	954.25
418.72	978.25
418.943	1005.25
419.166	1026.25
419.389	1106.25
419.611	1028.25
419.834	1081.25
420.057	1186.25
420.28	1168.25
420.503	1045.25
420.726	931.25
420.948	904.25
421.171	900.25
421.394	903.25
421.617	895.25
421.839	928.25
422.062	995.25
422.285	955.25
422.507	928.25
422.73	977.25
422.953	996.25
423.175	963.25
423.398	967.25
423.621	1052.25
423.843	1103.25
424.066	1023.25
424.288	986.25
424.511	942.25
424.733	932.25
424.956	996.25
425.178	1147.25
425.401	1287.25
425.623	1456.25
425.846	1200.25
426.068	1061.25
426.291	1207.25
426.513	1060.25
426.735	989.25
426.958	1030.25
427.18	1202.25
427.402	1588.25
427.625	1569.25
427.847	1247.25
428.069	937.25
428.292	908.25
428.514	898.25
428.736	896.25
428.958	973.25
429.181	1189.25
429.403	1023.25
429.625	918.25
429.847	914.25
430.069	933.25
430.292	939.25
430.514	921.25
430.736	974.25
430.958	1280.25
431.18	1116.25
431.402	866.25
431.624	834.25
431.846	826.25
432.068	809.25
432.29	834.25
432.512	957.25
432.734	1267.25
432.956	1173.25
433.178	882.25
433.4	864.25
433.622	892.25
433.844	922.25
434.066	991.25
434.287	962.25
434.509	910.25
434.731	940.25
434.953	890.25
435.175	935.25
435.397	1058.25
435.618	908.25
435.84	842.25
436.062	848.25
436.284	868.25
436.505	796.25
436.727	809.25
436.949	801.25
437.17	857.25
437.392	900.25
437.614	840.25
437.835	818.25
438.057	869.25
438.278	1020.25
438.5	1463.25
438.721	1459.25
438.943	965.25
439.165	852.25
439.386	839.25
439.608	809.25
439.829	814.25
440.05	834.25
440.272	857.25
440.493	1040.25
440.715	1332.25
440.936	1033.25
441.158	873.25
441.379	894.25
441.6	1003.25
441.822	1075.25
442.043	906.25
442.264	898.25
442.486	890.25
442.707	908.25
442.928	891.25
443.149	945.25
443.371	933.25
443.592	938.25
443.813	935.25
444.034	898.25
444.255	928.25
444.476	998.25
444.698	942.25
444.919	969.25
445.14	1097.25
445.361	1006.25
445.582	971.25
445.803	963.25
446.024	930.25
446.245	949.25
446.466	944.25
446.687	917.25
446.908	891.25
447.129	844.25
447.35	876.25
447.571	836.25
447.792	856.25
448.013	807.25
448.234	782.25
448.455	807.25
448.675	812.25
448.896	827.25
449.117	824.25
449.338	807.25
449.559	833.25
449.779	889.25
450	856.25
450.221	844.25
450.442	832.25
450.662	842.25
450.883	812.25
451.104	827.25
451.324	802.25
451.545	828.25
451.766	819.25
451.986	808.25
452.207	789.25
452.428	764.25
452.648	816.25
452.869	867.25
453.089	897.25
453.31	885.25
453.53	783.25
453.751	785.25
453.971	783.25
454.192	791.25
454.412	809.25
454.633	783.25
454.853	779.25
455.073	747.25
455.294	756.25
455.514	760.25
455.734	801.25
455.955	836.25
456.175	836.25
456.395	769.25
456.616	726.25
456.836	732.25
457.056	711.25
457.276	732.25
457.497	730.25
457.717	721.25
457.937	732.25
458.157	740.25
458.377	743.25
458.598	778.25
458.818	799.25
459.038	815.25
459.258	825.25
459.478	891.25
459.698	923.25
459.918	914.25
460.138	907.25
460.358	916.25
460.578	900.25
460.798	924.25
461.018	912.25
461.238	884.25
461.458	886.25
461.678	932.25
461.898	972.25
462.118	943.25
462.338	977.25
462.558	1013.25
462.777	1024.25
462.997	1028.25
463.217	1006.25
463.437	1076.25
463.657	1012.25
463.876	988.25
464.096	980.25
464.316	1001.25
464.536	995.25
464.755	1059.25
464.975	1053.25
465.195	987.25
465.414	1040.25
465.634	977.25
465.854	955.25
466.073	878.25
466.293	908.25
466.512	953.25
466.732	1039.25
466.951	1052.25
467.171	970.25
467.391	869.25
467.61	908.25
467.829	976.25
468.049	935.25
468.268	910.25
468.488	900.25
468.707	950.25
468.927	1096.25
469.146	1163.25
469.365	1044.25
469.585	980.25
469.804	1033.25
470.023	1160.25
470.243	1011.25
470.462	953.25
470.681	951.25
470.901	937.25
471.12	1002.25
471.339	991.25
471.558	940.25
471.777	958.25
471.997	1040.25
472.216	1152.25
472.435	1104.25
472.654	1012.25
472.873	975.25
473.092	1026.25
473.311	1070.25
473.53	956.25
473.749	956.25
473.968	1026.25
474.187	970.25
474.406	981.25
474.625	968.25
474.844	968.25
475.063	1044.25
475.282	1054.25
475.501	1115.25
475.72	1160.25
475.939	1120.25
476.158	1162.25
476.377	1328.25
476.596	1487.25
476.814	1545.25
477.033	1301.25
477.252	1081.25
477.471	1032.25
477.69	1040.25
477.908	1102.25
478.127	1176.25
478.346	1074.25
478.564	1205.25
478.783	1178.25
479.002	1150.25
479.22	1329.25
479.439	1472.25
479.658	1254.25
479.876	1143.25
480.095	1231.25
480.313	1262.25
480.532	1152.25
480.751	1141.25
480.969	1132.25
481.188	1295.25
481.406	1374.25
481.624	1280.25
481.843	1159.25
482.061	1099.25
482.28	1240.25
482.498	1508.25
482.717	1428.25
482.935	1225.25
483.153	1161.25
483.372	1062.25
483.59	1115.25
483.808	1093.25
484.027	1055.25
484.245	1006.25
484.463	1004.25
484.681	1043.25
484.9	1156.25
485.118	1212.25
485.336	1160.25
485.554	1081.25
485.772	1128.25
485.99	1231.25
486.209	1292.25
486.427	1263.25
486.645	1218.25
486.863	1249.25
487.081	1268.25
487.299	1440.25
487.517	1382.25
487.735	1262.25
487.953	1258.25
488.171	1288.25
488.389	1219.25
488.607	1139.25
488.825	1212.25
489.043	1311.25
489.261	1528.25
489.479	1620.25
489.696	1344.25
489.914	1214.25
490.132	1154.25
490.35	1153.25
490.568	1153.25
490.786	1127.25
491.003	1160.25
491.221	1206.25
491.439	1162.25
491.657	1186.25
491.874	1279.25
492.092	1573.25
492.31	1874.25
492.527	1826.25
492.745	1572.25
492.963	1363.25
493.18	1360.25
