Data from NickelSpatula_HRD10591_16-35-10-126.txt Node
Date: Mon Jul 22 16:35:10 EDT 2019
User: cochatt
Spectrometer: HR+D1059
Trigger mode: 1
Integration Time (sec): 1.000000E-1
Scans to average: 1
Electric dark correction enabled: true
Nonlinearity correction enabled: false
Boxcar width: 0
XAxis mode: Wavelengths
Number of Pixels in Spectrum: 2048
>>>>>Begin Spectral Data<<<<<
223.165	-18.94
223.4	-18.94
223.635	-18.94
223.869	-18.94
224.104	-18.94
224.338	1.06
224.573	-15.94
224.808	-14.94
225.042	-6.94
225.277	-9.94
225.511	5.06
225.746	1.06
225.98	18.06
226.215	1.06
226.449	12.06
226.683	18.06
226.918	17.06
227.152	31.06
227.387	35.06
227.621	31.06
227.856	54.06
228.09	59.06
228.324	51.06
228.559	44.06
228.793	54.06
229.027	57.06
229.262	76.06
229.496	84.06
229.73	77.06
229.964	93.06
230.199	98.06
230.433	87.06
230.667	89.06
230.901	84.06
231.136	96.06
231.37	110.06
231.604	117.06
231.838	102.06
232.072	99.06
232.306	103.06
232.541	105.06
232.775	96.06
233.009	123.06
233.243	117.06
233.477	103.06
233.711	116.06
233.945	126.06
234.179	126.06
234.413	122.06
234.647	131.06
234.881	139.06
235.115	147.06
235.349	125.06
235.583	94.06
235.817	125.06
236.051	124.06
236.285	139.06
236.519	134.06
236.753	136.06
236.987	138.06
237.221	126.06
237.455	130.06
237.689	124.06
237.922	141.06
238.156	132.06
238.39	131.06
238.624	157.06
238.858	150.06
239.091	145.06
239.325	153.06
239.559	139.06
239.793	132.06
240.027	177.06
240.26	147.06
240.494	135.06
240.728	160.06
240.961	170.06
241.195	169.06
241.429	178.06
241.662	148.06
241.896	152.06
242.13	138.06
242.363	132.06
242.597	134.06
242.83	156.06
243.064	155.06
243.298	171.06
243.531	164.06
243.765	170.06
243.998	158.06
244.232	177.06
244.465	156.06
244.699	156.06
244.932	181.06
245.166	164.06
245.399	155.06
245.633	146.06
245.866	136.06
246.099	162.06
246.333	195.06
246.566	195.06
246.8	203.06
247.033	206.06
247.266	164.06
247.5	166.06
247.733	166.06
247.966	166.06
248.2	176.06
248.433	190.06
248.666	192.06
248.899	185.06
249.133	196.06
249.366	215.06
249.599	229.06
249.832	231.06
250.066	189.06
250.299	200.06
250.532	177.06
250.765	193.06
250.998	146.06
251.231	160.06
251.465	178.06
251.698	182.06
251.931	205.06
252.164	202.06
252.397	221.06
252.63	244.06
252.863	260.06
253.096	261.06
253.329	252.06
253.562	250.06
253.795	272.06
254.028	310.06
254.261	290.06
254.494	270.06
254.727	257.06
254.96	241.06
255.193	274.06
255.426	262.06
255.659	196.06
255.892	203.06
256.124	206.06
256.357	231.06
256.59	276.06
256.823	251.06
257.056	218.06
257.289	208.06
257.521	203.06
257.754	228.06
257.987	288.06
258.22	260.06
258.452	216.06
258.685	230.06
258.918	271.06
259.151	289.06
259.383	276.06
259.616	312.06
259.849	321.06
260.081	338.06
260.314	377.06
260.547	304.06
260.779	298.06
261.012	345.06
261.244	327.06
261.477	328.06
261.71	330.06
261.942	259.06
262.175	270.06
262.407	265.06
262.64	253.06
262.872	304.06
263.105	337.06
263.337	355.06
263.57	321.06
263.802	249.06
264.035	209.06
264.267	188.06
264.499	197.06
264.732	184.06
264.964	167.06
265.197	183.06
265.429	188.06
265.661	199.06
265.894	198.06
266.126	196.06
266.358	225.06
266.591	260.06
266.823	326.06
267.055	291.06
267.287	264.06
267.52	263.06
267.752	269.06
267.984	296.06
268.216	294.06
268.448	245.06
268.681	243.06
268.913	268.06
269.145	285.06
269.377	277.06
269.609	260.06
269.841	246.06
270.073	294.06
270.306	280.06
270.538	293.06
270.77	306.06
271.002	298.06
271.234	304.06
271.466	304.06
271.698	300.06
271.93	306.06
272.162	286.06
272.394	286.06
272.626	266.06
272.858	280.06
273.09	305.06
273.322	270.06
273.553	258.06
273.785	287.06
274.017	374.06
274.249	434.06
274.481	456.06
274.713	478.06
274.945	557.06
275.176	581.06
275.408	523.06
275.64	486.06
275.872	514.06
276.104	437.06
276.335	380.06
276.567	376.06
276.799	362.06
277.031	384.06
277.262	326.06
277.494	252.06
277.726	252.06
277.957	263.06
278.189	305.06
278.421	301.06
278.652	286.06
278.884	268.06
279.115	265.06
279.347	258.06
279.579	253.06
279.81	259.06
280.042	261.06
280.273	260.06
280.505	235.06
280.736	221.06
280.968	213.06
281.199	222.06
281.431	263.06
281.662	249.06
281.894	251.06
282.125	259.06
282.356	260.06
282.588	275.06
282.819	248.06
283.051	282.06
283.282	350.06
283.513	369.06
283.745	403.06
283.976	409.06
284.207	394.06
284.439	401.06
284.67	380.06
284.901	345.06
285.132	363.06
285.364	366.06
285.595	357.06
285.826	372.06
286.057	380.06
286.288	375.06
286.52	392.06
286.751	379.06
286.982	391.06
287.213	357.06
287.444	348.06
287.675	362.06
287.906	354.06
288.138	310.06
288.369	277.06
288.6	277.06
288.831	268.06
289.062	306.06
289.293	331.06
289.524	313.06
289.755	299.06
289.986	327.06
290.217	308.06
290.448	233.06
290.679	200.06
290.91	195.06
291.141	209.06
291.371	206.06
291.602	218.06
291.833	217.06
292.064	212.06
292.295	234.06
292.526	267.06
292.757	290.06
292.987	313.06
293.218	293.06
293.449	323.06
293.68	341.06
293.91	311.06
294.141	322.06
294.372	290.06
294.603	288.06
294.833	301.06
295.064	349.06
295.295	344.06
295.525	269.06
295.756	233.06
295.987	221.06
296.217	220.06
296.448	217.06
296.679	202.06
296.909	246.06
297.14	250.06
297.37	271.06
297.601	283.06
297.831	233.06
298.062	272.06
298.292	280.06
298.523	300.06
298.753	339.06
298.984	324.06
299.214	240.06
299.445	227.06
299.675	214.06
299.905	208.06
300.136	217.06
300.366	231.06
300.597	228.06
300.827	204.06
301.057	208.06
301.288	206.06
301.518	230.06
301.748	252.06
301.979	280.06
302.209	261.06
302.439	273.06
302.669	245.06
302.9	245.06
303.13	242.06
303.36	213.06
303.59	210.06
303.82	225.06
304.051	242.06
304.281	279.06
304.511	260.06
304.741	251.06
304.971	232.06
305.201	252.06
305.431	237.06
305.661	212.06
305.891	215.06
306.121	214.06
306.352	211.06
306.582	184.06
306.812	187.06
307.042	181.06
307.272	174.06
307.502	180.06
307.731	179.06
307.961	184.06
308.191	200.06
308.421	177.06
308.651	195.06
308.881	166.06
309.111	163.06
309.341	184.06
309.571	197.06
309.8	215.06
310.03	196.06
310.26	213.06
310.49	204.06
310.72	188.06
310.949	184.06
311.179	182.06
311.409	205.06
311.639	228.06
311.868	258.06
312.098	328.06
312.328	360.06
312.557	325.06
312.787	349.06
313.017	306.06
313.246	329.06
313.476	382.06
313.706	306.06
313.935	249.06
314.165	214.06
314.394	197.06
314.624	194.06
314.853	205.06
315.083	212.06
315.312	223.06
315.542	200.06
315.771	198.06
316.001	193.06
316.23	181.06
316.46	191.06
316.689	162.06
316.919	178.06
317.148	194.06
317.377	187.06
317.607	176.06
317.836	200.06
318.065	222.06
318.295	219.06
318.524	234.06
318.753	194.06
318.983	213.06
319.212	197.06
319.441	197.06
319.67	228.06
319.9	235.06
320.129	212.06
320.358	215.06
320.587	188.06
320.816	205.06
321.046	224.06
321.275	250.06
321.504	242.06
321.733	227.06
321.962	219.06
322.191	221.06
322.42	201.06
322.649	229.06
322.878	225.06
323.108	233.06
323.337	221.06
323.566	210.06
323.795	213.06
324.024	209.06
324.253	188.06
324.482	185.06
324.71	213.06
324.939	229.06
325.168	215.06
325.397	193.06
325.626	192.06
325.855	183.06
326.084	188.06
326.313	191.06
326.542	182.06
326.77	172.06
326.999	184.06
327.228	201.06
327.457	198.06
327.686	199.06
327.914	192.06
328.143	183.06
328.372	170.06
328.6	176.06
328.829	202.06
329.058	192.06
329.287	188.06
329.515	186.06
329.744	194.06
329.972	193.06
330.201	176.06
330.43	183.06
330.658	184.06
330.887	225.06
331.115	192.06
331.344	195.06
331.572	210.06
331.801	186.06
332.03	179.06
332.258	187.06
332.486	199.06
332.715	201.06
332.943	203.06
333.172	202.06
333.4	204.06
333.629	204.06
333.857	223.06
334.085	232.06
334.314	197.06
334.542	235.06
334.771	213.06
334.999	194.06
335.227	197.06
335.455	200.06
335.684	207.06
335.912	233.06
336.14	255.06
336.369	234.06
336.597	229.06
336.825	263.06
337.053	294.06
337.281	228.06
337.51	209.06
337.738	200.06
337.966	201.06
338.194	225.06
338.422	199.06
338.65	193.06
338.878	185.06
339.106	187.06
339.334	211.06
339.562	208.06
339.79	195.06
340.018	186.06
340.246	205.06
340.474	233.06
340.702	226.06
340.93	245.06
341.158	243.06
341.386	219.06
341.614	226.06
341.842	207.06
342.07	200.06
342.298	242.06
342.526	250.06
342.754	220.06
342.981	208.06
343.209	214.06
343.437	229.06
343.665	238.06
343.893	231.06
344.12	241.06
344.348	292.06
344.576	266.06
344.804	224.06
345.031	195.06
345.259	179.06
345.487	196.06
345.714	193.06
345.942	204.06
346.17	221.06
346.397	221.06
346.625	191.06
346.853	199.06
347.08	193.06
347.308	186.06
347.535	208.06
347.763	219.06
347.99	205.06
348.218	185.06
348.445	202.06
348.673	202.06
348.9	199.06
349.128	204.06
349.355	209.06
349.583	196.06
349.81	205.06
350.037	198.06
350.265	174.06
350.492	161.06
350.72	180.06
350.947	173.06
351.174	193.06
351.402	193.06
351.629	196.06
351.856	181.06
352.083	182.06
352.311	197.06
352.538	193.06
352.765	225.06
352.992	202.06
353.22	200.06
353.447	202.06
353.674	188.06
353.901	189.06
354.128	189.06
354.355	195.06
354.583	196.06
354.81	204.06
355.037	216.06
355.264	204.06
355.491	211.06
355.718	215.06
355.945	221.06
356.172	210.06
356.399	212.06
356.626	232.06
356.853	259.06
357.08	277.06
357.307	306.06
357.534	250.06
357.761	245.06
357.988	276.06
358.215	309.06
358.441	308.06
358.668	290.06
358.895	276.06
359.122	241.06
359.349	211.06
359.576	235.06
359.802	200.06
360.029	171.06
360.256	197.06
360.483	231.06
360.709	247.06
360.936	272.06
361.163	246.06
361.39	205.06
361.616	193.06
361.843	213.06
362.07	256.06
362.296	256.06
362.523	202.06
362.749	196.06
362.976	178.06
363.203	231.06
363.429	235.06
363.656	218.06
363.882	185.06
364.109	197.06
364.335	195.06
364.562	188.06
364.788	203.06
365.015	220.06
365.241	218.06
365.468	184.06
365.694	166.06
365.92	168.06
366.147	147.06
366.373	150.06
366.599	153.06
366.826	159.06
367.052	186.06
367.278	184.06
367.505	169.06
367.731	186.06
367.957	188.06
368.184	187.06
368.41	193.06
368.636	195.06
368.862	209.06
369.089	189.06
369.315	180.06
369.541	174.06
369.767	162.06
369.993	158.06
370.219	169.06
370.445	185.06
370.672	205.06
370.898	207.06
371.124	211.06
371.35	189.06
371.576	190.06
371.802	194.06
372.028	205.06
372.254	217.06
372.48	205.06
372.706	206.06
372.932	197.06
373.158	196.06
373.384	215.06
373.61	288.06
373.835	313.06
374.061	225.06
374.287	204.06
374.513	249.06
374.739	285.06
374.965	268.06
375.191	274.06
375.416	194.06
375.642	193.06
375.868	202.06
376.094	229.06
376.319	207.06
376.545	223.06
376.771	235.06
376.997	193.06
377.222	178.06
377.448	155.06
377.674	160.06
377.899	166.06
378.125	165.06
378.35	165.06
378.576	165.06
378.802	168.06
379.027	198.06
379.253	188.06
379.478	180.06
379.704	204.06
379.929	206.06
380.155	202.06
380.38	197.06
380.606	185.06
380.831	209.06
381.057	198.06
381.282	206.06
381.507	214.06
381.733	249.06
381.958	256.06
382.184	276.06
382.409	293.06
382.634	278.06
382.86	275.06
383.085	274.06
383.31	212.06
383.535	234.06
383.761	242.06
383.986	216.06
384.211	262.06
384.436	239.06
384.662	224.06
384.887	196.06
385.112	196.06
385.337	206.06
385.562	195.06
385.787	208.06
386.013	237.06
386.238	222.06
386.463	189.06
386.688	206.06
386.913	206.06
387.138	186.06
387.363	201.06
387.588	211.06
387.813	199.06
388.038	200.06
388.263	198.06
388.488	192.06
388.713	216.06
388.938	228.06
389.163	191.06
389.387	196.06
389.612	184.06
389.837	193.06
390.062	204.06
390.287	196.06
390.512	199.06
390.736	197.06
390.961	198.06
391.186	190.06
391.411	177.06
391.636	168.06
391.86	192.06
392.085	207.06
392.31	213.06
392.534	210.06
392.759	179.06
392.984	185.06
393.208	189.06
393.433	188.06
393.658	178.06
393.882	163.06
394.107	171.06
394.331	184.06
394.556	169.06
394.78	173.06
395.005	184.06
395.229	164.06
395.454	166.06
395.678	178.06
395.903	183.06
396.127	168.06
396.352	171.06
396.576	195.06
396.801	193.06
397.025	229.06
397.249	220.06
397.474	191.06
397.698	208.06
397.922	191.06
398.147	180.06
398.371	204.06
398.595	209.06
398.82	191.06
399.044	196.06
399.268	219.06
399.492	204.06
399.717	223.06
399.941	226.06
400.165	218.06
400.389	213.06
400.613	206.06
400.837	204.06
401.062	206.06
401.286	189.06
401.51	180.06
401.734	194.06
401.958	204.06
402.182	177.06
402.406	201.06
402.63	190.06
402.854	189.06
403.078	214.06
403.302	261.06
403.526	266.06
403.75	256.06
403.974	209.06
404.198	221.06
404.422	243.06
404.645	242.06
404.869	272.06
405.093	224.06
405.317	205.06
405.541	206.06
405.765	218.06
405.988	214.06
406.212	216.06
406.436	237.06
406.66	270.06
406.883	211.06
407.107	211.06
407.331	264.06
407.555	244.06
407.778	216.06
408.002	228.06
408.226	214.06
408.449	230.06
408.673	210.06
408.896	192.06
409.12	197.06
409.344	196.06
409.567	210.06
409.791	198.06
410.014	205.06
410.238	189.06
410.461	192.06
410.685	194.06
410.908	198.06
411.132	193.06
411.355	199.06
411.578	215.06
411.802	204.06
412.025	201.06
412.249	180.06
412.472	198.06
412.695	204.06
412.919	206.06
413.142	197.06
413.365	227.06
413.589	210.06
413.812	208.06
414.035	181.06
414.258	193.06
414.482	220.06
414.705	216.06
414.928	183.06
415.151	195.06
415.374	191.06
415.597	194.06
415.821	199.06
416.044	193.06
416.267	181.06
416.49	183.06
416.713	187.06
416.936	186.06
417.159	196.06
417.382	181.06
417.605	197.06
417.828	193.06
418.051	203.06
418.274	188.06
418.497	179.06
418.72	201.06
418.943	209.06
419.166	208.06
419.389	212.06
419.611	198.06
419.834	189.06
420.057	203.06
420.28	222.06
420.503	215.06
420.726	194.06
420.948	181.06
421.171	192.06
421.394	185.06
421.617	181.06
421.839	182.06
422.062	202.06
422.285	182.06
422.507	180.06
422.73	190.06
422.953	188.06
423.175	199.06
423.398	202.06
423.621	200.06
423.843	208.06
424.066	210.06
424.288	200.06
424.511	212.06
424.733	190.06
424.956	194.06
425.178	226.06
425.401	230.06
425.623	263.06
425.846	246.06
426.068	209.06
426.291	219.06
426.513	210.06
426.735	198.06
426.958	202.06
427.18	225.06
427.402	275.06
427.625	275.06
427.847	231.06
428.069	171.06
428.292	193.06
428.514	181.06
428.736	193.06
428.958	213.06
429.181	216.06
429.403	205.06
429.625	181.06
429.847	177.06
430.069	188.06
430.292	204.06
430.514	189.06
430.736	202.06
430.958	228.06
431.18	202.06
431.402	182.06
431.624	168.06
431.846	166.06
432.068	188.06
432.29	187.06
432.512	207.06
432.734	240.06
432.956	208.06
433.178	180.06
433.4	192.06
433.622	173.06
433.844	181.06
434.066	207.06
434.287	187.06
434.509	183.06
434.731	206.06
434.953	197.06
435.175	210.06
435.397	240.06
435.618	193.06
435.84	171.06
436.062	173.06
436.284	172.06
436.505	156.06
436.727	172.06
436.949	180.06
437.17	178.06
437.392	208.06
437.614	173.06
437.835	179.06
438.057	169.06
438.278	209.06
438.5	242.06
438.721	253.06
438.943	192.06
439.165	184.06
439.386	162.06
439.608	171.06
439.829	169.06
440.05	173.06
440.272	173.06
440.493	205.06
440.715	213.06
440.936	184.06
441.158	196.06
441.379	204.06
441.6	203.06
441.822	230.06
442.043	195.06
442.264	187.06
442.486	196.06
442.707	170.06
442.928	188.06
443.149	182.06
443.371	185.06
443.592	183.06
443.813	187.06
444.034	189.06
444.255	193.06
444.476	186.06
444.698	195.06
444.919	216.06
445.14	319.06
445.361	267.06
445.582	214.06
445.803	184.06
446.024	193.06
446.245	226.06
446.466	209.06
446.687	185.06
446.908	196.06
447.129	182.06
447.35	180.06
447.571	179.06
447.792	177.06
448.013	180.06
448.234	176.06
448.455	166.06
448.675	190.06
448.896	185.06
449.117	161.06
449.338	185.06
449.559	188.06
449.779	186.06
450	185.06
450.221	186.06
450.442	170.06
450.662	184.06
450.883	176.06
451.104	195.06
451.324	167.06
451.545	172.06
451.766	174.06
451.986	170.06
452.207	176.06
452.428	172.06
452.648	167.06
452.869	181.06
453.089	176.06
453.31	169.06
453.53	153.06
453.751	173.06
453.971	173.06
454.192	179.06
454.412	180.06
454.633	153.06
454.853	178.06
455.073	171.06
455.294	152.06
455.514	158.06
455.734	193.06
455.955	164.06
456.175	184.06
456.395	159.06
456.616	168.06
456.836	157.06
457.056	165.06
457.276	163.06
457.497	169.06
457.717	152.06
457.937	163.06
458.157	169.06
458.377	165.06
458.598	161.06
458.818	192.06
459.038	171.06
459.258	181.06
459.478	176.06
459.698	195.06
459.918	192.06
460.138	201.06
460.358	201.06
460.578	188.06
460.798	209.06
461.018	189.06
461.238	188.06
461.458	190.06
461.678	191.06
461.898	205.06
462.118	209.06
462.338	230.06
462.558	206.06
462.777	214.06
462.997	220.06
463.217	222.06
463.437	230.06
463.657	222.06
463.876	208.06
464.096	212.06
464.316	208.06
464.536	199.06
464.755	218.06
464.975	221.06
465.195	199.06
465.414	210.06
465.634	200.06
465.854	188.06
466.073	192.06
466.293	205.06
466.512	201.06
466.732	216.06
466.951	210.06
467.171	190.06
467.391	184.06
467.61	184.06
467.829	193.06
468.049	194.06
468.268	204.06
468.488	199.06
468.707	193.06
468.927	232.06
469.146	226.06
469.365	225.06
469.585	206.06
469.804	242.06
470.023	225.06
470.243	202.06
470.462	189.06
470.681	183.06
470.901	201.06
471.12	203.06
471.339	209.06
471.558	203.06
471.777	188.06
471.997	205.06
472.216	221.06
472.435	211.06
472.654	202.06
472.873	203.06
473.092	212.06
473.311	214.06
473.53	197.06
473.749	208.06
473.968	219.06
474.187	195.06
474.406	188.06
474.625	200.06
474.844	186.06
475.063	198.06
475.282	225.06
475.501	230.06
475.72	241.06
475.939	227.06
476.158	224.06
476.377	264.06
476.596	266.06
476.814	291.06
477.033	257.06
477.252	226.06
477.471	212.06
477.69	208.06
477.908	229.06
478.127	220.06
478.346	210.06
478.564	242.06
478.783	243.06
479.002	232.06
479.22	250.06
479.439	270.06
479.658	242.06
479.876	202.06
480.095	248.06
480.313	241.06
480.532	234.06
480.751	224.06
480.969	218.06
481.188	250.06
481.406	264.06
481.624	233.06
481.843	232.06
482.061	209.06
482.28	245.06
482.498	288.06
482.717	304.06
482.935	244.06
483.153	236.06
483.372	217.06
483.59	204.06
483.808	216.06
484.027	219.06
484.245	207.06
484.463	206.06
484.681	200.06
484.9	215.06
485.118	256.06
485.336	229.06
485.554	212.06
485.772	214.06
485.99	244.06
486.209	257.06
486.427	246.06
486.645	236.06
486.863	248.06
487.081	247.06
487.299	282.06
487.517	255.06
487.735	242.06
487.953	212.06
488.171	242.06
488.389	237.06
488.607	229.06
488.825	228.06
489.043	247.06
489.261	286.06
489.479	283.06
489.696	250.06
489.914	223.06
490.132	208.06
490.35	200.06
490.568	206.06
490.786	211.06
491.003	213.06
491.221	225.06
491.439	198.06
491.657	217.06
491.874	235.06
492.092	278.06
492.31	323.06
492.527	297.06
492.745	281.06
492.963	246.06
493.18	253.06
493.398	256.06
493.615	256.06
493.833	237.06
494.05	258.06
494.268	234.06
494.485	245.06
494.703	246.06
494.92	234.06
495.138	226.06
495.355	232.06
495.573	232.06
495.79	277.06
496.008	339.06
496.225	265.06
496.442	246.06
496.66	254.06
496.877	270.06
497.094	271.06
497.312	248.06
497.529	261.06
497.746	256.06
497.963	262.06
498.181	294.06
498.398	286.06
498.615	312.06
498.832	316.06
499.049	332.06
499.267	310.06
499.484	308.06
499.701	323.06
499.918	349.06
500.135	384.06
500.352	382.06
500.569	392.06
500.786	421.06
501.003	416.06
501.22	384.06
501.437	348.06
501.654	328.06
501.871	310.06
502.088	314.06
502.305	297.06
502.522	286.06
502.739	291.06
