Data from NickelSpatula_HRD10591_16-34-25-126.txt Node
Date: Mon Jul 22 16:34:25 EDT 2019
User: cochatt
Spectrometer: HR+D1059
Trigger mode: 1
Integration Time (sec): 1.000000E-1
Scans to average: 1
Electric dark correction enabled: true
Nonlinearity correction enabled: false
Boxcar width: 0
XAxis mode: Wavelengths
Number of Pixels in Spectrum: 2048
>>>>>Begin Spectral Data<<<<<
223.165	-19.81
223.4	-19.81
223.635	-19.81
223.869	-19.81
224.104	-6.81
224.338	-27.81
224.573	-21.81
224.808	-8.81
225.042	-8.81
225.277	-3.81
225.511	12.19
225.746	6.19
225.98	1.19
226.215	15.19
226.449	21.19
226.683	19.19
226.918	17.19
227.152	25.19
227.387	39.19
227.621	48.19
227.856	31.19
228.09	37.19
228.324	46.19
228.559	53.19
228.793	61.19
229.027	83.19
229.262	87.19
229.496	65.19
229.73	85.19
229.964	96.19
230.199	100.19
230.433	101.19
230.667	106.19
230.901	100.19
231.136	98.19
231.37	89.19
231.604	87.19
231.838	88.19
232.072	104.19
232.306	110.19
232.541	95.19
232.775	104.19
233.009	113.19
233.243	105.19
233.477	106.19
233.711	114.19
233.945	121.19
234.179	116.19
234.413	123.19
234.647	133.19
234.881	139.19
235.115	124.19
235.349	126.19
235.583	119.19
235.817	108.19
236.051	115.19
236.285	136.19
236.519	139.19
236.753	127.19
236.987	152.19
237.221	122.19
237.455	125.19
237.689	125.19
237.922	144.19
238.156	145.19
238.39	151.19
238.624	175.19
238.858	150.19
239.091	141.19
239.325	131.19
239.559	145.19
239.793	140.19
240.027	157.19
240.26	163.19
240.494	152.19
240.728	158.19
240.961	166.19
241.195	161.19
241.429	151.19
241.662	169.19
241.896	143.19
242.13	128.19
242.363	140.19
242.597	132.19
242.83	165.19
243.064	168.19
243.298	159.19
243.531	176.19
243.765	170.19
243.998	179.19
244.232	165.19
244.465	150.19
244.699	160.19
244.932	164.19
245.166	176.19
245.399	170.19
245.633	149.19
245.866	163.19
246.099	155.19
246.333	172.19
246.566	180.19
246.8	187.19
247.033	198.19
247.266	196.19
247.5	189.19
247.733	166.19
247.966	162.19
248.2	171.19
248.433	184.19
248.666	191.19
248.899	204.19
249.133	206.19
249.366	201.19
249.599	245.19
249.832	235.19
250.066	208.19
250.299	211.19
250.532	176.19
250.765	191.19
250.998	176.19
251.231	173.19
251.465	196.19
251.698	199.19
251.931	198.19
252.164	203.19
252.397	209.19
252.63	221.19
252.863	255.19
253.096	283.19
253.329	253.19
253.562	237.19
253.795	269.19
254.028	289.19
254.261	317.19
254.494	281.19
254.727	255.19
254.96	261.19
255.193	273.19
255.426	263.19
255.659	215.19
255.892	200.19
256.124	215.19
256.357	249.19
256.59	284.19
256.823	259.19
257.056	221.19
257.289	207.19
257.521	222.19
257.754	277.19
257.987	311.19
258.22	264.19
258.452	234.19
258.685	269.19
258.918	300.19
259.151	276.19
259.383	303.19
259.616	333.19
259.849	347.19
260.081	371.19
260.314	378.19
260.547	318.19
260.779	325.19
261.012	370.19
261.244	343.19
261.477	347.19
261.71	322.19
261.942	281.19
262.175	279.19
262.407	263.19
262.64	267.19
262.872	319.19
263.105	348.19
263.337	369.19
263.57	344.19
263.802	238.19
264.035	226.19
264.267	231.19
264.499	177.19
264.732	199.19
264.964	184.19
265.197	186.19
265.429	191.19
265.661	214.19
265.894	216.19
266.126	201.19
266.358	266.19
266.591	294.19
266.823	332.19
267.055	311.19
267.287	292.19
267.52	283.19
267.752	311.19
267.984	346.19
268.216	323.19
268.448	270.19
268.681	257.19
268.913	275.19
269.145	304.19
269.377	313.19
269.609	309.19
269.841	297.19
270.073	309.19
270.306	330.19
270.538	343.19
270.77	333.19
271.002	319.19
271.234	350.19
271.466	355.19
271.698	314.19
271.93	304.19
272.162	304.19
272.394	299.19
272.626	295.19
272.858	311.19
273.09	309.19
273.322	288.19
273.553	254.19
273.785	278.19
274.017	363.19
274.249	441.19
274.481	465.19
274.713	501.19
274.945	592.19
275.176	608.19
275.408	561.19
275.64	509.19
275.872	529.19
276.104	441.19
276.335	393.19
276.567	381.19
276.799	393.19
277.031	417.19
277.262	335.19
277.494	269.19
277.726	268.19
277.957	263.19
278.189	311.19
278.421	310.19
278.652	293.19
278.884	311.19
279.115	290.19
279.347	278.19
279.579	282.19
279.81	277.19
280.042	273.19
280.273	295.19
280.505	270.19
280.736	239.19
280.968	243.19
281.199	251.19
281.431	280.19
281.662	278.19
281.894	253.19
282.125	281.19
282.356	298.19
282.588	312.19
282.819	278.19
283.051	296.19
283.282	353.19
283.513	396.19
283.745	441.19
283.976	452.19
284.207	411.19
284.439	417.19
284.67	396.19
284.901	368.19
285.132	402.19
285.364	415.19
285.595	384.19
285.826	411.19
286.057	417.19
286.288	404.19
286.52	409.19
286.751	439.19
286.982	436.19
287.213	373.19
287.444	356.19
287.675	393.19
287.906	396.19
288.138	341.19
288.369	314.19
288.6	284.19
288.831	291.19
289.062	354.19
289.293	377.19
289.524	368.19
289.755	349.19
289.986	357.19
290.217	356.19
290.448	268.19
290.679	218.19
290.91	225.19
291.141	232.19
291.371	227.19
291.602	237.19
291.833	230.19
292.064	227.19
292.295	275.19
292.526	297.19
292.757	292.19
292.987	313.19
293.218	347.19
293.449	368.19
293.68	373.19
293.91	365.19
294.141	375.19
294.372	360.19
294.603	318.19
294.833	335.19
295.064	408.19
295.295	391.19
295.525	310.19
295.756	268.19
295.987	232.19
296.217	224.19
296.448	225.19
296.679	247.19
296.909	253.19
297.14	275.19
297.37	305.19
297.601	300.19
297.831	270.19
298.062	272.19
298.292	299.19
298.523	323.19
298.753	373.19
298.984	339.19
299.214	282.19
299.445	235.19
299.675	229.19
299.905	223.19
300.136	232.19
300.366	246.19
300.597	253.19
300.827	229.19
301.057	223.19
301.288	209.19
301.518	246.19
301.748	286.19
301.979	288.19
302.209	288.19
302.439	293.19
302.669	269.19
302.9	277.19
303.13	263.19
303.36	272.19
303.59	250.19
303.82	247.19
304.051	279.19
304.281	294.19
304.511	289.19
304.741	261.19
304.971	267.19
305.201	281.19
305.431	279.19
305.661	251.19
305.891	244.19
306.121	227.19
306.352	211.19
306.582	217.19
306.812	188.19
307.042	221.19
307.272	215.19
307.502	195.19
307.731	207.19
307.961	223.19
308.191	189.19
308.421	189.19
308.651	201.19
308.881	191.19
309.111	187.19
309.341	194.19
309.571	207.19
309.8	193.19
310.03	211.19
310.26	205.19
310.49	220.19
310.72	195.19
310.949	205.19
311.179	203.19
311.409	219.19
311.639	260.19
311.868	295.19
312.098	351.19
312.328	392.19
312.557	393.19
312.787	396.19
313.017	343.19
313.246	361.19
313.476	389.19
313.706	347.19
313.935	291.19
314.165	234.19
314.394	219.19
314.624	220.19
314.853	224.19
315.083	228.19
315.312	230.19
315.542	226.19
315.771	204.19
316.001	202.19
316.23	193.19
316.46	207.19
316.689	218.19
316.919	211.19
317.148	222.19
317.377	205.19
317.607	210.19
317.836	213.19
318.065	223.19
318.295	252.19
318.524	259.19
318.753	217.19
318.983	215.19
319.212	204.19
319.441	208.19
319.67	236.19
319.9	245.19
320.129	245.19
320.358	224.19
320.587	206.19
320.816	223.19
321.046	233.19
321.275	274.19
321.504	255.19
321.733	264.19
321.962	266.19
322.191	231.19
322.42	226.19
322.649	248.19
322.878	261.19
323.108	253.19
323.337	234.19
323.566	237.19
323.795	240.19
324.024	224.19
324.253	225.19
324.482	207.19
324.71	234.19
324.939	257.19
325.168	235.19
325.397	215.19
325.626	206.19
325.855	205.19
326.084	200.19
326.313	199.19
326.542	199.19
326.77	212.19
326.999	226.19
327.228	205.19
327.457	212.19
327.686	217.19
327.914	208.19
328.143	205.19
328.372	188.19
328.6	190.19
328.829	202.19
329.058	195.19
329.287	198.19
329.515	199.19
329.744	228.19
329.972	196.19
330.201	196.19
330.43	185.19
330.658	208.19
330.887	236.19
331.115	238.19
331.344	228.19
331.572	227.19
331.801	214.19
332.03	207.19
332.258	204.19
332.486	209.19
332.715	230.19
332.943	225.19
333.172	235.19
333.4	236.19
333.629	246.19
333.857	246.19
334.085	267.19
334.314	237.19
334.542	233.19
334.771	223.19
334.999	229.19
335.227	209.19
335.455	216.19
335.684	224.19
335.912	260.19
336.14	270.19
336.369	279.19
336.597	267.19
336.825	295.19
337.053	321.19
337.281	269.19
337.51	227.19
337.738	228.19
337.966	226.19
338.194	263.19
338.422	234.19
338.65	217.19
338.878	187.19
339.106	210.19
339.334	228.19
339.562	237.19
339.79	220.19
340.018	208.19
340.246	233.19
340.474	250.19
340.702	256.19
340.93	271.19
341.158	269.19
341.386	249.19
341.614	234.19
341.842	247.19
342.07	243.19
342.298	278.19
342.526	265.19
342.754	256.19
342.981	219.19
343.209	236.19
343.437	248.19
343.665	265.19
343.893	231.19
344.12	287.19
344.348	340.19
344.576	337.19
344.804	254.19
345.031	211.19
345.259	204.19
345.487	226.19
345.714	224.19
345.942	236.19
346.17	253.19
346.397	256.19
346.625	203.19
346.853	208.19
347.08	204.19
347.308	215.19
347.535	245.19
347.763	247.19
347.99	209.19
348.218	217.19
348.445	217.19
348.673	223.19
348.9	232.19
349.128	243.19
349.355	231.19
349.583	227.19
349.81	216.19
350.037	230.19
350.265	208.19
350.492	184.19
350.72	184.19
350.947	186.19
351.174	189.19
351.402	217.19
351.629	213.19
351.856	201.19
352.083	200.19
352.311	219.19
352.538	224.19
352.765	225.19
352.992	226.19
353.22	191.19
353.447	243.19
353.674	213.19
353.901	219.19
354.128	230.19
354.355	214.19
354.583	221.19
354.81	233.19
355.037	237.19
355.264	219.19
355.491	251.19
355.718	243.19
355.945	229.19
356.172	230.19
356.399	220.19
356.626	236.19
356.853	312.19
357.08	335.19
357.307	335.19
357.534	264.19
357.761	272.19
357.988	323.19
358.215	351.19
358.441	319.19
358.668	304.19
358.895	284.19
359.122	239.19
359.349	234.19
359.576	279.19
359.802	231.19
360.029	230.19
360.256	226.19
360.483	245.19
360.709	316.19
360.936	296.19
361.163	265.19
361.39	220.19
361.616	209.19
361.843	237.19
362.07	277.19
362.296	259.19
362.523	211.19
362.749	198.19
362.976	206.19
363.203	232.19
363.429	257.19
363.656	234.19
363.882	197.19
364.109	228.19
364.335	204.19
364.562	229.19
364.788	207.19
365.015	254.19
365.241	239.19
365.468	217.19
365.694	189.19
365.92	192.19
366.147	186.19
366.373	181.19
366.599	175.19
366.826	184.19
367.052	182.19
367.278	185.19
367.505	180.19
367.731	172.19
367.957	214.19
368.184	215.19
368.41	216.19
368.636	212.19
368.862	223.19
369.089	213.19
369.315	195.19
369.541	217.19
369.767	211.19
369.993	179.19
370.219	207.19
370.445	205.19
370.672	235.19
370.898	224.19
371.124	227.19
371.35	208.19
371.576	201.19
371.802	213.19
372.028	235.19
372.254	261.19
372.48	221.19
372.706	209.19
372.932	226.19
373.158	219.19
373.384	261.19
373.61	327.19
373.835	326.19
374.061	271.19
374.287	228.19
374.513	269.19
374.739	319.19
374.965	304.19
375.191	309.19
375.416	237.19
375.642	228.19
375.868	244.19
376.094	246.19
376.319	222.19
376.545	252.19
376.771	237.19
376.997	220.19
377.222	192.19
377.448	181.19
377.674	176.19
377.899	170.19
378.125	180.19
378.35	201.19
378.576	181.19
378.802	194.19
379.027	195.19
379.253	205.19
379.478	201.19
379.704	213.19
379.929	234.19
380.155	214.19
380.38	224.19
380.606	215.19
380.831	239.19
381.057	220.19
381.282	212.19
381.507	221.19
381.733	268.19
381.958	274.19
382.184	280.19
382.409	310.19
382.634	311.19
382.86	335.19
383.085	281.19
383.31	238.19
383.535	265.19
383.761	277.19
383.986	248.19
384.211	276.19
384.436	273.19
384.662	212.19
384.887	207.19
385.112	223.19
385.337	227.19
385.562	214.19
385.787	233.19
386.013	256.19
386.238	251.19
386.463	224.19
386.688	212.19
386.913	232.19
387.138	202.19
387.363	211.19
387.588	215.19
387.813	210.19
388.038	236.19
388.263	216.19
388.488	232.19
388.713	226.19
388.938	241.19
389.163	239.19
389.387	195.19
389.612	213.19
389.837	220.19
390.062	236.19
390.287	215.19
390.512	215.19
390.736	219.19
390.961	214.19
391.186	189.19
391.411	193.19
391.636	200.19
391.86	206.19
392.085	225.19
392.31	239.19
392.534	224.19
392.759	209.19
392.984	219.19
393.208	209.19
393.433	198.19
393.658	196.19
393.882	213.19
394.107	197.19
394.331	195.19
394.556	192.19
394.78	203.19
395.005	183.19
395.229	192.19
395.454	208.19
395.678	201.19
395.903	206.19
396.127	208.19
396.352	215.19
396.576	226.19
396.801	225.19
397.025	237.19
397.249	247.19
397.474	212.19
397.698	231.19
397.922	222.19
398.147	218.19
398.371	220.19
398.595	226.19
398.82	242.19
399.044	211.19
399.268	230.19
399.492	258.19
399.717	248.19
399.941	251.19
400.165	243.19
400.389	239.19
400.613	245.19
400.837	227.19
401.062	229.19
401.286	219.19
401.51	219.19
401.734	212.19
401.958	220.19
402.182	226.19
402.406	213.19
402.63	206.19
402.854	219.19
403.078	257.19
403.302	338.19
403.526	330.19
403.75	303.19
403.974	258.19
404.198	254.19
404.422	275.19
404.645	277.19
404.869	311.19
405.093	269.19
405.317	244.19
405.541	228.19
405.765	236.19
405.988	239.19
406.212	238.19
406.436	269.19
406.66	295.19
406.883	262.19
407.107	250.19
407.331	291.19
407.555	277.19
407.778	268.19
408.002	261.19
408.226	256.19
408.449	252.19
408.673	243.19
408.896	220.19
409.12	210.19
409.344	230.19
409.567	216.19
409.791	208.19
410.014	210.19
410.238	209.19
410.461	220.19
410.685	219.19
410.908	222.19
411.132	215.19
411.355	228.19
411.578	243.19
411.802	225.19
412.025	214.19
412.249	232.19
412.472	214.19
412.695	212.19
412.919	227.19
413.142	232.19
413.365	230.19
413.589	228.19
413.812	227.19
414.035	218.19
414.258	229.19
414.482	239.19
414.705	239.19
414.928	222.19
415.151	217.19
415.374	230.19
415.597	211.19
415.821	215.19
416.044	213.19
416.267	202.19
416.49	202.19
416.713	187.19
416.936	193.19
417.159	190.19
417.382	210.19
417.605	223.19
417.828	214.19
418.051	226.19
418.274	203.19
418.497	210.19
418.72	216.19
418.943	213.19
419.166	233.19
419.389	246.19
419.611	245.19
419.834	227.19
420.057	243.19
420.28	240.19
420.503	225.19
420.726	220.19
420.948	206.19
421.171	207.19
421.394	214.19
421.617	200.19
421.839	203.19
422.062	226.19
422.285	209.19
422.507	208.19
422.73	227.19
422.953	232.19
423.175	208.19
423.398	227.19
423.621	244.19
423.843	255.19
424.066	228.19
424.288	211.19
424.511	188.19
424.733	205.19
424.956	216.19
425.178	249.19
425.401	269.19
425.623	291.19
425.846	249.19
426.068	227.19
426.291	232.19
426.513	233.19
426.735	211.19
426.958	212.19
427.18	249.19
427.402	288.19
427.625	304.19
427.847	267.19
428.069	195.19
428.292	216.19
428.514	205.19
428.736	208.19
428.958	213.19
429.181	252.19
429.403	224.19
429.625	209.19
429.847	208.19
430.069	209.19
430.292	200.19
430.514	199.19
430.736	211.19
430.958	231.19
431.18	230.19
431.402	202.19
431.624	191.19
431.846	186.19
432.068	193.19
432.29	173.19
432.512	213.19
432.734	233.19
432.956	243.19
433.178	206.19
433.4	214.19
433.622	211.19
433.844	193.19
434.066	239.19
434.287	217.19
434.509	210.19
434.731	230.19
434.953	213.19
435.175	217.19
435.397	263.19
435.618	219.19
435.84	217.19
436.062	180.19
436.284	197.19
436.505	192.19
436.727	185.19
436.949	204.19
437.17	185.19
437.392	213.19
437.614	203.19
437.835	197.19
438.057	187.19
438.278	193.19
438.5	279.19
438.721	263.19
438.943	211.19
439.165	206.19
439.386	179.19
439.608	202.19
439.829	187.19
440.05	180.19
440.272	173.19
440.493	232.19
440.715	251.19
440.936	218.19
441.158	209.19
441.379	212.19
441.6	222.19
441.822	227.19
442.043	209.19
442.264	215.19
442.486	201.19
442.707	198.19
442.928	206.19
443.149	230.19
443.371	223.19
443.592	205.19
443.813	230.19
444.034	206.19
444.255	219.19
444.476	228.19
444.698	216.19
444.919	236.19
445.14	339.19
445.361	304.19
445.582	247.19
445.803	210.19
446.024	217.19
446.245	230.19
446.466	228.19
446.687	209.19
446.908	200.19
447.129	187.19
447.35	203.19
447.571	193.19
447.792	200.19
448.013	183.19
448.234	183.19
448.455	171.19
448.675	166.19
448.896	195.19
449.117	190.19
449.338	201.19
449.559	202.19
449.779	207.19
450	211.19
450.221	188.19
450.442	193.19
450.662	203.19
450.883	211.19
451.104	183.19
451.324	196.19
451.545	184.19
451.766	204.19
451.986	199.19
452.207	197.19
452.428	196.19
452.648	198.19
452.869	204.19
453.089	194.19
453.31	188.19
453.53	187.19
453.751	180.19
453.971	175.19
454.192	180.19
454.412	186.19
454.633	182.19
454.853	192.19
455.073	187.19
455.294	181.19
455.514	185.19
455.734	197.19
455.955	207.19
456.175	191.19
456.395	166.19
456.616	179.19
456.836	167.19
457.056	185.19
457.276	180.19
457.497	176.19
457.717	169.19
457.937	176.19
458.157	186.19
458.377	191.19
458.598	186.19
458.818	183.19
459.038	186.19
459.258	207.19
459.478	211.19
459.698	215.19
459.918	219.19
460.138	203.19
460.358	214.19
460.578	208.19
460.798	198.19
461.018	208.19
461.238	208.19
461.458	195.19
461.678	217.19
461.898	231.19
462.118	221.19
462.338	219.19
462.558	254.19
462.777	243.19
462.997	251.19
463.217	221.19
463.437	240.19
463.657	232.19
463.876	229.19
464.096	213.19
464.316	235.19
464.536	224.19
464.755	236.19
464.975	233.19
465.195	240.19
465.414	244.19
465.634	221.19
465.854	221.19
466.073	214.19
466.293	203.19
466.512	210.19
466.732	228.19
466.951	231.19
467.171	230.19
467.391	195.19
467.61	209.19
467.829	214.19
468.049	225.19
468.268	209.19
468.488	204.19
468.707	202.19
468.927	224.19
469.146	245.19
469.365	225.19
469.585	207.19
469.804	225.19
470.023	242.19
470.243	221.19
470.462	236.19
470.681	213.19
470.901	216.19
471.12	221.19
471.339	228.19
471.558	200.19
471.777	205.19
471.997	225.19
472.216	241.19
472.435	231.19
472.654	216.19
472.873	224.19
473.092	224.19
473.311	228.19
473.53	211.19
473.749	203.19
473.968	229.19
474.187	218.19
474.406	217.19
474.625	209.19
474.844	200.19
475.063	227.19
475.282	219.19
475.501	234.19
475.72	263.19
475.939	237.19
476.158	228.19
476.377	293.19
476.596	303.19
476.814	308.19
477.033	291.19
477.252	235.19
477.471	200.19
477.69	235.19
477.908	240.19
478.127	260.19
478.346	236.19
478.564	284.19
478.783	249.19
479.002	232.19
479.22	282.19
479.439	285.19
479.658	260.19
479.876	234.19
480.095	247.19
480.313	267.19
480.532	245.19
480.751	244.19
480.969	233.19
481.188	249.19
481.406	288.19
481.624	269.19
481.843	259.19
482.061	238.19
482.28	253.19
482.498	326.19
482.717	319.19
482.935	243.19
483.153	248.19
483.372	203.19
483.59	229.19
483.808	217.19
484.027	228.19
484.245	225.19
484.463	232.19
484.681	236.19
484.9	264.19
485.118	269.19
485.336	240.19
485.554	243.19
485.772	221.19
485.99	247.19
486.209	268.19
486.427	256.19
486.645	243.19
486.863	246.19
487.081	248.19
487.299	287.19
487.517	277.19
487.735	266.19
487.953	271.19
488.171	247.19
488.389	229.19
488.607	220.19
488.825	231.19
489.043	277.19
489.261	293.19
489.479	321.19
489.696	280.19
489.914	248.19
490.132	244.19
490.35	236.19
490.568	242.19
490.786	223.19
491.003	229.19
491.221	239.19
491.439	240.19
491.657	243.19
491.874	234.19
492.092	283.19
492.31	341.19
492.527	325.19
492.745	301.19
492.963	262.19
493.18	263.19
493.398	281.19
493.615	271.19
493.833	261.19
494.05	291.19
494.268	276.19
494.485	253.19
494.703	264.19
494.92	248.19
495.138	235.19
495.355	242.19
495.573	265.19
495.79	279.19
496.008	356.19
496.225	315.19
496.442	290.19
496.66	292.19
496.877	286.19
497.094	291.19
497.312	270.19
497.529	276.19
497.746	275.19
497.963	272.19
498.181	304.19
498.398	315.19
498.615	335.19
498.832	355.19
499.049	353.19
499.267	346.19
499.484	341.19
499.701	353.19
499.918	391.19
500.135	417.19
500.352	446.19
500.569	427.19
500.786	476.19
501.003	492.19
501.22	421.19
501.437	391.19
501.654	362.19
501.871	343.19
502.088	356.19
502.305	311.19
502.522	310.19
502.739	337.19
