Data from NickelSpatula_HRD10591_16-36-32-126.txt Node
Date: Mon Jul 22 16:36:32 EDT 2019
User: cochatt
Spectrometer: HR+D1059
Trigger mode: 1
Integration Time (sec): 1.000000E-1
Scans to average: 1
Electric dark correction enabled: true
Nonlinearity correction enabled: false
Boxcar width: 0
XAxis mode: Wavelengths
Number of Pixels in Spectrum: 2048
>>>>>Begin Spectral Data<<<<<
223.165	-27.5
223.4	-27.5
223.635	-27.5
223.869	-21.5
224.104	-21.5
224.338	-12.5
224.573	-12.5
224.808	-20.5
225.042	11.5
225.277	-19.5
225.511	6.5
225.746	2.5
225.98	7.5
226.215	11.5
226.449	19.5
226.683	30.5
226.918	16.5
227.152	29.5
227.387	25.5
227.621	32.5
227.856	42.5
228.09	32.5
228.324	43.5
228.559	59.5
228.793	58.5
229.027	56.5
229.262	68.5
229.496	73.5
229.73	75.5
229.964	80.5
230.199	88.5
230.433	86.5
230.667	91.5
230.901	75.5
231.136	72.5
231.37	81.5
231.604	82.5
231.838	90.5
232.072	92.5
232.306	103.5
232.541	93.5
232.775	100.5
233.009	108.5
233.243	82.5
233.477	99.5
233.711	94.5
233.945	96.5
234.179	87.5
234.413	106.5
234.647	94.5
234.881	94.5
235.115	102.5
235.349	90.5
235.583	94.5
235.817	92.5
236.051	101.5
236.285	92.5
236.519	93.5
236.753	102.5
236.987	98.5
237.221	93.5
237.455	112.5
237.689	93.5
237.922	89.5
238.156	98.5
238.39	112.5
238.624	115.5
238.858	96.5
239.091	79.5
239.325	97.5
239.559	89.5
239.793	87.5
240.027	112.5
240.26	107.5
240.494	108.5
240.728	107.5
240.961	94.5
241.195	105.5
241.429	113.5
241.662	102.5
241.896	98.5
242.13	83.5
242.363	86.5
242.597	92.5
242.83	103.5
243.064	121.5
243.298	102.5
243.531	104.5
243.765	101.5
243.998	103.5
244.232	98.5
244.465	97.5
244.699	98.5
244.932	127.5
245.166	105.5
245.399	108.5
245.633	110.5
245.866	97.5
246.099	91.5
246.333	108.5
246.566	113.5
246.8	119.5
247.033	114.5
247.266	101.5
247.5	97.5
247.733	104.5
247.966	98.5
248.2	118.5
248.433	114.5
248.666	124.5
248.899	107.5
249.133	123.5
249.366	128.5
249.599	142.5
249.832	117.5
250.066	99.5
250.299	108.5
250.532	123.5
250.765	114.5
250.998	108.5
251.231	123.5
251.465	120.5
251.698	116.5
251.931	112.5
252.164	118.5
252.397	128.5
252.63	131.5
252.863	130.5
253.096	144.5
253.329	134.5
253.562	140.5
253.795	137.5
254.028	143.5
254.261	146.5
254.494	138.5
254.727	134.5
254.96	127.5
255.193	137.5
255.426	136.5
255.659	107.5
255.892	107.5
256.124	112.5
256.357	130.5
256.59	139.5
256.823	139.5
257.056	112.5
257.289	116.5
257.521	117.5
257.754	113.5
257.987	127.5
258.22	136.5
258.452	139.5
258.685	120.5
258.918	138.5
259.151	129.5
259.383	141.5
259.616	147.5
259.849	166.5
260.081	166.5
260.314	140.5
260.547	131.5
260.779	153.5
261.012	162.5
261.244	156.5
261.477	163.5
261.71	156.5
261.942	144.5
262.175	144.5
262.407	142.5
262.64	135.5
262.872	141.5
263.105	147.5
263.337	138.5
263.57	136.5
263.802	123.5
264.035	129.5
264.267	122.5
264.499	106.5
264.732	103.5
264.964	102.5
265.197	119.5
265.429	104.5
265.661	116.5
265.894	123.5
266.126	120.5
266.358	126.5
266.591	136.5
266.823	146.5
267.055	141.5
267.287	139.5
267.52	132.5
267.752	142.5
267.984	140.5
268.216	152.5
268.448	136.5
268.681	114.5
268.913	137.5
269.145	140.5
269.377	139.5
269.609	139.5
269.841	127.5
270.073	139.5
270.306	145.5
270.538	134.5
270.77	144.5
271.002	150.5
271.234	129.5
271.466	136.5
271.698	138.5
271.93	131.5
272.162	141.5
272.394	142.5
272.626	121.5
272.858	140.5
273.09	141.5
273.322	126.5
273.553	144.5
273.785	152.5
274.017	161.5
274.249	191.5
274.481	200.5
274.713	202.5
274.945	211.5
275.176	222.5
275.408	209.5
275.64	185.5
275.872	206.5
276.104	182.5
276.335	155.5
276.567	156.5
276.799	158.5
277.031	167.5
277.262	155.5
277.494	135.5
277.726	144.5
277.957	142.5
278.189	144.5
278.421	149.5
278.652	131.5
278.884	143.5
279.115	132.5
279.347	124.5
279.579	131.5
279.81	135.5
280.042	154.5
280.273	140.5
280.505	127.5
280.736	124.5
280.968	137.5
281.199	125.5
281.431	126.5
281.662	132.5
281.894	131.5
282.125	139.5
282.356	150.5
282.588	147.5
282.819	146.5
283.051	129.5
283.282	158.5
283.513	162.5
283.745	177.5
283.976	172.5
284.207	175.5
284.439	158.5
284.67	168.5
284.901	169.5
285.132	175.5
285.364	178.5
285.595	183.5
285.826	166.5
286.057	166.5
286.288	159.5
286.52	159.5
286.751	162.5
286.982	158.5
287.213	147.5
287.444	163.5
287.675	145.5
287.906	174.5
288.138	147.5
288.369	133.5
288.6	139.5
288.831	147.5
289.062	155.5
289.293	166.5
289.524	140.5
289.755	140.5
289.986	146.5
290.217	135.5
290.448	114.5
290.679	114.5
290.91	119.5
291.141	121.5
291.371	111.5
291.602	123.5
291.833	122.5
292.064	132.5
292.295	121.5
292.526	148.5
292.757	126.5
292.987	152.5
293.218	139.5
293.449	147.5
293.68	154.5
293.91	163.5
294.141	154.5
294.372	155.5
294.603	149.5
294.833	129.5
295.064	151.5
295.295	156.5
295.525	135.5
295.756	131.5
295.987	128.5
296.217	128.5
296.448	118.5
296.679	115.5
296.909	130.5
297.14	144.5
297.37	137.5
297.601	138.5
297.831	126.5
298.062	139.5
298.292	129.5
298.523	146.5
298.753	154.5
298.984	137.5
299.214	130.5
299.445	120.5
299.675	134.5
299.905	122.5
300.136	125.5
300.366	128.5
300.597	124.5
300.827	110.5
301.057	123.5
301.288	118.5
301.518	122.5
301.748	133.5
301.979	134.5
302.209	137.5
302.439	126.5
302.669	122.5
302.9	136.5
303.13	131.5
303.36	127.5
303.59	123.5
303.82	130.5
304.051	131.5
304.281	129.5
304.511	117.5
304.741	131.5
304.971	135.5
305.201	142.5
305.431	128.5
305.661	131.5
305.891	119.5
306.121	120.5
306.352	114.5
306.582	118.5
306.812	118.5
307.042	99.5
307.272	107.5
307.502	128.5
307.731	116.5
307.961	105.5
308.191	104.5
308.421	112.5
308.651	105.5
308.881	119.5
309.111	101.5
309.341	112.5
309.571	116.5
309.8	117.5
310.03	110.5
310.26	115.5
310.49	114.5
310.72	80.5
310.949	121.5
311.179	105.5
311.409	106.5
311.639	131.5
311.868	160.5
312.098	160.5
312.328	148.5
312.557	164.5
312.787	160.5
313.017	138.5
313.246	158.5
313.476	159.5
313.706	139.5
313.935	132.5
314.165	110.5
314.394	113.5
314.624	122.5
314.853	128.5
315.083	130.5
315.312	120.5
315.542	122.5
315.771	124.5
316.001	110.5
316.23	119.5
316.46	119.5
316.689	91.5
316.919	121.5
317.148	117.5
317.377	120.5
317.607	115.5
317.836	131.5
318.065	120.5
318.295	129.5
318.524	145.5
318.753	121.5
318.983	106.5
319.212	119.5
319.441	112.5
319.67	119.5
319.9	114.5
320.129	117.5
320.358	118.5
320.587	105.5
320.816	107.5
321.046	124.5
321.275	132.5
321.504	127.5
321.733	119.5
321.962	120.5
322.191	112.5
322.42	122.5
322.649	124.5
322.878	132.5
323.108	114.5
323.337	107.5
323.566	119.5
323.795	113.5
324.024	135.5
324.253	115.5
324.482	111.5
324.71	113.5
324.939	123.5
325.168	120.5
325.397	119.5
325.626	118.5
325.855	113.5
326.084	110.5
326.313	119.5
326.542	114.5
326.77	121.5
326.999	116.5
327.228	120.5
327.457	115.5
327.686	112.5
327.914	114.5
328.143	105.5
328.372	114.5
328.6	117.5
328.829	117.5
329.058	109.5
329.287	124.5
329.515	115.5
329.744	103.5
329.972	109.5
330.201	106.5
330.43	111.5
330.658	114.5
330.887	127.5
331.115	115.5
331.344	121.5
331.572	120.5
331.801	102.5
332.03	112.5
332.258	113.5
332.486	108.5
332.715	125.5
332.943	108.5
333.172	114.5
333.4	119.5
333.629	123.5
333.857	128.5
334.085	125.5
334.314	124.5
334.542	114.5
334.771	118.5
334.999	115.5
335.227	114.5
335.455	92.5
335.684	124.5
335.912	119.5
336.14	126.5
336.369	129.5
336.597	127.5
336.825	138.5
337.053	137.5
337.281	112.5
337.51	97.5
337.738	116.5
337.966	105.5
338.194	112.5
338.422	122.5
338.65	126.5
338.878	116.5
339.106	119.5
339.334	121.5
339.562	122.5
339.79	123.5
340.018	108.5
340.246	110.5
340.474	124.5
340.702	135.5
340.93	146.5
341.158	128.5
341.386	117.5
341.614	118.5
341.842	106.5
342.07	120.5
342.298	135.5
342.526	134.5
342.754	124.5
342.981	110.5
343.209	108.5
343.437	124.5
343.665	135.5
343.893	109.5
344.12	121.5
344.348	116.5
344.576	135.5
344.804	129.5
345.031	117.5
345.259	119.5
345.487	105.5
345.714	122.5
345.942	118.5
346.17	137.5
346.397	116.5
346.625	121.5
346.853	114.5
347.08	103.5
347.308	118.5
347.535	120.5
347.763	124.5
347.99	125.5
348.218	107.5
348.445	116.5
348.673	102.5
348.9	130.5
349.128	119.5
349.355	112.5
349.583	108.5
349.81	115.5
350.037	120.5
350.265	105.5
350.492	113.5
350.72	90.5
350.947	104.5
351.174	100.5
351.402	107.5
351.629	113.5
351.856	101.5
352.083	96.5
352.311	121.5
352.538	114.5
352.765	122.5
352.992	118.5
353.22	120.5
353.447	115.5
353.674	105.5
353.901	119.5
354.128	105.5
354.355	103.5
354.583	116.5
354.81	126.5
355.037	128.5
355.264	110.5
355.491	132.5
355.718	120.5
355.945	121.5
356.172	106.5
356.399	122.5
356.626	113.5
356.853	139.5
357.08	153.5
357.307	145.5
357.534	138.5
357.761	119.5
357.988	144.5
358.215	158.5
358.441	153.5
358.668	141.5
358.895	137.5
359.122	139.5
359.349	121.5
359.576	127.5
359.802	111.5
360.029	112.5
360.256	110.5
360.483	123.5
360.709	142.5
360.936	142.5
361.163	145.5
361.39	132.5
361.616	116.5
361.843	132.5
362.07	134.5
362.296	128.5
362.523	112.5
362.749	113.5
362.976	110.5
363.203	126.5
363.429	122.5
363.656	125.5
363.882	103.5
364.109	107.5
364.335	113.5
364.562	130.5
364.788	128.5
365.015	115.5
365.241	115.5
365.468	113.5
365.694	108.5
365.92	113.5
366.147	97.5
366.373	105.5
366.599	106.5
366.826	128.5
367.052	114.5
367.278	105.5
367.505	110.5
367.731	113.5
367.957	112.5
368.184	122.5
368.41	100.5
368.636	113.5
368.862	106.5
369.089	115.5
369.315	114.5
369.541	114.5
369.767	101.5
369.993	106.5
370.219	99.5
370.445	109.5
370.672	124.5
370.898	99.5
371.124	117.5
371.35	111.5
371.576	118.5
371.802	122.5
372.028	126.5
372.254	135.5
372.48	128.5
372.706	118.5
372.932	124.5
373.158	121.5
373.384	132.5
373.61	152.5
373.835	138.5
374.061	138.5
374.287	101.5
374.513	128.5
374.739	130.5
374.965	134.5
375.191	131.5
375.416	116.5
375.642	113.5
375.868	124.5
376.094	122.5
376.319	114.5
376.545	118.5
376.771	134.5
376.997	120.5
377.222	125.5
377.448	115.5
377.674	97.5
377.899	104.5
378.125	96.5
378.35	101.5
378.576	118.5
378.802	104.5
379.027	107.5
379.253	104.5
379.478	105.5
379.704	106.5
379.929	121.5
380.155	118.5
380.38	121.5
380.606	123.5
380.831	124.5
381.057	113.5
381.282	121.5
381.507	124.5
381.733	143.5
381.958	141.5
382.184	132.5
382.409	137.5
382.634	142.5
382.86	139.5
383.085	134.5
383.31	125.5
383.535	146.5
383.761	135.5
383.986	124.5
384.211	120.5
384.436	133.5
384.662	119.5
384.887	121.5
385.112	116.5
385.337	107.5
385.562	117.5
385.787	122.5
386.013	138.5
386.238	130.5
386.463	117.5
386.688	126.5
386.913	121.5
387.138	110.5
387.363	130.5
387.588	120.5
387.813	111.5
388.038	124.5
388.263	123.5
388.488	107.5
388.713	124.5
388.938	124.5
389.163	100.5
389.387	112.5
389.612	114.5
389.837	122.5
390.062	134.5
390.287	115.5
390.512	114.5
390.736	101.5
390.961	114.5
391.186	109.5
391.411	111.5
391.636	129.5
391.86	120.5
392.085	105.5
392.31	132.5
392.534	114.5
392.759	116.5
392.984	132.5
393.208	128.5
393.433	140.5
393.658	148.5
393.882	97.5
394.107	118.5
394.331	110.5
394.556	113.5
394.78	116.5
395.005	103.5
395.229	119.5
395.454	114.5
395.678	122.5
395.903	119.5
396.127	100.5
396.352	122.5
396.576	127.5
396.801	134.5
397.025	140.5
397.249	135.5
397.474	123.5
397.698	122.5
397.922	118.5
398.147	128.5
398.371	105.5
398.595	118.5
398.82	119.5
399.044	136.5
399.268	129.5
399.492	120.5
399.717	126.5
399.941	117.5
400.165	119.5
400.389	123.5
400.613	113.5
400.837	121.5
401.062	117.5
401.286	125.5
401.51	114.5
401.734	118.5
401.958	117.5
402.182	120.5
402.406	118.5
402.63	105.5
402.854	111.5
403.078	129.5
403.302	139.5
403.526	130.5
403.75	136.5
403.974	123.5
404.198	116.5
404.422	124.5
404.645	140.5
404.869	136.5
405.093	115.5
405.317	140.5
405.541	133.5
405.765	114.5
405.988	118.5
406.212	114.5
406.436	137.5
406.66	152.5
406.883	116.5
407.107	126.5
407.331	130.5
407.555	122.5
407.778	124.5
408.002	113.5
408.226	110.5
408.449	122.5
408.673	111.5
408.896	126.5
409.12	135.5
409.344	110.5
409.567	113.5
409.791	107.5
410.014	120.5
410.238	103.5
410.461	120.5
410.685	126.5
410.908	116.5
411.132	117.5
411.355	121.5
411.578	138.5
411.802	112.5
412.025	127.5
412.249	110.5
412.472	121.5
412.695	120.5
412.919	110.5
413.142	107.5
413.365	124.5
413.589	123.5
413.812	109.5
414.035	115.5
414.258	126.5
414.482	112.5
414.705	123.5
414.928	122.5
415.151	107.5
415.374	116.5
415.597	119.5
415.821	120.5
416.044	111.5
416.267	120.5
416.49	126.5
416.713	119.5
416.936	122.5
417.159	130.5
417.382	117.5
417.605	110.5
417.828	114.5
418.051	129.5
418.274	121.5
418.497	103.5
418.72	112.5
418.943	130.5
419.166	104.5
419.389	118.5
419.611	121.5
419.834	127.5
420.057	132.5
420.28	116.5
420.503	124.5
420.726	120.5
420.948	116.5
421.171	132.5
421.394	130.5
421.617	117.5
421.839	108.5
422.062	120.5
422.285	127.5
422.507	124.5
422.73	137.5
422.953	130.5
423.175	115.5
423.398	113.5
423.621	125.5
423.843	112.5
424.066	112.5
424.288	118.5
424.511	110.5
424.733	119.5
424.956	105.5
425.178	114.5
425.401	118.5
425.623	150.5
425.846	127.5
426.068	128.5
426.291	106.5
426.513	112.5
426.735	101.5
426.958	121.5
427.18	138.5
427.402	139.5
427.625	148.5
427.847	124.5
428.069	121.5
428.292	122.5
428.514	112.5
428.736	118.5
428.958	104.5
429.181	134.5
429.403	130.5
429.625	124.5
429.847	114.5
430.069	123.5
430.292	120.5
430.514	120.5
430.736	126.5
430.958	134.5
431.18	132.5
431.402	107.5
431.624	112.5
431.846	96.5
432.068	103.5
432.29	116.5
432.512	107.5
432.734	116.5
432.956	129.5
433.178	122.5
433.4	114.5
433.622	122.5
433.844	127.5
434.066	135.5
434.287	122.5
434.509	112.5
434.731	133.5
434.953	120.5
435.175	128.5
435.397	130.5
435.618	122.5
435.84	87.5
436.062	122.5
436.284	110.5
436.505	112.5
436.727	111.5
436.949	119.5
437.17	116.5
437.392	118.5
437.614	115.5
437.835	106.5
438.057	130.5
438.278	136.5
438.5	136.5
438.721	131.5
438.943	138.5
439.165	117.5
439.386	112.5
439.608	102.5
439.829	120.5
440.05	107.5
440.272	126.5
440.493	130.5
440.715	131.5
440.936	133.5
441.158	125.5
441.379	108.5
441.6	121.5
441.822	121.5
442.043	110.5
442.264	116.5
442.486	122.5
442.707	116.5
442.928	118.5
443.149	116.5
443.371	129.5
443.592	137.5
443.813	135.5
444.034	115.5
444.255	101.5
444.476	128.5
444.698	129.5
444.919	117.5
445.14	244.5
445.361	204.5
445.582	146.5
445.803	127.5
446.024	116.5
446.245	114.5
446.466	120.5
446.687	123.5
446.908	130.5
447.129	112.5
447.35	99.5
447.571	118.5
447.792	116.5
448.013	121.5
448.234	120.5
448.455	96.5
448.675	114.5
448.896	94.5
449.117	110.5
449.338	126.5
449.559	113.5
449.779	118.5
450	114.5
450.221	113.5
450.442	110.5
450.662	116.5
450.883	112.5
451.104	116.5
451.324	103.5
451.545	108.5
451.766	114.5
451.986	114.5
452.207	102.5
452.428	107.5
452.648	117.5
452.869	123.5
453.089	110.5
453.31	121.5
453.53	99.5
453.751	108.5
453.971	117.5
454.192	125.5
454.412	111.5
454.633	109.5
454.853	112.5
455.073	102.5
455.294	102.5
455.514	114.5
455.734	114.5
455.955	124.5
456.175	118.5
456.395	112.5
456.616	102.5
456.836	107.5
457.056	123.5
457.276	106.5
457.497	121.5
457.717	120.5
457.937	105.5
458.157	131.5
458.377	103.5
458.598	111.5
458.818	115.5
459.038	114.5
459.258	128.5
459.478	122.5
459.698	117.5
459.918	118.5
460.138	109.5
460.358	113.5
460.578	106.5
460.798	115.5
461.018	118.5
461.238	121.5
461.458	123.5
461.678	112.5
461.898	125.5
462.118	105.5
462.338	111.5
462.558	118.5
462.777	131.5
462.997	118.5
463.217	97.5
463.437	121.5
463.657	124.5
463.876	111.5
464.096	122.5
464.316	128.5
464.536	120.5
464.755	116.5
464.975	121.5
465.195	122.5
465.414	130.5
465.634	121.5
465.854	107.5
466.073	129.5
466.293	117.5
466.512	124.5
466.732	142.5
466.951	140.5
467.171	118.5
467.391	103.5
467.61	116.5
467.829	115.5
468.049	110.5
468.268	112.5
468.488	104.5
468.707	107.5
468.927	123.5
469.146	134.5
469.365	126.5
469.585	131.5
469.804	128.5
470.023	111.5
470.243	128.5
470.462	104.5
470.681	114.5
470.901	112.5
471.12	115.5
471.339	127.5
471.558	130.5
471.777	124.5
471.997	144.5
472.216	129.5
472.435	126.5
472.654	111.5
472.873	130.5
473.092	133.5
473.311	128.5
473.53	124.5
473.749	114.5
473.968	127.5
474.187	127.5
474.406	111.5
474.625	115.5
474.844	111.5
475.063	109.5
475.282	112.5
475.501	128.5
475.72	129.5
475.939	117.5
476.158	134.5
476.377	147.5
476.596	140.5
476.814	140.5
477.033	127.5
477.252	126.5
477.471	122.5
477.69	120.5
477.908	115.5
478.127	134.5
478.346	126.5
478.564	138.5
478.783	133.5
479.002	128.5
479.22	126.5
479.439	150.5
479.658	144.5
479.876	133.5
480.095	136.5
480.313	134.5
480.532	131.5
480.751	120.5
480.969	111.5
481.188	139.5
481.406	138.5
481.624	136.5
481.843	138.5
482.061	126.5
482.28	129.5
482.498	144.5
482.717	141.5
482.935	123.5
483.153	123.5
483.372	133.5
483.59	130.5
483.808	124.5
484.027	128.5
484.245	121.5
484.463	108.5
484.681	127.5
484.9	112.5
485.118	143.5
485.336	130.5
485.554	132.5
485.772	133.5
485.99	147.5
486.209	137.5
486.427	125.5
486.645	139.5
486.863	139.5
487.081	141.5
487.299	157.5
487.517	145.5
487.735	150.5
487.953	132.5
488.171	136.5
488.389	117.5
488.607	121.5
488.825	117.5
489.043	158.5
489.261	169.5
489.479	144.5
489.696	130.5
489.914	130.5
490.132	137.5
490.35	150.5
490.568	130.5
490.786	123.5
491.003	126.5
491.221	116.5
491.439	130.5
491.657	133.5
491.874	143.5
492.092	147.5
492.31	144.5
492.527	160.5
492.745	144.5
492.963	151.5
493.18	130.5
493.398	136.5
493.615	135.5
493.833	149.5
494.05	145.5
494.268	124.5
494.485	136.5
494.703	126.5
494.92	138.5
495.138	148.5
495.355	125.5
495.573	126.5
495.79	140.5
496.008	163.5
496.225	127.5
496.442	142.5
496.66	132.5
496.877	154.5
497.094	137.5
497.312	136.5
497.529	130.5
497.746	135.5
497.963	150.5
498.181	140.5
498.398	164.5
498.615	155.5
498.832	158.5
499.049	164.5
499.267	156.5
499.484	142.5
499.701	155.5
499.918	178.5
500.135	176.5
500.352	185.5
500.569	179.5
500.786	187.5
501.003	174.5
501.22	164.5
501.437	164.5
501.654	167.5
501.871	160.5
502.088	160.5
502.305	162.5
502.522	151.5
502.739	147.5
502.956	135.5
503.172	147.5
503.389	129.5
503.606	152.5
503.823	136.5
504.04	138.5
504.256	165.5
504.473	144.5
504.69	153.5
504.907	162.5
505.123	148.5
505.34	151.5
505.557	140.5
505.773	138.5
505.99	130.5
506.207	141.5
506.423	138.5
506.64	126.5
506.856	129.5
507.073	136.5
507.289	148.5
507.506	146.5
507.722	143.5
507.939	139.5
508.155	160.5
508.372	154.5
508.588	133.5
508.805	140.5
509.021	127.5
509.238	134.5
509.454	133.5
509.67	134.5
509.887	140.5
510.103	136.5
510.319	148.5
510.536	114.5
510.752	122.5
510.968	122.5
511.184	137.5
511.401	137.5
511.617	124.5
511.833	118.5
512.049	133.5
512.265	119.5
512.481	137.5
512.698	134.5
512.914	139.5
513.13	129.5
513.346	131.5
513.562	134.5
513.778	151.5
513.994	126.5
514.21	128.5
514.426	130.5
514.642	125.5
514.858	142.5
515.074	142.5
515.29	137.5
515.506	150.5
515.721	144.5
515.937	135.5
516.153	149.5
516.369	131.5
516.585	132.5
516.801	140.5
517.016	167.5
517.232	161.5
517.448	169.5
517.664	148.5
517.879	150.5
518.095	155.5
518.311	146.5
518.527	148.5
518.742	147.5
518.958	152.5
519.173	132.5
519.389	138.5
519.605	148.5
519.82	163.5
520.036	166.5
520.251	161.5
520.467	166.5
520.682	205.5
520.898	215.5
521.113	222.5
521.329	156.5
521.544	168.5
