Data from NickelSpatula.Lamp.E5.5.P2_HRD10591_11-53-13-550.txt Node
Date: Tue Jul 23 11:53:13 EDT 2019
User: cochatt
Spectrometer: HR+D1059
Trigger mode: 1
Integration Time (sec): 1.000000E-1
Scans to average: 1
Electric dark correction enabled: true
Nonlinearity correction enabled: false
Boxcar width: 0
XAxis mode: Wavelengths
Number of Pixels in Spectrum: 2048
>>>>>Begin Spectral Data<<<<<
223.165	-17.31
223.4	-17.31
223.635	-17.31
223.869	-18.31
224.104	-15.31
224.338	-16.31
224.573	-7.31
224.808	1.69
225.042	2.69
225.277	-5.31
225.511	-15.31
225.746	-4.31
225.98	1.69
226.215	12.69
226.449	1.69
226.683	28.69
226.918	20.69
227.152	29.69
227.387	29.69
227.621	43.69
227.856	43.69
228.09	56.69
228.324	45.69
228.559	53.69
228.793	52.69
229.027	73.69
229.262	78.69
229.496	83.69
229.73	78.69
229.964	88.69
230.199	105.69
230.433	103.69
230.667	92.69
230.901	97.69
231.136	87.69
231.37	101.69
231.604	109.69
231.838	100.69
232.072	103.69
232.306	115.69
232.541	112.69
232.775	114.69
233.009	96.69
233.243	97.69
233.477	116.69
233.711	123.69
233.945	106.69
234.179	104.69
234.413	116.69
234.647	127.69
234.881	150.69
235.115	117.69
235.349	119.69
235.583	131.69
235.817	135.69
236.051	127.69
236.285	125.69
236.519	132.69
236.753	126.69
236.987	121.69
237.221	123.69
237.455	125.69
237.689	130.69
237.922	138.69
238.156	139.69
238.39	154.69
238.624	160.69
238.858	144.69
239.091	129.69
239.325	131.69
239.559	153.69
239.793	136.69
240.027	159.69
240.26	166.69
240.494	151.69
240.728	155.69
240.961	171.69
241.195	161.69
241.429	179.69
241.662	162.69
241.896	134.69
242.13	126.69
242.363	128.69
242.597	129.69
242.83	138.69
243.064	138.69
243.298	168.69
243.531	161.69
243.765	149.69
243.998	135.69
244.232	131.69
244.465	153.69
244.699	128.69
244.932	175.69
245.166	157.69
245.399	143.69
245.633	141.69
245.866	136.69
246.099	154.69
246.333	152.69
246.566	182.69
246.8	179.69
247.033	165.69
247.266	165.69
247.5	155.69
247.733	142.69
247.966	158.69
248.2	158.69
248.433	177.69
248.666	195.69
248.899	189.69
249.133	199.69
249.366	197.69
249.599	211.69
249.832	190.69
250.066	181.69
250.299	198.69
250.532	179.69
250.765	171.69
250.998	151.69
251.231	170.69
251.465	189.69
251.698	181.69
251.931	176.69
252.164	197.69
252.397	210.69
252.63	215.69
252.863	246.69
253.096	249.69
253.329	233.69
253.562	208.69
253.795	262.69
254.028	272.69
254.261	272.69
254.494	267.69
254.727	237.69
254.96	219.69
255.193	239.69
255.426	239.69
255.659	189.69
255.892	187.69
256.124	193.69
256.357	218.69
256.59	261.69
256.823	229.69
257.056	210.69
257.289	192.69
257.521	209.69
257.754	257.69
257.987	279.69
258.22	254.69
258.452	205.69
258.685	209.69
258.918	262.69
259.151	253.69
259.383	268.69
259.616	312.69
259.849	321.69
260.081	323.69
260.314	370.69
260.547	307.69
260.779	290.69
261.012	356.69
261.244	319.69
261.477	330.69
261.71	302.69
261.942	258.69
262.175	259.69
262.407	243.69
262.64	256.69
262.872	292.69
263.105	335.69
263.337	331.69
263.57	306.69
263.802	223.69
264.035	203.69
264.267	192.69
264.499	178.69
264.732	179.69
264.964	166.69
265.197	164.69
265.429	177.69
265.661	181.69
265.894	179.69
266.126	206.69
266.358	215.69
266.591	250.69
266.823	307.69
267.055	303.69
267.287	263.69
267.52	274.69
267.752	277.69
267.984	300.69
268.216	278.69
268.448	229.69
268.681	223.69
268.913	251.69
269.145	247.69
269.377	289.69
269.609	263.69
269.841	243.69
270.073	292.69
270.306	270.69
270.538	267.69
270.77	269.69
271.002	277.69
271.234	282.69
271.466	278.69
271.698	277.69
271.93	281.69
272.162	264.69
272.394	271.69
272.626	264.69
272.858	273.69
273.09	291.69
273.322	261.69
273.553	227.69
273.785	266.69
274.017	360.69
274.249	405.69
274.481	443.69
274.713	453.69
274.945	530.69
275.176	569.69
275.408	513.69
275.64	468.69
275.872	465.69
276.104	379.69
276.335	359.69
276.567	345.69
276.799	355.69
277.031	385.69
277.262	325.69
277.494	268.69
277.726	240.69
277.957	270.69
278.189	272.69
278.421	299.69
278.652	277.69
278.884	257.69
279.115	253.69
279.347	245.69
279.579	248.69
279.81	257.69
280.042	247.69
280.273	257.69
280.505	230.69
280.736	214.69
280.968	210.69
281.199	212.69
281.431	254.69
281.662	256.69
281.894	235.69
282.125	253.69
282.356	271.69
282.588	275.69
282.819	251.69
283.051	254.69
283.282	304.69
283.513	352.69
283.745	391.69
283.976	393.69
284.207	378.69
284.439	372.69
284.67	346.69
284.901	313.69
285.132	355.69
285.364	369.69
285.595	343.69
285.826	347.69
286.057	365.69
286.288	343.69
286.52	337.69
286.751	358.69
286.982	386.69
287.213	355.69
287.444	328.69
287.675	352.69
287.906	342.69
288.138	289.69
288.369	273.69
288.6	272.69
288.831	270.69
289.062	293.69
289.293	341.69
289.524	306.69
289.755	298.69
289.986	316.69
290.217	310.69
290.448	234.69
290.679	212.69
290.91	198.69
291.141	189.69
291.371	202.69
291.602	220.69
291.833	221.69
292.064	219.69
292.295	237.69
292.526	274.69
292.757	274.69
292.987	299.69
293.218	297.69
293.449	318.69
293.68	335.69
293.91	327.69
294.141	322.69
294.372	303.69
294.603	283.69
294.833	315.69
295.064	369.69
295.295	355.69
295.525	288.69
295.756	227.69
295.987	221.69
296.217	222.69
296.448	227.69
296.679	205.69
296.909	239.69
297.14	243.69
297.37	284.69
297.601	275.69
297.831	226.69
298.062	243.69
298.292	277.69
298.523	303.69
298.753	331.69
298.984	304.69
299.214	247.69
299.445	224.69
299.675	227.69
299.905	217.69
300.136	222.69
300.366	247.69
300.597	235.69
300.827	227.69
301.057	205.69
301.288	206.69
301.518	239.69
301.748	246.69
301.979	268.69
302.209	291.69
302.439	297.69
302.669	258.69
302.9	253.69
303.13	255.69
303.36	219.69
303.59	232.69
303.82	249.69
304.051	259.69
304.281	257.69
304.511	276.69
304.741	229.69
304.971	243.69
305.201	277.69
305.431	238.69
305.661	238.69
305.891	222.69
306.121	215.69
306.352	208.69
306.582	188.69
306.812	193.69
307.042	203.69
307.272	191.69
307.502	190.69
307.731	212.69
307.961	209.69
308.191	200.69
308.421	190.69
308.651	179.69
308.881	194.69
309.111	192.69
309.341	207.69
309.571	207.69
309.8	202.69
310.03	197.69
310.26	202.69
310.49	201.69
310.72	197.69
310.949	194.69
311.179	199.69
311.409	214.69
311.639	200.69
311.868	273.69
312.098	314.69
312.328	362.69
312.557	327.69
312.787	344.69
313.017	304.69
313.246	326.69
313.476	367.69
313.706	309.69
313.935	264.69
314.165	215.69
314.394	227.69
314.624	202.69
314.853	238.69
315.083	201.69
315.312	211.69
315.542	225.69
315.771	206.69
316.001	209.69
316.23	186.69
316.46	181.69
316.689	190.69
316.919	196.69
317.148	206.69
317.377	197.69
317.607	188.69
317.836	206.69
318.065	217.69
318.295	255.69
318.524	230.69
318.753	218.69
318.983	202.69
319.212	199.69
319.441	197.69
319.67	234.69
319.9	233.69
320.129	213.69
320.358	211.69
320.587	200.69
320.816	210.69
321.046	215.69
321.275	242.69
321.504	230.69
321.733	230.69
321.962	227.69
322.191	233.69
322.42	210.69
322.649	227.69
322.878	249.69
323.108	231.69
323.337	223.69
323.566	217.69
323.795	215.69
324.024	209.69
324.253	210.69
324.482	218.69
324.71	217.69
324.939	250.69
325.168	242.69
325.397	222.69
325.626	204.69
325.855	193.69
326.084	218.69
326.313	211.69
326.542	194.69
326.77	215.69
326.999	204.69
327.228	214.69
327.457	210.69
327.686	213.69
327.914	214.69
328.143	207.69
328.372	188.69
328.6	193.69
328.829	202.69
329.058	190.69
329.287	186.69
329.515	214.69
329.744	208.69
329.972	191.69
330.201	196.69
330.43	201.69
330.658	193.69
330.887	217.69
331.115	210.69
331.344	218.69
331.572	230.69
331.801	202.69
332.03	189.69
332.258	201.69
332.486	186.69
332.715	238.69
332.943	216.69
333.172	205.69
333.4	214.69
333.629	228.69
333.857	239.69
334.085	259.69
334.314	256.69
334.542	240.69
334.771	214.69
334.999	224.69
335.227	210.69
335.455	222.69
335.684	226.69
335.912	257.69
336.14	263.69
336.369	254.69
336.597	244.69
336.825	271.69
337.053	290.69
337.281	254.69
337.51	229.69
337.738	226.69
337.966	214.69
338.194	249.69
338.422	239.69
338.65	211.69
338.878	211.69
339.106	212.69
339.334	217.69
339.562	229.69
339.79	210.69
340.018	191.69
340.246	210.69
340.474	254.69
340.702	257.69
340.93	265.69
341.158	251.69
341.386	230.69
341.614	221.69
341.842	213.69
342.07	235.69
342.298	250.69
342.526	273.69
342.754	233.69
342.981	203.69
343.209	226.69
343.437	242.69
343.665	241.69
343.893	263.69
344.12	270.69
344.348	312.69
344.576	292.69
344.804	272.69
345.031	222.69
345.259	226.69
345.487	216.69
345.714	207.69
345.942	214.69
346.17	264.69
346.397	245.69
346.625	222.69
346.853	229.69
347.08	207.69
347.308	219.69
347.535	236.69
347.763	259.69
347.99	232.69
348.218	218.69
348.445	209.69
348.673	223.69
348.9	228.69
349.128	228.69
349.355	237.69
349.583	224.69
349.81	203.69
350.037	216.69
350.265	200.69
350.492	183.69
350.72	194.69
350.947	177.69
351.174	190.69
351.402	205.69
351.629	206.69
351.856	197.69
352.083	198.69
352.311	205.69
352.538	217.69
352.765	227.69
352.992	215.69
353.22	212.69
353.447	230.69
353.674	216.69
353.901	191.69
354.128	218.69
354.355	213.69
354.583	203.69
354.81	214.69
355.037	226.69
355.264	222.69
355.491	243.69
355.718	245.69
355.945	221.69
356.172	215.69
356.399	237.69
356.626	258.69
356.853	314.69
357.08	326.69
357.307	321.69
357.534	285.69
357.761	275.69
357.988	327.69
358.215	382.69
358.441	346.69
358.668	293.69
358.895	280.69
359.122	261.69
359.349	263.69
359.576	280.69
359.802	257.69
360.029	221.69
360.256	246.69
360.483	260.69
360.709	318.69
360.936	318.69
361.163	291.69
361.39	230.69
361.616	231.69
361.843	267.69
362.07	251.69
362.296	255.69
362.523	223.69
362.749	208.69
362.976	225.69
363.203	251.69
363.429	258.69
363.656	231.69
363.882	213.69
364.109	216.69
364.335	212.69
364.562	215.69
364.788	217.69
365.015	258.69
365.241	237.69
365.468	208.69
365.694	195.69
365.92	211.69
366.147	176.69
366.373	179.69
366.599	180.69
366.826	184.69
367.052	199.69
367.278	194.69
367.505	170.69
367.731	191.69
367.957	217.69
368.184	227.69
368.41	231.69
368.636	213.69
368.862	239.69
369.089	211.69
369.315	186.69
369.541	208.69
369.767	203.69
369.993	203.69
370.219	189.69
370.445	197.69
370.672	225.69
370.898	230.69
371.124	234.69
371.35	212.69
371.576	191.69
371.802	213.69
372.028	255.69
372.254	274.69
372.48	256.69
372.706	221.69
372.932	213.69
373.158	238.69
373.384	269.69
373.61	336.69
373.835	338.69
374.061	274.69
374.287	246.69
374.513	269.69
374.739	324.69
374.965	352.69
375.191	327.69
375.416	250.69
375.642	223.69
375.868	251.69
376.094	276.69
376.319	234.69
376.545	257.69
376.771	244.69
376.997	233.69
377.222	210.69
377.448	189.69
377.674	167.69
377.899	181.69
378.125	191.69
378.35	185.69
378.576	186.69
378.802	200.69
379.027	203.69
379.253	210.69
379.478	216.69
379.704	224.69
379.929	232.69
380.155	236.69
380.38	213.69
380.606	221.69
380.831	227.69
381.057	232.69
381.282	218.69
381.507	231.69
381.733	271.69
381.958	282.69
382.184	316.69
382.409	301.69
382.634	327.69
382.86	320.69
383.085	286.69
383.31	243.69
383.535	266.69
383.761	257.69
383.986	245.69
384.211	283.69
384.436	270.69
384.662	231.69
384.887	219.69
385.112	229.69
385.337	248.69
385.562	231.69
385.787	251.69
386.013	274.69
386.238	265.69
386.463	243.69
386.688	225.69
386.913	224.69
387.138	209.69
387.363	221.69
387.588	213.69
387.813	210.69
388.038	259.69
388.263	237.69
388.488	217.69
388.713	274.69
388.938	258.69
389.163	225.69
389.387	218.69
389.612	216.69
389.837	203.69
390.062	215.69
390.287	220.69
390.512	215.69
390.736	222.69
390.961	203.69
391.186	207.69
391.411	195.69
391.636	216.69
391.86	240.69
392.085	228.69
392.31	241.69
392.534	239.69
392.759	219.69
392.984	237.69
393.208	233.69
393.433	204.69
393.658	202.69
393.882	193.69
394.107	187.69
394.331	193.69
394.556	222.69
394.78	217.69
395.005	196.69
395.229	219.69
395.454	200.69
395.678	219.69
395.903	207.69
396.127	220.69
396.352	207.69
396.576	212.69
396.801	224.69
397.025	238.69
397.249	233.69
397.474	228.69
397.698	211.69
397.922	233.69
398.147	218.69
398.371	219.69
398.595	218.69
398.82	228.69
399.044	235.69
399.268	259.69
399.492	280.69
399.717	291.69
399.941	289.69
400.165	259.69
400.389	250.69
400.613	257.69
400.837	251.69
401.062	230.69
401.286	227.69
401.51	226.69
401.734	213.69
401.958	230.69
402.182	223.69
402.406	222.69
402.63	233.69
402.854	235.69
403.078	287.69
403.302	335.69
403.526	343.69
403.75	318.69
403.974	268.69
404.198	279.69
404.422	283.69
404.645	322.69
404.869	334.69
405.093	287.69
405.317	256.69
405.541	253.69
405.765	266.69
405.988	263.69
406.212	249.69
406.436	283.69
406.66	295.69
406.883	277.69
407.107	268.69
407.331	287.69
407.555	275.69
407.778	267.69
408.002	264.69
408.226	275.69
408.449	255.69
408.673	255.69
408.896	239.69
409.12	244.69
409.344	233.69
409.567	228.69
409.791	231.69
410.014	233.69
410.238	231.69
410.461	221.69
410.685	244.69
410.908	238.69
411.132	225.69
411.355	247.69
411.578	251.69
411.802	224.69
412.025	241.69
412.249	241.69
412.472	236.69
412.695	230.69
412.919	235.69
413.142	250.69
413.365	259.69
413.589	249.69
413.812	220.69
414.035	225.69
414.258	245.69
414.482	261.69
414.705	247.69
414.928	218.69
415.151	226.69
415.374	224.69
415.597	217.69
415.821	202.69
416.044	219.69
416.267	207.69
416.49	221.69
416.713	202.69
416.936	211.69
417.159	231.69
417.382	225.69
417.605	232.69
417.828	227.69
418.051	233.69
418.274	228.69
418.497	222.69
418.72	227.69
418.943	241.69
419.166	248.69
419.389	240.69
419.611	234.69
419.834	229.69
420.057	257.69
420.28	247.69
420.503	245.69
420.726	235.69
420.948	221.69
421.171	241.69
421.394	217.69
421.617	224.69
421.839	213.69
422.062	231.69
422.285	237.69
422.507	239.69
422.73	222.69
422.953	230.69
423.175	227.69
423.398	237.69
423.621	244.69
423.843	239.69
424.066	257.69
424.288	225.69
424.511	245.69
424.733	215.69
424.956	253.69
425.178	259.69
425.401	294.69
425.623	341.69
425.846	275.69
426.068	241.69
426.291	248.69
426.513	233.69
426.735	234.69
426.958	239.69
427.18	247.69
427.402	323.69
427.625	346.69
427.847	283.69
428.069	233.69
428.292	231.69
428.514	222.69
428.736	227.69
428.958	246.69
429.181	291.69
429.403	250.69
429.625	226.69
429.847	219.69
430.069	213.69
430.292	217.69
430.514	206.69
430.736	217.69
430.958	255.69
431.18	263.69
431.402	209.69
431.624	217.69
431.846	199.69
432.068	205.69
432.29	230.69
432.512	218.69
432.734	267.69
432.956	259.69
433.178	219.69
433.4	209.69
433.622	210.69
433.844	208.69
434.066	237.69
434.287	231.69
434.509	241.69
434.731	241.69
434.953	236.69
435.175	254.69
435.397	249.69
435.618	214.69
435.84	220.69
436.062	207.69
436.284	209.69
436.505	208.69
436.727	215.69
436.949	212.69
437.17	203.69
437.392	209.69
437.614	221.69
437.835	233.69
438.057	220.69
438.278	246.69
438.5	305.69
438.721	287.69
438.943	239.69
439.165	201.69
439.386	201.69
439.608	218.69
439.829	209.69
440.05	212.69
440.272	229.69
440.493	229.69
440.715	272.69
440.936	235.69
441.158	227.69
441.379	217.69
441.6	259.69
441.822	269.69
442.043	233.69
442.264	222.69
442.486	225.69
442.707	237.69
442.928	211.69
443.149	226.69
443.371	225.69
443.592	253.69
443.813	215.69
444.034	229.69
444.255	247.69
444.476	263.69
444.698	256.69
444.919	256.69
445.14	329.69
445.361	290.69
445.582	246.69
445.803	222.69
446.024	241.69
446.245	252.69
446.466	228.69
446.687	213.69
446.908	206.69
447.129	217.69
447.35	207.69
447.571	207.69
447.792	197.69
448.013	193.69
448.234	202.69
448.455	186.69
448.675	206.69
448.896	184.69
449.117	204.69
449.338	206.69
449.559	222.69
449.779	202.69
450	210.69
450.221	211.69
450.442	220.69
450.662	222.69
450.883	210.69
451.104	224.69
451.324	207.69
451.545	214.69
451.766	221.69
451.986	198.69
452.207	208.69
452.428	198.69
452.648	211.69
452.869	213.69
453.089	209.69
453.31	199.69
453.53	208.69
453.751	207.69
453.971	194.69
454.192	198.69
454.412	206.69
454.633	195.69
454.853	206.69
455.073	191.69
455.294	198.69
455.514	184.69
455.734	184.69
455.955	207.69
456.175	211.69
456.395	203.69
456.616	178.69
456.836	203.69
457.056	196.69
457.276	192.69
457.497	206.69
457.717	198.69
457.937	214.69
458.157	172.69
458.377	201.69
458.598	182.69
458.818	186.69
459.038	208.69
459.258	207.69
459.478	214.69
459.698	224.69
459.918	237.69
460.138	218.69
460.358	227.69
460.578	229.69
460.798	232.69
461.018	226.69
461.238	253.69
461.458	235.69
461.678	222.69
461.898	242.69
462.118	242.69
462.338	243.69
462.558	259.69
462.777	252.69
462.997	280.69
463.217	290.69
463.437	277.69
463.657	271.69
463.876	256.69
464.096	248.69
464.316	263.69
464.536	277.69
464.755	259.69
464.975	265.69
465.195	252.69
465.414	255.69
465.634	247.69
465.854	224.69
466.073	202.69
466.293	232.69
466.512	213.69
466.732	243.69
466.951	247.69
467.171	234.69
467.391	217.69
467.61	211.69
467.829	227.69
468.049	238.69
468.268	218.69
468.488	222.69
468.707	213.69
468.927	234.69
469.146	260.69
469.365	237.69
469.585	234.69
469.804	237.69
470.023	262.69
470.243	238.69
470.462	210.69
470.681	223.69
470.901	223.69
471.12	238.69
471.339	240.69
471.558	226.69
471.777	235.69
471.997	235.69
472.216	252.69
472.435	261.69
472.654	238.69
472.873	224.69
473.092	229.69
473.311	240.69
473.53	237.69
473.749	211.69
473.968	232.69
474.187	237.69
474.406	233.69
474.625	229.69
474.844	222.69
475.063	241.69
475.282	243.69
475.501	239.69
475.72	248.69
475.939	246.69
476.158	270.69
476.377	273.69
476.596	305.69
476.814	303.69
477.033	292.69
477.252	237.69
477.471	216.69
477.69	242.69
477.908	254.69
478.127	285.69
478.346	240.69
478.564	283.69
478.783	248.69
479.002	262.69
479.22	297.69
479.439	324.69
479.658	285.69
479.876	254.69
480.095	279.69
480.313	290.69
480.532	267.69
480.751	259.69
480.969	258.69
481.188	264.69
481.406	290.69
481.624	272.69
481.843	261.69
482.061	237.69
482.28	265.69
482.498	330.69
482.717	324.69
482.935	271.69
483.153	255.69
483.372	243.69
483.59	241.69
483.808	230.69
484.027	239.69
484.245	232.69
484.463	223.69
484.681	223.69
484.9	253.69
485.118	260.69
485.336	260.69
485.554	259.69
485.772	258.69
485.99	261.69
486.209	282.69
486.427	288.69
486.645	261.69
486.863	272.69
487.081	295.69
487.299	296.69
487.517	305.69
487.735	245.69
487.953	276.69
488.171	293.69
488.389	271.69
488.607	277.69
488.825	266.69
489.043	263.69
489.261	323.69
489.479	319.69
489.696	293.69
489.914	255.69
490.132	257.69
490.35	258.69
490.568	254.69
490.786	257.69
491.003	267.69
491.221	283.69
491.439	253.69
491.657	226.69
491.874	268.69
492.092	274.69
492.31	352.69
492.527	340.69
492.745	308.69
492.963	267.69
493.18	298.69
493.398	284.69
493.615	295.69
493.833	240.69
494.05	274.69
494.268	285.69
494.485	277.69
494.703	268.69
494.92	267.69
495.138	262.69
495.355	261.69
495.573	258.69
495.79	277.69
496.008	337.69
496.225	303.69
496.442	294.69
496.66	286.69
496.877	322.69
497.094	317.69
497.312	274.69
497.529	277.69
497.746	279.69
497.963	314.69
498.181	326.69
498.398	321.69
498.615	367.69
498.832	369.69
499.049	368.69
499.267	357.69
499.484	374.69
499.701	384.69
499.918	432.69
500.135	485.69
500.352	522.69
500.569	538.69
500.786	538.69
501.003	530.69
501.22	475.69
501.437	409.69
501.654	391.69
501.871	377.69
502.088	357.69
502.305	325.69
502.522	349.69
