Data from NickelSpatula.Lamp.E10.P2_HRD10591_11-59-01-527.txt Node
Date: Tue Jul 23 11:59:01 EDT 2019
User: cochatt
Spectrometer: HR+D1059
Trigger mode: 1
Integration Time (sec): 1.000000E-1
Scans to average: 1
Electric dark correction enabled: true
Nonlinearity correction enabled: false
Boxcar width: 0
XAxis mode: Wavelengths
Number of Pixels in Spectrum: 2048
>>>>>Begin Spectral Data<<<<<
223.165	-15.06
223.4	-15.06
223.635	-15.06
223.869	0.94
224.104	-19.06
224.338	-12.06
224.573	-0.06
224.808	-1.06
225.042	-16.06
225.277	-11.06
225.511	-1.06
225.746	0.94
225.98	-1.06
226.215	7.94
226.449	9.94
226.683	14.94
226.918	16.94
227.152	24.94
227.387	36.94
227.621	34.94
227.856	42.94
228.09	45.94
228.324	49.94
228.559	63.94
228.793	88.94
229.027	149.94
229.262	158.94
229.496	172.94
229.73	185.94
229.964	208.94
230.199	212.94
230.433	212.94
230.667	214.94
230.901	225.94
231.136	199.94
231.37	215.94
231.604	214.94
231.838	224.94
232.072	252.94
232.306	242.94
232.541	261.94
232.775	232.94
233.009	264.94
233.243	308.94
233.477	321.94
233.711	348.94
233.945	352.94
234.179	337.94
234.413	371.94
234.647	400.94
234.881	489.94
235.115	438.94
235.349	430.94
235.583	375.94
235.817	369.94
236.051	378.94
236.285	454.94
236.519	465.94
236.753	438.94
236.987	467.94
237.221	431.94
237.455	428.94
237.689	429.94
237.922	463.94
238.156	533.94
238.39	565.94
238.624	708.94
238.858	626.94
239.091	494.94
239.325	538.94
239.559	481.94
239.793	572.94
240.027	683.94
240.26	630.94
240.494	598.94
240.728	599.94
240.961	718.94
241.195	680.94
241.429	680.94
241.662	661.94
241.896	546.94
242.13	508.94
242.363	471.94
242.597	492.94
242.83	545.94
243.064	551.94
243.298	610.94
243.531	650.94
243.765	653.94
243.998	650.94
244.232	649.94
244.465	605.94
244.699	596.94
244.932	686.94
245.166	630.94
245.399	568.94
245.633	566.94
245.866	583.94
246.099	633.94
246.333	739.94
246.566	822.94
246.8	807.94
247.033	775.94
247.266	714.94
247.5	702.94
247.733	710.94
247.966	691.94
248.2	746.94
248.433	800.94
248.666	883.94
248.899	860.94
249.133	929.94
249.366	1048.94
249.599	1084.94
249.832	971.94
250.066	860.94
250.299	870.94
250.532	839.94
250.765	860.94
250.998	773.94
251.231	740.94
251.465	816.94
251.698	859.94
251.931	799.94
252.164	886.94
252.397	999.94
252.63	1097.94
252.863	1229.94
253.096	1277.94
253.329	1217.94
253.562	1160.94
253.795	1289.94
254.028	1426.94
254.261	1425.94
254.494	1317.94
254.727	1187.94
254.96	1198.94
255.193	1249.94
255.426	1184.94
255.659	894.94
255.892	814.94
256.124	887.94
256.357	1032.94
256.59	1279.94
256.823	1176.94
257.056	1003.94
257.289	965.94
257.521	1012.94
257.754	1206.94
257.987	1299.94
258.22	1148.94
258.452	1056.94
258.685	1198.94
258.918	1346.94
259.151	1274.94
259.383	1350.94
259.616	1575.94
259.849	1588.94
260.081	1768.94
260.314	2026.94
260.547	1493.94
260.779	1521.94
261.012	1757.94
261.244	1662.94
261.477	1699.94
261.71	1586.94
261.942	1354.94
262.175	1330.94
262.407	1264.94
262.64	1337.94
262.872	1546.94
263.105	1716.94
263.337	1822.94
263.57	1621.94
263.802	1097.94
264.035	916.94
264.267	902.94
264.499	774.94
264.732	730.94
264.964	720.94
265.197	721.94
265.429	816.94
265.661	857.94
265.894	867.94
266.126	928.94
266.358	1048.94
266.591	1317.94
266.823	1556.94
267.055	1473.94
267.287	1265.94
267.52	1306.94
267.752	1364.94
267.984	1489.94
268.216	1407.94
268.448	1175.94
268.681	1148.94
268.913	1253.94
269.145	1301.94
269.377	1367.94
269.609	1345.94
269.841	1267.94
270.073	1343.94
270.306	1414.94
270.538	1422.94
270.77	1424.94
271.002	1446.94
271.234	1495.94
271.466	1566.94
271.698	1522.94
271.93	1455.94
272.162	1488.94
272.394	1429.94
272.626	1437.94
272.858	1510.94
273.09	1550.94
273.322	1403.94
273.553	1344.94
273.785	1550.94
274.017	2068.94
274.249	2531.94
274.481	2639.94
274.713	2891.94
274.945	3300.94
275.176	3425.94
275.408	3006.94
275.64	2732.94
275.872	2752.94
276.104	2338.94
276.335	1956.94
276.567	1956.94
276.799	2025.94
277.031	2136.94
277.262	1672.94
277.494	1274.94
277.726	1223.94
277.957	1378.94
278.189	1552.94
278.421	1538.94
278.652	1480.94
278.884	1392.94
279.115	1333.94
279.347	1246.94
279.579	1248.94
279.81	1273.94
280.042	1253.94
280.273	1290.94
280.505	1166.94
280.736	1046.94
280.968	1028.94
281.199	1122.94
281.431	1274.94
281.662	1270.94
281.894	1157.94
282.125	1272.94
282.356	1411.94
282.588	1444.94
282.819	1271.94
283.051	1420.94
283.282	1744.94
283.513	2014.94
283.745	2240.94
283.976	2232.94
284.207	2072.94
284.439	2175.94
284.67	2078.94
284.901	1854.94
285.132	2024.94
285.364	2126.94
285.595	1911.94
285.826	2098.94
286.057	2115.94
286.288	2013.94
286.52	2082.94
286.751	2174.94
286.982	2173.94
287.213	1881.94
287.444	1849.94
287.675	1946.94
287.906	1878.94
288.138	1624.94
288.369	1395.94
288.6	1326.94
288.831	1355.94
289.062	1613.94
289.293	1733.94
289.524	1647.94
289.755	1650.94
289.986	1651.94
290.217	1476.94
290.448	1145.94
290.679	992.94
290.91	947.94
291.141	953.94
291.371	1029.94
291.602	1020.94
291.833	1038.94
292.064	1113.94
292.295	1271.94
292.526	1446.94
292.757	1494.94
292.987	1588.94
293.218	1592.94
293.449	1636.94
293.68	1758.94
293.91	1620.94
294.141	1682.94
294.372	1591.94
294.603	1478.94
294.833	1626.94
295.064	1929.94
295.295	1772.94
295.525	1352.94
295.756	1201.94
295.987	1057.94
296.217	1037.94
296.448	1077.94
296.679	1161.94
296.909	1288.94
297.14	1329.94
297.37	1456.94
297.601	1406.94
297.831	1204.94
298.062	1293.94
298.292	1494.94
298.523	1630.94
298.753	1875.94
298.984	1648.94
299.214	1308.94
299.445	1115.94
299.675	1097.94
299.905	1069.94
300.136	1092.94
300.366	1232.94
300.597	1223.94
300.827	1027.94
301.057	1032.94
301.288	1043.94
301.518	1137.94
301.748	1283.94
301.979	1371.94
302.209	1498.94
302.439	1517.94
302.669	1292.94
302.9	1292.94
303.13	1197.94
303.36	1156.94
303.59	1061.94
303.82	1141.94
304.051	1294.94
304.281	1387.94
304.511	1358.94
304.741	1198.94
304.971	1244.94
305.201	1343.94
305.431	1229.94
305.661	1098.94
305.891	1091.94
306.121	1111.94
306.352	978.94
306.582	896.94
306.812	876.94
307.042	904.94
307.272	841.94
307.502	834.94
307.731	900.94
307.961	954.94
308.191	888.94
308.421	842.94
308.651	844.94
308.881	788.94
309.111	801.94
309.341	861.94
309.571	948.94
309.8	956.94
310.03	978.94
310.26	1033.94
310.49	1024.94
310.72	906.94
310.949	883.94
311.179	911.94
311.409	959.94
311.639	1128.94
311.868	1408.94
312.098	1842.94
312.328	2011.94
312.557	1924.94
312.787	1939.94
313.017	1712.94
313.246	1838.94
313.476	2073.94
313.706	1662.94
313.935	1304.94
314.165	1076.94
314.394	982.94
314.624	991.94
314.853	1057.94
315.083	1104.94
315.312	1045.94
315.542	1052.94
315.771	981.94
316.001	892.94
316.23	857.94
316.46	866.94
316.689	896.94
316.919	901.94
317.148	935.94
317.377	901.94
317.607	920.94
317.836	986.94
318.065	1149.94
318.295	1302.94
318.524	1204.94
318.753	1020.94
318.983	966.94
319.212	962.94
319.441	1039.94
319.67	1190.94
319.9	1257.94
320.129	1202.94
320.358	1020.94
320.587	970.94
320.816	1064.94
321.046	1208.94
321.275	1372.94
321.504	1390.94
321.733	1335.94
321.962	1272.94
322.191	1202.94
322.42	1126.94
322.649	1168.94
322.878	1278.94
323.108	1274.94
323.337	1161.94
323.566	1151.94
323.795	1108.94
324.024	1043.94
324.253	1001.94
324.482	1009.94
324.71	1121.94
324.939	1261.94
325.168	1184.94
325.397	931.94
325.626	957.94
325.855	950.94
326.084	942.94
326.313	924.94
326.542	841.94
326.77	904.94
326.999	940.94
327.228	985.94
327.457	1049.94
327.686	1044.94
327.914	946.94
328.143	869.94
328.372	860.94
328.6	867.94
328.829	884.94
329.058	936.94
329.287	897.94
329.515	925.94
329.744	914.94
329.972	872.94
330.201	828.94
330.43	867.94
330.658	980.94
330.887	1109.94
331.115	1047.94
331.344	1030.94
331.572	997.94
331.801	940.94
332.03	876.94
332.258	904.94
332.486	975.94
332.715	989.94
332.943	933.94
333.172	941.94
333.4	952.94
333.629	1030.94
333.857	1129.94
334.085	1141.94
334.314	1142.94
334.542	1073.94
334.771	1002.94
334.999	970.94
335.227	954.94
335.455	943.94
335.684	1044.94
335.912	1225.94
336.14	1389.94
336.369	1282.94
336.597	1282.94
336.825	1428.94
337.053	1586.94
337.281	1260.94
337.51	1026.94
337.738	1005.94
337.966	1088.94
338.194	1212.94
338.422	1149.94
338.65	975.94
338.878	884.94
339.106	927.94
339.334	1039.94
339.562	1123.94
339.79	1047.94
340.018	984.94
340.246	1056.94
340.474	1225.94
340.702	1286.94
340.93	1355.94
341.158	1351.94
341.386	1150.94
341.614	1143.94
341.842	1147.94
342.07	1183.94
342.298	1408.94
342.526	1428.94
342.754	1256.94
342.981	1144.94
343.209	1109.94
343.437	1183.94
343.665	1218.94
343.893	1227.94
344.12	1440.94
344.348	1666.94
344.576	1502.94
344.804	1227.94
345.031	1060.94
345.259	993.94
345.487	1041.94
345.714	1077.94
345.942	1146.94
346.17	1230.94
346.397	1189.94
346.625	1020.94
346.853	970.94
347.08	976.94
347.308	1032.94
347.535	1136.94
347.763	1210.94
347.99	1039.94
348.218	960.94
348.445	1019.94
348.673	991.94
348.9	996.94
349.128	1080.94
349.355	1133.94
349.583	1113.94
349.81	1042.94
350.037	991.94
350.265	854.94
350.492	804.94
350.72	808.94
350.947	847.94
351.174	918.94
351.402	970.94
351.629	1041.94
351.856	999.94
352.083	932.94
352.311	1006.94
352.538	1141.94
352.765	1204.94
352.992	1087.94
353.22	1036.94
353.447	1031.94
353.674	1016.94
353.901	973.94
354.128	1010.94
354.355	1061.94
354.583	998.94
354.81	1011.94
355.037	1056.94
355.264	1038.94
355.491	1153.94
355.718	1214.94
355.945	1196.94
356.172	1142.94
356.399	1169.94
356.626	1414.94
356.853	1696.94
357.08	1863.94
357.307	1853.94
357.534	1441.94
357.761	1500.94
357.988	1873.94
358.215	2190.94
358.441	2071.94
358.668	1718.94
358.895	1562.94
359.122	1280.94
359.349	1264.94
359.576	1398.94
359.802	1125.94
360.029	984.94
360.256	1061.94
360.483	1319.94
360.709	1721.94
360.936	1717.94
361.163	1512.94
361.39	1153.94
361.616	1108.94
361.843	1303.94
362.07	1624.94
362.296	1429.94
362.523	1133.94
362.749	956.94
362.976	1007.94
363.203	1267.94
363.429	1409.94
363.656	1140.94
363.882	1060.94
364.109	1054.94
364.335	1039.94
364.562	1061.94
364.788	1206.94
365.015	1376.94
365.241	1207.94
365.468	986.94
365.694	847.94
365.92	829.94
366.147	817.94
366.373	794.94
366.599	829.94
366.826	845.94
367.052	870.94
367.278	860.94
367.505	846.94
367.731	929.94
367.957	1059.94
368.184	1089.94
368.41	1056.94
368.636	1061.94
368.862	1080.94
369.089	1064.94
369.315	945.94
369.541	934.94
369.767	901.94
369.993	862.94
370.219	894.94
370.445	937.94
370.672	1055.94
370.898	1144.94
371.124	1125.94
371.35	982.94
371.576	911.94
371.802	1009.94
372.028	1234.94
372.254	1414.94
372.48	1172.94
372.706	1054.94
372.932	1143.94
373.158	1196.94
373.384	1467.94
373.61	1938.94
373.835	1980.94
374.061	1435.94
374.287	1228.94
374.513	1487.94
374.739	1783.94
374.965	1830.94
375.191	1746.94
375.416	1219.94
375.642	1078.94
375.868	1260.94
376.094	1429.94
376.319	1216.94
376.545	1356.94
376.771	1441.94
376.997	1192.94
377.222	912.94
377.448	767.94
377.674	764.94
377.899	775.94
378.125	777.94
378.35	802.94
378.576	837.94
378.802	889.94
379.027	936.94
379.253	925.94
379.478	954.94
379.704	1082.94
379.929	1140.94
380.155	1138.94
380.38	971.94
380.606	1028.94
380.831	1124.94
381.057	1057.94
381.282	1018.94
381.507	1208.94
381.733	1508.94
381.958	1616.94
382.184	1717.94
382.409	1796.94
382.634	1776.94
382.86	1834.94
383.085	1520.94
383.31	1155.94
383.535	1260.94
383.761	1288.94
383.986	1233.94
384.211	1490.94
384.436	1455.94
384.662	1081.94
384.887	1033.94
385.112	1082.94
385.337	1089.94
385.562	1024.94
385.787	1141.94
386.013	1312.94
386.238	1275.94
386.463	1074.94
386.688	1020.94
386.913	994.94
387.138	946.94
387.363	1018.94
387.588	1037.94
387.813	1041.94
388.038	1129.94
388.263	1009.94
388.488	1001.94
388.713	1154.94
388.938	1257.94
389.163	1062.94
389.387	963.94
389.612	959.94
389.837	950.94
390.062	991.94
390.287	982.94
390.512	1029.94
390.736	953.94
390.961	913.94
391.186	862.94
391.411	851.94
391.636	882.94
391.86	948.94
392.085	1042.94
392.31	1043.94
392.534	999.94
392.759	976.94
392.984	1022.94
393.208	1028.94
393.433	886.94
393.658	821.94
393.882	813.94
394.107	773.94
394.331	815.94
394.556	794.94
394.78	844.94
395.005	861.94
395.229	884.94
395.454	944.94
395.678	921.94
395.903	978.94
396.127	909.94
396.352	894.94
396.576	1008.94
396.801	1055.94
397.025	1133.94
397.249	1168.94
397.474	954.94
397.698	952.94
397.922	1014.94
398.147	932.94
398.371	958.94
398.595	996.94
398.82	940.94
399.044	953.94
399.268	1026.94
399.492	1056.94
399.717	1114.94
399.941	1137.94
400.165	1106.94
400.389	1093.94
400.613	1087.94
400.837	1088.94
401.062	962.94
401.286	900.94
401.51	908.94
401.734	954.94
401.958	932.94
402.182	903.94
402.406	907.94
402.63	921.94
402.854	969.94
403.078	1128.94
403.302	1346.94
403.526	1423.94
403.75	1232.94
403.974	1072.94
404.198	1112.94
404.422	1262.94
404.645	1542.94
404.869	1642.94
405.093	1208.94
405.317	996.94
405.541	1008.94
405.765	1036.94
405.988	1046.94
406.212	1121.94
406.436	1378.94
406.66	1497.94
406.883	1166.94
407.107	1217.94
407.331	1434.94
407.555	1338.94
407.778	1127.94
408.002	1084.94
408.226	1078.94
408.449	1090.94
408.673	1045.94
408.896	952.94
409.12	941.94
409.344	930.94
409.567	912.94
409.791	917.94
410.014	911.94
410.238	922.94
410.461	902.94
410.685	912.94
410.908	910.94
411.132	960.94
411.355	959.94
411.578	969.94
411.802	951.94
412.025	1017.94
412.249	987.94
412.472	990.94
412.695	949.94
412.919	962.94
413.142	1017.94
413.365	1076.94
413.589	1098.94
413.812	960.94
414.035	935.94
414.258	990.94
414.482	1102.94
414.705	1112.94
414.928	950.94
415.151	890.94
415.374	893.94
415.597	954.94
415.821	962.94
416.044	904.94
416.267	888.94
416.49	890.94
416.713	852.94
416.936	873.94
417.159	892.94
417.382	904.94
417.605	952.94
417.828	911.94
418.051	951.94
418.274	949.94
418.497	950.94
418.72	958.94
418.943	983.94
419.166	1043.94
419.389	1036.94
419.611	1048.94
419.834	1042.94
420.057	1158.94
420.28	1167.94
420.503	1056.94
420.726	933.94
420.948	900.94
421.171	916.94
421.394	855.94
421.617	896.94
421.839	892.94
422.062	961.94
422.285	960.94
422.507	955.94
422.73	967.94
422.953	974.94
423.175	979.94
423.398	989.94
423.621	1060.94
423.843	1083.94
424.066	1004.94
424.288	980.94
424.511	938.94
424.733	937.94
424.956	1017.94
425.178	1136.94
425.401	1323.94
425.623	1442.94
425.846	1206.94
426.068	1070.94
426.291	1186.94
426.513	1080.94
426.735	974.94
426.958	1010.94
427.18	1201.94
427.402	1637.94
427.625	1528.94
427.847	1202.94
428.069	939.94
428.292	965.94
428.514	918.94
428.736	902.94
428.958	975.94
429.181	1172.94
429.403	1030.94
429.625	937.94
429.847	912.94
430.069	944.94
430.292	900.94
430.514	888.94
430.736	976.94
430.958	1245.94
431.18	1143.94
431.402	874.94
431.624	819.94
431.846	830.94
432.068	844.94
432.29	868.94
432.512	974.94
432.734	1274.94
432.956	1193.94
433.178	906.94
433.4	857.94
433.622	878.94
433.844	894.94
434.066	964.94
434.287	954.94
434.509	919.94
434.731	964.94
434.953	879.94
435.175	945.94
435.397	1075.94
435.618	944.94
435.84	812.94
436.062	820.94
436.284	850.94
436.505	819.94
436.727	782.94
436.949	809.94
437.17	859.94
437.392	866.94
437.614	873.94
437.835	856.94
438.057	862.94
438.278	1001.94
438.5	1493.94
438.721	1431.94
438.943	996.94
439.165	848.94
439.386	818.94
439.608	793.94
439.829	783.94
440.05	795.94
440.272	845.94
440.493	1034.94
440.715	1288.94
440.936	1001.94
441.158	885.94
441.379	901.94
441.6	1013.94
441.822	1077.94
442.043	899.94
442.264	884.94
442.486	905.94
442.707	888.94
442.928	901.94
443.149	894.94
443.371	932.94
443.592	940.94
443.813	928.94
444.034	922.94
444.255	936.94
444.476	972.94
444.698	967.94
444.919	948.94
445.14	1104.94
445.361	1057.94
445.582	995.94
445.803	959.94
446.024	972.94
446.245	975.94
446.466	919.94
446.687	917.94
446.908	912.94
447.129	870.94
447.35	850.94
447.571	805.94
447.792	833.94
448.013	798.94
448.234	788.94
448.455	778.94
448.675	833.94
448.896	825.94
449.117	828.94
449.338	802.94
449.559	840.94
449.779	908.94
450	860.94
450.221	878.94
450.442	816.94
450.662	803.94
450.883	814.94
451.104	845.94
451.324	795.94
451.545	822.94
451.766	809.94
451.986	800.94
452.207	816.94
452.428	782.94
452.648	781.94
452.869	852.94
453.089	881.94
453.31	878.94
453.53	785.94
453.751	775.94
453.971	749.94
454.192	787.94
454.412	817.94
454.633	768.94
454.853	765.94
455.073	749.94
455.294	761.94
455.514	760.94
455.734	776.94
455.955	806.94
456.175	841.94
456.395	761.94
456.616	723.94
456.836	740.94
457.056	703.94
457.276	720.94
457.497	712.94
457.717	728.94
457.937	730.94
458.157	733.94
458.377	756.94
458.598	786.94
458.818	814.94
459.038	830.94
459.258	835.94
459.478	884.94
459.698	927.94
459.918	941.94
460.138	900.94
460.358	907.94
460.578	890.94
460.798	895.94
461.018	904.94
461.238	884.94
461.458	923.94
461.678	908.94
461.898	929.94
462.118	937.94
462.338	984.94
462.558	975.94
462.777	1016.94
462.997	1038.94
463.217	1049.94
463.437	1028.94
463.657	1030.94
463.876	981.94
464.096	995.94
464.316	985.94
464.536	1000.94
464.755	1058.94
464.975	1066.94
465.195	987.94
465.414	1057.94
465.634	991.94
465.854	968.94
466.073	888.94
466.293	909.94
466.512	983.94
466.732	1040.94
466.951	1076.94
467.171	968.94
467.391	889.94
467.61	892.94
467.829	961.94
468.049	975.94
468.268	901.94
468.488	895.94
468.707	948.94
468.927	1108.94
469.146	1171.94
469.365	1069.94
469.585	968.94
469.804	1030.94
470.023	1160.94
470.243	999.94
470.462	952.94
470.681	922.94
470.901	935.94
471.12	973.94
471.339	984.94
471.558	958.94
471.777	972.94
471.997	1027.94
472.216	1147.94
472.435	1138.94
472.654	1010.94
472.873	970.94
473.092	1050.94
473.311	1076.94
473.53	978.94
473.749	984.94
473.968	1000.94
474.187	996.94
474.406	990.94
474.625	952.94
474.844	991.94
475.063	1048.94
475.282	1068.94
475.501	1081.94
475.72	1157.94
475.939	1106.94
476.158	1143.94
476.377	1314.94
476.596	1513.94
476.814	1550.94
477.033	1301.94
477.252	1072.94
477.471	1018.94
477.69	1026.94
477.908	1152.94
478.127	1159.94
478.346	1098.94
478.564	1171.94
478.783	1094.94
479.002	1132.94
479.22	1319.94
479.439	1485.94
479.658	1260.94
479.876	1161.94
480.095	1237.94
480.313	1264.94
480.532	1158.94
480.751	1095.94
480.969	1160.94
481.188	1314.94
481.406	1367.94
481.624	1282.94
481.843	1128.94
482.061	1091.94
482.28	1229.94
482.498	1526.94
482.717	1442.94
482.935	1233.94
483.153	1177.94
483.372	1117.94
483.59	1065.94
483.808	1079.94
484.027	1062.94
484.245	992.94
484.463	1005.94
484.681	1064.94
484.9	1130.94
485.118	1263.94
485.336	1142.94
485.554	1090.94
485.772	1119.94
485.99	1210.94
486.209	1284.94
486.427	1261.94
486.645	1246.94
486.863	1262.94
487.081	1284.94
487.299	1428.94
487.517	1408.94
487.735	1263.94
487.953	1240.94
488.171	1313.94
488.389	1233.94
488.607	1152.94
488.825	1188.94
489.043	1337.94
489.261	1509.94
489.479	1606.94
489.696	1334.94
489.914	1196.94
490.132	1111.94
490.35	1151.94
490.568	1159.94
490.786	1165.94
491.003	1114.94
491.221	1208.94
491.439	1192.94
491.657	1170.94
491.874	1276.94
492.092	1574.94
492.31	1829.94
492.527	1861.94
492.745	1561.94
492.963	1354.94
493.18	1353.94
493.398	1312.94
