Data from NickelSpatula.Lamp.E10.P2_HRD10591_11-57-00-534.txt Node
Date: Tue Jul 23 11:57:00 EDT 2019
User: cochatt
Spectrometer: HR+D1059
Trigger mode: 1
Integration Time (sec): 1.000000E-1
Scans to average: 1
Electric dark correction enabled: true
Nonlinearity correction enabled: false
Boxcar width: 0
XAxis mode: Wavelengths
Number of Pixels in Spectrum: 2048
>>>>>Begin Spectral Data<<<<<
223.165	-21.06
223.4	-21.06
223.635	-21.06
223.869	-31.06
224.104	-2.06
224.338	0.94
224.573	-21.06
224.808	-20.06
225.042	2.94
225.277	-7.06
225.511	-6.06
225.746	-1.06
225.98	11.94
226.215	18.94
226.449	15.94
226.683	18.94
226.918	17.94
227.152	21.94
227.387	37.94
227.621	30.94
227.856	40.94
228.09	33.94
228.324	43.94
228.559	47.94
228.793	74.94
229.027	143.94
229.262	159.94
229.496	164.94
229.73	180.94
229.964	186.94
230.199	205.94
230.433	227.94
230.667	191.94
230.901	184.94
231.136	180.94
231.37	195.94
231.604	216.94
231.838	240.94
232.072	252.94
232.306	230.94
232.541	232.94
232.775	221.94
233.009	244.94
233.243	284.94
233.477	300.94
233.711	315.94
233.945	322.94
234.179	292.94
234.413	319.94
234.647	375.94
234.881	448.94
235.115	400.94
235.349	376.94
235.583	349.94
235.817	324.94
236.051	341.94
236.285	388.94
236.519	436.94
236.753	379.94
236.987	411.94
237.221	375.94
237.455	373.94
237.689	398.94
237.922	447.94
238.156	455.94
238.39	512.94
238.624	613.94
238.858	550.94
239.091	465.94
239.325	454.94
239.559	432.94
239.793	499.94
240.027	600.94
240.26	562.94
240.494	549.94
240.728	570.94
240.961	604.94
241.195	580.94
241.429	588.94
241.662	596.94
241.896	486.94
242.13	463.94
242.363	428.94
242.597	450.94
242.83	509.94
243.064	508.94
243.298	544.94
243.531	604.94
243.765	599.94
243.998	594.94
244.232	575.94
244.465	543.94
244.699	546.94
244.932	629.94
245.166	578.94
245.399	518.94
245.633	506.94
245.866	539.94
246.099	584.94
246.333	685.94
246.566	712.94
246.8	696.94
247.033	678.94
247.266	644.94
247.5	613.94
247.733	610.94
247.966	609.94
248.2	642.94
248.433	702.94
248.666	762.94
248.899	775.94
249.133	773.94
249.366	904.94
249.599	987.94
249.832	878.94
250.066	757.94
250.299	792.94
250.532	760.94
250.765	735.94
250.998	693.94
251.231	656.94
251.465	736.94
251.698	782.94
251.931	750.94
252.164	811.94
252.397	875.94
252.63	976.94
252.863	1086.94
253.096	1096.94
253.329	1033.94
253.562	1034.94
253.795	1134.94
254.028	1236.94
254.261	1258.94
254.494	1141.94
254.727	1033.94
254.96	1024.94
255.193	1115.94
255.426	1008.94
255.659	787.94
255.892	755.94
256.124	824.94
256.357	958.94
256.59	1132.94
256.823	1062.94
257.056	890.94
257.289	879.94
257.521	914.94
257.754	1052.94
257.987	1215.94
258.22	1053.94
258.452	931.94
258.685	1064.94
258.918	1199.94
259.151	1160.94
259.383	1238.94
259.616	1428.94
259.849	1448.94
260.081	1597.94
260.314	1748.94
260.547	1356.94
260.779	1402.94
261.012	1603.94
261.244	1538.94
261.477	1530.94
261.71	1400.94
261.942	1220.94
262.175	1200.94
262.407	1149.94
262.64	1172.94
262.872	1394.94
263.105	1493.94
263.337	1617.94
263.57	1428.94
263.802	974.94
264.035	868.94
264.267	838.94
264.499	757.94
264.732	649.94
264.964	642.94
265.197	690.94
265.429	728.94
265.661	776.94
265.894	812.94
266.126	858.94
266.358	966.94
266.591	1140.94
266.823	1387.94
267.055	1336.94
267.287	1205.94
267.52	1179.94
267.752	1229.94
267.984	1377.94
268.216	1298.94
268.448	1078.94
268.681	1031.94
268.913	1144.94
269.145	1220.94
269.377	1242.94
269.609	1244.94
269.841	1147.94
270.073	1213.94
270.306	1294.94
270.538	1324.94
270.77	1335.94
271.002	1320.94
271.234	1408.94
271.466	1378.94
271.698	1320.94
271.93	1325.94
272.162	1296.94
272.394	1275.94
272.626	1316.94
272.858	1338.94
273.09	1359.94
273.322	1218.94
273.553	1149.94
273.785	1352.94
274.017	1770.94
274.249	2215.94
274.481	2300.94
274.713	2505.94
274.945	2915.94
275.176	2979.94
275.408	2607.94
275.64	2423.94
275.872	2376.94
276.104	2023.94
276.335	1755.94
276.567	1787.94
276.799	1802.94
277.031	1886.94
277.262	1487.94
277.494	1160.94
277.726	1082.94
277.957	1215.94
278.189	1361.94
278.421	1358.94
278.652	1332.94
278.884	1243.94
279.115	1183.94
279.347	1117.94
279.579	1100.94
279.81	1131.94
280.042	1106.94
280.273	1138.94
280.505	1094.94
280.736	990.94
280.968	979.94
281.199	1036.94
281.431	1146.94
281.662	1157.94
281.894	1122.94
282.125	1165.94
282.356	1260.94
282.588	1315.94
282.819	1202.94
283.051	1294.94
283.282	1591.94
283.513	1838.94
283.745	2000.94
283.976	1985.94
284.207	1858.94
284.439	1912.94
284.67	1830.94
284.901	1667.94
285.132	1786.94
285.364	1834.94
285.595	1713.94
285.826	1845.94
286.057	1906.94
286.288	1770.94
286.52	1867.94
286.751	1908.94
286.982	1929.94
287.213	1672.94
287.444	1619.94
287.675	1712.94
287.906	1714.94
288.138	1439.94
288.369	1294.94
288.6	1239.94
288.831	1290.94
289.062	1487.94
289.293	1598.94
289.524	1527.94
289.755	1484.94
289.986	1541.94
290.217	1342.94
290.448	1084.94
290.679	897.94
290.91	890.94
291.141	882.94
291.371	913.94
291.602	939.94
291.833	916.94
292.064	996.94
292.295	1117.94
292.526	1285.94
292.757	1350.94
292.987	1430.94
293.218	1450.94
293.449	1499.94
293.68	1579.94
293.91	1530.94
294.141	1496.94
294.372	1439.94
294.603	1339.94
294.833	1454.94
295.064	1704.94
295.295	1620.94
295.525	1235.94
295.756	1046.94
295.987	942.94
296.217	921.94
296.448	932.94
296.679	1014.94
296.909	1089.94
297.14	1169.94
297.37	1312.94
297.601	1235.94
297.831	1070.94
298.062	1163.94
298.292	1290.94
298.523	1400.94
298.753	1582.94
298.984	1410.94
299.214	1121.94
299.445	998.94
299.675	910.94
299.905	926.94
300.136	961.94
300.366	1052.94
300.597	1006.94
300.827	894.94
301.057	871.94
301.288	925.94
301.518	952.94
301.748	1070.94
301.979	1139.94
302.209	1221.94
302.439	1232.94
302.669	1096.94
302.9	1081.94
303.13	1068.94
303.36	996.94
303.59	980.94
303.82	1023.94
304.051	1121.94
304.281	1218.94
304.511	1201.94
304.741	1037.94
304.971	1109.94
305.201	1167.94
305.431	1082.94
305.661	968.94
305.891	965.94
306.121	957.94
306.352	861.94
306.582	814.94
306.812	764.94
307.042	781.94
307.272	711.94
307.502	759.94
307.731	802.94
307.961	828.94
308.191	795.94
308.421	748.94
308.651	756.94
308.881	711.94
309.111	734.94
309.341	778.94
309.571	824.94
309.8	876.94
310.03	838.94
310.26	863.94
310.49	887.94
310.72	815.94
310.949	796.94
311.179	845.94
311.409	872.94
311.639	1038.94
311.868	1253.94
312.098	1630.94
312.328	1765.94
312.557	1726.94
312.787	1734.94
313.017	1555.94
313.246	1651.94
313.476	1810.94
313.706	1484.94
313.935	1195.94
314.165	957.94
314.394	880.94
314.624	885.94
314.853	944.94
315.083	953.94
315.312	916.94
315.542	923.94
315.771	827.94
316.001	814.94
316.23	773.94
316.46	782.94
316.689	810.94
316.919	842.94
317.148	836.94
317.377	820.94
317.607	831.94
317.836	875.94
318.065	996.94
318.295	1150.94
318.524	1032.94
318.753	884.94
318.983	878.94
319.212	894.94
319.441	911.94
319.67	1029.94
319.9	1082.94
320.129	1011.94
320.358	913.94
320.587	880.94
320.816	928.94
321.046	1052.94
321.275	1169.94
321.504	1137.94
321.733	1100.94
321.962	1098.94
322.191	1019.94
322.42	973.94
322.649	949.94
322.878	1060.94
323.108	1060.94
323.337	1002.94
323.566	1007.94
323.795	959.94
324.024	944.94
324.253	893.94
324.482	890.94
324.71	964.94
324.939	1042.94
325.168	998.94
325.397	861.94
325.626	855.94
325.855	839.94
326.084	855.94
326.313	829.94
326.542	772.94
326.77	820.94
326.999	830.94
327.228	860.94
327.457	898.94
327.686	905.94
327.914	855.94
328.143	783.94
328.372	775.94
328.6	789.94
328.829	790.94
329.058	829.94
329.287	818.94
329.515	847.94
329.744	791.94
329.972	796.94
330.201	754.94
330.43	790.94
330.658	877.94
330.887	1007.94
331.115	953.94
331.344	941.94
331.572	924.94
331.801	823.94
332.03	800.94
332.258	816.94
332.486	882.94
332.715	888.94
332.943	863.94
333.172	843.94
333.4	903.94
333.629	985.94
333.857	1051.94
334.085	1050.94
334.314	1020.94
334.542	957.94
334.771	903.94
334.999	910.94
335.227	894.94
335.455	876.94
335.684	971.94
335.912	1117.94
336.14	1212.94
336.369	1170.94
336.597	1138.94
336.825	1257.94
337.053	1351.94
337.281	1137.94
337.51	932.94
337.738	905.94
337.966	975.94
338.194	1078.94
338.422	1013.94
338.65	878.94
338.878	820.94
339.106	843.94
339.334	921.94
339.562	971.94
339.79	910.94
340.018	886.94
340.246	947.94
340.474	1087.94
340.702	1136.94
340.93	1175.94
341.158	1179.94
341.386	983.94
341.614	1006.94
341.842	996.94
342.07	1069.94
342.298	1216.94
342.526	1264.94
342.754	1052.94
342.981	995.94
343.209	945.94
343.437	996.94
343.665	1090.94
343.893	1060.94
344.12	1222.94
344.348	1418.94
344.576	1246.94
344.804	1055.94
345.031	934.94
345.259	896.94
345.487	943.94
345.714	933.94
345.942	976.94
346.17	1085.94
346.397	1024.94
346.625	933.94
346.853	878.94
347.08	874.94
347.308	892.94
347.535	992.94
347.763	1030.94
347.99	869.94
348.218	860.94
348.445	904.94
348.673	896.94
348.9	897.94
349.128	949.94
349.355	982.94
349.583	950.94
349.81	928.94
350.037	891.94
350.265	760.94
350.492	722.94
350.72	738.94
350.947	782.94
351.174	814.94
351.402	843.94
351.629	859.94
351.856	859.94
352.083	812.94
352.311	863.94
352.538	931.94
352.765	1005.94
352.992	894.94
353.22	878.94
353.447	895.94
353.674	845.94
353.901	838.94
354.128	845.94
354.355	856.94
354.583	854.94
354.81	886.94
355.037	888.94
355.264	890.94
355.491	935.94
355.718	991.94
355.945	978.94
356.172	949.94
356.399	925.94
356.626	1136.94
356.853	1326.94
357.08	1409.94
357.307	1406.94
357.534	1117.94
357.761	1184.94
357.988	1444.94
358.215	1665.94
358.441	1558.94
358.668	1329.94
358.895	1265.94
359.122	1077.94
359.349	1068.94
359.576	1124.94
359.802	956.94
360.029	854.94
360.256	927.94
360.483	1063.94
360.709	1345.94
360.936	1366.94
361.163	1199.94
361.39	974.94
361.616	917.94
361.843	1056.94
362.07	1271.94
362.296	1134.94
362.523	922.94
362.749	874.94
362.976	892.94
363.203	1031.94
363.429	1117.94
363.656	924.94
363.882	860.94
364.109	890.94
364.335	887.94
364.562	861.94
364.788	964.94
365.015	1106.94
365.241	968.94
365.468	847.94
365.694	757.94
365.92	758.94
366.147	753.94
366.373	706.94
366.599	735.94
366.826	738.94
367.052	748.94
367.278	762.94
367.505	762.94
367.731	814.94
367.957	890.94
368.184	892.94
368.41	877.94
368.636	885.94
368.862	897.94
369.089	876.94
369.315	807.94
369.541	827.94
369.767	797.94
369.993	768.94
370.219	786.94
370.445	820.94
370.672	897.94
370.898	931.94
371.124	934.94
371.35	852.94
371.576	789.94
371.802	888.94
372.028	1004.94
372.254	1108.94
372.48	995.94
372.706	924.94
372.932	929.94
373.158	991.94
373.384	1153.94
373.61	1474.94
373.835	1458.94
374.061	1150.94
374.287	1003.94
374.513	1164.94
374.739	1327.94
374.965	1382.94
375.191	1384.94
375.416	997.94
375.642	924.94
375.868	1048.94
376.094	1192.94
376.319	997.94
376.545	1068.94
376.771	1132.94
376.997	976.94
377.222	796.94
377.448	703.94
377.674	707.94
377.899	730.94
378.125	698.94
378.35	705.94
378.576	730.94
378.802	766.94
379.027	828.94
379.253	786.94
379.478	836.94
379.704	910.94
379.929	942.94
380.155	920.94
380.38	831.94
380.606	897.94
380.831	990.94
381.057	900.94
381.282	871.94
381.507	1010.94
381.733	1246.94
381.958	1268.94
382.184	1360.94
382.409	1397.94
382.634	1388.94
382.86	1412.94
383.085	1195.94
383.31	997.94
383.535	1027.94
383.761	1077.94
383.986	1025.94
384.211	1211.94
384.436	1153.94
384.662	929.94
384.887	890.94
385.112	909.94
385.337	903.94
385.562	917.94
385.787	971.94
386.013	1042.94
386.238	1088.94
386.463	913.94
386.688	916.94
386.913	878.94
387.138	822.94
387.363	878.94
387.588	871.94
387.813	902.94
388.038	948.94
388.263	882.94
388.488	860.94
388.713	975.94
388.938	1022.94
389.163	928.94
389.387	849.94
389.612	844.94
389.837	833.94
390.062	880.94
390.287	905.94
390.512	878.94
390.736	890.94
390.961	847.94
391.186	788.94
391.411	782.94
391.636	803.94
391.86	851.94
392.085	881.94
392.31	902.94
392.534	878.94
392.759	840.94
392.984	900.94
393.208	863.94
393.433	805.94
393.658	781.94
393.882	746.94
394.107	753.94
394.331	777.94
394.556	752.94
394.78	795.94
395.005	794.94
395.229	812.94
395.454	826.94
395.678	829.94
395.903	842.94
396.127	814.94
396.352	860.94
396.576	895.94
396.801	887.94
397.025	979.94
397.249	982.94
397.474	871.94
397.698	844.94
397.922	905.94
398.147	855.94
398.371	876.94
398.595	902.94
398.82	897.94
399.044	921.94
399.268	958.94
399.492	995.94
399.717	1008.94
399.941	1020.94
400.165	1028.94
400.389	991.94
400.613	974.94
400.837	953.94
401.062	870.94
401.286	833.94
401.51	880.94
401.734	884.94
401.958	870.94
402.182	850.94
402.406	852.94
402.63	866.94
402.854	899.94
403.078	1018.94
403.302	1200.94
403.526	1250.94
403.75	1124.94
403.974	995.94
404.198	1037.94
404.422	1107.94
404.645	1290.94
404.869	1352.94
405.093	1083.94
405.317	936.94
405.541	966.94
405.765	974.94
405.988	974.94
406.212	1022.94
406.436	1126.94
406.66	1211.94
406.883	1029.94
407.107	1094.94
407.331	1194.94
407.555	1180.94
407.778	1070.94
408.002	1012.94
408.226	1027.94
408.449	1015.94
408.673	977.94
408.896	904.94
409.12	848.94
409.344	865.94
409.567	862.94
409.791	884.94
410.014	894.94
410.238	867.94
410.461	869.94
410.685	886.94
410.908	890.94
411.132	890.94
411.355	882.94
411.578	909.94
411.802	879.94
412.025	904.94
412.249	938.94
412.472	883.94
412.695	921.94
412.919	929.94
413.142	943.94
413.365	980.94
413.589	968.94
413.812	898.94
414.035	895.94
414.258	896.94
414.482	951.94
414.705	950.94
414.928	877.94
415.151	885.94
415.374	859.94
415.597	874.94
415.821	856.94
416.044	862.94
416.267	820.94
416.49	862.94
416.713	846.94
416.936	804.94
417.159	838.94
417.382	864.94
417.605	820.94
417.828	862.94
418.051	870.94
418.274	871.94
418.497	881.94
418.72	878.94
418.943	881.94
419.166	929.94
419.389	977.94
419.611	951.94
419.834	962.94
420.057	1017.94
420.28	1015.94
420.503	930.94
420.726	874.94
420.948	832.94
421.171	818.94
421.394	835.94
421.617	856.94
421.839	833.94
422.062	886.94
422.285	881.94
422.507	880.94
422.73	884.94
422.953	928.94
423.175	894.94
423.398	894.94
423.621	940.94
423.843	946.94
424.066	922.94
424.288	875.94
424.511	880.94
424.733	880.94
424.956	898.94
425.178	991.94
425.401	1132.94
425.623	1214.94
425.846	1052.94
426.068	946.94
426.291	1006.94
426.513	932.94
426.735	883.94
426.958	912.94
427.18	1024.94
427.402	1299.94
427.625	1296.94
427.847	1070.94
428.069	846.94
428.292	852.94
428.514	841.94
428.736	823.94
428.958	891.94
429.181	1014.94
429.403	912.94
429.625	863.94
429.847	832.94
430.069	820.94
430.292	836.94
430.514	829.94
430.736	893.94
430.958	1072.94
431.18	975.94
431.402	796.94
431.624	766.94
431.846	805.94
432.068	760.94
432.29	783.94
432.512	871.94
432.734	1074.94
432.956	989.94
433.178	831.94
433.4	800.94
433.622	811.94
433.844	821.94
434.066	875.94
434.287	846.94
434.509	826.94
434.731	874.94
434.953	828.94
435.175	876.94
435.397	961.94
435.618	867.94
435.84	796.94
436.062	815.94
436.284	789.94
436.505	791.94
436.727	783.94
436.949	777.94
437.17	808.94
437.392	823.94
437.614	785.94
437.835	776.94
438.057	802.94
438.278	891.94
438.5	1182.94
438.721	1234.94
438.943	876.94
439.165	795.94
439.386	779.94
439.608	752.94
439.829	757.94
440.05	784.94
440.272	803.94
440.493	916.94
440.715	1050.94
440.936	910.94
441.158	828.94
441.379	836.94
441.6	926.94
441.822	967.94
442.043	878.94
442.264	843.94
442.486	851.94
442.707	850.94
442.928	826.94
443.149	879.94
443.371	870.94
443.592	912.94
443.813	888.94
444.034	878.94
444.255	902.94
444.476	940.94
444.698	922.94
444.919	933.94
445.14	1014.94
445.361	980.94
445.582	931.94
445.803	913.94
446.024	893.94
446.245	897.94
446.466	881.94
446.687	823.94
446.908	838.94
447.129	791.94
447.35	809.94
447.571	784.94
447.792	773.94
448.013	763.94
448.234	765.94
448.455	756.94
448.675	770.94
448.896	805.94
449.117	778.94
449.338	737.94
449.559	775.94
449.779	836.94
450	831.94
450.221	790.94
450.442	768.94
450.662	775.94
450.883	759.94
451.104	752.94
451.324	771.94
451.545	795.94
451.766	762.94
451.986	773.94
452.207	732.94
452.428	732.94
452.648	741.94
452.869	767.94
453.089	795.94
453.31	802.94
453.53	709.94
453.751	712.94
453.971	700.94
454.192	728.94
454.412	727.94
454.633	721.94
454.853	714.94
455.073	693.94
455.294	724.94
455.514	707.94
455.734	740.94
455.955	757.94
456.175	766.94
456.395	715.94
456.616	679.94
456.836	678.94
457.056	679.94
457.276	683.94
457.497	707.94
457.717	711.94
457.937	720.94
458.157	712.94
458.377	715.94
458.598	726.94
458.818	734.94
459.038	789.94
459.258	791.94
459.478	804.94
459.698	872.94
459.918	860.94
460.138	839.94
460.358	877.94
460.578	814.94
460.798	869.94
461.018	886.94
461.238	824.94
461.458	832.94
461.678	829.94
461.898	901.94
462.118	874.94
462.338	888.94
462.558	899.94
462.777	974.94
462.997	977.94
463.217	1010.94
463.437	998.94
463.657	973.94
463.876	922.94
464.096	925.94
464.316	931.94
464.536	957.94
464.755	985.94
464.975	972.94
465.195	908.94
465.414	944.94
465.634	945.94
465.854	907.94
466.073	851.94
466.293	847.94
466.512	869.94
466.732	956.94
466.951	975.94
467.171	874.94
467.391	828.94
467.61	851.94
467.829	888.94
468.049	870.94
468.268	823.94
468.488	823.94
468.707	854.94
468.927	1020.94
469.146	1076.94
469.365	986.94
469.585	900.94
469.804	975.94
470.023	1058.94
470.243	937.94
470.462	901.94
470.681	843.94
470.901	893.94
471.12	940.94
471.339	918.94
471.558	878.94
471.777	901.94
471.997	922.94
472.216	1049.94
472.435	1056.94
472.654	940.94
472.873	889.94
473.092	956.94
473.311	1003.94
473.53	890.94
473.749	893.94
473.968	946.94
474.187	919.94
474.406	886.94
474.625	887.94
474.844	924.94
475.063	992.94
475.282	983.94
475.501	997.94
475.72	1052.94
475.939	1002.94
476.158	1042.94
476.377	1182.94
476.596	1352.94
476.814	1372.94
477.033	1174.94
477.252	1011.94
477.471	914.94
477.69	964.94
477.908	1074.94
478.127	1112.94
478.346	1052.94
478.564	1087.94
478.783	1047.94
479.002	1048.94
479.22	1222.94
479.439	1367.94
479.658	1182.94
479.876	1094.94
480.095	1164.94
480.313	1155.94
480.532	1103.94
480.751	1048.94
480.969	1074.94
481.188	1232.94
481.406	1239.94
481.624	1173.94
481.843	1091.94
482.061	1034.94
482.28	1148.94
482.498	1365.94
482.717	1322.94
482.935	1174.94
483.153	1078.94
483.372	1042.94
483.59	1024.94
483.808	1021.94
484.027	1005.94
484.245	972.94
484.463	946.94
484.681	995.94
484.9	1052.94
485.118	1134.94
485.336	1080.94
485.554	1006.94
485.772	1030.94
485.99	1109.94
486.209	1139.94
486.427	1155.94
486.645	1117.94
486.863	1178.94
487.081	1157.94
487.299	1276.94
487.517	1198.94
487.735	1112.94
487.953	1171.94
488.171	1230.94
488.389	1112.94
488.607	1062.94
488.825	1083.94
489.043	1164.94
489.261	1322.94
489.479	1359.94
489.696	1213.94
489.914	1081.94
490.132	1066.94
490.35	1055.94
490.568	1083.94
490.786	1058.94
491.003	1097.94
491.221	1122.94
491.439	1078.94
491.657	1106.94
491.874	1164.94
492.092	1333.94
492.31	1544.94
492.527	1548.94
492.745	1394.94
492.963	1249.94
493.18	1258.94
493.398	1231.94
493.615	1216.94
493.833	1183.94
494.05	1172.94
494.268	1170.94
494.485	1166.94
494.703	1149.94
494.92	1190.94
495.138	1136.94
495.355	1149.94
495.573	1170.94
495.79	1271.94
496.008	1508.94
496.225	1392.94
496.442	1284.94
