Data from NickelSpatula.Lamp.E5.5.P2_HRD10591_11-50-54-564.txt Node
Date: Tue Jul 23 11:50:54 EDT 2019
User: cochatt
Spectrometer: HR+D1059
Trigger mode: 1
Integration Time (sec): 1.000000E-1
Scans to average: 1
Electric dark correction enabled: true
Nonlinearity correction enabled: false
Boxcar width: 0
XAxis mode: Wavelengths
Number of Pixels in Spectrum: 2048
>>>>>Begin Spectral Data<<<<<
223.165	-4.56
223.4	-4.56
223.635	-4.56
223.869	-29.56
224.104	-22.56
224.338	-10.56
224.573	-16.56
224.808	-6.56
225.042	2.44
225.277	-9.56
225.511	2.44
225.746	-8.56
225.98	13.44
226.215	5.44
226.449	10.44
226.683	18.44
226.918	29.44
227.152	26.44
227.387	27.44
227.621	48.44
227.856	39.44
228.09	47.44
228.324	50.44
228.559	62.44
228.793	64.44
229.027	75.44
229.262	71.44
229.496	71.44
229.73	89.44
229.964	82.44
230.199	95.44
230.433	72.44
230.667	92.44
230.901	96.44
231.136	104.44
231.37	102.44
231.604	98.44
231.838	110.44
232.072	97.44
232.306	126.44
232.541	106.44
232.775	103.44
233.009	88.44
233.243	109.44
233.477	120.44
233.711	116.44
233.945	106.44
234.179	114.44
234.413	132.44
234.647	115.44
234.881	126.44
235.115	123.44
235.349	127.44
235.583	132.44
235.817	105.44
236.051	115.44
236.285	115.44
236.519	135.44
236.753	120.44
236.987	116.44
237.221	114.44
237.455	137.44
237.689	129.44
237.922	128.44
238.156	121.44
238.39	139.44
238.624	147.44
238.858	143.44
239.091	121.44
239.325	134.44
239.559	129.44
239.793	130.44
240.027	155.44
240.26	156.44
240.494	142.44
240.728	137.44
240.961	153.44
241.195	150.44
241.429	143.44
241.662	140.44
241.896	135.44
242.13	130.44
242.363	138.44
242.597	120.44
242.83	130.44
243.064	138.44
243.298	150.44
243.531	137.44
243.765	169.44
243.998	159.44
244.232	151.44
244.465	139.44
244.699	137.44
244.932	163.44
245.166	152.44
245.399	154.44
245.633	150.44
245.866	136.44
246.099	156.44
246.333	170.44
246.566	163.44
246.8	175.44
247.033	162.44
247.266	162.44
247.5	151.44
247.733	141.44
247.966	154.44
248.2	158.44
248.433	166.44
248.666	168.44
248.899	162.44
249.133	171.44
249.366	204.44
249.599	206.44
249.832	196.44
250.066	169.44
250.299	187.44
250.532	166.44
250.765	170.44
250.998	176.44
251.231	166.44
251.465	164.44
251.698	165.44
251.931	182.44
252.164	189.44
252.397	186.44
252.63	188.44
252.863	226.44
253.096	219.44
253.329	214.44
253.562	206.44
253.795	231.44
254.028	266.44
254.261	260.44
254.494	223.44
254.727	215.44
254.96	198.44
255.193	227.44
255.426	218.44
255.659	192.44
255.892	170.44
256.124	191.44
256.357	203.44
256.59	254.44
256.823	227.44
257.056	218.44
257.289	190.44
257.521	211.44
257.754	217.44
257.987	258.44
258.22	233.44
258.452	213.44
258.685	225.44
258.918	228.44
259.151	242.44
259.383	255.44
259.616	263.44
259.849	290.44
260.081	287.44
260.314	314.44
260.547	260.44
260.779	281.44
261.012	293.44
261.244	299.44
261.477	278.44
261.71	279.44
261.942	254.44
262.175	245.44
262.407	224.44
262.64	228.44
262.872	277.44
263.105	268.44
263.337	306.44
263.57	291.44
263.802	225.44
264.035	202.44
264.267	194.44
264.499	178.44
264.732	157.44
264.964	161.44
265.197	177.44
265.429	187.44
265.661	188.44
265.894	184.44
266.126	194.44
266.358	207.44
266.591	244.44
266.823	275.44
267.055	282.44
267.287	261.44
267.52	251.44
267.752	288.44
267.984	286.44
268.216	282.44
268.448	256.44
268.681	216.44
268.913	257.44
269.145	262.44
269.377	244.44
269.609	244.44
269.841	249.44
270.073	246.44
270.306	281.44
270.538	288.44
270.77	291.44
271.002	273.44
271.234	290.44
271.466	294.44
271.698	275.44
271.93	270.44
272.162	284.44
272.394	239.44
272.626	264.44
272.858	260.44
273.09	256.44
273.322	254.44
273.553	233.44
273.785	254.44
274.017	328.44
274.249	394.44
274.481	375.44
274.713	424.44
274.945	467.44
275.176	470.44
275.408	442.44
275.64	420.44
275.872	436.44
276.104	388.44
276.335	331.44
276.567	350.44
276.799	331.44
277.031	360.44
277.262	306.44
277.494	247.44
277.726	223.44
277.957	245.44
278.189	268.44
278.421	284.44
278.652	290.44
278.884	256.44
279.115	238.44
279.347	224.44
279.579	254.44
279.81	235.44
280.042	231.44
280.273	253.44
280.505	236.44
280.736	226.44
280.968	217.44
281.199	226.44
281.431	253.44
281.662	262.44
281.894	235.44
282.125	250.44
282.356	248.44
282.588	282.44
282.819	254.44
283.051	266.44
283.282	278.44
283.513	332.44
283.745	389.44
283.976	374.44
284.207	340.44
284.439	370.44
284.67	353.44
284.901	310.44
285.132	326.44
285.364	339.44
285.595	320.44
285.826	348.44
286.057	380.44
286.288	334.44
286.52	336.44
286.751	375.44
286.982	379.44
287.213	335.44
287.444	302.44
287.675	341.44
287.906	320.44
288.138	311.44
288.369	266.44
288.6	236.44
288.831	265.44
289.062	305.44
289.293	330.44
289.524	290.44
289.755	310.44
289.986	312.44
290.217	290.44
290.448	254.44
290.679	208.44
290.91	200.44
291.141	219.44
291.371	208.44
291.602	223.44
291.833	211.44
292.064	242.44
292.295	235.44
292.526	290.44
292.757	274.44
292.987	303.44
293.218	317.44
293.449	311.44
293.68	320.44
293.91	296.44
294.141	329.44
294.372	304.44
294.603	268.44
294.833	317.44
295.064	342.44
295.295	339.44
295.525	276.44
295.756	249.44
295.987	226.44
296.217	200.44
296.448	227.44
296.679	221.44
296.909	251.44
297.14	259.44
297.37	289.44
297.601	284.44
297.831	247.44
298.062	249.44
298.292	266.44
298.523	280.44
298.753	320.44
298.984	305.44
299.214	256.44
299.445	229.44
299.675	213.44
299.905	234.44
300.136	222.44
300.366	244.44
300.597	235.44
300.827	228.44
301.057	231.44
301.288	212.44
301.518	240.44
301.748	236.44
301.979	269.44
302.209	278.44
302.439	282.44
302.669	256.44
302.9	248.44
303.13	243.44
303.36	238.44
303.59	223.44
303.82	252.44
304.051	263.44
304.281	271.44
304.511	264.44
304.741	245.44
304.971	233.44
305.201	250.44
305.431	238.44
305.661	223.44
305.891	199.44
306.121	226.44
306.352	214.44
306.582	198.44
306.812	182.44
307.042	200.44
307.272	166.44
307.502	190.44
307.731	180.44
307.961	193.44
308.191	184.44
308.421	188.44
308.651	196.44
308.881	193.44
309.111	191.44
309.341	192.44
309.571	199.44
309.8	209.44
310.03	193.44
310.26	196.44
310.49	211.44
310.72	206.44
310.949	201.44
311.179	225.44
311.409	209.44
311.639	228.44
311.868	267.44
312.098	329.44
312.328	335.44
312.557	340.44
312.787	343.44
313.017	322.44
313.246	318.44
313.476	360.44
313.706	295.44
313.935	268.44
314.165	216.44
314.394	208.44
314.624	198.44
314.853	223.44
315.083	231.44
315.312	236.44
315.542	219.44
315.771	204.44
316.001	205.44
316.23	191.44
316.46	186.44
316.689	199.44
316.919	186.44
317.148	197.44
317.377	211.44
317.607	205.44
317.836	213.44
318.065	213.44
318.295	260.44
318.524	240.44
318.753	211.44
318.983	205.44
319.212	194.44
319.441	216.44
319.67	209.44
319.9	235.44
320.129	249.44
320.358	229.44
320.587	201.44
320.816	215.44
321.046	220.44
321.275	268.44
321.504	230.44
321.733	256.44
321.962	231.44
322.191	230.44
322.42	209.44
322.649	244.44
322.878	233.44
323.108	233.44
323.337	235.44
323.566	230.44
323.795	222.44
324.024	223.44
324.253	226.44
324.482	192.44
324.71	214.44
324.939	235.44
325.168	218.44
325.397	212.44
325.626	207.44
325.855	207.44
326.084	198.44
326.313	194.44
326.542	201.44
326.77	207.44
326.999	210.44
327.228	216.44
327.457	202.44
327.686	210.44
327.914	189.44
328.143	192.44
328.372	201.44
328.6	209.44
328.829	198.44
329.058	202.44
329.287	185.44
329.515	196.44
329.744	196.44
329.972	195.44
330.201	203.44
330.43	209.44
330.658	218.44
330.887	222.44
331.115	217.44
331.344	216.44
331.572	223.44
331.801	199.44
332.03	210.44
332.258	215.44
332.486	224.44
332.715	216.44
332.943	222.44
333.172	221.44
333.4	204.44
333.629	234.44
333.857	242.44
334.085	258.44
334.314	247.44
334.542	216.44
334.771	214.44
334.999	220.44
335.227	211.44
335.455	241.44
335.684	236.44
335.912	239.44
336.14	262.44
336.369	270.44
336.597	250.44
336.825	288.44
337.053	295.44
337.281	273.44
337.51	224.44
337.738	218.44
337.966	216.44
338.194	245.44
338.422	221.44
338.65	227.44
338.878	210.44
339.106	206.44
339.334	219.44
339.562	236.44
339.79	202.44
340.018	214.44
340.246	221.44
340.474	234.44
340.702	264.44
340.93	266.44
341.158	244.44
341.386	226.44
341.614	236.44
341.842	217.44
342.07	222.44
342.298	255.44
342.526	270.44
342.754	240.44
342.981	218.44
343.209	234.44
343.437	232.44
343.665	246.44
343.893	250.44
344.12	299.44
344.348	303.44
344.576	278.44
344.804	238.44
345.031	205.44
345.259	215.44
345.487	227.44
345.714	231.44
345.942	228.44
346.17	239.44
346.397	231.44
346.625	231.44
346.853	223.44
347.08	224.44
347.308	229.44
347.535	245.44
347.763	256.44
347.99	233.44
348.218	210.44
348.445	218.44
348.673	230.44
348.9	212.44
349.128	224.44
349.355	240.44
349.583	211.44
349.81	230.44
350.037	215.44
350.265	191.44
350.492	200.44
350.72	186.44
350.947	186.44
351.174	207.44
351.402	214.44
351.629	212.44
351.856	208.44
352.083	185.44
352.311	204.44
352.538	211.44
352.765	243.44
352.992	214.44
353.22	208.44
353.447	224.44
353.674	215.44
353.901	200.44
354.128	210.44
354.355	216.44
354.583	217.44
354.81	202.44
355.037	224.44
355.264	220.44
355.491	235.44
355.718	231.44
355.945	226.44
356.172	222.44
356.399	215.44
356.626	262.44
356.853	306.44
357.08	304.44
357.307	332.44
357.534	279.44
357.761	291.44
357.988	335.44
358.215	360.44
358.441	352.44
358.668	310.44
358.895	276.44
359.122	256.44
359.349	272.44
359.576	272.44
359.802	218.44
360.029	222.44
360.256	234.44
360.483	278.44
360.709	314.44
360.936	322.44
361.163	284.44
361.39	248.44
361.616	234.44
361.843	236.44
362.07	258.44
362.296	268.44
362.523	220.44
362.749	200.44
362.976	207.44
363.203	243.44
363.429	251.44
363.656	228.44
363.882	212.44
364.109	214.44
364.335	224.44
364.562	198.44
364.788	229.44
365.015	246.44
365.241	242.44
365.468	219.44
365.694	202.44
365.92	214.44
366.147	176.44
366.373	184.44
366.599	187.44
366.826	183.44
367.052	182.44
367.278	182.44
367.505	199.44
367.731	204.44
367.957	188.44
368.184	238.44
368.41	239.44
368.636	225.44
368.862	231.44
369.089	207.44
369.315	195.44
369.541	199.44
369.767	203.44
369.993	197.44
370.219	200.44
370.445	197.44
370.672	215.44
370.898	258.44
371.124	232.44
371.35	234.44
371.576	201.44
371.802	234.44
372.028	242.44
372.254	284.44
372.48	234.44
372.706	231.44
372.932	218.44
373.158	234.44
373.384	264.44
373.61	323.44
373.835	351.44
374.061	282.44
374.287	240.44
374.513	271.44
374.739	322.44
374.965	320.44
375.191	323.44
375.416	259.44
375.642	232.44
375.868	233.44
376.094	260.44
376.319	260.44
376.545	247.44
376.771	273.44
376.997	242.44
377.222	218.44
377.448	185.44
377.674	190.44
377.899	190.44
378.125	195.44
378.35	185.44
378.576	184.44
378.802	198.44
379.027	226.44
379.253	212.44
379.478	204.44
379.704	232.44
379.929	241.44
380.155	214.44
380.38	208.44
380.606	226.44
380.831	244.44
381.057	224.44
381.282	212.44
381.507	247.44
381.733	253.44
381.958	308.44
382.184	307.44
382.409	314.44
382.634	338.44
382.86	339.44
383.085	297.44
383.31	259.44
383.535	262.44
383.761	257.44
383.986	255.44
384.211	288.44
384.436	260.44
384.662	227.44
384.887	225.44
385.112	252.44
385.337	258.44
385.562	231.44
385.787	262.44
386.013	273.44
386.238	268.44
386.463	236.44
386.688	229.44
386.913	220.44
387.138	217.44
387.363	223.44
387.588	226.44
387.813	220.44
388.038	250.44
388.263	232.44
388.488	208.44
388.713	244.44
388.938	261.44
389.163	238.44
389.387	211.44
389.612	214.44
389.837	221.44
390.062	239.44
390.287	232.44
390.512	228.44
390.736	206.44
390.961	208.44
391.186	199.44
391.411	215.44
391.636	213.44
391.86	223.44
392.085	251.44
392.31	243.44
392.534	241.44
392.759	215.44
392.984	214.44
393.208	242.44
393.433	217.44
393.658	208.44
393.882	194.44
394.107	206.44
394.331	228.44
394.556	203.44
394.78	218.44
395.005	205.44
395.229	195.44
395.454	224.44
395.678	226.44
395.903	224.44
396.127	201.44
396.352	229.44
396.576	215.44
396.801	231.44
397.025	247.44
397.249	265.44
397.474	215.44
397.698	210.44
397.922	217.44
398.147	221.44
398.371	217.44
398.595	229.44
398.82	239.44
399.044	238.44
399.268	249.44
399.492	276.44
399.717	278.44
399.941	294.44
400.165	279.44
400.389	250.44
400.613	236.44
400.837	224.44
401.062	209.44
401.286	214.44
401.51	226.44
401.734	225.44
401.958	215.44
402.182	220.44
402.406	240.44
402.63	240.44
402.854	243.44
403.078	294.44
403.302	346.44
403.526	377.44
403.75	327.44
403.974	276.44
404.198	279.44
404.422	310.44
404.645	298.44
404.869	321.44
405.093	262.44
405.317	275.44
405.541	258.44
405.765	265.44
405.988	257.44
406.212	254.44
406.436	307.44
406.66	284.44
406.883	280.44
407.107	270.44
407.331	310.44
407.555	314.44
407.778	266.44
408.002	281.44
408.226	266.44
408.449	257.44
408.673	254.44
408.896	240.44
409.12	231.44
409.344	243.44
409.567	258.44
409.791	260.44
410.014	263.44
410.238	248.44
410.461	228.44
410.685	242.44
410.908	230.44
411.132	231.44
411.355	213.44
411.578	232.44
411.802	242.44
412.025	249.44
412.249	260.44
412.472	253.44
412.695	227.44
412.919	245.44
413.142	226.44
413.365	241.44
413.589	263.44
413.812	238.44
414.035	232.44
414.258	233.44
414.482	243.44
414.705	265.44
414.928	244.44
415.151	231.44
415.374	225.44
415.597	238.44
415.821	222.44
416.044	231.44
416.267	228.44
416.49	224.44
416.713	219.44
416.936	236.44
417.159	214.44
417.382	223.44
417.605	221.44
417.828	235.44
418.051	235.44
418.274	232.44
418.497	246.44
418.72	223.44
418.943	222.44
419.166	249.44
419.389	261.44
419.611	242.44
419.834	225.44
420.057	270.44
420.28	266.44
420.503	244.44
420.726	228.44
420.948	224.44
421.171	242.44
421.394	235.44
421.617	231.44
421.839	218.44
422.062	238.44
422.285	216.44
422.507	240.44
422.73	234.44
422.953	229.44
423.175	241.44
423.398	232.44
423.621	250.44
423.843	254.44
424.066	236.44
424.288	259.44
424.511	242.44
424.733	244.44
424.956	238.44
425.178	243.44
425.401	291.44
425.623	333.44
425.846	292.44
426.068	250.44
426.291	225.44
426.513	254.44
426.735	235.44
426.958	225.44
427.18	267.44
427.402	303.44
427.625	321.44
427.847	298.44
428.069	244.44
428.292	218.44
428.514	224.44
428.736	228.44
428.958	256.44
429.181	291.44
429.403	244.44
429.625	216.44
429.847	207.44
430.069	216.44
430.292	225.44
430.514	228.44
430.736	235.44
430.958	270.44
431.18	252.44
431.402	213.44
431.624	203.44
431.846	207.44
432.068	211.44
432.29	213.44
432.512	221.44
432.734	279.44
432.956	262.44
433.178	225.44
433.4	210.44
433.622	210.44
433.844	235.44
434.066	237.44
434.287	256.44
434.509	242.44
434.731	273.44
434.953	236.44
435.175	236.44
435.397	250.44
435.618	238.44
435.84	222.44
436.062	215.44
436.284	203.44
436.505	205.44
436.727	193.44
436.949	215.44
437.17	220.44
437.392	223.44
437.614	217.44
437.835	216.44
438.057	220.44
438.278	247.44
438.5	286.44
438.721	282.44
438.943	234.44
439.165	214.44
439.386	230.44
439.608	214.44
439.829	204.44
440.05	215.44
440.272	230.44
440.493	248.44
440.715	270.44
440.936	235.44
441.158	218.44
441.379	226.44
441.6	242.44
441.822	255.44
442.043	231.44
442.264	226.44
442.486	224.44
442.707	226.44
442.928	243.44
443.149	240.44
443.371	243.44
443.592	248.44
443.813	217.44
444.034	226.44
444.255	233.44
444.476	240.44
444.698	246.44
444.919	275.44
445.14	358.44
445.361	300.44
445.582	258.44
445.803	240.44
446.024	268.44
446.245	272.44
446.466	238.44
446.687	225.44
446.908	228.44
447.129	229.44
447.35	228.44
447.571	209.44
447.792	208.44
448.013	219.44
448.234	189.44
448.455	214.44
448.675	206.44
448.896	204.44
449.117	225.44
449.338	216.44
449.559	210.44
449.779	218.44
450	230.44
450.221	220.44
450.442	219.44
450.662	215.44
450.883	210.44
451.104	220.44
451.324	235.44
451.545	216.44
451.766	222.44
451.986	203.44
452.207	198.44
452.428	211.44
452.648	208.44
452.869	225.44
453.089	208.44
453.31	228.44
453.53	208.44
453.751	183.44
453.971	203.44
454.192	219.44
454.412	198.44
454.633	216.44
454.853	213.44
455.073	206.44
455.294	194.44
455.514	201.44
455.734	199.44
455.955	208.44
456.175	210.44
456.395	204.44
456.616	179.44
456.836	199.44
457.056	198.44
457.276	198.44
457.497	201.44
457.717	191.44
457.937	190.44
458.157	174.44
458.377	198.44
458.598	202.44
458.818	185.44
459.038	218.44
459.258	222.44
459.478	223.44
459.698	211.44
459.918	228.44
460.138	233.44
460.358	238.44
460.578	231.44
460.798	252.44
461.018	238.44
461.238	230.44
461.458	230.44
461.678	238.44
461.898	227.44
462.118	240.44
462.338	234.44
462.558	258.44
462.777	272.44
462.997	268.44
463.217	281.44
463.437	302.44
463.657	266.44
463.876	258.44
464.096	259.44
464.316	262.44
464.536	261.44
464.755	284.44
464.975	260.44
465.195	254.44
465.414	278.44
465.634	233.44
465.854	234.44
466.073	225.44
466.293	219.44
466.512	222.44
466.732	232.44
466.951	242.44
467.171	232.44
467.391	216.44
467.61	231.44
467.829	231.44
468.049	230.44
468.268	209.44
468.488	214.44
468.707	234.44
468.927	215.44
469.146	238.44
469.365	222.44
469.585	234.44
469.804	226.44
470.023	232.44
470.243	226.44
470.462	228.44
470.681	228.44
470.901	221.44
471.12	227.44
471.339	245.44
471.558	218.44
471.777	238.44
471.997	254.44
472.216	248.44
472.435	240.44
472.654	220.44
472.873	240.44
473.092	235.44
473.311	254.44
473.53	219.44
473.749	231.44
473.968	220.44
474.187	243.44
474.406	218.44
474.625	238.44
474.844	228.44
475.063	234.44
475.282	235.44
475.501	255.44
475.72	287.44
475.939	273.44
476.158	246.44
476.377	287.44
476.596	313.44
476.814	303.44
477.033	265.44
477.252	262.44
477.471	233.44
477.69	257.44
477.908	262.44
478.127	254.44
478.346	255.44
478.564	274.44
478.783	262.44
479.002	252.44
479.22	292.44
479.439	296.44
479.658	258.44
479.876	272.44
480.095	283.44
480.313	283.44
480.532	277.44
480.751	280.44
480.969	257.44
481.188	283.44
481.406	304.44
481.624	282.44
481.843	240.44
482.061	243.44
482.28	275.44
482.498	287.44
482.717	287.44
482.935	259.44
483.153	256.44
483.372	257.44
483.59	244.44
483.808	240.44
484.027	230.44
484.245	230.44
484.463	240.44
484.681	235.44
484.9	254.44
485.118	268.44
485.336	248.44
485.554	270.44
485.772	259.44
485.99	270.44
486.209	274.44
486.427	289.44
486.645	283.44
486.863	280.44
487.081	272.44
487.299	302.44
487.517	280.44
487.735	267.44
487.953	256.44
488.171	255.44
488.389	268.44
488.607	243.44
488.825	256.44
489.043	282.44
489.261	294.44
489.479	333.44
489.696	270.44
489.914	262.44
490.132	253.44
490.35	249.44
490.568	259.44
490.786	258.44
491.003	287.44
491.221	261.44
491.439	261.44
491.657	243.44
491.874	255.44
492.092	281.44
492.31	335.44
492.527	329.44
492.745	294.44
492.963	274.44
493.18	290.44
493.398	276.44
493.615	289.44
493.833	270.44
494.05	262.44
494.268	245.44
494.485	284.44
494.703	276.44
494.92	272.44
495.138	277.44
495.355	267.44
495.573	274.44
495.79	311.44
496.008	348.44
496.225	299.44
496.442	296.44
496.66	295.44
496.877	316.44
497.094	270.44
497.312	271.44
497.529	294.44
497.746	296.44
497.963	297.44
498.181	323.44
498.398	308.44
498.615	321.44
498.832	341.44
499.049	364.44
499.267	373.44
499.484	377.44
499.701	378.44
499.918	440.44
500.135	491.44
500.352	529.44
500.569	555.44
500.786	546.44
501.003	528.44
501.22	471.44
501.437	414.44
501.654	404.44
501.871	356.44
502.088	347.44
502.305	334.44
502.522	321.44
