Data from NickelSpatula.Lamp.E5.5.P2_HRD10591_11-52-57-551.txt Node
Date: Tue Jul 23 11:52:57 EDT 2019
User: cochatt
Spectrometer: HR+D1059
Trigger mode: 1
Integration Time (sec): 1.000000E-1
Scans to average: 1
Electric dark correction enabled: true
Nonlinearity correction enabled: false
Boxcar width: 0
XAxis mode: Wavelengths
Number of Pixels in Spectrum: 2048
>>>>>Begin Spectral Data<<<<<
223.165	-9.69
223.4	-9.69
223.635	-9.69
223.869	-13.69
224.104	-9.69
224.338	-24.69
224.573	-22.69
224.808	-10.69
225.042	8.31
225.277	-0.69
225.511	-4.69
225.746	-0.69
225.98	2.31
226.215	11.31
226.449	21.31
226.683	8.31
226.918	17.31
227.152	28.31
227.387	32.31
227.621	50.31
227.856	51.31
228.09	50.31
228.324	53.31
228.559	51.31
228.793	63.31
229.027	78.31
229.262	75.31
229.496	80.31
229.73	81.31
229.964	87.31
230.199	108.31
230.433	100.31
230.667	103.31
230.901	87.31
231.136	104.31
231.37	95.31
231.604	112.31
231.838	125.31
232.072	95.31
232.306	106.31
232.541	109.31
232.775	100.31
233.009	110.31
233.243	123.31
233.477	115.31
233.711	120.31
233.945	129.31
234.179	108.31
234.413	129.31
234.647	134.31
234.881	138.31
235.115	135.31
235.349	129.31
235.583	141.31
235.817	127.31
236.051	126.31
236.285	134.31
236.519	152.31
236.753	130.31
236.987	143.31
237.221	126.31
237.455	126.31
237.689	154.31
237.922	136.31
238.156	148.31
238.39	155.31
238.624	175.31
238.858	166.31
239.091	153.31
239.325	159.31
239.559	137.31
239.793	149.31
240.027	181.31
240.26	154.31
240.494	161.31
240.728	160.31
240.961	181.31
241.195	165.31
241.429	179.31
241.662	173.31
241.896	144.31
242.13	132.31
242.363	125.31
242.597	143.31
242.83	151.31
243.064	149.31
243.298	174.31
243.531	161.31
243.765	182.31
243.998	180.31
244.232	170.31
244.465	169.31
244.699	152.31
244.932	196.31
245.166	165.31
245.399	159.31
245.633	151.31
245.866	163.31
246.099	162.31
246.333	180.31
246.566	207.31
246.8	192.31
247.033	180.31
247.266	177.31
247.5	180.31
247.733	168.31
247.966	171.31
248.2	168.31
248.433	196.31
248.666	218.31
248.899	207.31
249.133	214.31
249.366	231.31
249.599	251.31
249.832	236.31
250.066	223.31
250.299	205.31
250.532	199.31
250.765	202.31
250.998	207.31
251.231	169.31
251.465	184.31
251.698	205.31
251.931	211.31
252.164	197.31
252.397	209.31
252.63	241.31
252.863	265.31
253.096	295.31
253.329	263.31
253.562	247.31
253.795	288.31
254.028	325.31
254.261	337.31
254.494	303.31
254.727	274.31
254.96	258.31
255.193	272.31
255.426	257.31
255.659	212.31
255.892	203.31
256.124	230.31
256.357	242.31
256.59	269.31
256.823	281.31
257.056	240.31
257.289	228.31
257.521	247.31
257.754	260.31
257.987	313.31
258.22	285.31
258.452	240.31
258.685	274.31
258.918	298.31
259.151	282.31
259.383	297.31
259.616	355.31
259.849	362.31
260.081	390.31
260.314	421.31
260.547	338.31
260.779	343.31
261.012	402.31
261.244	374.31
261.477	370.31
261.71	333.31
261.942	280.31
262.175	291.31
262.407	288.31
262.64	291.31
262.872	332.31
263.105	357.31
263.337	369.31
263.57	354.31
263.802	247.31
264.035	241.31
264.267	229.31
264.499	201.31
264.732	193.31
264.964	186.31
265.197	188.31
265.429	202.31
265.661	214.31
265.894	222.31
266.126	225.31
266.358	261.31
266.591	296.31
266.823	353.31
267.055	303.31
267.287	309.31
267.52	290.31
267.752	317.31
267.984	324.31
268.216	320.31
268.448	273.31
268.681	261.31
268.913	289.31
269.145	291.31
269.377	316.31
269.609	306.31
269.841	294.31
270.073	299.31
270.306	302.31
270.538	312.31
270.77	336.31
271.002	341.31
271.234	360.31
271.466	338.31
271.698	322.31
271.93	305.31
272.162	330.31
272.394	336.31
272.626	319.31
272.858	328.31
273.09	331.31
273.322	289.31
273.553	261.31
273.785	295.31
274.017	390.31
274.249	497.31
274.481	525.31
274.713	568.31
274.945	628.31
275.176	640.31
275.408	586.31
275.64	557.31
275.872	538.31
276.104	486.31
276.335	401.31
276.567	407.31
276.799	402.31
277.031	457.31
277.262	357.31
277.494	289.31
277.726	278.31
277.957	284.31
278.189	335.31
278.421	334.31
278.652	291.31
278.884	313.31
279.115	298.31
279.347	281.31
279.579	261.31
279.81	275.31
280.042	292.31
280.273	294.31
280.505	286.31
280.736	249.31
280.968	242.31
281.199	260.31
281.431	289.31
281.662	281.31
281.894	269.31
282.125	286.31
282.356	295.31
282.588	323.31
282.819	281.31
283.051	305.31
283.282	357.31
283.513	391.31
283.745	454.31
283.976	445.31
284.207	424.31
284.439	432.31
284.67	419.31
284.901	378.31
285.132	412.31
285.364	428.31
285.595	406.31
285.826	417.31
286.057	430.31
286.288	407.31
286.52	424.31
286.751	441.31
286.982	456.31
287.213	395.31
287.444	381.31
287.675	404.31
287.906	385.31
288.138	371.31
288.369	327.31
288.6	309.31
288.831	325.31
289.062	351.31
289.293	395.31
289.524	377.31
289.755	355.31
289.986	368.31
290.217	349.31
290.448	281.31
290.679	235.31
290.91	211.31
291.141	244.31
291.371	232.31
291.602	214.31
291.833	241.31
292.064	245.31
292.295	286.31
292.526	296.31
292.757	322.31
292.987	338.31
293.218	353.31
293.449	363.31
293.68	400.31
293.91	377.31
294.141	380.31
294.372	346.31
294.603	311.31
294.833	350.31
295.064	417.31
295.295	421.31
295.525	306.31
295.756	255.31
295.987	255.31
296.217	233.31
296.448	250.31
296.679	234.31
296.909	263.31
297.14	284.31
297.37	315.31
297.601	313.31
297.831	264.31
298.062	283.31
298.292	321.31
298.523	337.31
298.753	383.31
298.984	355.31
299.214	282.31
299.445	256.31
299.675	223.31
299.905	249.31
300.136	245.31
300.366	253.31
300.597	231.31
300.827	253.31
301.057	228.31
301.288	240.31
301.518	263.31
301.748	277.31
301.979	305.31
302.209	335.31
302.439	318.31
302.669	277.31
302.9	282.31
303.13	274.31
303.36	270.31
303.59	259.31
303.82	257.31
304.051	299.31
304.281	316.31
304.511	310.31
304.741	264.31
304.971	283.31
305.201	290.31
305.431	280.31
305.661	242.31
305.891	223.31
306.121	245.31
306.352	215.31
306.582	216.31
306.812	207.31
307.042	219.31
307.272	208.31
307.502	205.31
307.731	230.31
307.961	225.31
308.191	210.31
308.421	189.31
308.651	194.31
308.881	195.31
309.111	195.31
309.341	201.31
309.571	202.31
309.8	221.31
310.03	230.31
310.26	231.31
310.49	224.31
310.72	208.31
310.949	177.31
311.179	194.31
311.409	208.31
311.639	250.31
311.868	313.31
312.098	376.31
312.328	413.31
312.557	407.31
312.787	402.31
313.017	344.31
313.246	389.31
313.476	433.31
313.706	358.31
313.935	298.31
314.165	241.31
314.394	209.31
314.624	221.31
314.853	232.31
315.083	232.31
315.312	226.31
315.542	230.31
315.771	216.31
316.001	209.31
316.23	198.31
316.46	201.31
316.689	209.31
316.919	199.31
317.148	213.31
317.377	201.31
317.607	208.31
317.836	226.31
318.065	256.31
318.295	303.31
318.524	256.31
318.753	227.31
318.983	205.31
319.212	204.31
319.441	222.31
319.67	250.31
319.9	261.31
320.129	238.31
320.358	208.31
320.587	217.31
320.816	238.31
321.046	257.31
321.275	288.31
321.504	281.31
321.733	289.31
321.962	250.31
322.191	241.31
322.42	238.31
322.649	241.31
322.878	249.31
323.108	252.31
323.337	243.31
323.566	235.31
323.795	243.31
324.024	239.31
324.253	227.31
324.482	221.31
324.71	234.31
324.939	267.31
325.168	268.31
325.397	224.31
325.626	223.31
325.855	223.31
326.084	227.31
326.313	210.31
326.542	209.31
326.77	215.31
326.999	232.31
327.228	215.31
327.457	217.31
327.686	223.31
327.914	209.31
328.143	194.31
328.372	201.31
328.6	216.31
328.829	211.31
329.058	216.31
329.287	200.31
329.515	209.31
329.744	204.31
329.972	203.31
330.201	194.31
330.43	212.31
330.658	226.31
330.887	216.31
331.115	229.31
331.344	223.31
331.572	228.31
331.801	213.31
332.03	204.31
332.258	219.31
332.486	235.31
332.715	247.31
332.943	228.31
333.172	227.31
333.4	241.31
333.629	238.31
333.857	261.31
334.085	282.31
334.314	261.31
334.542	253.31
334.771	238.31
334.999	243.31
335.227	220.31
335.455	226.31
335.684	244.31
335.912	284.31
336.14	315.31
336.369	277.31
336.597	263.31
336.825	292.31
337.053	351.31
337.281	280.31
337.51	239.31
337.738	222.31
337.966	259.31
338.194	275.31
338.422	266.31
338.65	225.31
338.878	217.31
339.106	209.31
339.334	245.31
339.562	255.31
339.79	254.31
340.018	219.31
340.246	247.31
340.474	259.31
340.702	265.31
340.93	291.31
341.158	270.31
341.386	241.31
341.614	243.31
341.842	229.31
342.07	237.31
342.298	298.31
342.526	280.31
342.754	266.31
342.981	246.31
343.209	241.31
343.437	251.31
343.665	282.31
343.893	278.31
344.12	315.31
344.348	382.31
344.576	351.31
344.804	282.31
345.031	242.31
345.259	227.31
345.487	237.31
345.714	231.31
345.942	259.31
346.17	272.31
346.397	265.31
346.625	227.31
346.853	233.31
347.08	225.31
347.308	221.31
347.535	251.31
347.763	279.31
347.99	245.31
348.218	215.31
348.445	227.31
348.673	242.31
348.9	221.31
349.128	243.31
349.355	261.31
349.583	236.31
349.81	232.31
350.037	231.31
350.265	193.31
350.492	203.31
350.72	198.31
350.947	201.31
351.174	206.31
351.402	213.31
351.629	238.31
351.856	227.31
352.083	215.31
352.311	225.31
352.538	239.31
352.765	255.31
352.992	244.31
353.22	240.31
353.447	241.31
353.674	216.31
353.901	196.31
354.128	199.31
354.355	227.31
354.583	221.31
354.81	242.31
355.037	236.31
355.264	218.31
355.491	235.31
355.718	241.31
355.945	245.31
356.172	235.31
356.399	245.31
356.626	285.31
356.853	335.31
357.08	335.31
357.307	363.31
357.534	304.31
357.761	302.31
357.988	389.31
358.215	417.31
358.441	387.31
358.668	353.31
358.895	337.31
359.122	277.31
359.349	295.31
359.576	324.31
359.802	273.31
360.029	223.31
360.256	245.31
360.483	275.31
360.709	357.31
360.936	348.31
361.163	311.31
361.39	261.31
361.616	239.31
361.843	277.31
362.07	297.31
362.296	286.31
362.523	245.31
362.749	210.31
362.976	232.31
363.203	263.31
363.429	298.31
363.656	241.31
363.882	215.31
364.109	248.31
364.335	225.31
364.562	239.31
364.788	253.31
365.015	269.31
365.241	273.31
365.468	224.31
365.694	192.31
365.92	199.31
366.147	174.31
366.373	182.31
366.599	191.31
366.826	190.31
367.052	197.31
367.278	198.31
367.505	190.31
367.731	202.31
367.957	206.31
368.184	225.31
368.41	227.31
368.636	243.31
368.862	240.31
369.089	244.31
369.315	218.31
369.541	214.31
369.767	218.31
369.993	199.31
370.219	213.31
370.445	221.31
370.672	243.31
370.898	255.31
371.124	249.31
371.35	229.31
371.576	215.31
371.802	237.31
372.028	266.31
372.254	291.31
372.48	285.31
372.706	241.31
372.932	247.31
373.158	255.31
373.384	291.31
373.61	348.31
373.835	395.31
374.061	293.31
374.287	250.31
374.513	305.31
374.739	375.31
374.965	377.31
375.191	351.31
375.416	288.31
375.642	245.31
375.868	257.31
376.094	314.31
376.319	263.31
376.545	280.31
376.771	306.31
376.997	249.31
377.222	213.31
377.448	185.31
377.674	185.31
377.899	203.31
378.125	211.31
378.35	201.31
378.576	191.31
378.802	217.31
379.027	225.31
379.253	219.31
379.478	209.31
379.704	245.31
379.929	259.31
380.155	235.31
380.38	228.31
380.606	239.31
380.831	260.31
381.057	229.31
381.282	224.31
381.507	256.31
381.733	325.31
381.958	332.31
382.184	369.31
382.409	360.31
382.634	349.31
382.86	368.31
383.085	335.31
383.31	269.31
383.535	273.31
383.761	277.31
383.986	265.31
384.211	323.31
384.436	304.31
384.662	253.31
384.887	247.31
385.112	253.31
385.337	257.31
385.562	242.31
385.787	282.31
386.013	303.31
386.238	303.31
386.463	254.31
386.688	239.31
386.913	230.31
387.138	222.31
387.363	225.31
387.588	261.31
387.813	246.31
388.038	274.31
388.263	246.31
388.488	241.31
388.713	255.31
388.938	286.31
389.163	244.31
389.387	210.31
389.612	222.31
389.837	222.31
390.062	223.31
390.287	237.31
390.512	248.31
390.736	241.31
390.961	231.31
391.186	215.31
391.411	214.31
391.636	228.31
391.86	229.31
392.085	244.31
392.31	253.31
392.534	257.31
392.759	238.31
392.984	235.31
393.208	248.31
393.433	212.31
393.658	220.31
393.882	207.31
394.107	201.31
394.331	207.31
394.556	202.31
394.78	210.31
395.005	218.31
395.229	207.31
395.454	208.31
395.678	229.31
395.903	225.31
396.127	203.31
396.352	224.31
396.576	225.31
396.801	239.31
397.025	246.31
397.249	254.31
397.474	235.31
397.698	238.31
397.922	235.31
398.147	214.31
398.371	239.31
398.595	257.31
398.82	231.31
399.044	248.31
399.268	229.31
399.492	282.31
399.717	294.31
399.941	280.31
400.165	264.31
400.389	259.31
400.613	259.31
400.837	246.31
401.062	232.31
401.286	239.31
401.51	221.31
401.734	228.31
401.958	234.31
402.182	223.31
402.406	217.31
402.63	228.31
402.854	244.31
403.078	292.31
403.302	365.31
403.526	362.31
403.75	330.31
403.974	291.31
404.198	274.31
404.422	310.31
404.645	326.31
404.869	350.31
405.093	284.31
405.317	262.31
405.541	262.31
405.765	259.31
405.988	258.31
406.212	268.31
406.436	274.31
406.66	326.31
406.883	264.31
407.107	284.31
407.331	330.31
407.555	334.31
407.778	275.31
408.002	280.31
408.226	278.31
408.449	277.31
408.673	252.31
408.896	253.31
409.12	231.31
409.344	233.31
409.567	231.31
409.791	238.31
410.014	213.31
410.238	237.31
410.461	232.31
410.685	233.31
410.908	240.31
411.132	236.31
411.355	238.31
411.578	229.31
411.802	242.31
412.025	252.31
412.249	234.31
412.472	242.31
412.695	245.31
412.919	241.31
413.142	237.31
413.365	253.31
413.589	265.31
413.812	235.31
414.035	247.31
414.258	235.31
414.482	249.31
414.705	280.31
414.928	238.31
415.151	237.31
415.374	224.31
415.597	258.31
415.821	221.31
416.044	245.31
416.267	227.31
416.49	230.31
416.713	226.31
416.936	228.31
417.159	209.31
417.382	226.31
417.605	220.31
417.828	244.31
418.051	265.31
418.274	244.31
418.497	237.31
418.72	236.31
418.943	255.31
419.166	257.31
419.389	265.31
419.611	249.31
419.834	250.31
420.057	277.31
420.28	257.31
420.503	252.31
420.726	225.31
420.948	223.31
421.171	227.31
421.394	227.31
421.617	222.31
421.839	226.31
422.062	250.31
422.285	239.31
422.507	231.31
422.73	245.31
422.953	241.31
423.175	245.31
423.398	250.31
423.621	241.31
423.843	255.31
424.066	255.31
424.288	260.31
424.511	240.31
424.733	251.31
424.956	233.31
425.178	268.31
425.401	303.31
425.623	378.31
425.846	299.31
426.068	250.31
426.291	271.31
426.513	248.31
426.735	242.31
426.958	261.31
427.18	257.31
427.402	343.31
427.625	360.31
427.847	293.31
428.069	246.31
428.292	217.31
428.514	225.31
428.736	242.31
428.958	253.31
429.181	307.31
429.403	269.31
429.625	225.31
429.847	219.31
430.069	238.31
430.292	219.31
430.514	211.31
430.736	243.31
430.958	261.31
431.18	245.31
431.402	223.31
431.624	207.31
431.846	210.31
432.068	224.31
432.29	227.31
432.512	226.31
432.734	294.31
432.956	262.31
433.178	221.31
433.4	211.31
433.622	223.31
433.844	226.31
434.066	263.31
434.287	239.31
434.509	243.31
434.731	249.31
434.953	232.31
435.175	245.31
435.397	257.31
435.618	245.31
435.84	240.31
436.062	229.31
436.284	215.31
436.505	196.31
436.727	212.31
436.949	218.31
437.17	217.31
437.392	220.31
437.614	215.31
437.835	215.31
438.057	201.31
438.278	257.31
438.5	315.31
438.721	312.31
438.943	243.31
439.165	214.31
439.386	225.31
439.608	228.31
439.829	224.31
440.05	214.31
440.272	221.31
440.493	243.31
440.715	292.31
440.936	247.31
441.158	215.31
441.379	227.31
441.6	250.31
441.822	276.31
442.043	237.31
442.264	232.31
442.486	251.31
442.707	229.31
442.928	219.31
443.149	239.31
443.371	237.31
443.592	231.31
443.813	227.31
444.034	230.31
444.255	232.31
444.476	241.31
444.698	271.31
444.919	257.31
445.14	353.31
445.361	313.31
445.582	277.31
445.803	253.31
446.024	229.31
446.245	252.31
446.466	226.31
446.687	234.31
446.908	229.31
447.129	228.31
447.35	216.31
447.571	221.31
447.792	212.31
448.013	208.31
448.234	218.31
448.455	203.31
448.675	205.31
448.896	216.31
449.117	214.31
449.338	224.31
449.559	213.31
449.779	234.31
450	218.31
450.221	237.31
450.442	229.31
450.662	205.31
450.883	233.31
451.104	229.31
451.324	223.31
451.545	220.31
451.766	215.31
451.986	210.31
452.207	210.31
452.428	207.31
452.648	210.31
452.869	216.31
453.089	203.31
453.31	216.31
453.53	215.31
453.751	206.31
453.971	195.31
454.192	210.31
454.412	210.31
454.633	198.31
454.853	200.31
455.073	191.31
455.294	195.31
455.514	205.31
455.734	199.31
455.955	185.31
456.175	212.31
456.395	192.31
456.616	190.31
456.836	212.31
457.056	197.31
457.276	200.31
457.497	212.31
457.717	200.31
457.937	201.31
458.157	189.31
458.377	218.31
458.598	195.31
458.818	205.31
459.038	221.31
459.258	192.31
459.478	212.31
459.698	241.31
459.918	225.31
460.138	230.31
460.358	244.31
460.578	219.31
460.798	237.31
461.018	224.31
461.238	229.31
461.458	232.31
461.678	253.31
461.898	252.31
462.118	233.31
462.338	266.31
462.558	260.31
462.777	268.31
462.997	286.31
463.217	280.31
463.437	286.31
463.657	271.31
463.876	260.31
464.096	257.31
464.316	246.31
464.536	240.31
464.755	268.31
464.975	260.31
465.195	244.31
465.414	261.31
465.634	247.31
465.854	252.31
466.073	215.31
466.293	215.31
466.512	233.31
466.732	259.31
466.951	265.31
467.171	235.31
467.391	216.31
467.61	223.31
467.829	232.31
468.049	231.31
468.268	217.31
468.488	213.31
468.707	230.31
468.927	271.31
469.146	276.31
469.365	254.31
469.585	239.31
469.804	254.31
470.023	266.31
470.243	240.31
470.462	222.31
470.681	231.31
470.901	228.31
471.12	246.31
471.339	243.31
471.558	227.31
471.777	228.31
471.997	226.31
472.216	270.31
472.435	246.31
472.654	248.31
472.873	233.31
473.092	247.31
473.311	244.31
473.53	240.31
473.749	238.31
473.968	253.31
474.187	251.31
474.406	229.31
474.625	225.31
474.844	230.31
475.063	262.31
475.282	270.31
475.501	257.31
475.72	267.31
475.939	262.31
476.158	255.31
476.377	319.31
476.596	324.31
476.814	345.31
477.033	292.31
477.252	251.31
477.471	237.31
477.69	258.31
477.908	264.31
478.127	269.31
478.346	262.31
478.564	298.31
478.783	287.31
479.002	279.31
479.22	293.31
479.439	342.31
479.658	301.31
479.876	271.31
480.095	295.31
480.313	286.31
480.532	278.31
480.751	293.31
480.969	271.31
481.188	291.31
481.406	309.31
481.624	289.31
481.843	272.31
482.061	254.31
482.28	289.31
482.498	344.31
482.717	333.31
482.935	277.31
483.153	271.31
483.372	265.31
483.59	259.31
483.808	263.31
484.027	252.31
484.245	257.31
484.463	233.31
484.681	252.31
484.9	279.31
485.118	301.31
485.336	242.31
485.554	263.31
485.772	266.31
485.99	281.31
486.209	308.31
486.427	303.31
486.645	295.31
486.863	284.31
487.081	298.31
487.299	308.31
487.517	299.31
487.735	273.31
487.953	282.31
488.171	308.31
488.389	280.31
488.607	265.31
488.825	275.31
489.043	275.31
489.261	330.31
489.479	345.31
489.696	308.31
489.914	281.31
490.132	265.31
490.35	254.31
490.568	255.31
490.786	261.31
491.003	269.31
491.221	254.31
491.439	258.31
491.657	264.31
491.874	283.31
492.092	320.31
492.31	369.31
492.527	371.31
492.745	338.31
492.963	308.31
493.18	300.31
493.398	295.31
493.615	293.31
493.833	278.31
494.05	269.31
494.268	283.31
494.485	291.31
494.703	290.31
494.92	286.31
495.138	273.31
495.355	286.31
495.573	287.31
495.79	302.31
496.008	372.31
496.225	315.31
496.442	308.31
496.66	312.31
496.877	330.31
497.094	330.31
497.312	287.31
497.529	284.31
497.746	292.31
497.963	307.31
498.181	344.31
498.398	333.31
498.615	375.31
498.832	392.31
499.049	405.31
499.267	352.31
499.484	372.31
499.701	407.31
499.918	433.31
500.135	507.31
500.352	500.31
500.569	543.31
500.786	552.31
501.003	511.31
501.22	487.31
501.437	424.31
501.654	394.31
501.871	376.31
502.088	375.31
502.305	329.31
502.522	356.31
