Data from NickelSpatula_HRD10591_16-34-00-125.txt Node
Date: Mon Jul 22 16:34:00 EDT 2019
User: cochatt
Spectrometer: HR+D1059
Trigger mode: 1
Integration Time (sec): 1.000000E-1
Scans to average: 1
Electric dark correction enabled: true
Nonlinearity correction enabled: false
Boxcar width: 0
XAxis mode: Wavelengths
Number of Pixels in Spectrum: 2048
>>>>>Begin Spectral Data<<<<<
223.165	-13.94
223.4	-13.94
223.635	-13.94
223.869	-9.94
224.104	-10.94
224.338	-18.94
224.573	-13.94
224.808	-12.94
225.042	-11.94
225.277	-16.94
225.511	-1.94
225.746	-10.94
225.98	7.06
226.215	7.06
226.449	18.06
226.683	22.06
226.918	36.06
227.152	32.06
227.387	45.06
227.621	26.06
227.856	54.06
228.09	52.06
228.324	60.06
228.559	54.06
228.793	52.06
229.027	76.06
229.262	72.06
229.496	84.06
229.73	82.06
229.964	84.06
230.199	85.06
230.433	88.06
230.667	89.06
230.901	116.06
231.136	98.06
231.37	95.06
231.604	92.06
231.838	96.06
232.072	115.06
232.306	100.06
232.541	107.06
232.775	99.06
233.009	109.06
233.243	118.06
233.477	124.06
233.711	121.06
233.945	112.06
234.179	130.06
234.413	116.06
234.647	128.06
234.881	135.06
235.115	119.06
235.349	132.06
235.583	114.06
235.817	120.06
236.051	125.06
236.285	118.06
236.519	118.06
236.753	132.06
236.987	122.06
237.221	135.06
237.455	126.06
237.689	128.06
237.922	124.06
238.156	131.06
238.39	156.06
238.624	176.06
238.858	162.06
239.091	147.06
239.325	143.06
239.559	121.06
239.793	136.06
240.027	163.06
240.26	153.06
240.494	151.06
240.728	165.06
240.961	178.06
241.195	164.06
241.429	165.06
241.662	166.06
241.896	148.06
242.13	137.06
242.363	132.06
242.597	140.06
242.83	166.06
243.064	154.06
243.298	162.06
243.531	159.06
243.765	160.06
243.998	166.06
244.232	164.06
244.465	151.06
244.699	171.06
244.932	168.06
245.166	161.06
245.399	149.06
245.633	144.06
245.866	148.06
246.099	150.06
246.333	166.06
246.566	189.06
246.8	197.06
247.033	194.06
247.266	156.06
247.5	169.06
247.733	150.06
247.966	172.06
248.2	162.06
248.433	169.06
248.666	186.06
248.899	190.06
249.133	195.06
249.366	206.06
249.599	252.06
249.832	236.06
250.066	202.06
250.299	198.06
250.532	188.06
250.765	192.06
250.998	177.06
251.231	169.06
251.465	186.06
251.698	197.06
251.931	202.06
252.164	189.06
252.397	183.06
252.63	234.06
252.863	238.06
253.096	261.06
253.329	246.06
253.562	232.06
253.795	265.06
254.028	280.06
254.261	286.06
254.494	262.06
254.727	246.06
254.96	247.06
255.193	250.06
255.426	222.06
255.659	194.06
255.892	178.06
256.124	194.06
256.357	218.06
256.59	250.06
256.823	253.06
257.056	230.06
257.289	206.06
257.521	205.06
257.754	235.06
257.987	270.06
258.22	256.06
258.452	230.06
258.685	246.06
258.918	260.06
259.151	265.06
259.383	282.06
259.616	318.06
259.849	322.06
260.081	336.06
260.314	361.06
260.547	283.06
260.779	288.06
261.012	336.06
261.244	318.06
261.477	327.06
261.71	306.06
261.942	281.06
262.175	258.06
262.407	262.06
262.64	246.06
262.872	311.06
263.105	332.06
263.337	335.06
263.57	310.06
263.802	234.06
264.035	207.06
264.267	203.06
264.499	192.06
264.732	170.06
264.964	171.06
265.197	193.06
265.429	197.06
265.661	201.06
265.894	204.06
266.126	212.06
266.358	227.06
266.591	261.06
266.823	290.06
267.055	295.06
267.287	285.06
267.52	273.06
267.752	271.06
267.984	295.06
268.216	308.06
268.448	249.06
268.681	244.06
268.913	286.06
269.145	284.06
269.377	264.06
269.609	279.06
269.841	259.06
270.073	297.06
270.306	295.06
270.538	296.06
270.77	306.06
271.002	316.06
271.234	299.06
271.466	320.06
271.698	306.06
271.93	290.06
272.162	287.06
272.394	294.06
272.626	284.06
272.858	314.06
273.09	301.06
273.322	270.06
273.553	237.06
273.785	304.06
274.017	348.06
274.249	420.06
274.481	454.06
274.713	471.06
274.945	540.06
275.176	580.06
275.408	529.06
275.64	460.06
275.872	479.06
276.104	424.06
276.335	374.06
276.567	362.06
276.799	363.06
277.031	421.06
277.262	328.06
277.494	244.06
277.726	237.06
277.957	275.06
278.189	304.06
278.421	290.06
278.652	292.06
278.884	269.06
279.115	253.06
279.347	244.06
279.579	239.06
279.81	273.06
280.042	268.06
280.273	260.06
280.505	243.06
280.736	235.06
280.968	224.06
281.199	237.06
281.431	255.06
281.662	256.06
281.894	224.06
282.125	252.06
282.356	273.06
282.588	276.06
282.819	266.06
283.051	260.06
283.282	298.06
283.513	358.06
283.745	401.06
283.976	394.06
284.207	399.06
284.439	384.06
284.67	380.06
284.901	341.06
285.132	354.06
285.364	360.06
285.595	340.06
285.826	371.06
286.057	399.06
286.288	374.06
286.52	360.06
286.751	399.06
286.982	398.06
287.213	355.06
287.444	334.06
287.675	346.06
287.906	354.06
288.138	322.06
288.369	296.06
288.6	270.06
288.831	258.06
289.062	317.06
289.293	341.06
289.524	315.06
289.755	315.06
289.986	341.06
290.217	318.06
290.448	255.06
290.679	215.06
290.91	209.06
291.141	215.06
291.371	223.06
291.602	215.06
291.833	223.06
292.064	216.06
292.295	237.06
292.526	281.06
292.757	308.06
292.987	308.06
293.218	303.06
293.449	324.06
293.68	341.06
293.91	329.06
294.141	346.06
294.372	313.06
294.603	289.06
294.833	325.06
295.064	373.06
295.295	365.06
295.525	274.06
295.756	257.06
295.987	221.06
296.217	204.06
296.448	233.06
296.679	229.06
296.909	242.06
297.14	259.06
297.37	262.06
297.601	277.06
297.831	237.06
298.062	278.06
298.292	282.06
298.523	297.06
298.753	322.06
298.984	313.06
299.214	271.06
299.445	225.06
299.675	229.06
299.905	228.06
300.136	212.06
300.366	242.06
300.597	237.06
300.827	207.06
301.057	225.06
301.288	226.06
301.518	222.06
301.748	263.06
301.979	264.06
302.209	278.06
302.439	271.06
302.669	241.06
302.9	263.06
303.13	256.06
303.36	231.06
303.59	239.06
303.82	230.06
304.051	265.06
304.281	277.06
304.511	260.06
304.741	221.06
304.971	237.06
305.201	266.06
305.431	237.06
305.661	225.06
305.891	219.06
306.121	208.06
306.352	205.06
306.582	194.06
306.812	206.06
307.042	215.06
307.272	180.06
307.502	181.06
307.731	193.06
307.961	192.06
308.191	190.06
308.421	165.06
308.651	194.06
308.881	176.06
309.111	180.06
309.341	191.06
309.571	207.06
309.8	188.06
310.03	182.06
310.26	207.06
310.49	217.06
310.72	194.06
310.949	186.06
311.179	212.06
311.409	200.06
311.639	221.06
311.868	268.06
312.098	328.06
312.328	348.06
312.557	334.06
312.787	343.06
313.017	319.06
313.246	350.06
313.476	374.06
313.706	301.06
313.935	242.06
314.165	235.06
314.394	203.06
314.624	227.06
314.853	215.06
315.083	204.06
315.312	232.06
315.542	211.06
315.771	217.06
316.001	183.06
316.23	183.06
316.46	186.06
316.689	196.06
316.919	202.06
317.148	186.06
317.377	195.06
317.607	186.06
317.836	210.06
318.065	228.06
318.295	258.06
318.524	218.06
318.753	207.06
318.983	203.06
319.212	193.06
319.441	184.06
319.67	219.06
319.9	237.06
320.129	207.06
320.358	204.06
320.587	203.06
320.816	211.06
321.046	235.06
321.275	276.06
321.504	262.06
321.733	258.06
321.962	243.06
322.191	223.06
322.42	228.06
322.649	219.06
322.878	239.06
323.108	246.06
323.337	220.06
323.566	224.06
323.795	225.06
324.024	222.06
324.253	205.06
324.482	186.06
324.71	196.06
324.939	251.06
325.168	232.06
325.397	194.06
325.626	194.06
325.855	200.06
326.084	198.06
326.313	195.06
326.542	195.06
326.77	214.06
326.999	175.06
327.228	203.06
327.457	211.06
327.686	198.06
327.914	200.06
328.143	189.06
328.372	192.06
328.6	195.06
328.829	184.06
329.058	173.06
329.287	184.06
329.515	191.06
329.744	197.06
329.972	178.06
330.201	175.06
330.43	184.06
330.658	214.06
330.887	208.06
331.115	201.06
331.344	207.06
331.572	219.06
331.801	195.06
332.03	196.06
332.258	174.06
332.486	195.06
332.715	198.06
332.943	190.06
333.172	189.06
333.4	198.06
333.629	215.06
333.857	237.06
334.085	230.06
334.314	240.06
334.542	215.06
334.771	214.06
334.999	205.06
335.227	194.06
335.455	191.06
335.684	209.06
335.912	230.06
336.14	243.06
336.369	254.06
336.597	242.06
336.825	254.06
337.053	295.06
337.281	258.06
337.51	212.06
337.738	195.06
337.966	219.06
338.194	233.06
338.422	227.06
338.65	199.06
338.878	193.06
339.106	190.06
339.334	219.06
339.562	213.06
339.79	197.06
340.018	194.06
340.246	206.06
340.474	230.06
340.702	230.06
340.93	251.06
341.158	272.06
341.386	238.06
341.614	216.06
341.842	211.06
342.07	235.06
342.298	246.06
342.526	274.06
342.754	233.06
342.981	235.06
343.209	220.06
343.437	219.06
343.665	233.06
343.893	238.06
344.12	260.06
344.348	288.06
344.576	278.06
344.804	236.06
345.031	212.06
345.259	199.06
345.487	198.06
345.714	195.06
345.942	209.06
346.17	240.06
346.397	222.06
346.625	214.06
346.853	197.06
347.08	193.06
347.308	211.06
347.535	226.06
347.763	228.06
347.99	194.06
348.218	185.06
348.445	196.06
348.673	206.06
348.9	207.06
349.128	220.06
349.355	214.06
349.583	211.06
349.81	218.06
350.037	203.06
350.265	187.06
350.492	185.06
350.72	161.06
350.947	184.06
351.174	192.06
351.402	198.06
351.629	226.06
351.856	206.06
352.083	188.06
352.311	176.06
352.538	203.06
352.765	213.06
352.992	200.06
353.22	218.06
353.447	232.06
353.674	204.06
353.901	217.06
354.128	214.06
354.355	207.06
354.583	213.06
354.81	208.06
355.037	242.06
355.264	214.06
355.491	209.06
355.718	243.06
355.945	222.06
356.172	200.06
356.399	219.06
356.626	230.06
356.853	285.06
357.08	303.06
357.307	346.06
357.534	271.06
357.761	268.06
357.988	306.06
358.215	334.06
358.441	340.06
358.668	305.06
358.895	276.06
359.122	239.06
359.349	232.06
359.576	255.06
359.802	220.06
360.029	174.06
360.256	199.06
360.483	251.06
360.709	292.06
360.936	326.06
361.163	277.06
361.39	221.06
361.616	198.06
361.843	234.06
362.07	267.06
362.296	264.06
362.523	209.06
362.749	188.06
362.976	207.06
363.203	222.06
363.429	238.06
363.656	207.06
363.882	209.06
364.109	217.06
364.335	208.06
364.562	201.06
364.788	208.06
365.015	276.06
365.241	235.06
365.468	203.06
365.694	182.06
365.92	182.06
366.147	166.06
366.373	169.06
366.599	176.06
366.826	173.06
367.052	176.06
367.278	172.06
367.505	166.06
367.731	188.06
367.957	189.06
368.184	212.06
368.41	202.06
368.636	205.06
368.862	204.06
369.089	206.06
369.315	199.06
369.541	192.06
369.767	188.06
369.993	169.06
370.219	178.06
370.445	176.06
370.672	205.06
370.898	205.06
371.124	218.06
371.35	180.06
371.576	172.06
371.802	188.06
372.028	221.06
372.254	242.06
372.48	218.06
372.706	205.06
372.932	236.06
373.158	216.06
373.384	233.06
373.61	304.06
373.835	313.06
374.061	232.06
374.287	212.06
374.513	240.06
374.739	287.06
374.965	281.06
375.191	302.06
375.416	222.06
375.642	195.06
375.868	213.06
376.094	246.06
376.319	207.06
376.545	227.06
376.771	251.06
376.997	230.06
377.222	198.06
377.448	169.06
377.674	161.06
377.899	178.06
378.125	166.06
378.35	188.06
378.576	182.06
378.802	190.06
379.027	197.06
379.253	200.06
379.478	209.06
379.704	198.06
379.929	219.06
380.155	215.06
380.38	197.06
380.606	206.06
380.831	238.06
381.057	216.06
381.282	187.06
381.507	224.06
381.733	279.06
381.958	279.06
382.184	271.06
382.409	306.06
382.634	278.06
382.86	313.06
383.085	280.06
383.31	220.06
383.535	240.06
383.761	252.06
383.986	238.06
384.211	272.06
384.436	283.06
384.662	200.06
384.887	205.06
385.112	209.06
385.337	228.06
385.562	222.06
385.787	229.06
386.013	258.06
386.238	266.06
386.463	214.06
386.688	182.06
386.913	180.06
387.138	199.06
387.363	207.06
387.588	215.06
387.813	206.06
388.038	225.06
388.263	210.06
388.488	215.06
388.713	229.06
388.938	217.06
389.163	200.06
389.387	194.06
389.612	186.06
389.837	206.06
390.062	184.06
390.287	196.06
390.512	205.06
390.736	199.06
390.961	205.06
391.186	195.06
391.411	196.06
391.636	178.06
391.86	220.06
392.085	218.06
392.31	249.06
392.534	204.06
392.759	201.06
392.984	206.06
393.208	198.06
393.433	195.06
393.658	186.06
393.882	177.06
394.107	186.06
394.331	184.06
394.556	191.06
394.78	177.06
395.005	174.06
395.229	192.06
395.454	178.06
395.678	198.06
395.903	197.06
396.127	197.06
396.352	178.06
396.576	194.06
396.801	205.06
397.025	222.06
397.249	228.06
397.474	206.06
397.698	204.06
397.922	200.06
398.147	190.06
398.371	187.06
398.595	205.06
398.82	221.06
399.044	211.06
399.268	226.06
399.492	232.06
399.717	238.06
399.941	231.06
400.165	219.06
400.389	212.06
400.613	199.06
400.837	207.06
401.062	198.06
401.286	190.06
401.51	186.06
401.734	168.06
401.958	178.06
402.182	210.06
402.406	211.06
402.63	209.06
402.854	215.06
403.078	243.06
403.302	278.06
403.526	302.06
403.75	280.06
403.974	212.06
404.198	242.06
404.422	256.06
404.645	265.06
404.869	302.06
405.093	238.06
405.317	222.06
405.541	220.06
405.765	210.06
405.988	220.06
406.212	229.06
406.436	252.06
406.66	271.06
406.883	225.06
407.107	223.06
407.331	264.06
407.555	245.06
407.778	233.06
408.002	242.06
408.226	235.06
408.449	213.06
408.673	229.06
408.896	205.06
409.12	188.06
409.344	203.06
409.567	203.06
409.791	205.06
410.014	206.06
410.238	178.06
410.461	201.06
410.685	205.06
410.908	201.06
411.132	201.06
411.355	204.06
411.578	215.06
411.802	214.06
412.025	200.06
412.249	205.06
412.472	192.06
412.695	199.06
412.919	220.06
413.142	198.06
413.365	229.06
413.589	222.06
413.812	210.06
414.035	192.06
414.258	197.06
414.482	209.06
414.705	219.06
414.928	191.06
415.151	191.06
415.374	185.06
415.597	201.06
415.821	202.06
416.044	189.06
416.267	195.06
416.49	186.06
416.713	192.06
416.936	172.06
417.159	193.06
417.382	201.06
417.605	206.06
417.828	208.06
418.051	194.06
418.274	201.06
418.497	204.06
418.72	210.06
418.943	201.06
419.166	224.06
419.389	217.06
419.611	216.06
419.834	222.06
420.057	221.06
420.28	220.06
420.503	219.06
420.726	192.06
420.948	201.06
421.171	181.06
421.394	196.06
421.617	176.06
421.839	187.06
422.062	200.06
422.285	199.06
422.507	211.06
422.73	194.06
422.953	205.06
423.175	199.06
423.398	209.06
423.621	212.06
423.843	227.06
424.066	215.06
424.288	208.06
424.511	195.06
424.733	209.06
424.956	206.06
425.178	231.06
425.401	250.06
425.623	286.06
425.846	234.06
426.068	219.06
426.291	224.06
426.513	222.06
426.735	213.06
426.958	211.06
427.18	223.06
427.402	272.06
427.625	299.06
427.847	242.06
428.069	188.06
428.292	202.06
428.514	190.06
428.736	190.06
428.958	196.06
429.181	243.06
429.403	216.06
429.625	200.06
429.847	183.06
430.069	193.06
430.292	212.06
430.514	192.06
430.736	189.06
430.958	237.06
431.18	212.06
431.402	180.06
431.624	183.06
431.846	184.06
432.068	184.06
432.29	201.06
432.512	184.06
432.734	232.06
432.956	231.06
433.178	183.06
433.4	175.06
433.622	180.06
433.844	209.06
434.066	207.06
434.287	210.06
434.509	189.06
434.731	198.06
434.953	198.06
435.175	201.06
435.397	221.06
435.618	203.06
435.84	186.06
436.062	166.06
436.284	185.06
436.505	168.06
436.727	175.06
436.949	185.06
437.17	188.06
437.392	181.06
437.614	189.06
437.835	190.06
438.057	170.06
438.278	192.06
438.5	249.06
438.721	273.06
438.943	206.06
439.165	187.06
439.386	175.06
439.608	175.06
439.829	182.06
440.05	171.06
440.272	169.06
440.493	187.06
440.715	236.06
440.936	197.06
441.158	188.06
441.379	191.06
441.6	196.06
441.822	223.06
442.043	189.06
442.264	192.06
442.486	206.06
442.707	192.06
442.928	179.06
443.149	186.06
443.371	202.06
443.592	186.06
443.813	206.06
444.034	199.06
444.255	199.06
444.476	206.06
444.698	197.06
444.919	205.06
445.14	332.06
445.361	264.06
445.582	205.06
445.803	213.06
446.024	190.06
446.245	213.06
446.466	201.06
446.687	197.06
446.908	198.06
447.129	183.06
447.35	174.06
447.571	178.06
447.792	180.06
448.013	183.06
448.234	176.06
448.455	167.06
448.675	179.06
448.896	167.06
449.117	181.06
449.338	186.06
449.559	184.06
449.779	185.06
450	184.06
450.221	170.06
450.442	183.06
450.662	178.06
450.883	186.06
451.104	185.06
451.324	175.06
451.545	184.06
451.766	196.06
451.986	187.06
452.207	173.06
452.428	168.06
452.648	165.06
452.869	174.06
453.089	209.06
453.31	189.06
453.53	176.06
453.751	165.06
453.971	166.06
454.192	171.06
454.412	203.06
454.633	166.06
454.853	157.06
455.073	159.06
455.294	166.06
455.514	179.06
455.734	164.06
455.955	181.06
456.175	180.06
456.395	166.06
456.616	157.06
456.836	164.06
457.056	178.06
457.276	174.06
457.497	155.06
457.717	158.06
457.937	166.06
458.157	160.06
458.377	162.06
458.598	172.06
458.818	162.06
459.038	176.06
459.258	182.06
459.478	181.06
459.698	202.06
459.918	192.06
460.138	189.06
460.358	213.06
460.578	190.06
460.798	184.06
461.018	198.06
461.238	198.06
461.458	197.06
461.678	200.06
461.898	206.06
462.118	205.06
462.338	207.06
462.558	205.06
462.777	233.06
462.997	233.06
463.217	221.06
463.437	193.06
463.657	212.06
463.876	201.06
464.096	218.06
464.316	233.06
464.536	218.06
464.755	220.06
464.975	231.06
465.195	205.06
465.414	228.06
465.634	230.06
465.854	205.06
466.073	186.06
466.293	186.06
466.512	197.06
466.732	201.06
466.951	227.06
467.171	185.06
467.391	166.06
467.61	170.06
467.829	187.06
468.049	195.06
468.268	176.06
468.488	195.06
468.707	187.06
468.927	205.06
469.146	227.06
469.365	226.06
469.585	199.06
469.804	203.06
470.023	233.06
470.243	211.06
470.462	211.06
470.681	187.06
470.901	206.06
471.12	198.06
471.339	208.06
471.558	207.06
471.777	178.06
471.997	204.06
472.216	218.06
472.435	222.06
472.654	216.06
472.873	216.06
473.092	217.06
473.311	212.06
473.53	213.06
473.749	190.06
473.968	216.06
474.187	206.06
474.406	182.06
474.625	192.06
474.844	199.06
475.063	207.06
475.282	202.06
475.501	226.06
475.72	244.06
475.939	229.06
476.158	219.06
476.377	261.06
476.596	282.06
476.814	296.06
477.033	261.06
477.252	214.06
477.471	220.06
477.69	224.06
477.908	208.06
478.127	227.06
478.346	232.06
478.564	246.06
478.783	229.06
479.002	238.06
479.22	238.06
479.439	258.06
479.658	255.06
479.876	221.06
480.095	235.06
480.313	249.06
480.532	234.06
480.751	216.06
480.969	237.06
481.188	254.06
481.406	254.06
481.624	234.06
481.843	218.06
482.061	219.06
482.28	232.06
482.498	308.06
482.717	280.06
482.935	246.06
483.153	237.06
483.372	227.06
483.59	212.06
483.808	213.06
484.027	197.06
484.245	225.06
484.463	195.06
484.681	213.06
484.9	235.06
485.118	248.06
485.336	209.06
485.554	210.06
485.772	213.06
485.99	204.06
486.209	243.06
486.427	246.06
486.645	241.06
486.863	244.06
487.081	238.06
487.299	285.06
487.517	260.06
487.735	239.06
487.953	231.06
488.171	242.06
488.389	237.06
488.607	214.06
488.825	227.06
489.043	254.06
489.261	270.06
489.479	308.06
489.696	247.06
489.914	214.06
490.132	220.06
490.35	208.06
490.568	219.06
490.786	223.06
491.003	215.06
491.221	237.06
491.439	205.06
491.657	233.06
491.874	225.06
492.092	275.06
492.31	327.06
492.527	306.06
492.745	258.06
492.963	248.06
493.18	255.06
493.398	248.06
493.615	251.06
493.833	236.06
494.05	250.06
494.268	235.06
494.485	228.06
494.703	221.06
494.92	226.06
495.138	220.06
495.355	214.06
495.573	245.06
495.79	266.06
496.008	350.06
496.225	278.06
496.442	248.06
496.66	263.06
496.877	278.06
497.094	258.06
497.312	262.06
497.529	256.06
497.746	236.06
497.963	260.06
498.181	278.06
498.398	289.06
498.615	299.06
498.832	323.06
499.049	323.06
499.267	301.06
499.484	283.06
499.701	331.06
499.918	347.06
500.135	376.06
500.352	386.06
500.569	401.06
500.786	414.06
501.003	431.06
501.22	361.06
501.437	349.06
501.654	324.06
501.871	319.06
502.088	320.06
502.305	275.06
502.522	292.06
