Data from NickelSpatula.Lamp.E10.P2_HRD10591_11-57-01-533.txt Node
Date: Tue Jul 23 11:57:01 EDT 2019
User: cochatt
Spectrometer: HR+D1059
Trigger mode: 1
Integration Time (sec): 1.000000E-1
Scans to average: 1
Electric dark correction enabled: true
Nonlinearity correction enabled: false
Boxcar width: 0
XAxis mode: Wavelengths
Number of Pixels in Spectrum: 2048
>>>>>Begin Spectral Data<<<<<
223.165	-14.94
223.4	-14.94
223.635	-14.94
223.869	-15.94
224.104	-12.94
224.338	-8.94
224.573	-23.94
224.808	-14.94
225.042	-2.94
225.277	-3.94
225.511	-2.94
225.746	12.06
225.98	11.06
226.215	7.06
226.449	8.06
226.683	24.06
226.918	17.06
227.152	22.06
227.387	50.06
227.621	27.06
227.856	43.06
228.09	47.06
228.324	40.06
228.559	47.06
228.793	70.06
229.027	145.06
229.262	151.06
229.496	144.06
229.73	160.06
229.964	187.06
230.199	206.06
230.433	208.06
230.667	214.06
230.901	210.06
231.136	184.06
231.37	192.06
231.604	212.06
231.838	216.06
232.072	231.06
232.306	231.06
232.541	242.06
232.775	236.06
233.009	254.06
233.243	294.06
233.477	304.06
233.711	335.06
233.945	318.06
234.179	317.06
234.413	335.06
234.647	364.06
234.881	415.06
235.115	408.06
235.349	372.06
235.583	322.06
235.817	322.06
236.051	348.06
236.285	397.06
236.519	443.06
236.753	431.06
236.987	422.06
237.221	392.06
237.455	391.06
237.689	401.06
237.922	427.06
238.156	443.06
238.39	515.06
238.624	614.06
238.858	552.06
239.091	463.06
239.325	468.06
239.559	447.06
239.793	511.06
240.027	619.06
240.26	583.06
240.494	539.06
240.728	560.06
240.961	644.06
241.195	611.06
241.429	609.06
241.662	560.06
241.896	487.06
242.13	439.06
242.363	447.06
242.597	452.06
242.83	499.06
243.064	535.06
243.298	551.06
243.531	599.06
243.765	624.06
243.998	593.06
244.232	585.06
244.465	574.06
244.699	561.06
244.932	637.06
245.166	590.06
245.399	535.06
245.633	516.06
245.866	545.06
246.099	574.06
246.333	672.06
246.566	732.06
246.8	725.06
247.033	693.06
247.266	678.06
247.5	635.06
247.733	633.06
247.966	613.06
248.2	637.06
248.433	727.06
248.666	782.06
248.899	763.06
249.133	803.06
249.366	902.06
249.599	1000.06
249.832	908.06
250.066	783.06
250.299	797.06
250.532	765.06
250.765	760.06
250.998	712.06
251.231	682.06
251.465	731.06
251.698	775.06
251.931	736.06
252.164	805.06
252.397	907.06
252.63	958.06
252.863	1102.06
253.096	1109.06
253.329	1101.06
253.562	1040.06
253.795	1195.06
254.028	1295.06
254.261	1283.06
254.494	1131.06
254.727	1048.06
254.96	1088.06
255.193	1128.06
255.426	1083.06
255.659	813.06
255.892	798.06
256.124	834.06
256.357	973.06
256.59	1114.06
256.823	1091.06
257.056	937.06
257.289	883.06
257.521	932.06
257.754	1092.06
257.987	1254.06
258.22	1069.06
258.452	947.06
258.685	1089.06
258.918	1238.06
259.151	1172.06
259.383	1246.06
259.616	1478.06
259.849	1514.06
260.081	1627.06
260.314	1779.06
260.547	1432.06
260.779	1421.06
261.012	1625.06
261.244	1555.06
261.477	1545.06
261.71	1471.06
261.942	1248.06
262.175	1245.06
262.407	1149.06
262.64	1199.06
262.872	1414.06
263.105	1525.06
263.337	1627.06
263.57	1437.06
263.802	1015.06
264.035	865.06
264.267	885.06
264.499	728.06
264.732	693.06
264.964	665.06
265.197	723.06
265.429	765.06
265.661	817.06
265.894	853.06
266.126	868.06
266.358	1006.06
266.591	1197.06
266.823	1435.06
267.055	1350.06
267.287	1199.06
267.52	1208.06
267.752	1307.06
267.984	1400.06
268.216	1349.06
268.448	1071.06
268.681	1057.06
268.913	1199.06
269.145	1238.06
269.377	1257.06
269.609	1267.06
269.841	1185.06
270.073	1272.06
270.306	1315.06
270.538	1335.06
270.77	1350.06
271.002	1373.06
271.234	1407.06
271.466	1396.06
271.698	1376.06
271.93	1382.06
272.162	1340.06
272.394	1325.06
272.626	1312.06
272.858	1374.06
273.09	1428.06
273.322	1192.06
273.553	1180.06
273.785	1397.06
274.017	1855.06
274.249	2251.06
274.481	2309.06
274.713	2599.06
274.945	2879.06
275.176	2987.06
275.408	2611.06
275.64	2455.06
275.872	2446.06
276.104	2105.06
276.335	1851.06
276.567	1802.06
276.799	1871.06
277.031	2027.06
277.262	1563.06
277.494	1205.06
277.726	1157.06
277.957	1282.06
278.189	1415.06
278.421	1389.06
278.652	1373.06
278.884	1295.06
279.115	1192.06
279.347	1140.06
279.579	1147.06
279.81	1145.06
280.042	1142.06
280.273	1184.06
280.505	1093.06
280.736	958.06
280.968	995.06
281.199	1041.06
281.431	1215.06
281.662	1208.06
281.894	1139.06
282.125	1201.06
282.356	1336.06
282.588	1336.06
282.819	1219.06
283.051	1309.06
283.282	1595.06
283.513	1880.06
283.745	2067.06
283.976	2048.06
284.207	1929.06
284.439	1946.06
284.67	1904.06
284.901	1752.06
285.132	1860.06
285.364	1916.06
285.595	1805.06
285.826	1885.06
286.057	1960.06
286.288	1877.06
286.52	1911.06
286.751	1973.06
286.982	1971.06
287.213	1685.06
287.444	1665.06
287.675	1758.06
287.906	1747.06
288.138	1511.06
288.369	1307.06
288.6	1253.06
288.831	1296.06
289.062	1492.06
289.293	1630.06
289.524	1559.06
289.755	1535.06
289.986	1591.06
290.217	1392.06
290.448	1069.06
290.679	934.06
290.91	886.06
291.141	891.06
291.371	921.06
291.602	962.06
291.833	943.06
292.064	1039.06
292.295	1157.06
292.526	1327.06
292.757	1403.06
292.987	1503.06
293.218	1529.06
293.449	1550.06
293.68	1622.06
293.91	1588.06
294.141	1599.06
294.372	1499.06
294.603	1397.06
294.833	1517.06
295.064	1733.06
295.295	1684.06
295.525	1263.06
295.756	1087.06
295.987	957.06
296.217	962.06
296.448	1017.06
296.679	1033.06
296.909	1164.06
297.14	1232.06
297.37	1353.06
297.601	1278.06
297.831	1128.06
298.062	1164.06
298.292	1343.06
298.523	1441.06
298.753	1636.06
298.984	1453.06
299.214	1155.06
299.445	979.06
299.675	977.06
299.905	960.06
300.136	992.06
300.366	1078.06
300.597	1045.06
300.827	937.06
301.057	911.06
301.288	965.06
301.518	979.06
301.748	1106.06
301.979	1210.06
302.209	1283.06
302.439	1302.06
302.669	1151.06
302.9	1150.06
303.13	1093.06
303.36	1045.06
303.59	993.06
303.82	1053.06
304.051	1175.06
304.281	1260.06
304.511	1226.06
304.741	1075.06
304.971	1107.06
305.201	1200.06
305.431	1124.06
305.661	991.06
305.891	1010.06
306.121	951.06
306.352	896.06
306.582	831.06
306.812	820.06
307.042	792.06
307.272	761.06
307.502	760.06
307.731	841.06
307.961	864.06
308.191	825.06
308.421	770.06
308.651	763.06
308.881	723.06
309.111	726.06
309.341	784.06
309.571	849.06
309.8	876.06
310.03	867.06
310.26	928.06
310.49	883.06
310.72	814.06
310.949	849.06
311.179	822.06
311.409	901.06
311.639	1059.06
311.868	1327.06
312.098	1697.06
312.328	1878.06
312.557	1718.06
312.787	1774.06
313.017	1588.06
313.246	1717.06
313.476	1853.06
313.706	1504.06
313.935	1236.06
314.165	1009.06
314.394	915.06
314.624	919.06
314.853	971.06
315.083	980.06
315.312	978.06
315.542	936.06
315.771	899.06
316.001	811.06
316.23	799.06
316.46	789.06
316.689	809.06
316.919	824.06
317.148	873.06
317.377	832.06
317.607	845.06
317.836	900.06
318.065	1055.06
318.295	1155.06
318.524	1068.06
318.753	928.06
318.983	885.06
319.212	850.06
319.441	937.06
319.67	1019.06
319.9	1087.06
320.129	1050.06
320.358	905.06
320.587	894.06
320.816	949.06
321.046	1063.06
321.275	1193.06
321.504	1207.06
321.733	1135.06
321.962	1125.06
322.191	1077.06
322.42	1022.06
322.649	1012.06
322.878	1080.06
323.108	1113.06
323.337	1033.06
323.566	1039.06
323.795	996.06
324.024	982.06
324.253	902.06
324.482	921.06
324.71	985.06
324.939	1106.06
325.168	1033.06
325.397	864.06
325.626	843.06
325.855	856.06
326.084	888.06
326.313	825.06
326.542	780.06
326.77	881.06
326.999	867.06
327.228	883.06
327.457	935.06
327.686	945.06
327.914	854.06
328.143	825.06
328.372	782.06
328.6	813.06
328.829	848.06
329.058	844.06
329.287	862.06
329.515	850.06
329.744	850.06
329.972	777.06
330.201	777.06
330.43	816.06
330.658	904.06
330.887	990.06
331.115	972.06
331.344	957.06
331.572	928.06
331.801	861.06
332.03	825.06
332.258	837.06
332.486	929.06
332.715	941.06
332.943	883.06
333.172	868.06
333.4	900.06
333.629	987.06
333.857	1071.06
334.085	1033.06
334.314	1076.06
334.542	1008.06
334.771	961.06
334.999	927.06
335.227	891.06
335.455	902.06
335.684	979.06
335.912	1135.06
336.14	1228.06
336.369	1192.06
336.597	1157.06
336.825	1297.06
337.053	1429.06
337.281	1157.06
337.51	937.06
337.738	919.06
337.966	1009.06
338.194	1084.06
338.422	1000.06
338.65	878.06
338.878	859.06
339.106	872.06
339.334	962.06
339.562	1035.06
339.79	941.06
340.018	893.06
340.246	969.06
340.474	1135.06
340.702	1192.06
340.93	1238.06
341.158	1238.06
341.386	1047.06
341.614	1030.06
341.842	1016.06
342.07	1059.06
342.298	1244.06
342.526	1271.06
342.754	1102.06
342.981	1031.06
343.209	1038.06
343.437	1080.06
343.665	1095.06
343.893	1105.06
344.12	1255.06
344.348	1446.06
344.576	1336.06
344.804	1113.06
345.031	963.06
345.259	912.06
345.487	943.06
345.714	974.06
345.942	1033.06
346.17	1123.06
346.397	1050.06
346.625	940.06
346.853	887.06
347.08	887.06
347.308	924.06
347.535	1032.06
347.763	1045.06
347.99	926.06
348.218	891.06
348.445	936.06
348.673	913.06
348.9	937.06
349.128	978.06
349.355	995.06
349.583	990.06
349.81	918.06
350.037	888.06
350.265	792.06
350.492	791.06
350.72	760.06
350.947	771.06
351.174	853.06
351.402	901.06
351.629	911.06
351.856	864.06
352.083	840.06
352.311	877.06
352.538	971.06
352.765	1025.06
352.992	966.06
353.22	895.06
353.447	907.06
353.674	886.06
353.901	851.06
354.128	867.06
354.355	911.06
354.583	902.06
354.81	903.06
355.037	932.06
355.264	904.06
355.491	965.06
355.718	1039.06
355.945	1034.06
356.172	977.06
356.399	962.06
356.626	1183.06
356.853	1411.06
357.08	1497.06
357.307	1523.06
357.534	1190.06
357.761	1250.06
357.988	1531.06
358.215	1741.06
358.441	1701.06
358.668	1433.06
358.895	1328.06
359.122	1098.06
359.349	1115.06
359.576	1177.06
359.802	963.06
360.029	878.06
360.256	951.06
360.483	1129.06
360.709	1395.06
360.936	1442.06
361.163	1245.06
361.39	1027.06
361.616	943.06
361.843	1078.06
362.07	1305.06
362.296	1182.06
362.523	962.06
362.749	851.06
362.976	913.06
363.203	1089.06
363.429	1177.06
363.656	979.06
363.882	905.06
364.109	926.06
364.335	887.06
364.562	896.06
364.788	980.06
365.015	1144.06
365.241	1017.06
365.468	880.06
365.694	784.06
365.92	771.06
366.147	756.06
366.373	750.06
366.599	739.06
366.826	771.06
367.052	778.06
367.278	789.06
367.505	779.06
367.731	821.06
367.957	922.06
368.184	935.06
368.41	908.06
368.636	930.06
368.862	961.06
369.089	903.06
369.315	849.06
369.541	828.06
369.767	801.06
369.993	782.06
370.219	803.06
370.445	843.06
370.672	928.06
370.898	965.06
371.124	970.06
371.35	894.06
371.576	820.06
371.802	913.06
372.028	1043.06
372.254	1170.06
372.48	983.06
372.706	919.06
372.932	997.06
373.158	1028.06
373.384	1203.06
373.61	1559.06
373.835	1592.06
374.061	1232.06
374.287	1041.06
374.513	1213.06
374.739	1416.06
374.965	1460.06
375.191	1412.06
375.416	1038.06
375.642	915.06
375.868	1062.06
376.094	1191.06
376.319	1048.06
376.545	1153.06
376.771	1181.06
376.997	1024.06
377.222	816.06
377.448	730.06
377.674	743.06
377.899	725.06
378.125	727.06
378.35	732.06
378.576	721.06
378.802	797.06
379.027	850.06
379.253	811.06
379.478	848.06
379.704	941.06
379.929	939.06
380.155	935.06
380.38	885.06
380.606	931.06
380.831	988.06
381.057	936.06
381.282	889.06
381.507	1046.06
381.733	1244.06
381.958	1325.06
382.184	1382.06
382.409	1443.06
382.634	1457.06
382.86	1494.06
383.085	1269.06
383.31	1025.06
383.535	1094.06
383.761	1098.06
383.986	1052.06
384.211	1241.06
384.436	1230.06
384.662	941.06
384.887	921.06
385.112	932.06
385.337	975.06
385.562	899.06
385.787	996.06
386.013	1090.06
386.238	1124.06
386.463	965.06
386.688	926.06
386.913	865.06
387.138	876.06
387.363	907.06
387.588	952.06
387.813	916.06
388.038	994.06
388.263	914.06
388.488	893.06
388.713	1014.06
388.938	1077.06
389.163	943.06
389.387	859.06
389.612	865.06
389.837	893.06
390.062	899.06
390.287	917.06
390.512	931.06
390.736	883.06
390.961	856.06
391.186	819.06
391.411	789.06
391.636	799.06
391.86	879.06
392.085	923.06
392.31	940.06
392.534	919.06
392.759	894.06
392.984	935.06
393.208	911.06
393.433	814.06
393.658	776.06
393.882	775.06
394.107	780.06
394.331	769.06
394.556	804.06
394.78	805.06
395.005	813.06
395.229	849.06
395.454	802.06
395.678	848.06
395.903	875.06
396.127	838.06
396.352	869.06
396.576	923.06
396.801	942.06
397.025	1019.06
397.249	1039.06
397.474	860.06
397.698	889.06
397.922	965.06
398.147	879.06
398.371	904.06
398.595	940.06
398.82	916.06
399.044	931.06
399.268	975.06
399.492	1008.06
399.717	1029.06
399.941	1067.06
400.165	1043.06
400.389	995.06
400.613	996.06
400.837	976.06
401.062	906.06
401.286	890.06
401.51	866.06
401.734	871.06
401.958	899.06
402.182	878.06
402.406	897.06
402.63	904.06
402.854	939.06
403.078	1045.06
403.302	1237.06
403.526	1267.06
403.75	1136.06
403.974	1019.06
404.198	1041.06
404.422	1128.06
404.645	1300.06
404.869	1405.06
405.093	1115.06
405.317	963.06
405.541	970.06
405.765	965.06
405.988	975.06
406.212	1015.06
406.436	1190.06
406.66	1317.06
406.883	1057.06
407.107	1080.06
407.331	1278.06
407.555	1226.06
407.778	1054.06
408.002	1035.06
408.226	1037.06
408.449	1033.06
408.673	977.06
408.896	936.06
409.12	889.06
409.344	893.06
409.567	891.06
409.791	866.06
410.014	871.06
410.238	885.06
410.461	871.06
410.685	866.06
410.908	900.06
411.132	895.06
411.355	917.06
411.578	915.06
411.802	891.06
412.025	941.06
412.249	964.06
412.472	914.06
412.695	932.06
412.919	937.06
413.142	930.06
413.365	984.06
413.589	984.06
413.812	929.06
414.035	903.06
414.258	904.06
414.482	990.06
414.705	1012.06
414.928	888.06
415.151	878.06
415.374	866.06
415.597	901.06
415.821	877.06
416.044	866.06
416.267	842.06
416.49	861.06
416.713	821.06
416.936	825.06
417.159	842.06
417.382	861.06
417.605	872.06
417.828	861.06
418.051	857.06
418.274	897.06
418.497	868.06
418.72	876.06
418.943	899.06
419.166	965.06
419.389	978.06
419.611	957.06
419.834	945.06
420.057	1041.06
420.28	1032.06
420.503	966.06
420.726	850.06
420.948	882.06
421.171	849.06
421.394	867.06
421.617	866.06
421.839	861.06
422.062	887.06
422.285	897.06
422.507	895.06
422.73	902.06
422.953	933.06
423.175	909.06
423.398	901.06
423.621	941.06
423.843	1000.06
424.066	921.06
424.288	918.06
424.511	910.06
424.733	884.06
424.956	904.06
425.178	1000.06
425.401	1143.06
425.623	1291.06
425.846	1072.06
426.068	963.06
426.291	1047.06
426.513	969.06
426.735	905.06
426.958	945.06
427.18	1113.06
427.402	1323.06
427.625	1332.06
427.847	1110.06
428.069	881.06
428.292	909.06
428.514	886.06
428.736	852.06
428.958	921.06
429.181	1064.06
429.403	935.06
429.625	851.06
429.847	825.06
430.069	857.06
430.292	876.06
430.514	847.06
430.736	891.06
430.958	1101.06
431.18	988.06
431.402	810.06
431.624	760.06
431.846	786.06
432.068	748.06
432.29	795.06
432.512	865.06
432.734	1103.06
432.956	1054.06
433.178	845.06
433.4	815.06
433.622	828.06
433.844	837.06
434.066	901.06
434.287	879.06
434.509	853.06
434.731	879.06
434.953	861.06
435.175	903.06
435.397	1005.06
435.618	894.06
435.84	801.06
436.062	829.06
436.284	799.06
436.505	781.06
436.727	775.06
436.949	764.06
437.17	831.06
437.392	823.06
437.614	811.06
437.835	794.06
438.057	848.06
438.278	915.06
438.5	1261.06
438.721	1237.06
438.943	918.06
439.165	809.06
439.386	739.06
439.608	788.06
439.829	766.06
440.05	782.06
440.272	830.06
440.493	936.06
440.715	1103.06
440.936	945.06
441.158	816.06
441.379	850.06
441.6	934.06
441.822	1004.06
442.043	891.06
442.264	841.06
442.486	873.06
442.707	859.06
442.928	860.06
443.149	891.06
443.371	905.06
443.592	904.06
443.813	912.06
444.034	869.06
444.255	877.06
444.476	933.06
444.698	904.06
444.919	914.06
445.14	1000.06
445.361	956.06
445.582	954.06
445.803	908.06
446.024	924.06
446.245	916.06
446.466	892.06
446.687	871.06
446.908	844.06
447.129	790.06
447.35	781.06
447.571	801.06
447.792	781.06
448.013	772.06
448.234	759.06
448.455	781.06
448.675	784.06
448.896	807.06
449.117	787.06
449.338	772.06
449.559	781.06
449.779	819.06
450	851.06
450.221	818.06
450.442	809.06
450.662	787.06
450.883	781.06
451.104	806.06
451.324	791.06
451.545	795.06
451.766	789.06
451.986	777.06
452.207	764.06
452.428	791.06
452.648	744.06
452.869	771.06
453.089	783.06
453.31	815.06
453.53	728.06
453.751	723.06
453.971	708.06
454.192	755.06
454.412	787.06
454.633	726.06
454.853	738.06
455.073	715.06
455.294	718.06
455.514	734.06
455.734	770.06
455.955	787.06
456.175	817.06
456.395	777.06
456.616	708.06
456.836	691.06
457.056	682.06
457.276	700.06
457.497	679.06
457.717	697.06
457.937	699.06
458.157	716.06
458.377	718.06
458.598	713.06
458.818	751.06
459.038	781.06
459.258	808.06
459.478	834.06
459.698	889.06
459.918	883.06
460.138	854.06
460.358	861.06
460.578	851.06
460.798	901.06
461.018	884.06
461.238	845.06
461.458	831.06
461.678	869.06
461.898	909.06
462.118	872.06
462.338	901.06
462.558	939.06
462.777	1012.06
462.997	1021.06
463.217	1003.06
463.437	1010.06
463.657	979.06
463.876	956.06
464.096	939.06
464.316	936.06
464.536	973.06
464.755	982.06
464.975	1003.06
465.195	903.06
465.414	988.06
465.634	919.06
465.854	919.06
466.073	840.06
466.293	857.06
466.512	900.06
466.732	1013.06
466.951	1003.06
467.171	897.06
467.391	876.06
467.61	855.06
467.829	883.06
468.049	919.06
468.268	840.06
468.488	841.06
468.707	871.06
468.927	1017.06
469.146	1117.06
469.365	979.06
469.585	923.06
469.804	1008.06
470.023	1062.06
470.243	926.06
470.462	906.06
470.681	914.06
470.901	894.06
471.12	937.06
471.339	931.06
471.558	879.06
471.777	891.06
471.997	958.06
472.216	1060.06
472.435	1035.06
472.654	927.06
472.873	924.06
473.092	970.06
473.311	998.06
473.53	916.06
473.749	897.06
473.968	952.06
474.187	929.06
474.406	917.06
474.625	920.06
474.844	912.06
475.063	994.06
475.282	989.06
475.501	1000.06
475.72	1078.06
475.939	1038.06
476.158	1047.06
476.377	1227.06
476.596	1389.06
476.814	1446.06
477.033	1184.06
477.252	1021.06
477.471	984.06
477.69	964.06
477.908	1072.06
478.127	1103.06
478.346	1036.06
478.564	1100.06
478.783	1093.06
479.002	1094.06
479.22	1233.06
479.439	1349.06
479.658	1179.06
479.876	1094.06
480.095	1131.06
480.313	1205.06
480.532	1095.06
480.751	1075.06
480.969	1100.06
481.188	1239.06
481.406	1251.06
481.624	1143.06
481.843	1101.06
482.061	1049.06
482.28	1153.06
482.498	1392.06
482.717	1294.06
482.935	1155.06
483.153	1084.06
483.372	1047.06
483.59	1043.06
483.808	1038.06
484.027	988.06
484.245	974.06
484.463	947.06
484.681	999.06
484.9	1063.06
485.118	1151.06
485.336	1087.06
485.554	1024.06
485.772	1039.06
485.99	1144.06
486.209	1191.06
486.427	1168.06
486.645	1161.06
486.863	1197.06
487.081	1171.06
487.299	1245.06
487.517	1255.06
487.735	1163.06
487.953	1199.06
488.171	1210.06
488.389	1148.06
488.607	1111.06
488.825	1108.06
489.043	1198.06
489.261	1336.06
489.479	1414.06
489.696	1259.06
489.914	1122.06
490.132	1043.06
490.35	1084.06
490.568	1124.06
490.786	1084.06
491.003	1136.06
491.221	1141.06
491.439	1092.06
491.657	1072.06
491.874	1182.06
492.092	1369.06
492.31	1621.06
492.527	1640.06
492.745	1428.06
492.963	1302.06
493.18	1238.06
493.398	1267.06
493.615	1273.06
493.833	1216.06
494.05	1189.06
494.268	1201.06
494.485	1209.06
494.703	1155.06
494.92	1207.06
495.138	1187.06
495.355	1173.06
495.573	1219.06
495.79	1315.06
