Data from NickelSpatula_HRD10591_16-34-52-125.txt Node
Date: Mon Jul 22 16:34:52 EDT 2019
User: cochatt
Spectrometer: HR+D1059
Trigger mode: 1
Integration Time (sec): 1.000000E-1
Scans to average: 1
Electric dark correction enabled: true
Nonlinearity correction enabled: false
Boxcar width: 0
XAxis mode: Wavelengths
Number of Pixels in Spectrum: 2048
>>>>>Begin Spectral Data<<<<<
223.165	-24.75
223.4	-24.75
223.635	-24.75
223.869	-23.75
224.104	-2.75
224.338	-20.75
224.573	-8.75
224.808	-33.75
225.042	-15.75
225.277	-5.75
225.511	1.25
225.746	4.25
225.98	12.25
226.215	16.25
226.449	23.25
226.683	14.25
226.918	26.25
227.152	38.25
227.387	27.25
227.621	44.25
227.856	33.25
228.09	39.25
228.324	44.25
228.559	52.25
228.793	70.25
229.027	67.25
229.262	70.25
229.496	73.25
229.73	70.25
229.964	83.25
230.199	96.25
230.433	89.25
230.667	95.25
230.901	97.25
231.136	91.25
231.37	83.25
231.604	100.25
231.838	106.25
232.072	100.25
232.306	119.25
232.541	105.25
232.775	105.25
233.009	97.25
233.243	111.25
233.477	98.25
233.711	114.25
233.945	124.25
234.179	106.25
234.413	110.25
234.647	128.25
234.881	129.25
235.115	110.25
235.349	122.25
235.583	114.25
235.817	115.25
236.051	118.25
236.285	121.25
236.519	127.25
236.753	127.25
236.987	129.25
237.221	123.25
237.455	135.25
237.689	126.25
237.922	118.25
238.156	128.25
238.39	135.25
238.624	156.25
238.858	138.25
239.091	121.25
239.325	133.25
239.559	138.25
239.793	147.25
240.027	146.25
240.26	159.25
240.494	145.25
240.728	143.25
240.961	169.25
241.195	146.25
241.429	154.25
241.662	151.25
241.896	140.25
242.13	119.25
242.363	139.25
242.597	137.25
242.83	151.25
243.064	130.25
243.298	158.25
243.531	163.25
243.765	170.25
243.998	151.25
244.232	164.25
244.465	142.25
244.699	156.25
244.932	156.25
245.166	147.25
245.399	123.25
245.633	132.25
245.866	149.25
246.099	164.25
246.333	174.25
246.566	174.25
246.8	174.25
247.033	180.25
247.266	180.25
247.5	182.25
247.733	151.25
247.966	162.25
248.2	154.25
248.433	168.25
248.666	196.25
248.899	182.25
249.133	190.25
249.366	206.25
249.599	230.25
249.832	216.25
250.066	196.25
250.299	186.25
250.532	183.25
250.765	189.25
250.998	184.25
251.231	174.25
251.465	192.25
251.698	204.25
251.931	208.25
252.164	208.25
252.397	202.25
252.63	216.25
252.863	240.25
253.096	223.25
253.329	241.25
253.562	228.25
253.795	248.25
254.028	294.25
254.261	303.25
254.494	275.25
254.727	238.25
254.96	251.25
255.193	243.25
255.426	241.25
255.659	197.25
255.892	185.25
256.124	201.25
256.357	223.25
256.59	232.25
256.823	247.25
257.056	216.25
257.289	205.25
257.521	214.25
257.754	221.25
257.987	267.25
258.22	247.25
258.452	208.25
258.685	214.25
258.918	250.25
259.151	261.25
259.383	260.25
259.616	288.25
259.849	300.25
260.081	311.25
260.314	337.25
260.547	290.25
260.779	291.25
261.012	308.25
261.244	297.25
261.477	300.25
261.71	302.25
261.942	277.25
262.175	267.25
262.407	264.25
262.64	243.25
262.872	307.25
263.105	316.25
263.337	321.25
263.57	326.25
263.802	228.25
264.035	208.25
264.267	200.25
264.499	198.25
264.732	169.25
264.964	190.25
265.197	156.25
265.429	198.25
265.661	199.25
265.894	210.25
266.126	213.25
266.358	224.25
266.591	254.25
266.823	319.25
267.055	286.25
267.287	277.25
267.52	279.25
267.752	295.25
267.984	297.25
268.216	293.25
268.448	267.25
268.681	246.25
268.913	262.25
269.145	278.25
269.377	277.25
269.609	278.25
269.841	268.25
270.073	278.25
270.306	299.25
270.538	295.25
270.77	285.25
271.002	297.25
271.234	328.25
271.466	318.25
271.698	302.25
271.93	277.25
272.162	290.25
272.394	296.25
272.626	267.25
272.858	306.25
273.09	304.25
273.322	263.25
273.553	266.25
273.785	271.25
274.017	346.25
274.249	422.25
274.481	465.25
274.713	450.25
274.945	515.25
275.176	541.25
275.408	512.25
275.64	469.25
275.872	467.25
276.104	433.25
276.335	389.25
276.567	352.25
276.799	393.25
277.031	406.25
277.262	323.25
277.494	254.25
277.726	247.25
277.957	282.25
278.189	291.25
278.421	295.25
278.652	279.25
278.884	281.25
279.115	268.25
279.347	251.25
279.579	271.25
279.81	256.25
280.042	236.25
280.273	254.25
280.505	257.25
280.736	226.25
280.968	228.25
281.199	257.25
281.431	255.25
281.662	255.25
281.894	257.25
282.125	261.25
282.356	297.25
282.588	289.25
282.819	262.25
283.051	276.25
283.282	312.25
283.513	372.25
283.745	410.25
283.976	398.25
284.207	385.25
284.439	383.25
284.67	384.25
284.901	352.25
285.132	390.25
285.364	391.25
285.595	359.25
285.826	382.25
286.057	390.25
286.288	379.25
286.52	394.25
286.751	395.25
286.982	423.25
287.213	373.25
287.444	349.25
287.675	362.25
287.906	358.25
288.138	346.25
288.369	284.25
288.6	283.25
288.831	287.25
289.062	332.25
289.293	346.25
289.524	342.25
289.755	315.25
289.986	350.25
290.217	302.25
290.448	248.25
290.679	225.25
290.91	202.25
291.141	208.25
291.371	222.25
291.602	220.25
291.833	231.25
292.064	224.25
292.295	234.25
292.526	305.25
292.757	282.25
292.987	297.25
293.218	317.25
293.449	346.25
293.68	348.25
293.91	329.25
294.141	370.25
294.372	338.25
294.603	289.25
294.833	303.25
295.064	352.25
295.295	363.25
295.525	284.25
295.756	230.25
295.987	233.25
296.217	226.25
296.448	233.25
296.679	247.25
296.909	252.25
297.14	247.25
297.37	295.25
297.601	278.25
297.831	254.25
298.062	264.25
298.292	277.25
298.523	295.25
298.753	342.25
298.984	344.25
299.214	272.25
299.445	226.25
299.675	219.25
299.905	214.25
300.136	224.25
300.366	225.25
300.597	240.25
300.827	209.25
301.057	198.25
301.288	219.25
301.518	240.25
301.748	256.25
301.979	275.25
302.209	284.25
302.439	261.25
302.669	287.25
302.9	272.25
303.13	249.25
303.36	248.25
303.59	233.25
303.82	239.25
304.051	267.25
304.281	271.25
304.511	294.25
304.741	256.25
304.971	260.25
305.201	261.25
305.431	248.25
305.661	246.25
305.891	228.25
306.121	219.25
306.352	201.25
306.582	182.25
306.812	199.25
307.042	184.25
307.272	195.25
307.502	186.25
307.731	180.25
307.961	217.25
308.191	195.25
308.421	183.25
308.651	175.25
308.881	175.25
309.111	173.25
309.341	190.25
309.571	209.25
309.8	201.25
310.03	210.25
310.26	206.25
310.49	210.25
310.72	188.25
310.949	186.25
311.179	190.25
311.409	199.25
311.639	225.25
311.868	277.25
312.098	344.25
312.328	377.25
312.557	368.25
312.787	350.25
313.017	325.25
313.246	371.25
313.476	370.25
313.706	333.25
313.935	265.25
314.165	226.25
314.394	191.25
314.624	205.25
314.853	219.25
315.083	217.25
315.312	210.25
315.542	207.25
315.771	208.25
316.001	199.25
316.23	181.25
316.46	192.25
316.689	192.25
316.919	181.25
317.148	171.25
317.377	194.25
317.607	188.25
317.836	190.25
318.065	230.25
318.295	250.25
318.524	228.25
318.753	194.25
318.983	201.25
319.212	188.25
319.441	210.25
319.67	223.25
319.9	236.25
320.129	226.25
320.358	204.25
320.587	196.25
320.816	200.25
321.046	240.25
321.275	264.25
321.504	264.25
321.733	249.25
321.962	244.25
322.191	220.25
322.42	229.25
322.649	227.25
322.878	266.25
323.108	243.25
323.337	220.25
323.566	232.25
323.795	218.25
324.024	223.25
324.253	218.25
324.482	224.25
324.71	194.25
324.939	243.25
325.168	240.25
325.397	213.25
325.626	207.25
325.855	208.25
326.084	191.25
326.313	180.25
326.542	179.25
326.77	193.25
326.999	184.25
327.228	199.25
327.457	210.25
327.686	219.25
327.914	196.25
328.143	192.25
328.372	184.25
328.6	191.25
328.829	193.25
329.058	201.25
329.287	177.25
329.515	180.25
329.744	177.25
329.972	191.25
330.201	174.25
330.43	184.25
330.658	183.25
330.887	215.25
331.115	210.25
331.344	225.25
331.572	194.25
331.801	193.25
332.03	186.25
332.258	180.25
332.486	199.25
332.715	217.25
332.943	199.25
333.172	190.25
333.4	206.25
333.629	230.25
333.857	228.25
334.085	231.25
334.314	222.25
334.542	207.25
334.771	203.25
334.999	201.25
335.227	207.25
335.455	193.25
335.684	203.25
335.912	244.25
336.14	276.25
336.369	255.25
336.597	232.25
336.825	257.25
337.053	306.25
337.281	247.25
337.51	206.25
337.738	187.25
337.966	214.25
338.194	246.25
338.422	225.25
338.65	218.25
338.878	185.25
339.106	198.25
339.334	218.25
339.562	208.25
339.79	211.25
340.018	207.25
340.246	207.25
340.474	252.25
340.702	249.25
340.93	264.25
341.158	246.25
341.386	224.25
341.614	202.25
341.842	220.25
342.07	224.25
342.298	247.25
342.526	273.25
342.754	223.25
342.981	227.25
343.209	212.25
343.437	211.25
343.665	248.25
343.893	231.25
344.12	287.25
344.348	307.25
344.576	280.25
344.804	242.25
345.031	225.25
345.259	207.25
345.487	204.25
345.714	214.25
345.942	225.25
346.17	234.25
346.397	226.25
346.625	211.25
346.853	197.25
347.08	190.25
347.308	198.25
347.535	215.25
347.763	242.25
347.99	200.25
348.218	182.25
348.445	196.25
348.673	219.25
348.9	208.25
349.128	221.25
349.355	226.25
349.583	212.25
349.81	212.25
350.037	214.25
350.265	184.25
350.492	176.25
350.72	167.25
350.947	176.25
351.174	185.25
351.402	196.25
351.629	199.25
351.856	194.25
352.083	186.25
352.311	199.25
352.538	209.25
352.765	240.25
352.992	214.25
353.22	230.25
353.447	210.25
353.674	200.25
353.901	214.25
354.128	211.25
354.355	218.25
354.583	223.25
354.81	222.25
355.037	250.25
355.264	206.25
355.491	240.25
355.718	217.25
355.945	229.25
356.172	214.25
356.399	212.25
356.626	251.25
356.853	304.25
357.08	316.25
357.307	336.25
357.534	285.25
357.761	285.25
357.988	356.25
358.215	360.25
358.441	342.25
358.668	300.25
358.895	274.25
359.122	243.25
359.349	263.25
359.576	283.25
359.802	228.25
360.029	203.25
360.256	203.25
360.483	233.25
360.709	289.25
360.936	320.25
361.163	285.25
361.39	238.25
361.616	210.25
361.843	219.25
362.07	264.25
362.296	259.25
362.523	213.25
362.749	180.25
362.976	184.25
363.203	233.25
363.429	244.25
363.656	224.25
363.882	196.25
364.109	204.25
364.335	223.25
364.562	190.25
364.788	206.25
365.015	259.25
365.241	222.25
365.468	201.25
365.694	191.25
365.92	185.25
366.147	169.25
366.373	154.25
366.599	171.25
366.826	162.25
367.052	167.25
367.278	163.25
367.505	167.25
367.731	180.25
367.957	182.25
368.184	201.25
368.41	212.25
368.636	212.25
368.862	215.25
369.089	193.25
369.315	190.25
369.541	174.25
369.767	182.25
369.993	177.25
370.219	164.25
370.445	180.25
370.672	195.25
370.898	206.25
371.124	223.25
371.35	200.25
371.576	192.25
371.802	201.25
372.028	228.25
372.254	233.25
372.48	245.25
372.706	198.25
372.932	216.25
373.158	230.25
373.384	233.25
373.61	309.25
373.835	296.25
374.061	239.25
374.287	231.25
374.513	242.25
374.739	303.25
374.965	315.25
375.191	291.25
375.416	220.25
375.642	195.25
375.868	224.25
376.094	256.25
376.319	215.25
376.545	238.25
376.771	234.25
376.997	230.25
377.222	184.25
377.448	157.25
377.674	163.25
377.899	160.25
378.125	177.25
378.35	160.25
378.576	154.25
378.802	183.25
379.027	199.25
379.253	214.25
379.478	210.25
379.704	198.25
379.929	212.25
380.155	224.25
380.38	195.25
380.606	201.25
380.831	241.25
381.057	225.25
381.282	191.25
381.507	236.25
381.733	263.25
381.958	278.25
382.184	283.25
382.409	302.25
382.634	295.25
382.86	316.25
383.085	286.25
383.31	231.25
383.535	244.25
383.761	231.25
383.986	234.25
384.211	274.25
384.436	269.25
384.662	207.25
384.887	206.25
385.112	211.25
385.337	220.25
385.562	208.25
385.787	224.25
386.013	241.25
386.238	252.25
386.463	191.25
386.688	212.25
386.913	174.25
387.138	185.25
387.363	196.25
387.588	204.25
387.813	197.25
388.038	212.25
388.263	207.25
388.488	196.25
388.713	222.25
388.938	256.25
389.163	220.25
389.387	193.25
389.612	200.25
389.837	205.25
390.062	203.25
390.287	196.25
390.512	193.25
390.736	187.25
390.961	195.25
391.186	184.25
391.411	181.25
391.636	178.25
391.86	186.25
392.085	212.25
392.31	204.25
392.534	194.25
392.759	190.25
392.984	219.25
393.208	214.25
393.433	194.25
393.658	184.25
393.882	174.25
394.107	172.25
394.331	195.25
394.556	148.25
394.78	167.25
395.005	177.25
395.229	178.25
395.454	195.25
395.678	192.25
395.903	194.25
396.127	177.25
396.352	185.25
396.576	213.25
396.801	216.25
397.025	238.25
397.249	241.25
397.474	211.25
397.698	194.25
397.922	192.25
398.147	193.25
398.371	192.25
398.595	205.25
398.82	205.25
399.044	201.25
399.268	218.25
399.492	232.25
399.717	242.25
399.941	236.25
400.165	213.25
400.389	204.25
400.613	212.25
400.837	217.25
401.062	184.25
401.286	183.25
401.51	191.25
401.734	203.25
401.958	203.25
402.182	202.25
402.406	186.25
402.63	194.25
402.854	192.25
403.078	225.25
403.302	286.25
403.526	289.25
403.75	281.25
403.974	241.25
404.198	245.25
404.422	259.25
404.645	261.25
404.869	310.25
405.093	251.25
405.317	207.25
405.541	223.25
405.765	218.25
405.988	216.25
406.212	239.25
406.436	260.25
406.66	282.25
406.883	228.25
407.107	243.25
407.331	257.25
407.555	249.25
407.778	230.25
408.002	223.25
408.226	228.25
408.449	230.25
408.673	204.25
408.896	208.25
409.12	202.25
409.344	200.25
409.567	191.25
409.791	186.25
410.014	207.25
410.238	200.25
410.461	186.25
410.685	198.25
410.908	195.25
411.132	208.25
411.355	210.25
411.578	201.25
411.802	191.25
412.025	188.25
412.249	211.25
412.472	202.25
412.695	201.25
412.919	198.25
413.142	204.25
413.365	211.25
413.589	215.25
413.812	218.25
414.035	206.25
414.258	192.25
414.482	213.25
414.705	226.25
414.928	192.25
415.151	202.25
415.374	183.25
415.597	194.25
415.821	210.25
416.044	204.25
416.267	192.25
416.49	181.25
416.713	200.25
416.936	188.25
417.159	174.25
417.382	192.25
417.605	198.25
417.828	203.25
418.051	220.25
418.274	200.25
418.497	190.25
418.72	200.25
418.943	206.25
419.166	209.25
419.389	228.25
419.611	224.25
419.834	209.25
420.057	214.25
420.28	224.25
420.503	217.25
420.726	187.25
420.948	181.25
421.171	198.25
421.394	189.25
421.617	192.25
421.839	201.25
422.062	199.25
422.285	195.25
422.507	202.25
422.73	202.25
422.953	195.25
423.175	206.25
423.398	188.25
423.621	225.25
423.843	244.25
424.066	216.25
424.288	183.25
424.511	200.25
424.733	183.25
424.956	196.25
425.178	219.25
425.401	255.25
425.623	299.25
425.846	258.25
426.068	208.25
426.291	217.25
426.513	205.25
426.735	192.25
426.958	184.25
427.18	208.25
427.402	304.25
427.625	309.25
427.847	244.25
428.069	200.25
428.292	199.25
428.514	189.25
428.736	188.25
428.958	207.25
429.181	254.25
429.403	212.25
429.625	200.25
429.847	190.25
430.069	195.25
430.292	189.25
430.514	198.25
430.736	201.25
430.958	218.25
431.18	212.25
431.402	195.25
431.624	171.25
431.846	169.25
432.068	171.25
432.29	181.25
432.512	196.25
432.734	226.25
432.956	234.25
433.178	185.25
433.4	175.25
433.622	172.25
433.844	186.25
434.066	223.25
434.287	212.25
434.509	190.25
434.731	201.25
434.953	188.25
435.175	201.25
435.397	234.25
435.618	199.25
435.84	180.25
436.062	172.25
436.284	190.25
436.505	180.25
436.727	180.25
436.949	169.25
437.17	199.25
437.392	213.25
437.614	182.25
437.835	186.25
438.057	177.25
438.278	190.25
438.5	261.25
438.721	281.25
438.943	208.25
439.165	184.25
439.386	171.25
439.608	178.25
439.829	150.25
440.05	166.25
440.272	183.25
440.493	195.25
440.715	246.25
440.936	192.25
441.158	193.25
441.379	194.25
441.6	207.25
441.822	219.25
442.043	184.25
442.264	181.25
442.486	197.25
442.707	190.25
442.928	191.25
443.149	188.25
443.371	197.25
443.592	206.25
443.813	194.25
444.034	196.25
444.255	196.25
444.476	207.25
444.698	195.25
444.919	215.25
445.14	344.25
445.361	292.25
445.582	209.25
445.803	202.25
446.024	218.25
446.245	210.25
446.466	206.25
446.687	195.25
446.908	198.25
447.129	176.25
447.35	178.25
447.571	165.25
447.792	172.25
448.013	176.25
448.234	179.25
448.455	176.25
448.675	178.25
448.896	171.25
449.117	188.25
449.338	174.25
449.559	192.25
449.779	186.25
450	193.25
450.221	187.25
450.442	179.25
450.662	169.25
450.883	172.25
451.104	171.25
451.324	180.25
451.545	188.25
451.766	192.25
451.986	169.25
452.207	178.25
452.428	163.25
452.648	166.25
452.869	194.25
453.089	198.25
453.31	177.25
453.53	160.25
453.751	180.25
453.971	172.25
454.192	151.25
454.412	184.25
454.633	185.25
454.853	176.25
455.073	174.25
455.294	166.25
455.514	158.25
455.734	137.25
455.955	174.25
456.175	178.25
456.395	175.25
456.616	160.25
456.836	179.25
457.056	154.25
457.276	158.25
457.497	169.25
457.717	154.25
457.937	162.25
458.157	150.25
458.377	174.25
458.598	159.25
458.818	186.25
459.038	166.25
459.258	188.25
459.478	183.25
459.698	191.25
459.918	184.25
460.138	187.25
460.358	212.25
460.578	185.25
460.798	186.25
461.018	184.25
461.238	178.25
461.458	201.25
461.678	198.25
461.898	213.25
462.118	194.25
462.338	206.25
462.558	210.25
462.777	219.25
462.997	227.25
463.217	201.25
463.437	211.25
463.657	210.25
463.876	192.25
464.096	216.25
464.316	206.25
464.536	217.25
464.755	227.25
464.975	226.25
465.195	223.25
465.414	232.25
465.634	196.25
465.854	198.25
466.073	179.25
466.293	178.25
466.512	207.25
466.732	206.25
466.951	211.25
467.171	190.25
467.391	192.25
467.61	175.25
467.829	190.25
468.049	205.25
468.268	192.25
468.488	162.25
468.707	176.25
468.927	200.25
469.146	207.25
469.365	213.25
469.585	211.25
469.804	203.25
470.023	194.25
470.243	219.25
470.462	200.25
470.681	188.25
470.901	180.25
471.12	205.25
471.339	202.25
471.558	196.25
471.777	183.25
471.997	209.25
472.216	241.25
472.435	218.25
472.654	222.25
472.873	214.25
473.092	213.25
473.311	217.25
473.53	186.25
473.749	185.25
473.968	225.25
474.187	192.25
474.406	170.25
474.625	191.25
474.844	196.25
475.063	200.25
475.282	204.25
475.501	226.25
475.72	244.25
475.939	228.25
476.158	229.25
476.377	250.25
476.596	297.25
476.814	308.25
477.033	261.25
477.252	215.25
477.471	209.25
477.69	214.25
477.908	210.25
478.127	223.25
478.346	228.25
478.564	263.25
478.783	233.25
479.002	208.25
479.22	268.25
479.439	274.25
479.658	233.25
479.876	220.25
480.095	236.25
480.313	227.25
480.532	219.25
480.751	222.25
480.969	217.25
481.188	239.25
481.406	266.25
481.624	230.25
481.843	230.25
482.061	210.25
482.28	240.25
482.498	286.25
482.717	308.25
482.935	256.25
483.153	246.25
483.372	203.25
483.59	196.25
483.808	210.25
484.027	206.25
484.245	191.25
484.463	196.25
484.681	204.25
484.9	213.25
485.118	220.25
485.336	219.25
485.554	203.25
485.772	230.25
485.99	231.25
486.209	244.25
486.427	248.25
486.645	233.25
486.863	225.25
487.081	250.25
487.299	278.25
487.517	254.25
487.735	238.25
487.953	243.25
488.171	232.25
488.389	231.25
488.607	239.25
488.825	221.25
489.043	270.25
489.261	286.25
489.479	307.25
489.696	267.25
489.914	232.25
490.132	208.25
490.35	218.25
490.568	212.25
490.786	226.25
491.003	211.25
491.221	224.25
491.439	215.25
491.657	216.25
491.874	226.25
492.092	278.25
492.31	343.25
492.527	322.25
492.745	270.25
492.963	242.25
493.18	240.25
493.398	231.25
493.615	240.25
493.833	242.25
494.05	255.25
494.268	242.25
494.485	222.25
494.703	223.25
494.92	245.25
495.138	227.25
495.355	210.25
495.573	233.25
495.79	262.25
496.008	372.25
496.225	288.25
496.442	255.25
496.66	231.25
496.877	260.25
497.094	248.25
497.312	241.25
497.529	245.25
497.746	227.25
497.963	262.25
498.181	270.25
498.398	285.25
498.615	308.25
498.832	317.25
499.049	326.25
499.267	301.25
499.484	309.25
499.701	300.25
499.918	342.25
500.135	374.25
500.352	374.25
500.569	391.25
500.786	401.25
501.003	400.25
501.22	357.25
501.437	325.25
501.654	325.25
501.871	317.25
502.088	320.25
502.305	288.25
502.522	281.25
502.739	278.25
