Data from NickelSpatula.Lamp.E10.P2_HRD10591_11-58-16-528.txt Node
Date: Tue Jul 23 11:58:16 EDT 2019
User: cochatt
Spectrometer: HR+D1059
Trigger mode: 1
Integration Time (sec): 1.000000E-1
Scans to average: 1
Electric dark correction enabled: true
Nonlinearity correction enabled: false
Boxcar width: 0
XAxis mode: Wavelengths
Number of Pixels in Spectrum: 2048
>>>>>Begin Spectral Data<<<<<
223.165	-8.5
223.4	-8.5
223.635	-8.5
223.869	-27.5
224.104	-29.5
224.338	-14.5
224.573	-10.5
224.808	-20.5
225.042	8.5
225.277	7.5
225.511	-2.5
225.746	15.5
225.98	13.5
226.215	2.5
226.449	13.5
226.683	2.5
226.918	26.5
227.152	23.5
227.387	32.5
227.621	45.5
227.856	30.5
228.09	52.5
228.324	47.5
228.559	51.5
228.793	79.5
229.027	156.5
229.262	153.5
229.496	133.5
229.73	164.5
229.964	192.5
230.199	217.5
230.433	229.5
230.667	208.5
230.901	210.5
231.136	193.5
231.37	220.5
231.604	213.5
231.838	253.5
232.072	238.5
232.306	241.5
232.541	243.5
232.775	255.5
233.009	243.5
233.243	278.5
233.477	314.5
233.711	338.5
233.945	327.5
234.179	329.5
234.413	336.5
234.647	390.5
234.881	466.5
235.115	430.5
235.349	401.5
235.583	364.5
235.817	348.5
236.051	382.5
236.285	414.5
236.519	464.5
236.753	439.5
236.987	425.5
237.221	400.5
237.455	405.5
237.689	444.5
237.922	464.5
238.156	443.5
238.39	561.5
238.624	661.5
238.858	596.5
239.091	488.5
239.325	514.5
239.559	489.5
239.793	544.5
240.027	668.5
240.26	604.5
240.494	586.5
240.728	599.5
240.961	690.5
241.195	654.5
241.429	641.5
241.662	630.5
241.896	520.5
242.13	490.5
242.363	431.5
242.597	466.5
242.83	563.5
243.064	549.5
243.298	569.5
243.531	643.5
243.765	643.5
243.998	643.5
244.232	600.5
244.465	593.5
244.699	580.5
244.932	670.5
245.166	632.5
245.399	578.5
245.633	571.5
245.866	561.5
246.099	624.5
246.333	694.5
246.566	745.5
246.8	785.5
247.033	764.5
247.266	688.5
247.5	675.5
247.733	674.5
247.966	644.5
248.2	707.5
248.433	779.5
248.666	873.5
248.899	828.5
249.133	896.5
249.366	982.5
249.599	1047.5
249.832	966.5
250.066	828.5
250.299	862.5
250.532	801.5
250.765	789.5
250.998	749.5
251.231	690.5
251.465	772.5
251.698	837.5
251.931	805.5
252.164	824.5
252.397	934.5
252.63	1095.5
252.863	1167.5
253.096	1206.5
253.329	1171.5
253.562	1109.5
253.795	1205.5
254.028	1387.5
254.261	1399.5
254.494	1264.5
254.727	1137.5
254.96	1130.5
255.193	1178.5
255.426	1158.5
255.659	868.5
255.892	817.5
256.124	863.5
256.357	1020.5
256.59	1217.5
256.823	1133.5
257.056	960.5
257.289	958.5
257.521	971.5
257.754	1145.5
257.987	1281.5
258.22	1121.5
258.452	1012.5
258.685	1159.5
258.918	1285.5
259.151	1269.5
259.383	1268.5
259.616	1505.5
259.849	1586.5
260.081	1712.5
260.314	1884.5
260.547	1473.5
260.779	1485.5
261.012	1711.5
261.244	1616.5
261.477	1661.5
261.71	1548.5
261.942	1312.5
262.175	1280.5
262.407	1215.5
262.64	1284.5
262.872	1511.5
263.105	1673.5
263.337	1741.5
263.57	1542.5
263.802	1038.5
264.035	897.5
264.267	861.5
264.499	774.5
264.732	716.5
264.964	686.5
265.197	718.5
265.429	751.5
265.661	828.5
265.894	844.5
266.126	900.5
266.358	1022.5
266.591	1250.5
266.823	1456.5
267.055	1409.5
267.287	1256.5
267.52	1250.5
267.752	1286.5
267.984	1438.5
268.216	1367.5
268.448	1112.5
268.681	1128.5
268.913	1224.5
269.145	1280.5
269.377	1327.5
269.609	1282.5
269.841	1248.5
270.073	1326.5
270.306	1345.5
270.538	1382.5
270.77	1379.5
271.002	1413.5
271.234	1464.5
271.466	1484.5
271.698	1469.5
271.93	1413.5
272.162	1404.5
272.394	1434.5
272.626	1390.5
272.858	1485.5
273.09	1471.5
273.322	1302.5
273.553	1251.5
273.785	1511.5
274.017	2001.5
274.249	2495.5
274.481	2579.5
274.713	2778.5
274.945	3176.5
275.176	3284.5
275.408	2900.5
275.64	2617.5
275.872	2666.5
276.104	2221.5
276.335	1931.5
276.567	1884.5
276.799	1985.5
277.031	2048.5
277.262	1602.5
277.494	1234.5
277.726	1210.5
277.957	1340.5
278.189	1496.5
278.421	1466.5
278.652	1439.5
278.884	1367.5
279.115	1260.5
279.347	1219.5
279.579	1210.5
279.81	1185.5
280.042	1200.5
280.273	1257.5
280.505	1157.5
280.736	1020.5
280.968	1034.5
281.199	1090.5
281.431	1221.5
281.662	1222.5
281.894	1190.5
282.125	1228.5
282.356	1352.5
282.588	1365.5
282.819	1258.5
283.051	1375.5
283.282	1692.5
283.513	1956.5
283.745	2132.5
283.976	2136.5
284.207	2027.5
284.439	2074.5
284.67	2035.5
284.901	1814.5
285.132	1958.5
285.364	1988.5
285.595	1896.5
285.826	2009.5
286.057	2046.5
286.288	1980.5
286.52	2008.5
286.751	2133.5
286.982	2104.5
287.213	1828.5
287.444	1754.5
287.675	1879.5
287.906	1841.5
288.138	1530.5
288.369	1368.5
288.6	1273.5
288.831	1337.5
289.062	1578.5
289.293	1708.5
289.524	1633.5
289.755	1612.5
289.986	1652.5
290.217	1446.5
290.448	1121.5
290.679	972.5
290.91	921.5
291.141	918.5
291.371	993.5
291.602	994.5
291.833	987.5
292.064	1061.5
292.295	1210.5
292.526	1387.5
292.757	1477.5
292.987	1533.5
293.218	1527.5
293.449	1579.5
293.68	1679.5
293.91	1608.5
294.141	1617.5
294.372	1512.5
294.603	1409.5
294.833	1571.5
295.064	1812.5
295.295	1727.5
295.525	1302.5
295.756	1127.5
295.987	996.5
296.217	1036.5
296.448	1036.5
296.679	1108.5
296.909	1202.5
297.14	1316.5
297.37	1432.5
297.601	1373.5
297.831	1175.5
298.062	1249.5
298.292	1447.5
298.523	1590.5
298.753	1833.5
298.984	1607.5
299.214	1268.5
299.445	1060.5
299.675	1023.5
299.905	1025.5
300.136	1072.5
300.366	1176.5
300.597	1161.5
300.827	1040.5
301.057	980.5
301.288	974.5
301.518	1056.5
301.748	1202.5
301.979	1334.5
302.209	1429.5
302.439	1415.5
302.669	1232.5
302.9	1242.5
303.13	1159.5
303.36	1090.5
303.59	1048.5
303.82	1086.5
304.051	1262.5
304.281	1341.5
304.511	1275.5
304.741	1135.5
304.971	1213.5
305.201	1296.5
305.431	1208.5
305.661	1045.5
305.891	1048.5
306.121	1060.5
306.352	963.5
306.582	880.5
306.812	863.5
307.042	867.5
307.272	818.5
307.502	856.5
307.731	874.5
307.961	932.5
308.191	852.5
308.421	817.5
308.651	787.5
308.881	770.5
309.111	788.5
309.341	819.5
309.571	879.5
309.8	915.5
310.03	925.5
310.26	1010.5
310.49	976.5
310.72	876.5
310.949	816.5
311.179	873.5
311.409	938.5
311.639	1101.5
311.868	1381.5
312.098	1784.5
312.328	1932.5
312.557	1872.5
312.787	1877.5
313.017	1682.5
313.246	1823.5
313.476	1949.5
313.706	1670.5
313.935	1274.5
314.165	1012.5
314.394	967.5
314.624	945.5
314.853	1025.5
315.083	1023.5
315.312	1008.5
315.542	980.5
315.771	952.5
316.001	870.5
316.23	835.5
316.46	851.5
316.689	862.5
316.919	869.5
317.148	908.5
317.377	878.5
317.607	893.5
317.836	980.5
318.065	1128.5
318.295	1218.5
318.524	1152.5
318.753	962.5
318.983	933.5
319.212	924.5
319.441	1029.5
319.67	1154.5
319.9	1212.5
320.129	1147.5
320.358	985.5
320.587	948.5
320.816	1028.5
321.046	1176.5
321.275	1331.5
321.504	1304.5
321.733	1255.5
321.962	1220.5
322.191	1142.5
322.42	1092.5
322.649	1129.5
322.878	1189.5
323.108	1196.5
323.337	1109.5
323.566	1067.5
323.795	1046.5
324.024	1022.5
324.253	981.5
324.482	920.5
324.71	1087.5
324.939	1215.5
325.168	1111.5
325.397	952.5
325.626	926.5
325.855	910.5
326.084	940.5
326.313	860.5
326.542	828.5
326.77	858.5
326.999	905.5
327.228	942.5
327.457	993.5
327.686	982.5
327.914	894.5
328.143	806.5
328.372	837.5
328.6	862.5
328.829	861.5
329.058	879.5
329.287	892.5
329.515	890.5
329.744	891.5
329.972	833.5
330.201	799.5
330.43	848.5
330.658	936.5
330.887	1078.5
331.115	1022.5
331.344	990.5
331.572	943.5
331.801	904.5
332.03	837.5
332.258	865.5
332.486	943.5
332.715	986.5
332.943	911.5
333.172	929.5
333.4	947.5
333.629	1021.5
333.857	1117.5
334.085	1125.5
334.314	1111.5
334.542	1069.5
334.771	959.5
334.999	964.5
335.227	917.5
335.455	963.5
335.684	1015.5
335.912	1204.5
336.14	1315.5
336.369	1271.5
336.597	1225.5
336.825	1336.5
337.053	1520.5
337.281	1239.5
337.51	970.5
337.738	978.5
337.966	1076.5
338.194	1158.5
338.422	1105.5
338.65	936.5
338.878	882.5
339.106	920.5
339.334	991.5
339.562	1064.5
339.79	985.5
340.018	942.5
340.246	1034.5
340.474	1194.5
340.702	1244.5
340.93	1305.5
341.158	1294.5
341.386	1101.5
341.614	1096.5
341.842	1100.5
342.07	1168.5
342.298	1315.5
342.526	1382.5
342.754	1152.5
342.981	1094.5
343.209	1054.5
343.437	1127.5
343.665	1186.5
343.893	1180.5
344.12	1373.5
344.348	1614.5
344.576	1414.5
344.804	1176.5
345.031	1020.5
345.259	983.5
345.487	984.5
345.714	999.5
345.942	1095.5
346.17	1163.5
346.397	1160.5
346.625	985.5
346.853	960.5
347.08	960.5
347.308	977.5
347.535	1114.5
347.763	1113.5
347.99	978.5
348.218	912.5
348.445	996.5
348.673	975.5
348.9	948.5
349.128	1054.5
349.355	1073.5
349.583	1038.5
349.81	968.5
350.037	916.5
350.265	857.5
350.492	784.5
350.72	804.5
350.947	808.5
351.174	887.5
351.402	969.5
351.629	965.5
351.856	932.5
352.083	887.5
352.311	953.5
352.538	1091.5
352.765	1146.5
352.992	1022.5
353.22	957.5
353.447	1011.5
353.674	950.5
353.901	952.5
354.128	952.5
354.355	1020.5
354.583	974.5
354.81	991.5
355.037	1040.5
355.264	978.5
355.491	1071.5
355.718	1138.5
355.945	1122.5
356.172	1088.5
356.399	1109.5
356.626	1323.5
356.853	1626.5
357.08	1675.5
357.307	1701.5
357.534	1346.5
357.761	1393.5
357.988	1716.5
358.215	2008.5
358.441	1923.5
358.668	1596.5
358.895	1487.5
359.122	1181.5
359.349	1189.5
359.576	1303.5
359.802	1088.5
360.029	952.5
360.256	1033.5
360.483	1271.5
360.709	1596.5
360.936	1658.5
361.163	1422.5
361.39	1111.5
361.616	1031.5
361.843	1188.5
362.07	1479.5
362.296	1324.5
362.523	1034.5
362.749	920.5
362.976	968.5
363.203	1189.5
363.429	1348.5
363.656	1089.5
363.882	979.5
364.109	996.5
364.335	993.5
364.562	982.5
364.788	1092.5
365.015	1306.5
365.241	1155.5
365.468	967.5
365.694	839.5
365.92	808.5
366.147	794.5
366.373	762.5
366.599	766.5
366.826	795.5
367.052	815.5
367.278	806.5
367.505	842.5
367.731	877.5
367.957	1004.5
368.184	1028.5
368.41	994.5
368.636	998.5
368.862	1049.5
369.089	1046.5
369.315	898.5
369.541	898.5
369.767	880.5
369.993	852.5
370.219	846.5
370.445	885.5
370.672	1020.5
370.898	1097.5
371.124	1077.5
371.35	960.5
371.576	889.5
371.802	976.5
372.028	1143.5
372.254	1328.5
372.48	1116.5
372.706	995.5
372.932	1074.5
373.158	1138.5
373.384	1358.5
373.61	1776.5
373.835	1826.5
374.061	1355.5
374.287	1142.5
374.513	1385.5
374.739	1624.5
374.965	1703.5
375.191	1670.5
375.416	1145.5
375.642	1018.5
375.868	1170.5
376.094	1325.5
376.319	1174.5
376.545	1234.5
376.771	1374.5
376.997	1141.5
377.222	856.5
377.448	745.5
377.674	744.5
377.899	749.5
378.125	776.5
378.35	758.5
378.576	742.5
378.802	871.5
379.027	925.5
379.253	894.5
379.478	914.5
379.704	1034.5
379.929	1097.5
380.155	1065.5
380.38	928.5
380.606	1001.5
380.831	1104.5
381.057	1034.5
381.282	955.5
381.507	1155.5
381.733	1452.5
381.958	1538.5
382.184	1597.5
382.409	1697.5
382.634	1646.5
382.86	1717.5
383.085	1400.5
383.31	1124.5
383.535	1230.5
383.761	1223.5
383.986	1158.5
384.211	1393.5
384.436	1364.5
384.662	1026.5
384.887	999.5
385.112	1004.5
385.337	1038.5
385.562	977.5
385.787	1102.5
386.013	1226.5
386.238	1256.5
386.463	991.5
386.688	974.5
386.913	961.5
387.138	892.5
387.363	937.5
387.588	988.5
387.813	968.5
388.038	1079.5
388.263	968.5
388.488	970.5
388.713	1119.5
388.938	1198.5
389.163	998.5
389.387	901.5
389.612	933.5
389.837	958.5
390.062	972.5
390.287	1020.5
390.512	1021.5
390.736	920.5
390.961	896.5
391.186	861.5
391.411	855.5
391.636	850.5
391.86	897.5
392.085	997.5
392.31	1031.5
392.534	952.5
392.759	918.5
392.984	1003.5
393.208	984.5
393.433	850.5
393.658	810.5
393.882	810.5
394.107	790.5
394.331	813.5
394.556	824.5
394.78	820.5
395.005	851.5
395.229	882.5
395.454	867.5
395.678	892.5
395.903	944.5
396.127	890.5
396.352	888.5
396.576	962.5
396.801	1002.5
397.025	1132.5
397.249	1095.5
397.474	944.5
397.698	931.5
397.922	975.5
398.147	916.5
398.371	917.5
398.595	970.5
398.82	931.5
399.044	930.5
399.268	999.5
399.492	1033.5
399.717	1063.5
399.941	1088.5
400.165	1058.5
400.389	1020.5
400.613	1050.5
400.837	1039.5
401.062	932.5
401.286	895.5
401.51	906.5
401.734	896.5
401.958	920.5
402.182	889.5
402.406	910.5
402.63	931.5
402.854	948.5
403.078	1098.5
403.302	1296.5
403.526	1316.5
403.75	1193.5
403.974	1048.5
404.198	1084.5
404.422	1187.5
404.645	1416.5
404.869	1562.5
405.093	1145.5
405.317	1000.5
405.541	975.5
405.765	1000.5
405.988	1033.5
406.212	1089.5
406.436	1309.5
406.66	1408.5
406.883	1132.5
407.107	1174.5
407.331	1344.5
407.555	1292.5
407.778	1124.5
408.002	1080.5
408.226	1055.5
408.449	1057.5
408.673	1012.5
408.896	916.5
409.12	935.5
409.344	907.5
409.567	891.5
409.791	898.5
410.014	885.5
410.238	889.5
410.461	893.5
410.685	898.5
410.908	903.5
411.132	935.5
411.355	911.5
411.578	932.5
411.802	946.5
412.025	966.5
412.249	985.5
412.472	961.5
412.695	980.5
412.919	900.5
413.142	953.5
413.365	1061.5
413.589	1070.5
413.812	961.5
414.035	931.5
414.258	940.5
414.482	1030.5
414.705	1060.5
414.928	896.5
415.151	899.5
415.374	880.5
415.597	918.5
415.821	920.5
416.044	905.5
416.267	877.5
416.49	904.5
416.713	869.5
416.936	832.5
417.159	849.5
417.382	882.5
417.605	899.5
417.828	920.5
418.051	941.5
418.274	978.5
418.497	953.5
418.72	942.5
418.943	944.5
419.166	995.5
419.389	1022.5
419.611	1005.5
419.834	1032.5
420.057	1100.5
420.28	1124.5
420.503	1023.5
420.726	902.5
420.948	874.5
421.171	867.5
421.394	872.5
421.617	869.5
421.839	874.5
422.062	949.5
422.285	931.5
422.507	917.5
422.73	964.5
422.953	996.5
423.175	961.5
423.398	917.5
423.621	1008.5
423.843	1050.5
424.066	952.5
424.288	933.5
424.511	918.5
424.733	914.5
424.956	936.5
425.178	1084.5
425.401	1243.5
425.623	1381.5
425.846	1150.5
426.068	1017.5
426.291	1090.5
426.513	1020.5
426.735	967.5
426.958	999.5
427.18	1167.5
427.402	1484.5
427.625	1435.5
427.847	1197.5
428.069	889.5
428.292	913.5
428.514	907.5
428.736	873.5
428.958	944.5
429.181	1112.5
429.403	985.5
429.625	920.5
429.847	846.5
430.069	914.5
430.292	942.5
430.514	865.5
430.736	960.5
430.958	1192.5
431.18	1082.5
431.402	851.5
431.624	822.5
431.846	791.5
432.068	799.5
432.29	818.5
432.512	906.5
432.734	1217.5
432.956	1168.5
433.178	906.5
433.4	862.5
433.622	853.5
433.844	871.5
434.066	938.5
434.287	906.5
434.509	876.5
434.731	918.5
434.953	845.5
435.175	924.5
435.397	992.5
435.618	888.5
435.84	837.5
436.062	834.5
436.284	856.5
436.505	788.5
436.727	776.5
436.949	814.5
437.17	835.5
437.392	857.5
437.614	840.5
437.835	814.5
438.057	858.5
438.278	970.5
438.5	1411.5
438.721	1392.5
438.943	949.5
439.165	801.5
439.386	802.5
439.608	782.5
439.829	794.5
440.05	794.5
440.272	862.5
440.493	1015.5
440.715	1256.5
440.936	992.5
441.158	856.5
441.379	860.5
441.6	994.5
441.822	1024.5
442.043	885.5
442.264	867.5
442.486	891.5
442.707	873.5
442.928	864.5
443.149	892.5
443.371	878.5
443.592	946.5
443.813	898.5
444.034	886.5
444.255	932.5
444.476	943.5
444.698	922.5
444.919	998.5
445.14	1065.5
445.361	1029.5
445.582	968.5
445.803	934.5
446.024	963.5
446.245	932.5
446.466	941.5
446.687	864.5
446.908	876.5
447.129	822.5
447.35	820.5
447.571	798.5
447.792	802.5
448.013	783.5
448.234	778.5
448.455	776.5
448.675	808.5
448.896	830.5
449.117	796.5
449.338	842.5
449.559	854.5
449.779	879.5
450	869.5
450.221	837.5
450.442	828.5
450.662	809.5
450.883	803.5
451.104	822.5
451.324	802.5
451.545	808.5
451.766	788.5
451.986	787.5
452.207	760.5
452.428	748.5
452.648	765.5
452.869	822.5
453.089	870.5
453.31	845.5
453.53	771.5
453.751	724.5
453.971	736.5
454.192	768.5
454.412	792.5
454.633	736.5
454.853	757.5
455.073	725.5
455.294	739.5
455.514	721.5
455.734	774.5
455.955	837.5
456.175	858.5
456.395	727.5
456.616	694.5
456.836	716.5
457.056	708.5
457.276	698.5
457.497	708.5
457.717	722.5
457.937	720.5
458.157	720.5
458.377	725.5
458.598	773.5
458.818	769.5
459.038	806.5
459.258	807.5
459.478	848.5
459.698	870.5
459.918	869.5
460.138	869.5
460.358	922.5
460.578	878.5
460.798	899.5
461.018	896.5
461.238	841.5
461.458	862.5
461.678	896.5
461.898	924.5
462.118	905.5
462.338	947.5
462.558	964.5
462.777	1004.5
462.997	1034.5
463.217	1018.5
463.437	1041.5
463.657	1040.5
463.876	973.5
464.096	959.5
464.316	951.5
464.536	982.5
464.755	1034.5
464.975	1000.5
465.195	948.5
465.414	986.5
465.634	961.5
465.854	958.5
466.073	873.5
466.293	898.5
466.512	921.5
466.732	1038.5
466.951	1017.5
467.171	932.5
467.391	894.5
467.61	904.5
467.829	934.5
468.049	926.5
468.268	883.5
468.488	891.5
468.707	902.5
468.927	1080.5
469.146	1168.5
469.365	1032.5
469.585	953.5
469.804	1000.5
470.023	1093.5
470.243	964.5
470.462	934.5
470.681	944.5
470.901	914.5
471.12	954.5
471.339	957.5
471.558	926.5
471.777	910.5
471.997	1020.5
472.216	1096.5
472.435	1124.5
472.654	1012.5
472.873	952.5
473.092	1022.5
473.311	1074.5
473.53	974.5
473.749	945.5
473.968	982.5
474.187	1004.5
474.406	952.5
474.625	897.5
474.844	974.5
475.063	1056.5
475.282	1040.5
475.501	1088.5
475.72	1108.5
475.939	1105.5
476.158	1109.5
476.377	1279.5
476.596	1458.5
476.814	1501.5
477.033	1244.5
477.252	1062.5
477.471	1018.5
477.69	1022.5
477.908	1109.5
478.127	1152.5
478.346	1075.5
478.564	1146.5
478.783	1090.5
479.002	1097.5
479.22	1302.5
479.439	1440.5
479.658	1234.5
479.876	1131.5
480.095	1213.5
480.313	1244.5
480.532	1121.5
480.751	1107.5
480.969	1132.5
481.188	1270.5
481.406	1343.5
481.624	1228.5
481.843	1136.5
482.061	1063.5
482.28	1209.5
482.498	1439.5
482.717	1377.5
482.935	1200.5
483.153	1116.5
483.372	1075.5
483.59	1043.5
483.808	1063.5
484.027	1006.5
484.245	1006.5
484.463	981.5
484.681	1036.5
484.9	1087.5
485.118	1182.5
485.336	1100.5
485.554	1030.5
485.772	1119.5
485.99	1193.5
486.209	1257.5
486.427	1245.5
486.645	1198.5
486.863	1259.5
487.081	1206.5
487.299	1388.5
487.517	1352.5
487.735	1220.5
487.953	1235.5
488.171	1308.5
488.389	1200.5
488.607	1129.5
488.825	1180.5
489.043	1269.5
489.261	1440.5
489.479	1562.5
489.696	1302.5
489.914	1192.5
490.132	1155.5
490.35	1134.5
490.568	1162.5
490.786	1122.5
491.003	1141.5
491.221	1172.5
491.439	1176.5
491.657	1145.5
491.874	1206.5
492.092	1474.5
492.31	1767.5
492.527	1756.5
492.745	1532.5
492.963	1333.5
493.18	1270.5
493.398	1306.5
493.615	1294.5
493.833	1220.5
494.05	1242.5
494.268	1258.5
494.485	1256.5
494.703	1183.5
494.92	1233.5
495.138	1232.5
495.355	1223.5
495.573	1263.5
495.79	1382.5
496.008	1838.5
496.225	1589.5
496.442	1380.5
496.66	1337.5
496.877	1452.5
497.094	1404.5
497.312	1336.5
497.529	1316.5
497.746	1345.5
497.963	1355.5
498.181	1482.5
498.398	1620.5
498.615	1660.5
498.832	1713.5
499.049	1684.5
499.267	1555.5
499.484	1566.5
499.701	1588.5
499.918	1770.5
500.135	1852.5
500.352	1879.5
500.569	1944.5
500.786	2030.5
501.003	1997.5
501.22	1857.5
501.437	1699.5
501.654	1663.5
501.871	1641.5
502.088	1671.5
502.305	1545.5
502.522	1495.5
502.739	1521.5
502.956	1388.5
503.172	1378.5
503.389	1300.5
503.606	1282.5
503.823	1282.5
504.04	1345.5
504.256	1312.5
504.473	1342.5
504.69	1346.5
504.907	1423.5
505.123	1357.5
505.34	1412.5
505.557	1416.5
505.773	1350.5
505.99	1300.5
506.207	1362.5
506.423	1258.5
506.64	1223.5
506.856	1263.5
507.073	1406.5
507.289	1336.5
507.506	1342.5
507.722	1394.5
507.939	1449.5
508.155	1444.5
508.372	1288.5
508.588	1279.5
508.805	1233.5
509.021	1206.5
509.238	1157.5
509.454	1168.5
509.67	1162.5
509.887	1173.5
510.103	1360.5
510.319	1301.5
510.536	1180.5
510.752	1090.5
