Data from NickelSpatula.Lamp.E5.5.P2_HRD10591_11-51-48-558.txt Node
Date: Tue Jul 23 11:51:48 EDT 2019
User: cochatt
Spectrometer: HR+D1059
Trigger mode: 1
Integration Time (sec): 1.000000E-1
Scans to average: 1
Electric dark correction enabled: true
Nonlinearity correction enabled: false
Boxcar width: 0
XAxis mode: Wavelengths
Number of Pixels in Spectrum: 2048
>>>>>Begin Spectral Data<<<<<
223.165	-8.25
223.4	-8.25
223.635	-8.25
223.869	-16.25
224.104	-21.25
224.338	-11.25
224.573	-17.25
224.808	-12.25
225.042	-13.25
225.277	-13.25
225.511	-1.25
225.746	-20.25
225.98	10.75
226.215	18.75
226.449	26.75
226.683	31.75
226.918	14.75
227.152	31.75
227.387	33.75
227.621	48.75
227.856	57.75
228.09	36.75
228.324	48.75
228.559	70.75
228.793	53.75
229.027	80.75
229.262	90.75
229.496	89.75
229.73	98.75
229.964	91.75
230.199	92.75
230.433	106.75
230.667	98.75
230.901	106.75
231.136	101.75
231.37	119.75
231.604	107.75
231.838	88.75
232.072	109.75
232.306	104.75
232.541	115.75
232.775	104.75
233.009	106.75
233.243	117.75
233.477	112.75
233.711	122.75
233.945	119.75
234.179	108.75
234.413	124.75
234.647	142.75
234.881	151.75
235.115	140.75
235.349	136.75
235.583	121.75
235.817	120.75
236.051	122.75
236.285	128.75
236.519	135.75
236.753	132.75
236.987	143.75
237.221	129.75
237.455	118.75
237.689	122.75
237.922	143.75
238.156	142.75
238.39	165.75
238.624	184.75
238.858	159.75
239.091	148.75
239.325	137.75
239.559	150.75
239.793	170.75
240.027	179.75
240.26	169.75
240.494	172.75
240.728	164.75
240.961	176.75
241.195	168.75
241.429	170.75
241.662	181.75
241.896	150.75
242.13	140.75
242.363	141.75
242.597	163.75
242.83	164.75
243.064	164.75
243.298	158.75
243.531	175.75
243.765	170.75
243.998	169.75
244.232	161.75
244.465	152.75
244.699	161.75
244.932	166.75
245.166	176.75
245.399	165.75
245.633	163.75
245.866	171.75
246.099	168.75
246.333	175.75
246.566	186.75
246.8	191.75
247.033	199.75
247.266	184.75
247.5	178.75
247.733	180.75
247.966	164.75
248.2	178.75
248.433	209.75
248.666	202.75
248.899	202.75
249.133	188.75
249.366	223.75
249.599	243.75
249.832	229.75
250.066	201.75
250.299	216.75
250.532	207.75
250.765	204.75
250.998	174.75
251.231	174.75
251.465	193.75
251.698	211.75
251.931	206.75
252.164	203.75
252.397	225.75
252.63	238.75
252.863	245.75
253.096	274.75
253.329	256.75
253.562	236.75
253.795	274.75
254.028	304.75
254.261	321.75
254.494	269.75
254.727	254.75
254.96	236.75
255.193	269.75
255.426	250.75
255.659	218.75
255.892	194.75
256.124	217.75
256.357	256.75
256.59	269.75
256.823	261.75
257.056	212.75
257.289	208.75
257.521	235.75
257.754	243.75
257.987	298.75
258.22	277.75
258.452	242.75
258.685	264.75
258.918	291.75
259.151	302.75
259.383	310.75
259.616	339.75
259.849	348.75
260.081	343.75
260.314	398.75
260.547	320.75
260.779	336.75
261.012	396.75
261.244	328.75
261.477	370.75
261.71	325.75
261.942	314.75
262.175	284.75
262.407	278.75
262.64	268.75
262.872	326.75
263.105	347.75
263.337	363.75
263.57	327.75
263.802	233.75
264.035	224.75
264.267	222.75
264.499	190.75
264.732	199.75
264.964	182.75
265.197	186.75
265.429	194.75
265.661	209.75
265.894	217.75
266.126	229.75
266.358	228.75
266.591	272.75
266.823	321.75
267.055	310.75
267.287	279.75
267.52	271.75
267.752	311.75
267.984	330.75
268.216	320.75
268.448	262.75
268.681	259.75
268.913	285.75
269.145	295.75
269.377	299.75
269.609	305.75
269.841	285.75
270.073	304.75
270.306	312.75
270.538	324.75
270.77	318.75
271.002	307.75
271.234	307.75
271.466	324.75
271.698	317.75
271.93	304.75
272.162	296.75
272.394	312.75
272.626	282.75
272.858	305.75
273.09	321.75
273.322	280.75
273.553	264.75
273.785	315.75
274.017	386.75
274.249	469.75
274.481	479.75
274.713	522.75
274.945	583.75
275.176	628.75
275.408	555.75
275.64	514.75
275.872	530.75
276.104	457.75
276.335	400.75
276.567	398.75
276.799	406.75
277.031	421.75
277.262	338.75
277.494	282.75
277.726	263.75
277.957	286.75
278.189	313.75
278.421	316.75
278.652	316.75
278.884	302.75
279.115	278.75
279.347	269.75
279.579	279.75
279.81	272.75
280.042	283.75
280.273	297.75
280.505	259.75
280.736	256.75
280.968	224.75
281.199	250.75
281.431	287.75
281.662	300.75
281.894	283.75
282.125	303.75
282.356	323.75
282.588	322.75
282.819	275.75
283.051	292.75
283.282	353.75
283.513	400.75
283.745	448.75
283.976	444.75
284.207	424.75
284.439	442.75
284.67	411.75
284.901	385.75
285.132	406.75
285.364	421.75
285.595	384.75
285.826	403.75
286.057	426.75
286.288	409.75
286.52	402.75
286.751	420.75
286.982	427.75
287.213	382.75
287.444	354.75
287.675	361.75
287.906	376.75
288.138	337.75
288.369	293.75
288.6	290.75
288.831	305.75
289.062	353.75
289.293	383.75
289.524	362.75
289.755	345.75
289.986	355.75
290.217	322.75
290.448	256.75
290.679	246.75
290.91	221.75
291.141	232.75
291.371	223.75
291.602	217.75
291.833	229.75
292.064	240.75
292.295	268.75
292.526	300.75
292.757	303.75
292.987	336.75
293.218	366.75
293.449	354.75
293.68	390.75
293.91	356.75
294.141	387.75
294.372	362.75
294.603	324.75
294.833	354.75
295.064	392.75
295.295	379.75
295.525	310.75
295.756	272.75
295.987	244.75
296.217	223.75
296.448	232.75
296.679	241.75
296.909	274.75
297.14	282.75
297.37	303.75
297.601	304.75
297.831	279.75
298.062	289.75
298.292	310.75
298.523	330.75
298.753	352.75
298.984	326.75
299.214	279.75
299.445	244.75
299.675	227.75
299.905	233.75
300.136	236.75
300.366	257.75
300.597	258.75
300.827	257.75
301.057	237.75
301.288	248.75
301.518	244.75
301.748	290.75
301.979	292.75
302.209	314.75
302.439	319.75
302.669	284.75
302.9	277.75
303.13	265.75
303.36	278.75
303.59	256.75
303.82	252.75
304.051	276.75
304.281	299.75
304.511	258.75
304.741	264.75
304.971	261.75
305.201	292.75
305.431	274.75
305.661	235.75
305.891	244.75
306.121	250.75
306.352	241.75
306.582	225.75
306.812	217.75
307.042	213.75
307.272	193.75
307.502	192.75
307.731	222.75
307.961	228.75
308.191	207.75
308.421	210.75
308.651	190.75
308.881	204.75
309.111	184.75
309.341	216.75
309.571	209.75
309.8	227.75
310.03	228.75
310.26	238.75
310.49	231.75
310.72	212.75
310.949	195.75
311.179	195.75
311.409	210.75
311.639	234.75
311.868	287.75
312.098	361.75
312.328	388.75
312.557	378.75
312.787	384.75
313.017	346.75
313.246	357.75
313.476	405.75
313.706	341.75
313.935	283.75
314.165	245.75
314.394	219.75
314.624	214.75
314.853	241.75
315.083	243.75
315.312	235.75
315.542	233.75
315.771	222.75
316.001	199.75
316.23	206.75
316.46	196.75
316.689	203.75
316.919	221.75
317.148	222.75
317.377	200.75
317.607	216.75
317.836	225.75
318.065	246.75
318.295	274.75
318.524	241.75
318.753	216.75
318.983	221.75
319.212	219.75
319.441	220.75
319.67	245.75
319.9	250.75
320.129	262.75
320.358	225.75
320.587	214.75
320.816	215.75
321.046	252.75
321.275	266.75
321.504	275.75
321.733	256.75
321.962	240.75
322.191	248.75
322.42	228.75
322.649	218.75
322.878	266.75
323.108	266.75
323.337	239.75
323.566	247.75
323.795	239.75
324.024	245.75
324.253	241.75
324.482	221.75
324.71	257.75
324.939	256.75
325.168	256.75
325.397	220.75
325.626	236.75
325.855	240.75
326.084	224.75
326.313	227.75
326.542	228.75
326.77	231.75
326.999	197.75
327.228	219.75
327.457	215.75
327.686	227.75
327.914	200.75
328.143	219.75
328.372	209.75
328.6	209.75
328.829	211.75
329.058	217.75
329.287	212.75
329.515	198.75
329.744	200.75
329.972	202.75
330.201	198.75
330.43	210.75
330.658	217.75
330.887	242.75
331.115	227.75
331.344	251.75
331.572	243.75
331.801	230.75
332.03	212.75
332.258	222.75
332.486	243.75
332.715	226.75
332.943	228.75
333.172	222.75
333.4	227.75
333.629	256.75
333.857	275.75
334.085	275.75
334.314	262.75
334.542	260.75
334.771	251.75
334.999	222.75
335.227	217.75
335.455	213.75
335.684	248.75
335.912	271.75
336.14	295.75
336.369	272.75
336.597	274.75
336.825	298.75
337.053	317.75
337.281	279.75
337.51	226.75
337.738	219.75
337.966	244.75
338.194	263.75
338.422	244.75
338.65	228.75
338.878	220.75
339.106	203.75
339.334	239.75
339.562	229.75
339.79	218.75
340.018	214.75
340.246	231.75
340.474	280.75
340.702	271.75
340.93	287.75
341.158	274.75
341.386	240.75
341.614	235.75
341.842	240.75
342.07	236.75
342.298	280.75
342.526	297.75
342.754	264.75
342.981	233.75
343.209	226.75
343.437	253.75
343.665	282.75
343.893	268.75
344.12	316.75
344.348	343.75
344.576	307.75
344.804	257.75
345.031	263.75
345.259	216.75
345.487	231.75
345.714	235.75
345.942	258.75
346.17	258.75
346.397	262.75
346.625	240.75
346.853	242.75
347.08	208.75
347.308	236.75
347.535	251.75
347.763	262.75
347.99	240.75
348.218	212.75
348.445	232.75
348.673	235.75
348.9	244.75
349.128	265.75
349.355	253.75
349.583	247.75
349.81	236.75
350.037	228.75
350.265	206.75
350.492	206.75
350.72	214.75
350.947	201.75
351.174	206.75
351.402	208.75
351.629	224.75
351.856	230.75
352.083	204.75
352.311	232.75
352.538	222.75
352.765	254.75
352.992	230.75
353.22	240.75
353.447	257.75
353.674	225.75
353.901	215.75
354.128	228.75
354.355	211.75
354.583	208.75
354.81	242.75
355.037	263.75
355.264	232.75
355.491	262.75
355.718	260.75
355.945	252.75
356.172	260.75
356.399	246.75
356.626	281.75
356.853	338.75
357.08	337.75
357.307	347.75
357.534	286.75
357.761	274.75
357.988	358.75
358.215	413.75
358.441	351.75
358.668	314.75
358.895	300.75
359.122	260.75
359.349	292.75
359.576	315.75
359.802	255.75
360.029	245.75
360.256	252.75
360.483	279.75
360.709	328.75
360.936	344.75
361.163	323.75
361.39	269.75
361.616	257.75
361.843	258.75
362.07	298.75
362.296	273.75
362.523	242.75
362.749	218.75
362.976	210.75
363.203	264.75
363.429	276.75
363.656	251.75
363.882	242.75
364.109	228.75
364.335	230.75
364.562	220.75
364.788	246.75
365.015	274.75
365.241	254.75
365.468	222.75
365.694	196.75
365.92	195.75
366.147	212.75
366.373	205.75
366.599	199.75
366.826	197.75
367.052	203.75
367.278	207.75
367.505	194.75
367.731	204.75
367.957	228.75
368.184	217.75
368.41	239.75
368.636	252.75
368.862	241.75
369.089	235.75
369.315	211.75
369.541	227.75
369.767	210.75
369.993	210.75
370.219	211.75
370.445	213.75
370.672	240.75
370.898	233.75
371.124	260.75
371.35	235.75
371.576	230.75
371.802	227.75
372.028	250.75
372.254	291.75
372.48	267.75
372.706	257.75
372.932	243.75
373.158	257.75
373.384	284.75
373.61	356.75
373.835	382.75
374.061	308.75
374.287	266.75
374.513	289.75
374.739	326.75
374.965	341.75
375.191	343.75
375.416	259.75
375.642	251.75
375.868	272.75
376.094	282.75
376.319	258.75
376.545	270.75
376.771	274.75
376.997	237.75
377.222	212.75
377.448	212.75
377.674	199.75
377.899	191.75
378.125	203.75
378.35	213.75
378.576	189.75
378.802	210.75
379.027	236.75
379.253	213.75
379.478	231.75
379.704	259.75
379.929	254.75
380.155	240.75
380.38	239.75
380.606	232.75
380.831	249.75
381.057	244.75
381.282	239.75
381.507	262.75
381.733	310.75
381.958	321.75
382.184	318.75
382.409	352.75
382.634	356.75
382.86	367.75
383.085	283.75
383.31	258.75
383.535	266.75
383.761	267.75
383.986	267.75
384.211	312.75
384.436	308.75
384.662	248.75
384.887	247.75
385.112	258.75
385.337	250.75
385.562	239.75
385.787	279.75
386.013	304.75
386.238	296.75
386.463	254.75
386.688	246.75
386.913	218.75
387.138	226.75
387.363	238.75
387.588	231.75
387.813	257.75
388.038	235.75
388.263	239.75
388.488	227.75
388.713	252.75
388.938	288.75
389.163	242.75
389.387	216.75
389.612	228.75
389.837	221.75
390.062	231.75
390.287	242.75
390.512	228.75
390.736	218.75
390.961	227.75
391.186	238.75
391.411	211.75
391.636	216.75
391.86	217.75
392.085	257.75
392.31	256.75
392.534	238.75
392.759	243.75
392.984	254.75
393.208	232.75
393.433	227.75
393.658	218.75
393.882	217.75
394.107	218.75
394.331	229.75
394.556	204.75
394.78	224.75
395.005	203.75
395.229	218.75
395.454	214.75
395.678	218.75
395.903	223.75
396.127	230.75
396.352	237.75
396.576	248.75
396.801	243.75
397.025	254.75
397.249	274.75
397.474	242.75
397.698	218.75
397.922	245.75
398.147	210.75
398.371	221.75
398.595	244.75
398.82	242.75
399.044	238.75
399.268	246.75
399.492	274.75
399.717	319.75
399.941	318.75
400.165	258.75
400.389	260.75
400.613	244.75
400.837	253.75
401.062	228.75
401.286	246.75
401.51	241.75
401.734	240.75
401.958	239.75
402.182	234.75
402.406	225.75
402.63	240.75
402.854	251.75
403.078	297.75
403.302	359.75
403.526	386.75
403.75	324.75
403.974	284.75
404.198	286.75
404.422	307.75
404.645	328.75
404.869	355.75
405.093	303.75
405.317	264.75
405.541	261.75
405.765	254.75
405.988	278.75
406.212	273.75
406.436	299.75
406.66	342.75
406.883	263.75
407.107	294.75
407.331	317.75
407.555	324.75
407.778	278.75
408.002	297.75
408.226	261.75
408.449	281.75
408.673	263.75
408.896	254.75
409.12	222.75
409.344	230.75
409.567	243.75
409.791	262.75
410.014	261.75
410.238	257.75
410.461	247.75
410.685	262.75
410.908	260.75
411.132	255.75
411.355	233.75
411.578	244.75
411.802	244.75
412.025	240.75
412.249	260.75
412.472	241.75
412.695	239.75
412.919	247.75
413.142	238.75
413.365	268.75
413.589	258.75
413.812	238.75
414.035	262.75
414.258	240.75
414.482	264.75
414.705	262.75
414.928	246.75
415.151	220.75
415.374	239.75
415.597	235.75
415.821	231.75
416.044	246.75
416.267	225.75
416.49	218.75
416.713	227.75
416.936	209.75
417.159	238.75
417.382	242.75
417.605	234.75
417.828	239.75
418.051	242.75
418.274	241.75
418.497	242.75
418.72	254.75
418.943	251.75
419.166	254.75
419.389	274.75
419.611	257.75
419.834	264.75
420.057	287.75
420.28	267.75
420.503	260.75
420.726	234.75
420.948	222.75
421.171	232.75
421.394	244.75
421.617	232.75
421.839	235.75
422.062	232.75
422.285	241.75
422.507	238.75
422.73	242.75
422.953	255.75
423.175	260.75
423.398	261.75
423.621	259.75
423.843	263.75
424.066	256.75
424.288	257.75
424.511	242.75
424.733	251.75
424.956	242.75
425.178	276.75
425.401	306.75
425.623	354.75
425.846	314.75
426.068	252.75
426.291	261.75
426.513	264.75
426.735	263.75
426.958	222.75
427.18	274.75
427.402	331.75
427.625	363.75
427.847	322.75
428.069	243.75
428.292	256.75
428.514	232.75
428.736	230.75
428.958	238.75
429.181	310.75
429.403	251.75
429.625	242.75
429.847	231.75
430.069	230.75
430.292	248.75
430.514	247.75
430.736	243.75
430.958	280.75
431.18	250.75
431.402	230.75
431.624	220.75
431.846	217.75
432.068	243.75
432.29	235.75
432.512	258.75
432.734	266.75
432.956	278.75
433.178	228.75
433.4	250.75
433.622	230.75
433.844	239.75
434.066	257.75
434.287	238.75
434.509	240.75
434.731	259.75
434.953	245.75
435.175	274.75
435.397	281.75
435.618	246.75
435.84	212.75
436.062	232.75
436.284	232.75
436.505	226.75
436.727	218.75
436.949	232.75
437.17	243.75
437.392	220.75
437.614	205.75
437.835	216.75
438.057	227.75
438.278	239.75
438.5	313.75
438.721	309.75
438.943	247.75
439.165	234.75
439.386	217.75
439.608	218.75
439.829	225.75
440.05	215.75
440.272	231.75
440.493	252.75
440.715	305.75
440.936	268.75
441.158	248.75
441.379	247.75
441.6	250.75
441.822	268.75
442.043	266.75
442.264	251.75
442.486	240.75
442.707	244.75
442.928	229.75
443.149	240.75
443.371	241.75
443.592	248.75
443.813	264.75
444.034	243.75
444.255	246.75
444.476	252.75
444.698	264.75
444.919	272.75
445.14	353.75
445.361	300.75
445.582	248.75
445.803	259.75
446.024	223.75
446.245	244.75
446.466	229.75
446.687	235.75
446.908	240.75
447.129	240.75
447.35	225.75
447.571	214.75
447.792	223.75
448.013	219.75
448.234	202.75
448.455	217.75
448.675	195.75
448.896	217.75
449.117	224.75
449.338	231.75
449.559	233.75
449.779	245.75
450	214.75
450.221	217.75
450.442	222.75
450.662	208.75
450.883	223.75
451.104	223.75
451.324	216.75
451.545	225.75
451.766	227.75
451.986	216.75
452.207	220.75
452.428	232.75
452.648	222.75
452.869	235.75
453.089	243.75
453.31	232.75
453.53	215.75
453.751	214.75
453.971	215.75
454.192	204.75
454.412	215.75
454.633	213.75
454.853	201.75
455.073	213.75
455.294	203.75
455.514	210.75
455.734	221.75
455.955	207.75
456.175	223.75
456.395	204.75
456.616	217.75
456.836	210.75
457.056	198.75
457.276	177.75
457.497	211.75
457.717	202.75
457.937	191.75
458.157	202.75
458.377	199.75
458.598	226.75
458.818	210.75
459.038	234.75
459.258	234.75
459.478	247.75
459.698	258.75
459.918	244.75
460.138	243.75
460.358	256.75
460.578	256.75
460.798	243.75
461.018	241.75
461.238	244.75
461.458	241.75
461.678	246.75
461.898	275.75
462.118	246.75
462.338	238.75
462.558	258.75
462.777	267.75
462.997	292.75
463.217	297.75
463.437	294.75
463.657	284.75
463.876	257.75
464.096	260.75
464.316	280.75
464.536	278.75
464.755	271.75
464.975	283.75
465.195	266.75
465.414	249.75
465.634	235.75
465.854	256.75
466.073	246.75
466.293	226.75
466.512	216.75
466.732	238.75
466.951	276.75
467.171	233.75
467.391	232.75
467.61	224.75
467.829	248.75
468.049	258.75
468.268	226.75
468.488	212.75
468.707	227.75
468.927	242.75
469.146	269.75
469.365	269.75
469.585	246.75
469.804	254.75
470.023	260.75
470.243	244.75
470.462	247.75
470.681	226.75
470.901	249.75
471.12	242.75
471.339	221.75
471.558	240.75
471.777	238.75
471.997	262.75
472.216	259.75
472.435	260.75
472.654	249.75
472.873	235.75
473.092	249.75
473.311	256.75
473.53	245.75
473.749	242.75
473.968	248.75
474.187	240.75
474.406	250.75
474.625	231.75
474.844	237.75
475.063	268.75
475.282	243.75
475.501	284.75
475.72	274.75
475.939	282.75
476.158	279.75
476.377	314.75
476.596	324.75
476.814	350.75
477.033	297.75
477.252	271.75
477.471	236.75
477.69	260.75
477.908	268.75
478.127	276.75
478.346	271.75
478.564	307.75
478.783	288.75
479.002	283.75
479.22	290.75
479.439	337.75
479.658	298.75
479.876	281.75
480.095	323.75
480.313	294.75
480.532	289.75
480.751	281.75
480.969	271.75
481.188	299.75
481.406	318.75
481.624	298.75
481.843	285.75
482.061	269.75
482.28	279.75
482.498	337.75
482.717	330.75
482.935	298.75
483.153	272.75
483.372	277.75
483.59	260.75
483.808	251.75
484.027	252.75
484.245	265.75
484.463	257.75
484.681	273.75
484.9	281.75
485.118	278.75
485.336	283.75
485.554	248.75
485.772	280.75
485.99	282.75
486.209	305.75
486.427	298.75
486.645	292.75
486.863	318.75
487.081	295.75
487.299	330.75
487.517	293.75
487.735	268.75
487.953	287.75
488.171	301.75
488.389	266.75
488.607	276.75
488.825	290.75
489.043	292.75
489.261	316.75
489.479	343.75
489.696	276.75
489.914	288.75
490.132	284.75
490.35	262.75
490.568	283.75
490.786	282.75
491.003	280.75
491.221	277.75
491.439	266.75
491.657	283.75
491.874	295.75
492.092	331.75
492.31	346.75
492.527	354.75
492.745	341.75
492.963	285.75
493.18	294.75
493.398	302.75
493.615	309.75
493.833	291.75
494.05	286.75
494.268	309.75
494.485	310.75
494.703	282.75
494.92	286.75
495.138	280.75
495.355	288.75
495.573	298.75
495.79	328.75
496.008	349.75
496.225	336.75
496.442	285.75
496.66	312.75
496.877	318.75
497.094	330.75
497.312	297.75
497.529	302.75
497.746	306.75
497.963	327.75
498.181	331.75
498.398	359.75
498.615	370.75
498.832	376.75
499.049	381.75
499.267	380.75
499.484	388.75
499.701	412.75
499.918	466.75
500.135	536.75
500.352	545.75
500.569	571.75
500.786	578.75
501.003	544.75
501.22	477.75
501.437	421.75
501.654	417.75
501.871	401.75
502.088	378.75
502.305	368.75
