Data from NickelSpatula.Lamp.E5.5.P2_HRD10591_11-50-49-564.txt Node
Date: Tue Jul 23 11:50:49 EDT 2019
User: cochatt
Spectrometer: HR+D1059
Trigger mode: 1
Integration Time (sec): 1.000000E-1
Scans to average: 1
Electric dark correction enabled: true
Nonlinearity correction enabled: false
Boxcar width: 0
XAxis mode: Wavelengths
Number of Pixels in Spectrum: 2048
>>>>>Begin Spectral Data<<<<<
223.165	-17.44
223.4	-17.44
223.635	-17.44
223.869	-15.44
224.104	-29.44
224.338	-27.44
224.573	-9.44
224.808	2.56
225.042	1.56
225.277	-17.44
225.511	5.56
225.746	2.56
225.98	9.56
226.215	12.56
226.449	14.56
226.683	25.56
226.918	22.56
227.152	19.56
227.387	30.56
227.621	28.56
227.856	29.56
228.09	48.56
228.324	38.56
228.559	54.56
228.793	54.56
229.027	72.56
229.262	79.56
229.496	64.56
229.73	83.56
229.964	82.56
230.199	93.56
230.433	96.56
230.667	86.56
230.901	96.56
231.136	83.56
231.37	94.56
231.604	92.56
231.838	97.56
232.072	95.56
232.306	108.56
232.541	89.56
232.775	80.56
233.009	107.56
233.243	98.56
233.477	104.56
233.711	110.56
233.945	97.56
234.179	106.56
234.413	109.56
234.647	108.56
234.881	110.56
235.115	126.56
235.349	103.56
235.583	108.56
235.817	102.56
236.051	108.56
236.285	111.56
236.519	122.56
236.753	118.56
236.987	111.56
237.221	105.56
237.455	118.56
237.689	124.56
237.922	116.56
238.156	122.56
238.39	124.56
238.624	143.56
238.858	148.56
239.091	128.56
239.325	118.56
239.559	100.56
239.793	128.56
240.027	131.56
240.26	139.56
240.494	123.56
240.728	134.56
240.961	149.56
241.195	149.56
241.429	156.56
241.662	152.56
241.896	129.56
242.13	130.56
242.363	131.56
242.597	132.56
242.83	132.56
243.064	137.56
243.298	133.56
243.531	111.56
243.765	144.56
243.998	139.56
244.232	152.56
244.465	153.56
244.699	128.56
244.932	163.56
245.166	146.56
245.399	129.56
245.633	124.56
245.866	142.56
246.099	151.56
246.333	164.56
246.566	160.56
246.8	161.56
247.033	151.56
247.266	152.56
247.5	147.56
247.733	145.56
247.966	128.56
248.2	148.56
248.433	156.56
248.666	166.56
248.899	161.56
249.133	160.56
249.366	176.56
249.599	178.56
249.832	173.56
250.066	161.56
250.299	191.56
250.532	165.56
250.765	152.56
250.998	176.56
251.231	154.56
251.465	147.56
251.698	174.56
251.931	184.56
252.164	173.56
252.397	195.56
252.63	178.56
252.863	195.56
253.096	212.56
253.329	206.56
253.562	199.56
253.795	224.56
254.028	245.56
254.261	226.56
254.494	230.56
254.727	215.56
254.96	206.56
255.193	203.56
255.426	201.56
255.659	174.56
255.892	168.56
256.124	163.56
256.357	189.56
256.59	217.56
256.823	207.56
257.056	177.56
257.289	173.56
257.521	206.56
257.754	224.56
257.987	232.56
258.22	210.56
258.452	201.56
258.685	198.56
258.918	217.56
259.151	237.56
259.383	236.56
259.616	280.56
259.849	278.56
260.081	278.56
260.314	294.56
260.547	258.56
260.779	265.56
261.012	277.56
261.244	275.56
261.477	262.56
261.71	255.56
261.942	224.56
262.175	217.56
262.407	215.56
262.64	212.56
262.872	255.56
263.105	264.56
263.337	270.56
263.57	254.56
263.802	198.56
264.035	187.56
264.267	177.56
264.499	182.56
264.732	168.56
264.964	159.56
265.197	165.56
265.429	182.56
265.661	183.56
265.894	189.56
266.126	189.56
266.358	197.56
266.591	224.56
266.823	269.56
267.055	246.56
267.287	223.56
267.52	221.56
267.752	246.56
267.984	273.56
268.216	243.56
268.448	218.56
268.681	225.56
268.913	224.56
269.145	246.56
269.377	252.56
269.609	252.56
269.841	232.56
270.073	238.56
270.306	242.56
270.538	270.56
270.77	274.56
271.002	261.56
271.234	270.56
271.466	258.56
271.698	229.56
271.93	245.56
272.162	240.56
272.394	246.56
272.626	254.56
272.858	237.56
273.09	240.56
273.322	237.56
273.553	214.56
273.785	244.56
274.017	313.56
274.249	352.56
274.481	349.56
274.713	394.56
274.945	418.56
275.176	439.56
275.408	402.56
275.64	380.56
275.872	375.56
276.104	349.56
276.335	312.56
276.567	321.56
276.799	299.56
277.031	317.56
277.262	267.56
277.494	244.56
277.726	229.56
277.957	229.56
278.189	253.56
278.421	252.56
278.652	264.56
278.884	244.56
279.115	229.56
279.347	238.56
279.579	214.56
279.81	226.56
280.042	226.56
280.273	215.56
280.505	227.56
280.736	223.56
280.968	219.56
281.199	210.56
281.431	241.56
281.662	231.56
281.894	229.56
282.125	244.56
282.356	230.56
282.588	266.56
282.819	229.56
283.051	225.56
283.282	275.56
283.513	312.56
283.745	345.56
283.976	336.56
284.207	312.56
284.439	328.56
284.67	315.56
284.901	304.56
285.132	318.56
285.364	316.56
285.595	297.56
285.826	304.56
286.057	341.56
286.288	302.56
286.52	320.56
286.751	337.56
286.982	346.56
287.213	313.56
287.444	300.56
287.675	302.56
287.906	324.56
288.138	275.56
288.369	246.56
288.6	249.56
288.831	245.56
289.062	275.56
289.293	304.56
289.524	281.56
289.755	278.56
289.986	298.56
290.217	271.56
290.448	229.56
290.679	199.56
290.91	186.56
291.141	197.56
291.371	201.56
291.602	200.56
291.833	186.56
292.064	207.56
292.295	225.56
292.526	256.56
292.757	263.56
292.987	244.56
293.218	285.56
293.449	288.56
293.68	316.56
293.91	310.56
294.141	300.56
294.372	279.56
294.603	252.56
294.833	292.56
295.064	311.56
295.295	334.56
295.525	258.56
295.756	218.56
295.987	211.56
296.217	201.56
296.448	212.56
296.679	218.56
296.909	245.56
297.14	253.56
297.37	278.56
297.601	252.56
297.831	227.56
298.062	239.56
298.292	249.56
298.523	261.56
298.753	316.56
298.984	285.56
299.214	240.56
299.445	212.56
299.675	188.56
299.905	220.56
300.136	208.56
300.366	238.56
300.597	223.56
300.827	208.56
301.057	216.56
301.288	216.56
301.518	224.56
301.748	252.56
301.979	244.56
302.209	266.56
302.439	270.56
302.669	246.56
302.9	246.56
303.13	240.56
303.36	227.56
303.59	231.56
303.82	230.56
304.051	247.56
304.281	241.56
304.511	266.56
304.741	242.56
304.971	230.56
305.201	261.56
305.431	229.56
305.661	205.56
305.891	229.56
306.121	222.56
306.352	219.56
306.582	192.56
306.812	186.56
307.042	191.56
307.272	188.56
307.502	174.56
307.731	192.56
307.961	196.56
308.191	192.56
308.421	183.56
308.651	190.56
308.881	186.56
309.111	206.56
309.341	184.56
309.571	201.56
309.8	185.56
310.03	198.56
310.26	200.56
310.49	221.56
310.72	176.56
310.949	198.56
311.179	205.56
311.409	210.56
311.639	199.56
311.868	262.56
312.098	295.56
312.328	320.56
312.557	296.56
312.787	320.56
313.017	293.56
313.246	306.56
313.476	328.56
313.706	281.56
313.935	229.56
314.165	224.56
314.394	187.56
314.624	202.56
314.853	209.56
315.083	212.56
315.312	203.56
315.542	200.56
315.771	203.56
316.001	192.56
316.23	180.56
316.46	181.56
316.689	195.56
316.919	191.56
317.148	185.56
317.377	205.56
317.607	195.56
317.836	198.56
318.065	209.56
318.295	228.56
318.524	215.56
318.753	209.56
318.983	198.56
319.212	178.56
319.441	190.56
319.67	205.56
319.9	221.56
320.129	223.56
320.358	206.56
320.587	212.56
320.816	200.56
321.046	201.56
321.275	240.56
321.504	228.56
321.733	238.56
321.962	218.56
322.191	222.56
322.42	216.56
322.649	217.56
322.878	223.56
323.108	228.56
323.337	216.56
323.566	205.56
323.795	216.56
324.024	202.56
324.253	201.56
324.482	196.56
324.71	207.56
324.939	231.56
325.168	220.56
325.397	206.56
325.626	189.56
325.855	193.56
326.084	209.56
326.313	204.56
326.542	188.56
326.77	201.56
326.999	198.56
327.228	206.56
327.457	212.56
327.686	207.56
327.914	210.56
328.143	175.56
328.372	177.56
328.6	194.56
328.829	191.56
329.058	185.56
329.287	206.56
329.515	199.56
329.744	190.56
329.972	198.56
330.201	190.56
330.43	197.56
330.658	202.56
330.887	224.56
331.115	215.56
331.344	212.56
331.572	205.56
331.801	222.56
332.03	196.56
332.258	185.56
332.486	206.56
332.715	200.56
332.943	195.56
333.172	216.56
333.4	234.56
333.629	236.56
333.857	225.56
334.085	236.56
334.314	228.56
334.542	218.56
334.771	214.56
334.999	222.56
335.227	213.56
335.455	213.56
335.684	221.56
335.912	236.56
336.14	238.56
336.369	237.56
336.597	246.56
336.825	274.56
337.053	276.56
337.281	229.56
337.51	225.56
337.738	215.56
337.966	224.56
338.194	215.56
338.422	218.56
338.65	211.56
338.878	192.56
339.106	215.56
339.334	205.56
339.562	218.56
339.79	209.56
340.018	193.56
340.246	217.56
340.474	220.56
340.702	254.56
340.93	247.56
341.158	236.56
341.386	212.56
341.614	206.56
341.842	203.56
342.07	227.56
342.298	247.56
342.526	266.56
342.754	224.56
342.981	217.56
343.209	224.56
343.437	226.56
343.665	253.56
343.893	258.56
344.12	284.56
344.348	295.56
344.576	288.56
344.804	230.56
345.031	215.56
345.259	214.56
345.487	199.56
345.714	208.56
345.942	218.56
346.17	240.56
346.397	236.56
346.625	217.56
346.853	216.56
347.08	192.56
347.308	223.56
347.535	221.56
347.763	239.56
347.99	228.56
348.218	190.56
348.445	208.56
348.673	218.56
348.9	207.56
349.128	216.56
349.355	223.56
349.583	232.56
349.81	212.56
350.037	200.56
350.265	195.56
350.492	188.56
350.72	167.56
350.947	173.56
351.174	219.56
351.402	191.56
351.629	194.56
351.856	210.56
352.083	195.56
352.311	201.56
352.538	225.56
352.765	247.56
352.992	202.56
353.22	194.56
353.447	206.56
353.674	215.56
353.901	222.56
354.128	197.56
354.355	209.56
354.583	206.56
354.81	221.56
355.037	220.56
355.264	220.56
355.491	227.56
355.718	232.56
355.945	232.56
356.172	211.56
356.399	225.56
356.626	261.56
356.853	284.56
357.08	301.56
357.307	310.56
357.534	264.56
357.761	270.56
357.988	323.56
358.215	356.56
358.441	334.56
358.668	291.56
358.895	271.56
359.122	250.56
359.349	255.56
359.576	281.56
359.802	241.56
360.029	199.56
360.256	210.56
360.483	263.56
360.709	302.56
360.936	304.56
361.163	273.56
361.39	227.56
361.616	228.56
361.843	232.56
362.07	255.56
362.296	241.56
362.523	207.56
362.749	196.56
362.976	208.56
363.203	244.56
363.429	255.56
363.656	209.56
363.882	221.56
364.109	210.56
364.335	200.56
364.562	200.56
364.788	223.56
365.015	247.56
365.241	222.56
365.468	193.56
365.694	196.56
365.92	201.56
366.147	189.56
366.373	189.56
366.599	201.56
366.826	192.56
367.052	191.56
367.278	187.56
367.505	191.56
367.731	199.56
367.957	194.56
368.184	220.56
368.41	209.56
368.636	210.56
368.862	222.56
369.089	211.56
369.315	202.56
369.541	196.56
369.767	192.56
369.993	195.56
370.219	177.56
370.445	202.56
370.672	211.56
370.898	233.56
371.124	223.56
371.35	206.56
371.576	195.56
371.802	210.56
372.028	225.56
372.254	258.56
372.48	245.56
372.706	225.56
372.932	246.56
373.158	249.56
373.384	241.56
373.61	305.56
373.835	315.56
374.061	272.56
374.287	221.56
374.513	281.56
374.739	292.56
374.965	325.56
375.191	336.56
375.416	258.56
375.642	215.56
375.868	224.56
376.094	273.56
376.319	254.56
376.545	246.56
376.771	254.56
376.997	239.56
377.222	216.56
377.448	186.56
377.674	196.56
377.899	174.56
378.125	167.56
378.35	173.56
378.576	191.56
378.802	199.56
379.027	207.56
379.253	208.56
379.478	191.56
379.704	218.56
379.929	230.56
380.155	212.56
380.38	206.56
380.606	221.56
380.831	245.56
381.057	227.56
381.282	211.56
381.507	221.56
381.733	284.56
381.958	277.56
382.184	308.56
382.409	313.56
382.634	284.56
382.86	322.56
383.085	279.56
383.31	237.56
383.535	268.56
383.761	274.56
383.986	244.56
384.211	286.56
384.436	271.56
384.662	233.56
384.887	236.56
385.112	232.56
385.337	245.56
385.562	233.56
385.787	246.56
386.013	252.56
386.238	270.56
386.463	249.56
386.688	228.56
386.913	204.56
387.138	191.56
387.363	209.56
387.588	224.56
387.813	228.56
388.038	214.56
388.263	202.56
388.488	219.56
388.713	261.56
388.938	241.56
389.163	239.56
389.387	202.56
389.612	225.56
389.837	217.56
390.062	215.56
390.287	206.56
390.512	224.56
390.736	200.56
390.961	207.56
391.186	199.56
391.411	212.56
391.636	220.56
391.86	226.56
392.085	240.56
392.31	241.56
392.534	228.56
392.759	226.56
392.984	239.56
393.208	236.56
393.433	203.56
393.658	207.56
393.882	208.56
394.107	200.56
394.331	196.56
394.556	213.56
394.78	189.56
395.005	193.56
395.229	202.56
395.454	216.56
395.678	215.56
395.903	201.56
396.127	202.56
396.352	215.56
396.576	221.56
396.801	224.56
397.025	233.56
397.249	240.56
397.474	214.56
397.698	196.56
397.922	221.56
398.147	199.56
398.371	223.56
398.595	220.56
398.82	219.56
399.044	219.56
399.268	248.56
399.492	272.56
399.717	280.56
399.941	284.56
400.165	264.56
400.389	249.56
400.613	237.56
400.837	230.56
401.062	209.56
401.286	220.56
401.51	223.56
401.734	227.56
401.958	225.56
402.182	229.56
402.406	214.56
402.63	252.56
402.854	244.56
403.078	284.56
403.302	337.56
403.526	349.56
403.75	341.56
403.974	262.56
404.198	281.56
404.422	305.56
404.645	318.56
404.869	327.56
405.093	280.56
405.317	244.56
405.541	247.56
405.765	253.56
405.988	252.56
406.212	240.56
406.436	287.56
406.66	287.56
406.883	248.56
407.107	290.56
407.331	294.56
407.555	290.56
407.778	272.56
408.002	257.56
408.226	269.56
408.449	256.56
408.673	245.56
408.896	243.56
409.12	254.56
409.344	242.56
409.567	236.56
409.791	236.56
410.014	249.56
410.238	230.56
410.461	236.56
410.685	236.56
410.908	222.56
411.132	251.56
411.355	239.56
411.578	231.56
411.802	222.56
412.025	240.56
412.249	250.56
412.472	223.56
412.695	236.56
412.919	230.56
413.142	236.56
413.365	237.56
413.589	237.56
413.812	253.56
414.035	229.56
414.258	228.56
414.482	242.56
414.705	253.56
414.928	221.56
415.151	241.56
415.374	227.56
415.597	225.56
415.821	224.56
416.044	215.56
416.267	229.56
416.49	220.56
416.713	210.56
416.936	219.56
417.159	220.56
417.382	230.56
417.605	237.56
417.828	222.56
418.051	236.56
418.274	223.56
418.497	230.56
418.72	234.56
418.943	231.56
419.166	259.56
419.389	264.56
419.611	240.56
419.834	233.56
420.057	263.56
420.28	246.56
420.503	245.56
420.726	228.56
420.948	224.56
421.171	209.56
421.394	222.56
421.617	245.56
421.839	241.56
422.062	226.56
422.285	225.56
422.507	241.56
422.73	233.56
422.953	244.56
423.175	233.56
423.398	250.56
423.621	248.56
423.843	252.56
424.066	239.56
424.288	245.56
424.511	218.56
424.733	224.56
424.956	239.56
425.178	261.56
425.401	278.56
425.623	333.56
425.846	285.56
426.068	246.56
426.291	247.56
426.513	233.56
426.735	228.56
426.958	229.56
427.18	241.56
427.402	295.56
427.625	330.56
427.847	278.56
428.069	227.56
428.292	228.56
428.514	219.56
428.736	216.56
428.958	240.56
429.181	289.56
429.403	254.56
429.625	223.56
429.847	216.56
430.069	217.56
430.292	224.56
430.514	217.56
430.736	220.56
430.958	270.56
431.18	241.56
431.402	210.56
431.624	199.56
431.846	204.56
432.068	199.56
432.29	213.56
432.512	222.56
432.734	254.56
432.956	236.56
433.178	213.56
433.4	210.56
433.622	195.56
433.844	216.56
434.066	234.56
434.287	227.56
434.509	236.56
434.731	247.56
434.953	232.56
435.175	238.56
435.397	280.56
435.618	243.56
435.84	217.56
436.062	218.56
436.284	204.56
436.505	216.56
436.727	196.56
436.949	201.56
437.17	223.56
437.392	199.56
437.614	208.56
437.835	198.56
438.057	221.56
438.278	236.56
438.5	282.56
438.721	273.56
438.943	222.56
439.165	197.56
439.386	207.56
439.608	208.56
439.829	208.56
440.05	198.56
440.272	202.56
440.493	222.56
440.715	260.56
440.936	240.56
441.158	231.56
441.379	211.56
441.6	233.56
441.822	240.56
442.043	225.56
442.264	238.56
442.486	228.56
442.707	228.56
442.928	222.56
443.149	212.56
443.371	217.56
443.592	229.56
443.813	232.56
444.034	229.56
444.255	251.56
444.476	241.56
444.698	254.56
444.919	275.56
445.14	369.56
445.361	316.56
445.582	240.56
445.803	236.56
446.024	231.56
446.245	236.56
446.466	242.56
446.687	227.56
446.908	212.56
447.129	202.56
447.35	215.56
447.571	222.56
447.792	212.56
448.013	184.56
448.234	210.56
448.455	207.56
448.675	186.56
448.896	208.56
449.117	215.56
449.338	210.56
449.559	213.56
449.779	202.56
450	212.56
450.221	208.56
450.442	202.56
450.662	209.56
450.883	209.56
451.104	218.56
451.324	213.56
451.545	211.56
451.766	206.56
451.986	211.56
452.207	191.56
452.428	200.56
452.648	204.56
452.869	215.56
453.089	188.56
453.31	211.56
453.53	212.56
453.751	202.56
453.971	196.56
454.192	191.56
454.412	189.56
454.633	179.56
454.853	210.56
455.073	180.56
455.294	180.56
455.514	200.56
455.734	189.56
455.955	195.56
456.175	216.56
456.395	201.56
456.616	202.56
456.836	193.56
457.056	192.56
457.276	182.56
457.497	174.56
457.717	186.56
457.937	200.56
458.157	192.56
458.377	178.56
458.598	198.56
458.818	205.56
459.038	192.56
459.258	224.56
459.478	221.56
459.698	226.56
459.918	224.56
460.138	222.56
460.358	228.56
460.578	233.56
460.798	222.56
461.018	229.56
461.238	213.56
461.458	231.56
461.678	232.56
461.898	232.56
462.118	232.56
462.338	249.56
462.558	250.56
462.777	248.56
462.997	269.56
463.217	268.56
463.437	272.56
463.657	260.56
463.876	266.56
464.096	263.56
464.316	273.56
464.536	264.56
464.755	266.56
464.975	267.56
465.195	241.56
465.414	242.56
465.634	245.56
465.854	222.56
466.073	206.56
466.293	222.56
466.512	216.56
466.732	224.56
466.951	233.56
467.171	210.56
467.391	211.56
467.61	198.56
467.829	212.56
468.049	217.56
468.268	209.56
468.488	201.56
468.707	233.56
468.927	223.56
469.146	218.56
469.365	222.56
469.585	255.56
469.804	224.56
470.023	236.56
470.243	227.56
470.462	236.56
470.681	231.56
470.901	231.56
471.12	220.56
471.339	227.56
471.558	212.56
471.777	214.56
471.997	228.56
472.216	239.56
472.435	238.56
472.654	220.56
472.873	216.56
473.092	238.56
473.311	218.56
473.53	212.56
473.749	218.56
473.968	234.56
474.187	227.56
474.406	225.56
474.625	192.56
474.844	227.56
475.063	221.56
475.282	223.56
475.501	231.56
475.72	258.56
475.939	234.56
476.158	232.56
476.377	271.56
476.596	306.56
476.814	286.56
477.033	252.56
477.252	233.56
477.471	230.56
477.69	246.56
477.908	248.56
478.127	264.56
478.346	243.56
478.564	276.56
478.783	239.56
479.002	253.56
479.22	275.56
479.439	293.56
479.658	265.56
479.876	257.56
480.095	273.56
480.313	275.56
480.532	270.56
480.751	262.56
480.969	243.56
481.188	269.56
481.406	270.56
481.624	247.56
481.843	224.56
482.061	242.56
482.28	255.56
482.498	310.56
482.717	307.56
482.935	258.56
483.153	267.56
483.372	229.56
483.59	236.56
483.808	233.56
484.027	255.56
484.245	240.56
484.463	217.56
484.681	233.56
484.9	236.56
485.118	260.56
485.336	239.56
485.554	234.56
485.772	247.56
485.99	265.56
486.209	270.56
486.427	280.56
486.645	258.56
486.863	270.56
487.081	252.56
487.299	298.56
487.517	266.56
487.735	256.56
487.953	280.56
488.171	274.56
488.389	245.56
488.607	240.56
488.825	237.56
489.043	267.56
489.261	275.56
489.479	281.56
489.696	270.56
489.914	277.56
490.132	249.56
490.35	236.56
490.568	241.56
490.786	248.56
491.003	255.56
491.221	278.56
491.439	249.56
491.657	251.56
491.874	272.56
492.092	288.56
492.31	322.56
492.527	322.56
492.745	285.56
492.963	273.56
493.18	275.56
493.398	274.56
493.615	275.56
493.833	257.56
494.05	258.56
494.268	288.56
494.485	264.56
494.703	267.56
494.92	260.56
495.138	250.56
495.355	261.56
495.573	273.56
495.79	278.56
496.008	325.56
496.225	301.56
496.442	269.56
496.66	289.56
496.877	266.56
497.094	266.56
497.312	286.56
497.529	280.56
497.746	292.56
497.963	286.56
498.181	309.56
498.398	322.56
498.615	310.56
498.832	343.56
499.049	356.56
499.267	350.56
499.484	364.56
499.701	397.56
499.918	428.56
500.135	478.56
500.352	521.56
500.569	516.56
500.786	553.56
501.003	512.56
501.22	455.56
501.437	426.56
501.654	378.56
501.871	350.56
502.088	337.56
502.305	343.56
502.522	323.56
