Data from NickelSpatula.Lamp.E10.P2_HRD10591_11-59-50-524.txt Node
Date: Tue Jul 23 11:59:50 EDT 2019
User: cochatt
Spectrometer: HR+D1059
Trigger mode: 1
Integration Time (sec): 1.000000E-1
Scans to average: 1
Electric dark correction enabled: true
Nonlinearity correction enabled: false
Boxcar width: 0
XAxis mode: Wavelengths
Number of Pixels in Spectrum: 2048
>>>>>Begin Spectral Data<<<<<
223.165	-24.62
223.4	-24.62
223.635	-24.62
223.869	-7.62
224.104	-12.62
224.338	-9.62
224.573	-14.62
224.808	-6.62
225.042	-18.62
225.277	-13.62
225.511	-2.62
225.746	7.38
225.98	13.38
226.215	5.38
226.449	18.38
226.683	1.38
226.918	24.38
227.152	40.38
227.387	24.38
227.621	45.38
227.856	37.38
228.09	29.38
228.324	45.38
228.559	46.38
228.793	76.38
229.027	147.38
229.262	163.38
229.496	156.38
229.73	180.38
229.964	190.38
230.199	217.38
230.433	236.38
230.667	224.38
230.901	211.38
231.136	197.38
231.37	209.38
231.604	217.38
231.838	248.38
232.072	270.38
232.306	250.38
232.541	261.38
232.775	266.38
233.009	266.38
233.243	294.38
233.477	325.38
233.711	343.38
233.945	342.38
234.179	322.38
234.413	377.38
234.647	398.38
234.881	490.38
235.115	419.38
235.349	416.38
235.583	370.38
235.817	373.38
236.051	401.38
236.285	418.38
236.519	495.38
236.753	445.38
236.987	448.38
237.221	416.38
237.455	401.38
237.689	421.38
237.922	481.38
238.156	489.38
238.39	571.38
238.624	694.38
238.858	614.38
239.091	512.38
239.325	515.38
239.559	494.38
239.793	544.38
240.027	668.38
240.26	623.38
240.494	606.38
240.728	613.38
240.961	692.38
241.195	658.38
241.429	654.38
241.662	617.38
241.896	541.38
242.13	473.38
242.363	458.38
242.597	479.38
242.83	553.38
243.064	536.38
243.298	586.38
243.531	640.38
243.765	640.38
243.998	646.38
244.232	617.38
244.465	604.38
244.699	589.38
244.932	675.38
245.166	657.38
245.399	551.38
245.633	545.38
245.866	584.38
246.099	623.38
246.333	725.38
246.566	774.38
246.8	793.38
247.033	770.38
247.266	697.38
247.5	674.38
247.733	678.38
247.966	674.38
248.2	715.38
248.433	823.38
248.666	861.38
248.899	873.38
249.133	891.38
249.366	1021.38
249.599	1070.38
249.832	981.38
250.066	845.38
250.299	863.38
250.532	834.38
250.765	813.38
250.998	764.38
251.231	752.38
251.465	798.38
251.698	862.38
251.931	813.38
252.164	833.38
252.397	970.38
252.63	1099.38
252.863	1211.38
253.096	1252.38
253.329	1200.38
253.562	1145.38
253.795	1253.38
254.028	1387.38
254.261	1425.38
254.494	1277.38
254.727	1148.38
254.96	1156.38
255.193	1213.38
255.426	1196.38
255.659	892.38
255.892	825.38
256.124	890.38
256.357	1031.38
256.59	1222.38
256.823	1152.38
257.056	974.38
257.289	908.38
257.521	989.38
257.754	1156.38
257.987	1328.38
258.22	1145.38
258.452	1026.38
258.685	1189.38
258.918	1314.38
259.151	1269.38
259.383	1340.38
259.616	1541.38
259.849	1596.38
260.081	1760.38
260.314	1966.38
260.547	1502.38
260.779	1510.38
261.012	1751.38
261.244	1674.38
261.477	1644.38
261.71	1551.38
261.942	1330.38
262.175	1317.38
262.407	1244.38
262.64	1313.38
262.872	1536.38
263.105	1682.38
263.337	1778.38
263.57	1566.38
263.802	1070.38
264.035	931.38
264.267	904.38
264.499	783.38
264.732	739.38
264.964	722.38
265.197	755.38
265.429	770.38
265.661	824.38
265.894	881.38
266.126	937.38
266.358	1025.38
266.591	1250.38
266.823	1512.38
267.055	1454.38
267.287	1265.38
267.52	1288.38
267.752	1345.38
267.984	1476.38
268.216	1413.38
268.448	1130.38
268.681	1123.38
268.913	1206.38
269.145	1276.38
269.377	1313.38
269.609	1324.38
269.841	1242.38
270.073	1299.38
270.306	1397.38
270.538	1408.38
270.77	1428.38
271.002	1462.38
271.234	1480.38
271.466	1548.38
271.698	1505.38
271.93	1454.38
272.162	1464.38
272.394	1471.38
272.626	1474.38
272.858	1512.38
273.09	1513.38
273.322	1313.38
273.553	1317.38
273.785	1580.38
274.017	2050.38
274.249	2488.38
274.481	2601.38
274.713	2824.38
274.945	3252.38
275.176	3363.38
275.408	2916.38
275.64	2713.38
275.872	2718.38
276.104	2311.38
276.335	1969.38
276.567	1987.38
276.799	2016.38
277.031	2149.38
277.262	1670.38
277.494	1287.38
277.726	1251.38
277.957	1373.38
278.189	1518.38
278.421	1515.38
278.652	1457.38
278.884	1382.38
279.115	1278.38
279.347	1226.38
279.579	1230.38
279.81	1249.38
280.042	1224.38
280.273	1270.38
280.505	1132.38
280.736	1030.38
280.968	1045.38
281.199	1125.38
281.431	1245.38
281.662	1261.38
281.894	1172.38
282.125	1301.38
282.356	1399.38
282.588	1447.38
282.819	1306.38
283.051	1386.38
283.282	1692.38
283.513	1942.38
283.745	2254.38
283.976	2272.38
284.207	2074.38
284.439	2134.38
284.67	2032.38
284.901	1823.38
285.132	1995.38
285.364	2082.38
285.595	1920.38
285.826	2013.38
286.057	2115.38
286.288	2033.38
286.52	2080.38
286.751	2138.38
286.982	2159.38
287.213	1904.38
287.444	1757.38
287.675	1909.38
287.906	1854.38
288.138	1557.38
288.369	1377.38
288.6	1339.38
288.831	1374.38
289.062	1585.38
289.293	1739.38
289.524	1624.38
289.755	1647.38
289.986	1682.38
290.217	1460.38
290.448	1150.38
290.679	988.38
290.91	895.38
291.141	942.38
291.371	993.38
291.602	1008.38
291.833	1014.38
292.064	1053.38
292.295	1260.38
292.526	1491.38
292.757	1489.38
292.987	1573.38
293.218	1642.38
293.449	1629.38
293.68	1711.38
293.91	1652.38
294.141	1666.38
294.372	1560.38
294.603	1473.38
294.833	1583.38
295.064	1867.38
295.295	1745.38
295.525	1392.38
295.756	1168.38
295.987	1038.38
296.217	1048.38
296.448	1086.38
296.679	1125.38
296.909	1300.38
297.14	1400.38
297.37	1487.38
297.601	1412.38
297.831	1219.38
298.062	1308.38
298.292	1479.38
298.523	1618.38
298.753	1848.38
298.984	1678.38
299.214	1314.38
299.445	1121.38
299.675	1097.38
299.905	1094.38
300.136	1127.38
300.366	1246.38
300.597	1168.38
300.827	1060.38
301.057	1050.38
301.288	1055.38
301.518	1145.38
301.748	1296.38
301.979	1392.38
302.209	1550.38
302.439	1558.38
302.669	1340.38
302.9	1298.38
303.13	1194.38
303.36	1144.38
303.59	1090.38
303.82	1152.38
304.051	1341.38
304.281	1393.38
304.511	1334.38
304.741	1178.38
304.971	1233.38
305.201	1336.38
305.431	1265.38
305.661	1097.38
305.891	1134.38
306.121	1095.38
306.352	986.38
306.582	899.38
306.812	878.38
307.042	880.38
307.272	833.38
307.502	807.38
307.731	909.38
307.961	960.38
308.191	888.38
308.421	825.38
308.651	820.38
308.881	764.38
309.111	794.38
309.341	822.38
309.571	898.38
309.8	956.38
310.03	991.38
310.26	1071.38
310.49	1023.38
310.72	915.38
310.949	879.38
311.179	883.38
311.409	962.38
311.639	1117.38
311.868	1378.38
312.098	1862.38
312.328	1993.38
312.557	1906.38
312.787	1958.38
313.017	1694.38
313.246	1880.38
313.476	2040.38
313.706	1622.38
313.935	1336.38
314.165	1081.38
314.394	963.38
314.624	1010.38
314.853	1052.38
315.083	1088.38
315.312	1048.38
315.542	1023.38
315.771	974.38
316.001	896.38
316.23	861.38
316.46	870.38
316.689	904.38
316.919	916.38
317.148	932.38
317.377	914.38
317.607	899.38
317.836	956.38
318.065	1140.38
318.295	1254.38
318.524	1138.38
318.753	1000.38
318.983	942.38
319.212	953.38
319.441	1046.38
319.67	1197.38
319.9	1277.38
320.129	1153.38
320.358	1012.38
320.587	988.38
320.816	1068.38
321.046	1244.38
321.275	1382.38
321.504	1424.38
321.733	1370.38
321.962	1288.38
322.191	1222.38
322.42	1146.38
322.649	1187.38
322.878	1259.38
323.108	1274.38
323.337	1180.38
323.566	1144.38
323.795	1091.38
324.024	1061.38
324.253	983.38
324.482	998.38
324.71	1140.38
324.939	1260.38
325.168	1188.38
325.397	981.38
325.626	934.38
325.855	942.38
326.084	970.38
326.313	902.38
326.542	861.38
326.77	901.38
326.999	902.38
327.228	981.38
327.457	1014.38
327.686	1066.38
327.914	920.38
328.143	857.38
328.372	848.38
328.6	859.38
328.829	922.38
329.058	937.38
329.287	935.38
329.515	935.38
329.744	903.38
329.972	836.38
330.201	812.38
330.43	865.38
330.658	986.38
330.887	1134.38
331.115	1083.38
331.344	1022.38
331.572	969.38
331.801	924.38
332.03	868.38
332.258	889.38
332.486	974.38
332.715	1023.38
332.943	918.38
333.172	905.38
333.4	965.38
333.629	1046.38
333.857	1134.38
334.085	1167.38
334.314	1145.38
334.542	1084.38
334.771	998.38
334.999	962.38
335.227	949.38
335.455	970.38
335.684	1064.38
335.912	1185.38
336.14	1369.38
336.369	1311.38
336.597	1256.38
336.825	1423.38
337.053	1582.38
337.281	1297.38
337.51	1015.38
337.738	999.38
337.966	1125.38
338.194	1247.38
338.422	1105.38
338.65	960.38
338.878	896.38
339.106	942.38
339.334	1069.38
339.562	1088.38
339.79	1026.38
340.018	1008.38
340.246	1086.38
340.474	1226.38
340.702	1340.38
340.93	1352.38
341.158	1369.38
341.386	1154.38
341.614	1164.38
341.842	1134.38
342.07	1206.38
342.298	1364.38
342.526	1417.38
342.754	1253.38
342.981	1174.38
343.209	1082.38
343.437	1170.38
343.665	1241.38
343.893	1264.38
344.12	1439.38
344.348	1679.38
344.576	1510.38
344.804	1262.38
345.031	1048.38
345.259	989.38
345.487	1039.38
345.714	1058.38
345.942	1152.38
346.17	1236.38
346.397	1170.38
346.625	1048.38
346.853	1008.38
347.08	965.38
347.308	1059.38
347.535	1169.38
347.763	1198.38
347.99	1041.38
348.218	948.38
348.445	960.38
348.673	1008.38
348.9	1018.38
349.128	1101.38
349.355	1148.38
349.583	1096.38
349.81	1055.38
350.037	953.38
350.265	864.38
350.492	817.38
350.72	812.38
350.947	854.38
351.174	916.38
351.402	991.38
351.629	1044.38
351.856	998.38
352.083	962.38
352.311	1028.38
352.538	1148.38
352.765	1199.38
352.992	1117.38
353.22	1060.38
353.447	1052.38
353.674	1021.38
353.901	1012.38
354.128	1034.38
354.355	1063.38
354.583	1032.38
354.81	1021.38
355.037	1075.38
355.264	1094.38
355.491	1172.38
355.718	1281.38
355.945	1220.38
356.172	1166.38
356.399	1183.38
356.626	1404.38
356.853	1766.38
357.08	1840.38
357.307	1892.38
357.534	1457.38
357.761	1490.38
357.988	1879.38
358.215	2223.38
358.441	2084.38
358.668	1729.38
358.895	1607.38
359.122	1263.38
359.349	1289.38
359.576	1394.38
359.802	1153.38
360.029	995.38
360.256	1080.38
360.483	1380.38
360.709	1730.38
360.936	1828.38
361.163	1537.38
361.39	1208.38
361.616	1105.38
361.843	1300.38
362.07	1636.38
362.296	1482.38
362.523	1158.38
362.749	970.38
362.976	1023.38
363.203	1289.38
363.429	1420.38
363.656	1125.38
363.882	1048.38
364.109	1079.38
364.335	1035.38
364.562	1022.38
364.788	1134.38
365.015	1396.38
365.241	1202.38
365.468	1009.38
365.694	892.38
365.92	860.38
366.147	822.38
366.373	789.38
366.599	838.38
366.826	819.38
367.052	860.38
367.278	869.38
367.505	842.38
367.731	928.38
367.957	1090.38
368.184	1073.38
368.41	1084.38
368.636	1084.38
368.862	1128.38
369.089	1080.38
369.315	899.38
369.541	928.38
369.767	914.38
369.993	893.38
370.219	921.38
370.445	965.38
370.672	1080.38
370.898	1122.38
371.124	1148.38
371.35	976.38
371.576	934.38
371.802	1032.38
372.028	1221.38
372.254	1418.38
372.48	1206.38
372.706	1076.38
372.932	1170.38
373.158	1176.38
373.384	1468.38
373.61	1962.38
373.835	2011.38
374.061	1467.38
374.287	1279.38
374.513	1497.38
374.739	1765.38
374.965	1842.38
375.191	1782.38
375.416	1221.38
375.642	1077.38
375.868	1278.38
376.094	1447.38
376.319	1212.38
376.545	1327.38
376.771	1425.38
376.997	1234.38
377.222	900.38
377.448	786.38
377.674	748.38
377.899	750.38
378.125	756.38
378.35	752.38
378.576	789.38
378.802	871.38
379.027	972.38
379.253	928.38
379.478	987.38
379.704	1088.38
379.929	1183.38
380.155	1150.38
380.38	985.38
380.606	1029.38
380.831	1190.38
381.057	1106.38
381.282	987.38
381.507	1234.38
381.733	1572.38
381.958	1646.38
382.184	1754.38
382.409	1839.38
382.634	1788.38
382.86	1875.38
383.085	1508.38
383.31	1176.38
383.535	1278.38
383.761	1302.38
383.986	1224.38
384.211	1538.38
384.436	1462.38
384.662	1080.38
384.887	1072.38
385.112	1082.38
385.337	1103.38
385.562	1022.38
385.787	1178.38
386.013	1289.38
386.238	1335.38
386.463	1089.38
386.688	1038.38
386.913	987.38
387.138	929.38
387.363	1039.38
387.588	1074.38
387.813	1074.38
388.038	1177.38
388.263	1005.38
388.488	1010.38
388.713	1182.38
388.938	1289.38
389.163	1104.38
389.387	956.38
389.612	987.38
389.837	1005.38
390.062	988.38
390.287	1044.38
390.512	1052.38
390.736	1006.38
390.961	914.38
391.186	885.38
391.411	886.38
391.636	899.38
391.86	960.38
392.085	1071.38
392.31	1057.38
392.534	1011.38
392.759	986.38
392.984	1033.38
393.208	1017.38
393.433	910.38
393.658	842.38
393.882	836.38
394.107	806.38
394.331	827.38
394.556	816.38
394.78	833.38
395.005	891.38
395.229	884.38
395.454	907.38
395.678	962.38
395.903	944.38
396.127	906.38
396.352	961.38
396.576	998.38
396.801	1060.38
397.025	1174.38
397.249	1193.38
397.474	988.38
397.698	951.38
397.922	1013.38
398.147	952.38
398.371	937.38
398.595	1004.38
398.82	966.38
399.044	1016.38
399.268	1049.38
399.492	1077.38
399.717	1089.38
399.941	1124.38
400.165	1078.38
400.389	1028.38
400.613	1087.38
400.837	1100.38
401.062	956.38
401.286	951.38
401.51	908.38
401.734	934.38
401.958	945.38
402.182	930.38
402.406	959.38
402.63	931.38
402.854	1001.38
403.078	1118.38
403.302	1351.38
403.526	1410.38
403.75	1241.38
403.974	1076.38
404.198	1122.38
404.422	1260.38
404.645	1532.38
404.869	1667.38
405.093	1228.38
405.317	1017.38
405.541	1022.38
405.765	1055.38
405.988	1042.38
406.212	1139.38
406.436	1351.38
406.66	1497.38
406.883	1181.38
407.107	1225.38
407.331	1474.38
407.555	1372.38
407.778	1160.38
408.002	1112.38
408.226	1071.38
408.449	1077.38
408.673	1065.38
408.896	968.38
409.12	936.38
409.344	909.38
409.567	910.38
409.791	919.38
410.014	923.38
410.238	900.38
410.461	910.38
410.685	935.38
410.908	920.38
411.132	956.38
411.355	961.38
411.578	980.38
411.802	936.38
412.025	999.38
412.249	983.38
412.472	966.38
412.695	976.38
412.919	966.38
413.142	996.38
413.365	1107.38
413.589	1102.38
413.812	978.38
414.035	921.38
414.258	954.38
414.482	1079.38
414.705	1121.38
414.928	933.38
415.151	880.38
415.374	925.38
415.597	937.38
415.821	941.38
416.044	926.38
416.267	900.38
416.49	899.38
416.713	863.38
416.936	852.38
417.159	870.38
417.382	913.38
417.605	928.38
417.828	932.38
418.051	958.38
418.274	1007.38
418.497	968.38
418.72	942.38
418.943	990.38
419.166	1029.38
419.389	1061.38
419.611	1059.38
419.834	1081.38
420.057	1171.38
420.28	1187.38
420.503	1066.38
420.726	933.38
420.948	912.38
421.171	909.38
421.394	916.38
421.617	867.38
421.839	906.38
422.062	956.38
422.285	968.38
422.507	978.38
422.73	1017.38
422.953	1014.38
423.175	998.38
423.398	982.38
423.621	1014.38
423.843	1114.38
424.066	1049.38
424.288	969.38
424.511	934.38
424.733	951.38
424.956	987.38
425.178	1179.38
425.401	1267.38
425.623	1439.38
425.846	1200.38
426.068	1068.38
426.291	1203.38
426.513	1079.38
426.735	952.38
426.958	1006.38
427.18	1201.38
427.402	1606.38
427.625	1550.38
427.847	1251.38
428.069	921.38
428.292	940.38
428.514	900.38
428.736	894.38
428.958	979.38
429.181	1190.38
429.403	1000.38
429.625	928.38
429.847	899.38
430.069	938.38
430.292	932.38
430.514	902.38
430.736	973.38
430.958	1251.38
431.18	1144.38
431.402	888.38
431.624	847.38
431.846	812.38
432.068	809.38
432.29	839.38
432.512	967.38
432.734	1278.38
432.956	1178.38
433.178	909.38
433.4	876.38
433.622	861.38
433.844	903.38
434.066	981.38
434.287	942.38
434.509	913.38
434.731	950.38
434.953	907.38
435.175	933.38
435.397	1069.38
435.618	941.38
435.84	849.38
436.062	844.38
436.284	866.38
436.505	790.38
436.727	800.38
436.949	834.38
437.17	854.38
437.392	872.38
437.614	852.38
437.835	826.38
438.057	860.38
438.278	1019.38
438.5	1458.38
438.721	1458.38
438.943	959.38
439.165	821.38
439.386	824.38
439.608	794.38
439.829	782.38
440.05	817.38
440.272	869.38
440.493	1063.38
440.715	1329.38
440.936	1036.38
441.158	898.38
441.379	880.38
441.6	1044.38
441.822	1101.38
442.043	926.38
442.264	897.38
442.486	882.38
442.707	889.38
442.928	881.38
443.149	900.38
443.371	920.38
443.592	962.38
443.813	960.38
444.034	914.38
444.255	922.38
444.476	989.38
444.698	967.38
444.919	970.38
445.14	1088.38
445.361	1024.38
445.582	999.38
445.803	964.38
446.024	970.38
446.245	957.38
446.466	961.38
446.687	892.38
446.908	919.38
447.129	872.38
447.35	825.38
447.571	822.38
447.792	842.38
448.013	812.38
448.234	774.38
448.455	783.38
448.675	850.38
448.896	815.38
449.117	854.38
449.338	822.38
449.559	854.38
449.779	896.38
450	892.38
450.221	846.38
450.442	836.38
450.662	838.38
450.883	825.38
451.104	812.38
451.324	822.38
451.545	852.38
451.766	797.38
451.986	768.38
452.207	768.38
452.428	787.38
452.648	783.38
452.869	853.38
453.089	887.38
453.31	865.38
453.53	764.38
453.751	737.38
453.971	791.38
454.192	801.38
454.412	805.38
454.633	782.38
454.853	771.38
455.073	741.38
455.294	721.38
455.514	745.38
455.734	796.38
455.955	834.38
456.175	813.38
456.395	764.38
456.616	721.38
456.836	716.38
457.056	702.38
457.276	713.38
457.497	743.38
457.717	736.38
457.937	732.38
458.157	723.38
458.377	715.38
458.598	752.38
458.818	792.38
459.038	852.38
459.258	848.38
459.478	879.38
459.698	930.38
459.918	907.38
460.138	888.38
460.358	927.38
460.578	910.38
460.798	889.38
461.018	892.38
461.238	872.38
461.458	886.38
461.678	937.38
461.898	962.38
462.118	942.38
462.338	958.38
462.558	970.38
462.777	1039.38
462.997	1034.38
463.217	1044.38
463.437	1059.38
463.657	1027.38
463.876	989.38
464.096	989.38
464.316	987.38
464.536	999.38
464.755	1050.38
464.975	1060.38
465.195	979.38
465.414	1017.38
465.634	989.38
465.854	965.38
466.073	868.38
466.293	878.38
466.512	937.38
466.732	1032.38
466.951	1076.38
467.171	965.38
467.391	904.38
467.61	893.38
467.829	921.38
468.049	940.38
468.268	923.38
468.488	934.38
468.707	948.38
468.927	1085.38
469.146	1164.38
469.365	1070.38
469.585	980.38
469.804	1042.38
470.023	1146.38
470.243	1028.38
470.462	954.38
470.681	930.38
470.901	958.38
471.12	1006.38
471.339	998.38
471.558	936.38
471.777	955.38
471.997	1031.38
472.216	1150.38
472.435	1053.38
472.654	1028.38
472.873	951.38
473.092	1044.38
473.311	1086.38
473.53	993.38
473.749	956.38
473.968	1007.38
474.187	996.38
474.406	964.38
474.625	940.38
474.844	957.38
475.063	1030.38
475.282	1035.38
475.501	1096.38
475.72	1161.38
475.939	1117.38
476.158	1150.38
476.377	1322.38
476.596	1513.38
476.814	1538.38
477.033	1277.38
477.252	1090.38
477.471	1007.38
477.69	1047.38
477.908	1137.38
478.127	1180.38
478.346	1104.38
478.564	1200.38
478.783	1120.38
479.002	1144.38
479.22	1314.38
479.439	1464.38
479.658	1263.38
479.876	1133.38
480.095	1214.38
480.313	1272.38
480.532	1153.38
480.751	1104.38
480.969	1148.38
481.188	1309.38
481.406	1362.38
481.624	1268.38
481.843	1152.38
482.061	1103.38
482.28	1218.38
482.498	1478.38
482.717	1429.38
482.935	1233.38
483.153	1159.38
483.372	1076.38
483.59	1102.38
483.808	1080.38
484.027	1059.38
484.245	1018.38
484.463	1000.38
484.681	1058.38
484.9	1130.38
485.118	1249.38
485.336	1118.38
485.554	1077.38
485.772	1124.38
485.99	1202.38
486.209	1276.38
486.427	1240.38
486.645	1210.38
486.863	1284.38
487.081	1236.38
487.299	1436.38
487.517	1427.38
487.735	1244.38
487.953	1289.38
488.171	1330.38
488.389	1233.38
488.607	1121.38
488.825	1218.38
489.043	1342.38
489.261	1528.38
489.479	1644.38
489.696	1331.38
489.914	1202.38
490.132	1150.38
490.35	1150.38
490.568	1176.38
490.786	1152.38
491.003	1172.38
491.221	1203.38
491.439	1172.38
491.657	1169.38
491.874	1245.38
492.092	1548.38
492.31	1900.38
492.527	1846.38
492.745	1564.38
492.963	1377.38
493.18	1330.38
493.398	1326.38
