Data from NickelSpatula.Lamp.E5.5.P2_HRD10591_11-51-53-557.txt Node
Date: Tue Jul 23 11:51:53 EDT 2019
User: cochatt
Spectrometer: HR+D1059
Trigger mode: 1
Integration Time (sec): 1.000000E-1
Scans to average: 1
Electric dark correction enabled: true
Nonlinearity correction enabled: false
Boxcar width: 0
XAxis mode: Wavelengths
Number of Pixels in Spectrum: 2048
>>>>>Begin Spectral Data<<<<<
223.165	-7
223.4	-7
223.635	-7
223.869	-15
224.104	-27
224.338	-12
224.573	-16
224.808	-24
225.042	-18
225.277	4
225.511	-4
225.746	8
225.98	5
226.215	25
226.449	28
226.683	11
226.918	13
227.152	29
227.387	25
227.621	30
227.856	47
228.09	55
228.324	52
228.559	55
228.793	67
229.027	70
229.262	83
229.496	76
229.73	85
229.964	92
230.199	89
230.433	85
230.667	103
230.901	81
231.136	100
231.37	105
231.604	105
231.838	103
232.072	112
232.306	111
232.541	98
232.775	98
233.009	106
233.243	106
233.477	117
233.711	134
233.945	113
234.179	114
234.413	124
234.647	134
234.881	148
235.115	133
235.349	114
235.583	114
235.817	116
236.051	122
236.285	134
236.519	148
236.753	143
236.987	131
237.221	127
237.455	127
237.689	125
237.922	122
238.156	148
238.39	153
238.624	167
238.858	173
239.091	134
239.325	138
239.559	135
239.793	141
240.027	163
240.26	152
240.494	137
240.728	160
240.961	178
241.195	167
241.429	177
241.662	168
241.896	120
242.13	127
242.363	131
242.597	144
242.83	139
243.064	155
243.298	157
243.531	179
243.765	161
243.998	164
244.232	159
244.465	167
244.699	165
244.932	190
245.166	158
245.399	133
245.633	141
245.866	137
246.099	166
246.333	161
246.566	188
246.8	178
247.033	171
247.266	177
247.5	176
247.733	164
247.966	170
248.2	166
248.433	187
248.666	197
248.899	204
249.133	194
249.366	213
249.599	230
249.832	217
250.066	193
250.299	186
250.532	193
250.765	191
250.998	179
251.231	177
251.465	196
251.698	200
251.931	189
252.164	194
252.397	199
252.63	242
252.863	240
253.096	259
253.329	257
253.562	241
253.795	262
254.028	296
254.261	285
254.494	253
254.727	255
254.96	249
255.193	254
255.426	241
255.659	196
255.892	190
256.124	201
256.357	240
256.59	259
256.823	253
257.056	203
257.289	215
257.521	221
257.754	238
257.987	291
258.22	260
258.452	231
258.685	260
258.918	289
259.151	286
259.383	289
259.616	325
259.849	345
260.081	347
260.314	394
260.547	316
260.779	336
261.012	344
261.244	330
261.477	346
261.71	325
261.942	281
262.175	273
262.407	255
262.64	269
262.872	328
263.105	340
263.337	346
263.57	316
263.802	222
264.035	229
264.267	196
264.499	211
264.732	172
264.964	168
265.197	177
265.429	193
265.661	197
265.894	196
266.126	217
266.358	236
266.591	280
266.823	313
267.055	322
267.287	273
267.52	284
267.752	294
267.984	316
268.216	297
268.448	262
268.681	241
268.913	266
269.145	282
269.377	309
269.609	293
269.841	275
270.073	272
270.306	282
270.538	289
270.77	317
271.002	318
271.234	326
271.466	313
271.698	297
271.93	289
272.162	273
272.394	302
272.626	302
272.858	296
273.09	292
273.322	264
273.553	276
273.785	313
274.017	372
274.249	474
274.481	486
274.713	522
274.945	576
275.176	597
275.408	516
275.64	510
275.872	510
276.104	419
276.335	378
276.567	384
276.799	406
277.031	412
277.262	318
277.494	282
277.726	242
277.957	269
278.189	308
278.421	288
278.652	300
278.884	274
279.115	286
279.347	257
279.579	265
279.81	265
280.042	287
280.273	287
280.505	258
280.736	230
280.968	227
281.199	255
281.431	277
281.662	265
281.894	258
282.125	293
282.356	307
282.588	304
282.819	259
283.051	303
283.282	328
283.513	387
283.745	438
283.976	437
284.207	399
284.439	415
284.67	396
284.901	355
285.132	390
285.364	404
285.595	365
285.826	399
286.057	407
286.288	403
286.52	378
286.751	421
286.982	408
287.213	354
287.444	378
287.675	377
287.906	372
288.138	329
288.369	307
288.6	288
288.831	296
289.062	329
289.293	362
289.524	320
289.755	347
289.986	346
290.217	314
290.448	264
290.679	232
290.91	207
291.141	225
291.371	240
291.602	232
291.833	232
292.064	238
292.295	265
292.526	304
292.757	316
292.987	321
293.218	346
293.449	348
293.68	366
293.91	356
294.141	356
294.372	333
294.603	306
294.833	345
295.064	375
295.295	381
295.525	316
295.756	268
295.987	239
296.217	246
296.448	231
296.679	260
296.909	278
297.14	283
297.37	298
297.601	284
297.831	241
298.062	277
298.292	290
298.523	323
298.753	357
298.984	337
299.214	284
299.445	244
299.675	253
299.905	227
300.136	249
300.366	252
300.597	245
300.827	231
301.057	243
301.288	244
301.518	250
301.748	261
301.979	290
302.209	308
302.439	309
302.669	282
302.9	272
303.13	250
303.36	233
303.59	246
303.82	239
304.051	284
304.281	284
304.511	285
304.741	252
304.971	274
305.201	276
305.431	248
305.661	228
305.891	224
306.121	233
306.352	224
306.582	224
306.812	193
307.042	208
307.272	216
307.502	201
307.731	215
307.961	211
308.191	202
308.421	210
308.651	194
308.881	204
309.111	186
309.341	200
309.571	199
309.8	221
310.03	229
310.26	216
310.49	221
310.72	193
310.949	205
311.179	222
311.409	216
311.639	249
311.868	297
312.098	345
312.328	400
312.557	364
312.787	381
313.017	331
313.246	363
313.476	403
313.706	334
313.935	282
314.165	245
314.394	230
314.624	213
314.853	217
315.083	227
315.312	215
315.542	218
315.771	215
316.001	204
316.23	209
316.46	219
316.689	187
316.919	200
317.148	230
317.377	197
317.607	194
317.836	208
318.065	243
318.295	256
318.524	238
318.753	227
318.983	223
319.212	214
319.441	220
319.67	225
319.9	263
320.129	238
320.358	233
320.587	211
320.816	228
321.046	268
321.275	258
321.504	254
321.733	261
321.962	266
322.191	269
322.42	247
322.649	250
322.878	240
323.108	276
323.337	246
323.566	237
323.795	238
324.024	244
324.253	211
324.482	229
324.71	233
324.939	261
325.168	250
325.397	218
325.626	213
325.855	208
326.084	213
326.313	230
326.542	213
326.77	211
326.999	217
327.228	225
327.457	230
327.686	236
327.914	210
328.143	212
328.372	192
328.6	197
328.829	216
329.058	231
329.287	197
329.515	211
329.744	218
329.972	207
330.201	188
330.43	212
330.658	204
330.887	220
331.115	226
331.344	253
331.572	210
331.801	221
332.03	207
332.258	216
332.486	228
332.715	240
332.943	222
333.172	216
333.4	219
333.629	248
333.857	274
334.085	266
334.314	262
334.542	248
334.771	234
334.999	219
335.227	233
335.455	229
335.684	240
335.912	274
336.14	302
336.369	278
336.597	278
336.825	298
337.053	324
337.281	284
337.51	216
337.738	214
337.966	234
338.194	249
338.422	242
338.65	221
338.878	200
339.106	223
339.334	229
339.562	230
339.79	220
340.018	230
340.246	231
340.474	246
340.702	256
340.93	275
341.158	280
341.386	243
341.614	245
341.842	254
342.07	258
342.298	294
342.526	298
342.754	257
342.981	238
343.209	232
343.437	264
343.665	265
343.893	258
344.12	305
344.348	349
344.576	307
344.804	267
345.031	240
345.259	241
345.487	221
345.714	240
345.942	237
346.17	268
346.397	241
346.625	221
346.853	235
347.08	216
347.308	242
347.535	277
347.763	264
347.99	240
348.218	222
348.445	229
348.673	238
348.9	220
349.128	243
349.355	238
349.583	241
349.81	229
350.037	220
350.265	202
350.492	205
350.72	196
350.947	194
351.174	221
351.402	205
351.629	215
351.856	206
352.083	208
352.311	216
352.538	250
352.765	252
352.992	227
353.22	233
353.447	221
353.674	220
353.901	200
354.128	213
354.355	221
354.583	228
354.81	232
355.037	240
355.264	216
355.491	242
355.718	259
355.945	248
356.172	236
356.399	236
356.626	285
356.853	328
357.08	356
357.307	358
357.534	298
357.761	312
357.988	355
358.215	407
358.441	380
358.668	329
358.895	307
359.122	266
359.349	294
359.576	305
359.802	259
360.029	237
360.256	264
360.483	271
360.709	342
360.936	342
361.163	299
361.39	262
361.616	236
361.843	276
362.07	289
362.296	288
362.523	232
362.749	217
362.976	215
363.203	264
363.429	286
363.656	267
363.882	242
364.109	241
364.335	230
364.562	236
364.788	245
365.015	285
365.241	272
365.468	225
365.694	200
365.92	212
366.147	202
366.373	182
366.599	189
366.826	200
367.052	195
367.278	211
367.505	205
367.731	209
367.957	226
368.184	246
368.41	236
368.636	220
368.862	238
369.089	229
369.315	218
369.541	200
369.767	206
369.993	204
370.219	199
370.445	214
370.672	232
370.898	249
371.124	245
371.35	217
371.576	204
371.802	216
372.028	255
372.254	288
372.48	263
372.706	240
372.932	259
373.158	253
373.384	285
373.61	350
373.835	369
374.061	289
374.287	264
374.513	296
374.739	368
374.965	346
375.191	353
375.416	278
375.642	238
375.868	280
376.094	297
376.319	245
376.545	285
376.771	296
376.997	272
377.222	218
377.448	201
377.674	193
377.899	201
378.125	189
378.35	185
378.576	199
378.802	221
379.027	221
379.253	221
379.478	213
379.704	236
379.929	266
380.155	250
380.38	237
380.606	221
380.831	261
381.057	264
381.282	222
381.507	266
381.733	283
381.958	320
382.184	317
382.409	364
382.634	375
382.86	350
383.085	325
383.31	271
383.535	265
383.761	277
383.986	269
384.211	300
384.436	305
384.662	248
384.887	261
385.112	243
385.337	262
385.562	242
385.787	271
386.013	262
386.238	287
386.463	242
386.688	231
386.913	220
387.138	227
387.363	239
387.588	227
387.813	245
388.038	276
388.263	244
388.488	232
388.713	252
388.938	291
389.163	241
389.387	223
389.612	226
389.837	236
390.062	225
390.287	234
390.512	233
390.736	223
390.961	242
391.186	213
391.411	206
391.636	225
391.86	238
392.085	250
392.31	256
392.534	254
392.759	220
392.984	255
393.208	237
393.433	210
393.658	213
393.882	196
394.107	205
394.331	198
394.556	197
394.78	222
395.005	233
395.229	218
395.454	207
395.678	217
395.903	226
396.127	199
396.352	217
396.576	236
396.801	266
397.025	259
397.249	270
397.474	240
397.698	236
397.922	247
398.147	205
398.371	229
398.595	267
398.82	247
399.044	241
399.268	260
399.492	280
399.717	319
399.941	311
400.165	293
400.389	254
400.613	258
400.837	227
401.062	232
401.286	232
401.51	225
401.734	225
401.958	231
402.182	236
402.406	251
402.63	239
402.854	257
403.078	282
403.302	348
403.526	366
403.75	346
403.974	291
404.198	286
404.422	302
404.645	324
404.869	370
405.093	280
405.317	276
405.541	254
405.765	268
405.988	250
406.212	274
406.436	277
406.66	318
406.883	275
407.107	278
407.331	319
407.555	308
407.778	287
408.002	281
408.226	263
408.449	279
408.673	274
408.896	256
409.12	238
409.344	260
409.567	231
409.791	231
410.014	226
410.238	233
410.461	236
410.685	250
410.908	259
411.132	245
411.355	238
411.578	252
411.802	240
412.025	246
412.249	245
412.472	252
412.695	264
412.919	237
413.142	247
413.365	259
413.589	251
413.812	224
414.035	231
414.258	239
414.482	261
414.705	253
414.928	245
415.151	233
415.374	242
415.597	240
415.821	230
416.044	233
416.267	243
416.49	230
416.713	226
416.936	205
417.159	212
417.382	242
417.605	254
417.828	245
418.051	236
418.274	272
418.497	230
418.72	237
418.943	268
419.166	237
419.389	264
419.611	260
419.834	249
420.057	264
420.28	266
420.503	243
420.726	235
420.948	236
421.171	218
421.394	232
421.617	227
421.839	250
422.062	246
422.285	228
422.507	236
422.73	233
422.953	250
423.175	237
423.398	237
423.621	265
423.843	270
424.066	259
424.288	257
424.511	241
424.733	264
424.956	267
425.178	264
425.401	287
425.623	357
425.846	293
426.068	242
426.291	274
426.513	244
426.735	230
426.958	227
427.18	273
427.402	334
427.625	370
427.847	319
428.069	256
428.292	226
428.514	230
428.736	243
428.958	281
429.181	311
429.403	254
429.625	242
429.847	224
430.069	211
430.292	226
430.514	230
430.736	225
430.958	281
431.18	257
431.402	218
431.624	222
431.846	223
432.068	221
432.29	227
432.512	248
432.734	290
432.956	259
433.178	222
433.4	218
433.622	241
433.844	227
434.066	269
434.287	231
434.509	241
434.731	256
434.953	262
435.175	257
435.397	277
435.618	248
435.84	199
436.062	227
436.284	219
436.505	222
436.727	208
436.949	204
437.17	219
437.392	218
437.614	216
437.835	221
438.057	212
438.278	241
438.5	304
438.721	320
438.943	245
439.165	212
439.386	215
439.608	214
439.829	196
440.05	206
440.272	234
440.493	240
440.715	303
440.936	248
441.158	229
441.379	230
441.6	261
441.822	262
442.043	243
442.264	227
442.486	240
442.707	225
442.928	232
443.149	234
443.371	247
443.592	233
443.813	233
444.034	243
444.255	243
444.476	255
444.698	252
444.919	250
445.14	340
445.361	278
445.582	250
445.803	258
446.024	245
446.245	228
446.466	241
446.687	230
446.908	236
447.129	231
447.35	211
447.571	196
447.792	211
448.013	218
448.234	218
448.455	210
448.675	220
448.896	204
449.117	221
449.338	213
449.559	217
449.779	237
450	225
450.221	223
450.442	217
450.662	203
450.883	228
451.104	231
451.324	208
451.545	214
451.766	215
451.986	225
452.207	209
452.428	232
452.648	202
452.869	211
453.089	236
453.31	212
453.53	197
453.751	220
453.971	213
454.192	218
454.412	208
454.633	200
454.853	211
455.073	196
455.294	205
455.514	214
455.734	197
455.955	214
456.175	215
456.395	214
456.616	196
456.836	197
457.056	198
457.276	197
457.497	210
457.717	191
457.937	193
458.157	208
458.377	208
458.598	197
458.818	209
459.038	209
459.258	236
459.478	217
459.698	239
459.918	241
460.138	248
460.358	251
460.578	224
460.798	248
461.018	238
461.238	220
461.458	231
461.678	228
461.898	267
462.118	244
462.338	260
462.558	265
462.777	268
462.997	273
463.217	296
463.437	303
463.657	278
463.876	262
464.096	287
464.316	278
464.536	279
464.755	266
464.975	283
465.195	263
465.414	263
465.634	257
465.854	244
466.073	232
466.293	225
466.512	232
466.732	252
466.951	236
467.171	230
467.391	236
467.61	223
467.829	254
468.049	224
468.268	226
468.488	229
468.707	223
468.927	268
469.146	268
469.365	252
469.585	249
469.804	263
470.023	284
470.243	236
470.462	225
470.681	212
470.901	233
471.12	255
471.339	259
471.558	248
471.777	232
471.997	243
472.216	274
472.435	252
472.654	248
472.873	239
473.092	242
473.311	275
473.53	230
473.749	239
473.968	238
474.187	246
474.406	222
474.625	217
474.844	232
475.063	240
475.282	237
475.501	271
475.72	282
475.939	266
476.158	266
476.377	310
476.596	339
476.814	342
477.033	287
477.252	256
477.471	258
477.69	265
477.908	252
478.127	272
478.346	266
478.564	279
478.783	279
479.002	279
479.22	305
479.439	332
479.658	290
479.876	271
480.095	275
480.313	307
480.532	268
480.751	288
480.969	279
481.188	304
481.406	329
481.624	296
481.843	272
482.061	256
482.28	287
482.498	323
482.717	338
482.935	274
483.153	270
483.372	275
483.59	256
483.808	266
484.027	262
484.245	250
484.463	244
484.681	259
484.9	266
485.118	284
485.336	282
485.554	256
485.772	275
485.99	289
486.209	273
486.427	294
486.645	292
486.863	278
487.081	281
487.299	330
487.517	309
487.735	273
487.953	283
488.171	310
488.389	260
488.607	274
488.825	284
489.043	302
489.261	330
489.479	341
489.696	288
489.914	297
490.132	290
490.35	274
490.568	270
490.786	272
491.003	267
491.221	278
491.439	254
491.657	260
491.874	284
492.092	327
492.31	366
492.527	376
492.745	333
492.963	306
493.18	283
493.398	311
493.615	301
493.833	290
494.05	295
494.268	272
494.485	304
494.703	287
494.92	293
495.138	261
495.355	262
495.573	261
495.79	304
496.008	356
496.225	316
496.442	306
496.66	308
496.877	314
497.094	312
497.312	305
497.529	307
497.746	286
497.963	305
498.181	333
498.398	341
498.615	354
498.832	383
499.049	404
499.267	364
499.484	388
499.701	401
499.918	446
500.135	496
500.352	548
500.569	546
500.786	561
501.003	515
501.22	481
501.437	434
501.654	405
501.871	384
502.088	361
502.305	354
502.522	343
502.739	346
502.956	328
503.172	307
503.389	319
503.606	282
503.823	286
504.04	310
504.256	306
504.473	313
504.69	335
504.907	324
505.123	306
505.34	328
505.557	320
505.773	296
505.99	306
506.207	312
506.423	300
506.64	284
506.856	280
507.073	321
507.289	313
507.506	308
507.722	333
507.939	313
508.155	322
508.372	304
508.588	291
508.805	269
509.021	283
509.238	277
509.454	264
509.67	256
509.887	260
510.103	308
510.319	281
510.536	271
510.752	242
510.968	259
511.184	261
511.401	242
511.617	229
511.833	249
512.049	267
512.265	252
512.481	268
512.698	276
512.914	320
513.13	292
513.346	276
513.562	277
513.778	244
513.994	251
514.21	280
514.426	264
514.642	264
514.858	280
515.074	293
515.29	310
515.506	331
515.721	310
515.937	287
516.153	272
516.369	272
516.585	287
516.801	304
517.016	355
517.232	339
517.448	364
517.664	336
517.879	313
518.095	329
518.311	330
518.527	337
518.742	323
518.958	355
519.173	352
519.389	322
519.605	297
519.82	357
520.036	369
520.251	371
520.467	364
520.682	592
520.898	721
521.113	689
521.329	415
521.544	351
521.76	341
521.975	303
522.19	297
522.406	301
522.621	311
522.836	340
523.052	334
523.267	280
523.482	303
523.698	312
523.913	308
524.128	282
524.343	275
524.559	252
524.774	264
524.989	284
525.204	286
525.419	315
525.634	272
525.849	293
526.064	304
526.28	302
526.495	352
526.71	351
526.925	320
527.14	329
527.355	314
527.57	271
527.785	290
527.999	256
528.214	259
528.429	264
528.644	265
528.859	258
529.074	238
529.289	252
529.503	239
529.718	258
529.933	317
530.148	298
530.363	271
530.577	248
530.792	248
531.007	237
531.221	266
531.436	250
531.651	242
531.865	271
532.08	271
532.295	253
532.509	246
532.724	273
532.938	323
533.153	370
533.367	293
533.582	279
533.796	295
534.011	263
534.225	257
534.44	264
534.654	282
534.868	323
535.083	286
535.297	262
535.511	255
535.726	282
535.94	270
536.154	242
536.369	260
536.583	250
536.797	244
537.011	251
537.225	266
537.44	292
537.654	262
537.868	252
538.082	235
538.296	257
538.51	246
538.724	264
538.938	258
539.153	252
539.367	248
539.581	229
539.795	260
540.009	262
540.222	261
540.436	257
540.65	288
540.864	272
541.078	306
541.292	332
541.506	272
541.72	245
541.934	266
542.147	268
542.361	261
542.575	266
542.789	264
543.002	246
543.216	237
543.43	237
543.644	229
543.857	220
544.071	251
544.285	235
544.498	241
544.712	242
544.925	258
545.139	252
545.352	230
545.566	217
545.779	248
545.993	233
546.206	239
546.42	234
546.633	225
546.847	206
547.06	218
547.274	226
547.487	225
547.7	218
547.914	256
548.127	267
548.34	262
548.554	239
548.767	265
548.98	258
549.193	224
549.407	246
549.62	287
549.833	271
550.046	271
550.259	298
550.473	258
550.686	233
550.899	255
551.112	254
551.325	272
551.538	278
551.751	246
551.964	217
552.177	231
552.39	232
552.603	232
552.816	252
553.029	222
553.242	249
553.455	248
553.667	269
553.88	266
554.093	230
554.306	216
554.519	236
554.732	208
554.944	244
555.157	207
555.37	228
555.583	224
555.795	232
556.008	214
556.221	208
556.433	217
556.646	217
556.859	214
557.071	214
557.284	215
557.496	220
557.709	217
557.921	201
558.134	214
558.346	201
558.559	218
558.771	208
558.984	199
559.196	228
559.409	202
559.621	195
559.833	189
560.046	205
560.258	206
560.47	202
560.683	187
560.895	203
561.107	190
561.32	192
561.532	182
561.744	209
561.956	208
562.168	217
562.381	218
562.593	194
562.805	198
563.017	194
563.229	192
563.441	188
563.653	198
563.865	208
564.077	197
564.289	200
