Data from NickelSpatula.Lamp.E5.5.P2_HRD10591_11-53-24-549.txt Node
Date: Tue Jul 23 11:53:24 EDT 2019
User: cochatt
Spectrometer: HR+D1059
Trigger mode: 1
Integration Time (sec): 1.000000E-1
Scans to average: 1
Electric dark correction enabled: true
Nonlinearity correction enabled: false
Boxcar width: 0
XAxis mode: Wavelengths
Number of Pixels in Spectrum: 2048
>>>>>Begin Spectral Data<<<<<
223.165	-14.19
223.4	-14.19
223.635	-14.19
223.869	-19.19
224.104	-23.19
224.338	-10.19
224.573	1.81
224.808	-0.19
225.042	-5.19
225.277	-17.19
225.511	-11.19
225.746	-3.19
225.98	1.81
226.215	6.81
226.449	21.81
226.683	17.81
226.918	26.81
227.152	26.81
227.387	43.81
227.621	36.81
227.856	46.81
228.09	58.81
228.324	46.81
228.559	58.81
228.793	47.81
229.027	54.81
229.262	73.81
229.496	71.81
229.73	77.81
229.964	89.81
230.199	86.81
230.433	91.81
230.667	102.81
230.901	99.81
231.136	103.81
231.37	117.81
231.604	98.81
231.838	98.81
232.072	100.81
232.306	103.81
232.541	97.81
232.775	99.81
233.009	116.81
233.243	102.81
233.477	119.81
233.711	125.81
233.945	115.81
234.179	109.81
234.413	125.81
234.647	129.81
234.881	137.81
235.115	147.81
235.349	120.81
235.583	116.81
235.817	101.81
236.051	108.81
236.285	118.81
236.519	136.81
236.753	146.81
236.987	121.81
237.221	135.81
237.455	124.81
237.689	122.81
237.922	134.81
238.156	132.81
238.39	146.81
238.624	166.81
238.858	160.81
239.091	134.81
239.325	152.81
239.559	136.81
239.793	159.81
240.027	182.81
240.26	165.81
240.494	154.81
240.728	155.81
240.961	176.81
241.195	165.81
241.429	159.81
241.662	142.81
241.896	142.81
242.13	142.81
242.363	139.81
242.597	118.81
242.83	134.81
243.064	142.81
243.298	159.81
243.531	168.81
243.765	163.81
243.998	171.81
244.232	156.81
244.465	162.81
244.699	144.81
244.932	175.81
245.166	161.81
245.399	160.81
245.633	152.81
245.866	168.81
246.099	141.81
246.333	180.81
246.566	183.81
246.8	196.81
247.033	183.81
247.266	166.81
247.5	158.81
247.733	167.81
247.966	174.81
248.2	177.81
248.433	190.81
248.666	196.81
248.899	193.81
249.133	195.81
249.366	234.81
249.599	216.81
249.832	199.81
250.066	194.81
250.299	190.81
250.532	186.81
250.765	207.81
250.998	184.81
251.231	179.81
251.465	180.81
251.698	189.81
251.931	194.81
252.164	195.81
252.397	221.81
252.63	228.81
252.863	231.81
253.096	259.81
253.329	248.81
253.562	248.81
253.795	259.81
254.028	276.81
254.261	282.81
254.494	282.81
254.727	257.81
254.96	242.81
255.193	278.81
255.426	261.81
255.659	194.81
255.892	219.81
256.124	208.81
256.357	230.81
256.59	272.81
256.823	247.81
257.056	211.81
257.289	204.81
257.521	213.81
257.754	259.81
257.987	307.81
258.22	268.81
258.452	229.81
258.685	255.81
258.918	272.81
259.151	269.81
259.383	293.81
259.616	319.81
259.849	326.81
260.081	336.81
260.314	382.81
260.547	299.81
260.779	314.81
261.012	355.81
261.244	332.81
261.477	339.81
261.71	344.81
261.942	246.81
262.175	265.81
262.407	261.81
262.64	262.81
262.872	319.81
263.105	332.81
263.337	346.81
263.57	315.81
263.802	249.81
264.035	221.81
264.267	210.81
264.499	179.81
264.732	174.81
264.964	173.81
265.197	166.81
265.429	198.81
265.661	197.81
265.894	186.81
266.126	199.81
266.358	218.81
266.591	278.81
266.823	316.81
267.055	311.81
267.287	270.81
267.52	274.81
267.752	269.81
267.984	327.81
268.216	294.81
268.448	262.81
268.681	235.81
268.913	270.81
269.145	286.81
269.377	278.81
269.609	292.81
269.841	281.81
270.073	260.81
270.306	313.81
270.538	315.81
270.77	316.81
271.002	313.81
271.234	298.81
271.466	306.81
271.698	302.81
271.93	310.81
272.162	300.81
272.394	308.81
272.626	282.81
272.858	289.81
273.09	304.81
273.322	266.81
273.553	268.81
273.785	288.81
274.017	374.81
274.249	466.81
274.481	464.81
274.713	515.81
274.945	568.81
275.176	605.81
275.408	537.81
275.64	480.81
275.872	497.81
276.104	452.81
276.335	356.81
276.567	359.81
276.799	389.81
277.031	421.81
277.262	343.81
277.494	264.81
277.726	254.81
277.957	266.81
278.189	278.81
278.421	308.81
278.652	304.81
278.884	286.81
279.115	271.81
279.347	256.81
279.579	238.81
279.81	266.81
280.042	279.81
280.273	280.81
280.505	268.81
280.736	234.81
280.968	231.81
281.199	236.81
281.431	261.81
281.662	273.81
281.894	255.81
282.125	287.81
282.356	299.81
282.588	296.81
282.819	263.81
283.051	272.81
283.282	337.81
283.513	385.81
283.745	431.81
283.976	431.81
284.207	391.81
284.439	396.81
284.67	392.81
284.901	358.81
285.132	375.81
285.364	427.81
285.595	360.81
285.826	408.81
286.057	401.81
286.288	375.81
286.52	404.81
286.751	456.81
286.982	434.81
287.213	383.81
287.444	354.81
287.675	353.81
287.906	386.81
288.138	318.81
288.369	301.81
288.6	266.81
288.831	299.81
289.062	353.81
289.293	350.81
289.524	330.81
289.755	323.81
289.986	326.81
290.217	295.81
290.448	248.81
290.679	221.81
290.91	213.81
291.141	211.81
291.371	203.81
291.602	226.81
291.833	241.81
292.064	241.81
292.295	259.81
292.526	302.81
292.757	298.81
292.987	314.81
293.218	321.81
293.449	345.81
293.68	357.81
293.91	329.81
294.141	356.81
294.372	320.81
294.603	310.81
294.833	340.81
295.064	380.81
295.295	375.81
295.525	286.81
295.756	250.81
295.987	231.81
296.217	216.81
296.448	224.81
296.679	240.81
296.909	260.81
297.14	263.81
297.37	311.81
297.601	283.81
297.831	258.81
298.062	263.81
298.292	290.81
298.523	316.81
298.753	355.81
298.984	320.81
299.214	275.81
299.445	236.81
299.675	238.81
299.905	234.81
300.136	249.81
300.366	269.81
300.597	237.81
300.827	223.81
301.057	221.81
301.288	221.81
301.518	230.81
301.748	265.81
301.979	263.81
302.209	286.81
302.439	296.81
302.669	287.81
302.9	270.81
303.13	256.81
303.36	243.81
303.59	230.81
303.82	238.81
304.051	277.81
304.281	282.81
304.511	279.81
304.741	258.81
304.971	274.81
305.201	291.81
305.431	259.81
305.661	248.81
305.891	236.81
306.121	249.81
306.352	223.81
306.582	212.81
306.812	208.81
307.042	184.81
307.272	191.81
307.502	188.81
307.731	197.81
307.961	202.81
308.191	199.81
308.421	192.81
308.651	187.81
308.881	198.81
309.111	185.81
309.341	170.81
309.571	204.81
309.8	220.81
310.03	198.81
310.26	210.81
310.49	192.81
310.72	193.81
310.949	190.81
311.179	206.81
311.409	212.81
311.639	244.81
311.868	277.81
312.098	344.81
312.328	382.81
312.557	350.81
312.787	378.81
313.017	332.81
313.246	358.81
313.476	390.81
313.706	330.81
313.935	270.81
314.165	226.81
314.394	210.81
314.624	208.81
314.853	224.81
315.083	235.81
315.312	197.81
315.542	230.81
315.771	214.81
316.001	188.81
316.23	189.81
316.46	203.81
316.689	178.81
316.919	193.81
317.148	206.81
317.377	193.81
317.607	198.81
317.836	211.81
318.065	247.81
318.295	281.81
318.524	243.81
318.753	220.81
318.983	210.81
319.212	209.81
319.441	209.81
319.67	225.81
319.9	265.81
320.129	232.81
320.358	223.81
320.587	202.81
320.816	222.81
321.046	248.81
321.275	266.81
321.504	262.81
321.733	252.81
321.962	242.81
322.191	229.81
322.42	216.81
322.649	225.81
322.878	256.81
323.108	258.81
323.337	242.81
323.566	233.81
323.795	246.81
324.024	218.81
324.253	209.81
324.482	206.81
324.71	220.81
324.939	251.81
325.168	243.81
325.397	225.81
325.626	221.81
325.855	217.81
326.084	191.81
326.313	209.81
326.542	192.81
326.77	225.81
326.999	201.81
327.228	231.81
327.457	214.81
327.686	219.81
327.914	214.81
328.143	190.81
328.372	185.81
328.6	197.81
328.829	204.81
329.058	210.81
329.287	199.81
329.515	205.81
329.744	194.81
329.972	192.81
330.201	181.81
330.43	180.81
330.658	198.81
330.887	232.81
331.115	231.81
331.344	221.81
331.572	209.81
331.801	204.81
332.03	199.81
332.258	188.81
332.486	208.81
332.715	201.81
332.943	201.81
333.172	211.81
333.4	203.81
333.629	227.81
333.857	249.81
334.085	231.81
334.314	263.81
334.542	224.81
334.771	207.81
334.999	221.81
335.227	217.81
335.455	221.81
335.684	234.81
335.912	262.81
336.14	280.81
336.369	264.81
336.597	276.81
336.825	274.81
337.053	303.81
337.281	267.81
337.51	230.81
337.738	214.81
337.966	232.81
338.194	238.81
338.422	220.81
338.65	198.81
338.878	186.81
339.106	195.81
339.334	222.81
339.562	229.81
339.79	229.81
340.018	207.81
340.246	228.81
340.474	256.81
340.702	268.81
340.93	262.81
341.158	264.81
341.386	243.81
341.614	239.81
341.842	242.81
342.07	242.81
342.298	259.81
342.526	286.81
342.754	245.81
342.981	218.81
343.209	208.81
343.437	239.81
343.665	260.81
343.893	259.81
344.12	307.81
344.348	326.81
344.576	322.81
344.804	261.81
345.031	239.81
345.259	211.81
345.487	227.81
345.714	221.81
345.942	252.81
346.17	254.81
346.397	237.81
346.625	214.81
346.853	228.81
347.08	206.81
347.308	210.81
347.535	250.81
347.763	275.81
347.99	248.81
348.218	217.81
348.445	221.81
348.673	239.81
348.9	222.81
349.128	242.81
349.355	228.81
349.583	225.81
349.81	220.81
350.037	220.81
350.265	196.81
350.492	191.81
350.72	179.81
350.947	194.81
351.174	211.81
351.402	197.81
351.629	204.81
351.856	205.81
352.083	198.81
352.311	199.81
352.538	240.81
352.765	247.81
352.992	231.81
353.22	211.81
353.447	223.81
353.674	218.81
353.901	212.81
354.128	200.81
354.355	213.81
354.583	220.81
354.81	218.81
355.037	235.81
355.264	212.81
355.491	219.81
355.718	230.81
355.945	242.81
356.172	239.81
356.399	227.81
356.626	260.81
356.853	305.81
357.08	343.81
357.307	349.81
357.534	270.81
357.761	291.81
357.988	349.81
358.215	408.81
358.441	355.81
358.668	338.81
358.895	284.81
359.122	262.81
359.349	261.81
359.576	303.81
359.802	248.81
360.029	222.81
360.256	221.81
360.483	270.81
360.709	312.81
360.936	315.81
361.163	303.81
361.39	231.81
361.616	218.81
361.843	261.81
362.07	293.81
362.296	267.81
362.523	239.81
362.749	207.81
362.976	220.81
363.203	250.81
363.429	259.81
363.656	228.81
363.882	219.81
364.109	221.81
364.335	213.81
364.562	216.81
364.788	236.81
365.015	272.81
365.241	244.81
365.468	217.81
365.694	211.81
365.92	198.81
366.147	178.81
366.373	189.81
366.599	185.81
366.826	182.81
367.052	204.81
367.278	192.81
367.505	177.81
367.731	200.81
367.957	199.81
368.184	225.81
368.41	218.81
368.636	222.81
368.862	239.81
369.089	224.81
369.315	194.81
369.541	190.81
369.767	198.81
369.993	200.81
370.219	217.81
370.445	210.81
370.672	225.81
370.898	235.81
371.124	221.81
371.35	209.81
371.576	202.81
371.802	213.81
372.028	251.81
372.254	287.81
372.48	255.81
372.706	207.81
372.932	222.81
373.158	238.81
373.384	279.81
373.61	362.81
373.835	344.81
374.061	294.81
374.287	246.81
374.513	279.81
374.739	330.81
374.965	355.81
375.191	330.81
375.416	249.81
375.642	240.81
375.868	262.81
376.094	300.81
376.319	247.81
376.545	264.81
376.771	279.81
376.997	252.81
377.222	216.81
377.448	190.81
377.674	201.81
377.899	188.81
378.125	184.81
378.35	176.81
378.576	191.81
378.802	206.81
379.027	222.81
379.253	209.81
379.478	204.81
379.704	226.81
379.929	234.81
380.155	250.81
380.38	228.81
380.606	227.81
380.831	242.81
381.057	234.81
381.282	212.81
381.507	262.81
381.733	292.81
381.958	294.81
382.184	304.81
382.409	326.81
382.634	345.81
382.86	343.81
383.085	307.81
383.31	245.81
383.535	263.81
383.761	270.81
383.986	247.81
384.211	288.81
384.436	289.81
384.662	223.81
384.887	222.81
385.112	235.81
385.337	250.81
385.562	241.81
385.787	253.81
386.013	283.81
386.238	281.81
386.463	230.81
386.688	223.81
386.913	219.81
387.138	199.81
387.363	216.81
387.588	216.81
387.813	233.81
388.038	243.81
388.263	221.81
388.488	221.81
388.713	243.81
388.938	252.81
389.163	224.81
389.387	197.81
389.612	208.81
389.837	223.81
390.062	221.81
390.287	237.81
390.512	224.81
390.736	215.81
390.961	205.81
391.186	187.81
391.411	203.81
391.636	210.81
391.86	223.81
392.085	237.81
392.31	253.81
392.534	213.81
392.759	234.81
392.984	241.81
393.208	253.81
393.433	227.81
393.658	198.81
393.882	188.81
394.107	199.81
394.331	195.81
394.556	212.81
394.78	193.81
395.005	224.81
395.229	184.81
395.454	218.81
395.678	209.81
395.903	215.81
396.127	222.81
396.352	213.81
396.576	215.81
396.801	241.81
397.025	261.81
397.249	246.81
397.474	216.81
397.698	230.81
397.922	244.81
398.147	208.81
398.371	233.81
398.595	232.81
398.82	236.81
399.044	219.81
399.268	250.81
399.492	272.81
399.717	286.81
399.941	279.81
400.165	274.81
400.389	273.81
400.613	250.81
400.837	218.81
401.062	220.81
401.286	199.81
401.51	226.81
401.734	217.81
401.958	240.81
402.182	225.81
402.406	237.81
402.63	234.81
402.854	237.81
403.078	257.81
403.302	339.81
403.526	359.81
403.75	312.81
403.974	258.81
404.198	269.81
404.422	305.81
404.645	318.81
404.869	328.81
405.093	270.81
405.317	246.81
405.541	252.81
405.765	238.81
405.988	263.81
406.212	242.81
406.436	264.81
406.66	318.81
406.883	257.81
407.107	262.81
407.331	295.81
407.555	310.81
407.778	273.81
408.002	272.81
408.226	259.81
408.449	246.81
408.673	246.81
408.896	227.81
409.12	243.81
409.344	225.81
409.567	230.81
409.791	238.81
410.014	223.81
410.238	222.81
410.461	224.81
410.685	236.81
410.908	235.81
411.132	224.81
411.355	237.81
411.578	240.81
411.802	222.81
412.025	243.81
412.249	240.81
412.472	229.81
412.695	219.81
412.919	223.81
413.142	257.81
413.365	244.81
413.589	253.81
413.812	245.81
414.035	236.81
414.258	251.81
414.482	242.81
414.705	256.81
414.928	241.81
415.151	219.81
415.374	210.81
415.597	214.81
415.821	207.81
416.044	219.81
416.267	222.81
416.49	217.81
416.713	211.81
416.936	202.81
417.159	221.81
417.382	229.81
417.605	205.81
417.828	250.81
418.051	228.81
418.274	199.81
418.497	231.81
418.72	212.81
418.943	235.81
419.166	239.81
419.389	237.81
419.611	255.81
419.834	250.81
420.057	255.81
420.28	236.81
420.503	254.81
420.726	220.81
420.948	226.81
421.171	230.81
421.394	216.81
421.617	205.81
421.839	244.81
422.062	226.81
422.285	221.81
422.507	237.81
422.73	219.81
422.953	229.81
423.175	216.81
423.398	227.81
423.621	244.81
423.843	240.81
424.066	221.81
424.288	234.81
424.511	230.81
424.733	237.81
424.956	243.81
425.178	249.81
425.401	296.81
425.623	339.81
425.846	286.81
426.068	245.81
426.291	262.81
426.513	232.81
426.735	230.81
426.958	239.81
427.18	254.81
427.402	328.81
427.625	355.81
427.847	288.81
428.069	236.81
428.292	218.81
428.514	206.81
428.736	219.81
428.958	256.81
429.181	295.81
429.403	257.81
429.625	224.81
429.847	222.81
430.069	215.81
430.292	217.81
430.514	221.81
430.736	235.81
430.958	266.81
431.18	250.81
431.402	210.81
431.624	200.81
431.846	203.81
432.068	206.81
432.29	203.81
432.512	221.81
432.734	289.81
432.956	251.81
433.178	227.81
433.4	217.81
433.622	214.81
433.844	215.81
434.066	240.81
434.287	239.81
434.509	215.81
434.731	247.81
434.953	223.81
435.175	250.81
435.397	284.81
435.618	231.81
435.84	208.81
436.062	200.81
436.284	211.81
436.505	195.81
436.727	193.81
436.949	195.81
437.17	204.81
437.392	219.81
437.614	200.81
437.835	211.81
438.057	212.81
438.278	226.81
438.5	310.81
438.721	302.81
438.943	237.81
439.165	188.81
439.386	204.81
439.608	196.81
439.829	196.81
440.05	211.81
440.272	220.81
440.493	240.81
440.715	268.81
440.936	247.81
441.158	211.81
441.379	218.81
441.6	246.81
441.822	274.81
442.043	215.81
442.264	210.81
442.486	229.81
442.707	224.81
442.928	213.81
443.149	234.81
443.371	230.81
443.592	240.81
443.813	222.81
444.034	223.81
444.255	228.81
444.476	241.81
444.698	251.81
444.919	240.81
445.14	336.81
445.361	292.81
445.582	252.81
445.803	226.81
446.024	221.81
446.245	227.81
446.466	234.81
446.687	222.81
446.908	221.81
447.129	223.81
447.35	204.81
447.571	200.81
447.792	204.81
448.013	200.81
448.234	183.81
448.455	202.81
448.675	191.81
448.896	203.81
449.117	202.81
449.338	207.81
449.559	206.81
449.779	208.81
450	218.81
450.221	192.81
450.442	213.81
450.662	205.81
450.883	230.81
451.104	199.81
451.324	199.81
451.545	209.81
451.766	218.81
451.986	204.81
452.207	184.81
452.428	191.81
452.648	197.81
452.869	202.81
453.089	213.81
453.31	211.81
453.53	197.81
453.751	193.81
453.971	195.81
454.192	211.81
454.412	199.81
454.633	196.81
454.853	196.81
455.073	195.81
455.294	205.81
455.514	170.81
455.734	207.81
455.955	199.81
456.175	202.81
456.395	187.81
456.616	198.81
456.836	191.81
457.056	170.81
457.276	169.81
457.497	166.81
457.717	174.81
457.937	174.81
458.157	175.81
458.377	193.81
458.598	184.81
458.818	204.81
459.038	222.81
459.258	219.81
459.478	218.81
459.698	235.81
459.918	222.81
460.138	223.81
460.358	221.81
460.578	230.81
460.798	240.81
461.018	235.81
461.238	218.81
461.458	216.81
461.678	232.81
461.898	259.81
462.118	246.81
462.338	254.81
462.558	246.81
462.777	245.81
462.997	261.81
463.217	283.81
463.437	286.81
463.657	266.81
463.876	274.81
464.096	250.81
464.316	239.81
464.536	264.81
464.755	276.81
464.975	256.81
465.195	264.81
465.414	266.81
465.634	231.81
465.854	222.81
466.073	226.81
466.293	212.81
466.512	211.81
466.732	241.81
466.951	251.81
467.171	221.81
467.391	212.81
467.61	215.81
467.829	215.81
468.049	218.81
468.268	200.81
468.488	212.81
468.707	204.81
468.927	244.81
469.146	276.81
469.365	235.81
469.585	223.81
469.804	239.81
470.023	259.81
470.243	253.81
470.462	213.81
470.681	234.81
470.901	232.81
471.12	235.81
471.339	204.81
471.558	222.81
471.777	230.81
471.997	240.81
472.216	258.81
472.435	265.81
472.654	251.81
472.873	229.81
473.092	242.81
473.311	237.81
473.53	234.81
473.749	226.81
473.968	231.81
474.187	215.81
474.406	234.81
474.625	217.81
474.844	215.81
475.063	235.81
475.282	263.81
475.501	258.81
475.72	260.81
475.939	244.81
476.158	270.81
476.377	287.81
476.596	316.81
476.814	340.81
477.033	286.81
477.252	260.81
477.471	226.81
477.69	234.81
477.908	251.81
478.127	266.81
478.346	266.81
478.564	280.81
478.783	250.81
479.002	250.81
479.22	279.81
479.439	320.81
479.658	270.81
479.876	236.81
480.095	302.81
480.313	293.81
480.532	282.81
480.751	260.81
480.969	276.81
481.188	304.81
481.406	288.81
481.624	265.81
481.843	264.81
482.061	245.81
482.28	270.81
482.498	326.81
482.717	322.81
482.935	276.81
483.153	262.81
483.372	236.81
483.59	253.81
483.808	242.81
484.027	235.81
484.245	232.81
484.463	228.81
484.681	235.81
484.9	225.81
485.118	282.81
485.336	256.81
485.554	248.81
485.772	270.81
485.99	270.81
486.209	282.81
486.427	285.81
486.645	257.81
486.863	276.81
487.081	270.81
487.299	309.81
487.517	299.81
487.735	266.81
487.953	286.81
488.171	280.81
488.389	268.81
488.607	243.81
488.825	254.81
489.043	271.81
489.261	298.81
489.479	324.81
489.696	289.81
489.914	256.81
490.132	247.81
490.35	260.81
490.568	261.81
490.786	246.81
491.003	249.81
491.221	262.81
491.439	252.81
491.657	254.81
491.874	279.81
492.092	307.81
492.31	342.81
492.527	350.81
492.745	325.81
492.963	283.81
493.18	288.81
493.398	279.81
493.615	296.81
493.833	266.81
494.05	276.81
494.268	272.81
494.485	283.81
494.703	261.81
494.92	262.81
495.138	257.81
495.355	291.81
495.573	264.81
495.79	307.81
496.008	348.81
496.225	306.81
496.442	295.81
496.66	314.81
496.877	310.81
497.094	291.81
497.312	288.81
497.529	294.81
497.746	294.81
497.963	284.81
498.181	336.81
498.398	321.81
498.615	335.81
498.832	366.81
499.049	366.81
499.267	339.81
499.484	354.81
499.701	389.81
499.918	436.81
500.135	485.81
500.352	497.81
500.569	532.81
500.786	528.81
501.003	510.81
501.22	456.81
501.437	422.81
501.654	399.81
501.871	366.81
502.088	347.81
502.305	327.81
502.522	338.81
