Data from NickelSpatula.Lamp.E5.5.P2_HRD10591_11-51-40-559.txt Node
Date: Tue Jul 23 11:51:40 EDT 2019
User: cochatt
Spectrometer: HR+D1059
Trigger mode: 1
Integration Time (sec): 1.000000E-1
Scans to average: 1
Electric dark correction enabled: true
Nonlinearity correction enabled: false
Boxcar width: 0
XAxis mode: Wavelengths
Number of Pixels in Spectrum: 2048
>>>>>Begin Spectral Data<<<<<
223.165	-27.25
223.4	-27.25
223.635	-27.25
223.869	-26.25
224.104	-35.25
224.338	-4.25
224.573	-25.25
224.808	-9.25
225.042	4.75
225.277	-4.25
225.511	7.75
225.746	4.75
225.98	6.75
226.215	6.75
226.449	27.75
226.683	14.75
226.918	27.75
227.152	30.75
227.387	32.75
227.621	35.75
227.856	35.75
228.09	51.75
228.324	40.75
228.559	50.75
228.793	52.75
229.027	63.75
229.262	73.75
229.496	74.75
229.73	76.75
229.964	97.75
230.199	95.75
230.433	86.75
230.667	94.75
230.901	86.75
231.136	97.75
231.37	100.75
231.604	97.75
231.838	91.75
232.072	107.75
232.306	96.75
232.541	104.75
232.775	106.75
233.009	104.75
233.243	99.75
233.477	118.75
233.711	111.75
233.945	117.75
234.179	109.75
234.413	118.75
234.647	119.75
234.881	146.75
235.115	120.75
235.349	118.75
235.583	122.75
235.817	106.75
236.051	126.75
236.285	114.75
236.519	133.75
236.753	130.75
236.987	134.75
237.221	131.75
237.455	117.75
237.689	127.75
237.922	125.75
238.156	143.75
238.39	158.75
238.624	170.75
238.858	158.75
239.091	150.75
239.325	158.75
239.559	132.75
239.793	157.75
240.027	179.75
240.26	168.75
240.494	168.75
240.728	171.75
240.961	190.75
241.195	171.75
241.429	161.75
241.662	154.75
241.896	136.75
242.13	142.75
242.363	126.75
242.597	142.75
242.83	139.75
243.064	141.75
243.298	141.75
243.531	149.75
243.765	176.75
243.998	165.75
244.232	170.75
244.465	158.75
244.699	151.75
244.932	180.75
245.166	169.75
245.399	146.75
245.633	151.75
245.866	146.75
246.099	163.75
246.333	184.75
246.566	171.75
246.8	184.75
247.033	191.75
247.266	165.75
247.5	167.75
247.733	172.75
247.966	158.75
248.2	179.75
248.433	195.75
248.666	188.75
248.899	194.75
249.133	183.75
249.366	231.75
249.599	222.75
249.832	224.75
250.066	180.75
250.299	201.75
250.532	200.75
250.765	200.75
250.998	186.75
251.231	172.75
251.465	202.75
251.698	195.75
251.931	176.75
252.164	190.75
252.397	214.75
252.63	214.75
252.863	235.75
253.096	247.75
253.329	251.75
253.562	254.75
253.795	270.75
254.028	269.75
254.261	302.75
254.494	259.75
254.727	239.75
254.96	231.75
255.193	250.75
255.426	262.75
255.659	200.75
255.892	188.75
256.124	203.75
256.357	208.75
256.59	270.75
256.823	251.75
257.056	216.75
257.289	201.75
257.521	208.75
257.754	255.75
257.987	287.75
258.22	261.75
258.452	240.75
258.685	264.75
258.918	270.75
259.151	275.75
259.383	286.75
259.616	319.75
259.849	332.75
260.081	349.75
260.314	365.75
260.547	315.75
260.779	332.75
261.012	363.75
261.244	327.75
261.477	343.75
261.71	313.75
261.942	286.75
262.175	268.75
262.407	263.75
262.64	264.75
262.872	300.75
263.105	318.75
263.337	346.75
263.57	331.75
263.802	238.75
264.035	213.75
264.267	205.75
264.499	180.75
264.732	182.75
264.964	184.75
265.197	178.75
265.429	179.75
265.661	195.75
265.894	214.75
266.126	218.75
266.358	234.75
266.591	272.75
266.823	294.75
267.055	309.75
267.287	270.75
267.52	267.75
267.752	298.75
267.984	309.75
268.216	294.75
268.448	268.75
268.681	237.75
268.913	259.75
269.145	283.75
269.377	288.75
269.609	282.75
269.841	270.75
270.073	287.75
270.306	304.75
270.538	294.75
270.77	298.75
271.002	314.75
271.234	313.75
271.466	328.75
271.698	293.75
271.93	307.75
272.162	298.75
272.394	282.75
272.626	290.75
272.858	291.75
273.09	290.75
273.322	277.75
273.553	271.75
273.785	304.75
274.017	366.75
274.249	460.75
274.481	451.75
274.713	490.75
274.945	568.75
275.176	597.75
275.408	492.75
275.64	470.75
275.872	469.75
276.104	427.75
276.335	373.75
276.567	360.75
276.799	368.75
277.031	408.75
277.262	325.75
277.494	276.75
277.726	252.75
277.957	270.75
278.189	295.75
278.421	300.75
278.652	290.75
278.884	276.75
279.115	278.75
279.347	266.75
279.579	272.75
279.81	280.75
280.042	278.75
280.273	279.75
280.505	266.75
280.736	239.75
280.968	231.75
281.199	267.75
281.431	268.75
281.662	269.75
281.894	270.75
282.125	298.75
282.356	293.75
282.588	303.75
282.819	260.75
283.051	286.75
283.282	328.75
283.513	391.75
283.745	421.75
283.976	418.75
284.207	381.75
284.439	398.75
284.67	392.75
284.901	357.75
285.132	373.75
285.364	388.75
285.595	373.75
285.826	396.75
286.057	417.75
286.288	366.75
286.52	372.75
286.751	428.75
286.982	424.75
287.213	372.75
287.444	343.75
287.675	390.75
287.906	374.75
288.138	329.75
288.369	281.75
288.6	291.75
288.831	291.75
289.062	341.75
289.293	343.75
289.524	344.75
289.755	335.75
289.986	326.75
290.217	314.75
290.448	248.75
290.679	220.75
290.91	214.75
291.141	226.75
291.371	221.75
291.602	235.75
291.833	238.75
292.064	251.75
292.295	264.75
292.526	298.75
292.757	298.75
292.987	317.75
293.218	325.75
293.449	344.75
293.68	364.75
293.91	334.75
294.141	382.75
294.372	352.75
294.603	307.75
294.833	326.75
295.064	409.75
295.295	380.75
295.525	294.75
295.756	264.75
295.987	222.75
296.217	221.75
296.448	251.75
296.679	237.75
296.909	268.75
297.14	269.75
297.37	295.75
297.601	287.75
297.831	261.75
298.062	268.75
298.292	316.75
298.523	309.75
298.753	374.75
298.984	352.75
299.214	276.75
299.445	251.75
299.675	246.75
299.905	238.75
300.136	255.75
300.366	269.75
300.597	256.75
300.827	256.75
301.057	231.75
301.288	244.75
301.518	254.75
301.748	281.75
301.979	300.75
302.209	312.75
302.439	310.75
302.669	287.75
302.9	278.75
303.13	270.75
303.36	226.75
303.59	252.75
303.82	256.75
304.051	272.75
304.281	304.75
304.511	276.75
304.741	264.75
304.971	275.75
305.201	291.75
305.431	265.75
305.661	239.75
305.891	250.75
306.121	248.75
306.352	224.75
306.582	218.75
306.812	194.75
307.042	199.75
307.272	207.75
307.502	185.75
307.731	198.75
307.961	201.75
308.191	206.75
308.421	199.75
308.651	197.75
308.881	189.75
309.111	208.75
309.341	211.75
309.571	198.75
309.8	212.75
310.03	212.75
310.26	215.75
310.49	212.75
310.72	216.75
310.949	216.75
311.179	208.75
311.409	213.75
311.639	238.75
311.868	286.75
312.098	372.75
312.328	386.75
312.557	355.75
312.787	366.75
313.017	334.75
313.246	348.75
313.476	409.75
313.706	352.75
313.935	289.75
314.165	243.75
314.394	217.75
314.624	213.75
314.853	226.75
315.083	234.75
315.312	207.75
315.542	212.75
315.771	192.75
316.001	208.75
316.23	208.75
316.46	210.75
316.689	197.75
316.919	206.75
317.148	200.75
317.377	205.75
317.607	197.75
317.836	204.75
318.065	244.75
318.295	250.75
318.524	251.75
318.753	212.75
318.983	208.75
319.212	227.75
319.441	213.75
319.67	238.75
319.9	240.75
320.129	240.75
320.358	216.75
320.587	223.75
320.816	219.75
321.046	257.75
321.275	274.75
321.504	263.75
321.733	258.75
321.962	252.75
322.191	241.75
322.42	234.75
322.649	236.75
322.878	273.75
323.108	241.75
323.337	252.75
323.566	241.75
323.795	230.75
324.024	227.75
324.253	232.75
324.482	246.75
324.71	252.75
324.939	258.75
325.168	248.75
325.397	195.75
325.626	217.75
325.855	230.75
326.084	206.75
326.313	204.75
326.542	210.75
326.77	211.75
326.999	211.75
327.228	229.75
327.457	233.75
327.686	221.75
327.914	215.75
328.143	197.75
328.372	192.75
328.6	197.75
328.829	209.75
329.058	205.75
329.287	197.75
329.515	216.75
329.744	192.75
329.972	209.75
330.201	200.75
330.43	201.75
330.658	214.75
330.887	240.75
331.115	226.75
331.344	235.75
331.572	225.75
331.801	212.75
332.03	199.75
332.258	225.75
332.486	219.75
332.715	225.75
332.943	246.75
333.172	224.75
333.4	230.75
333.629	251.75
333.857	259.75
334.085	270.75
334.314	258.75
334.542	264.75
334.771	252.75
334.999	222.75
335.227	214.75
335.455	238.75
335.684	238.75
335.912	254.75
336.14	286.75
336.369	293.75
336.597	264.75
336.825	308.75
337.053	310.75
337.281	269.75
337.51	220.75
337.738	216.75
337.966	230.75
338.194	252.75
338.422	242.75
338.65	228.75
338.878	225.75
339.106	216.75
339.334	229.75
339.562	241.75
339.79	222.75
340.018	207.75
340.246	234.75
340.474	260.75
340.702	254.75
340.93	276.75
341.158	288.75
341.386	231.75
341.614	250.75
341.842	225.75
342.07	239.75
342.298	275.75
342.526	296.75
342.754	250.75
342.981	236.75
343.209	229.75
343.437	245.75
343.665	275.75
343.893	276.75
344.12	310.75
344.348	333.75
344.576	326.75
344.804	257.75
345.031	235.75
345.259	228.75
345.487	238.75
345.714	248.75
345.942	242.75
346.17	261.75
346.397	260.75
346.625	226.75
346.853	246.75
347.08	228.75
347.308	224.75
347.535	269.75
347.763	256.75
347.99	255.75
348.218	228.75
348.445	220.75
348.673	226.75
348.9	229.75
349.128	238.75
349.355	238.75
349.583	240.75
349.81	232.75
350.037	219.75
350.265	207.75
350.492	212.75
350.72	194.75
350.947	188.75
351.174	206.75
351.402	209.75
351.629	222.75
351.856	222.75
352.083	199.75
352.311	235.75
352.538	250.75
352.765	250.75
352.992	238.75
353.22	247.75
353.447	228.75
353.674	221.75
353.901	215.75
354.128	219.75
354.355	235.75
354.583	218.75
354.81	239.75
355.037	256.75
355.264	250.75
355.491	234.75
355.718	243.75
355.945	268.75
356.172	254.75
356.399	252.75
356.626	286.75
356.853	347.75
357.08	342.75
357.307	372.75
357.534	311.75
357.761	301.75
357.988	369.75
358.215	412.75
358.441	396.75
358.668	331.75
358.895	300.75
359.122	288.75
359.349	276.75
359.576	307.75
359.802	249.75
360.029	222.75
360.256	227.75
360.483	289.75
360.709	349.75
360.936	349.75
361.163	323.75
361.39	267.75
361.616	227.75
361.843	277.75
362.07	291.75
362.296	270.75
362.523	240.75
362.749	227.75
362.976	241.75
363.203	250.75
363.429	273.75
363.656	253.75
363.882	240.75
364.109	228.75
364.335	240.75
364.562	238.75
364.788	242.75
365.015	267.75
365.241	263.75
365.468	222.75
365.694	205.75
365.92	203.75
366.147	198.75
366.373	206.75
366.599	194.75
366.826	199.75
367.052	193.75
367.278	211.75
367.505	199.75
367.731	209.75
367.957	218.75
368.184	210.75
368.41	242.75
368.636	226.75
368.862	227.75
369.089	239.75
369.315	206.75
369.541	204.75
369.767	221.75
369.993	195.75
370.219	196.75
370.445	205.75
370.672	243.75
370.898	246.75
371.124	248.75
371.35	227.75
371.576	231.75
371.802	231.75
372.028	259.75
372.254	308.75
372.48	258.75
372.706	251.75
372.932	259.75
373.158	264.75
373.384	299.75
373.61	367.75
373.835	394.75
374.061	306.75
374.287	265.75
374.513	315.75
374.739	358.75
374.965	372.75
375.191	344.75
375.416	262.75
375.642	260.75
375.868	260.75
376.094	312.75
376.319	264.75
376.545	286.75
376.771	295.75
376.997	273.75
377.222	214.75
377.448	188.75
377.674	214.75
377.899	202.75
378.125	206.75
378.35	187.75
378.576	190.75
378.802	207.75
379.027	227.75
379.253	213.75
379.478	216.75
379.704	254.75
379.929	252.75
380.155	235.75
380.38	215.75
380.606	222.75
380.831	254.75
381.057	249.75
381.282	214.75
381.507	256.75
381.733	285.75
381.958	317.75
382.184	332.75
382.409	343.75
382.634	348.75
382.86	380.75
383.085	314.75
383.31	282.75
383.535	273.75
383.761	284.75
383.986	281.75
384.211	320.75
384.436	289.75
384.662	258.75
384.887	236.75
385.112	267.75
385.337	250.75
385.562	252.75
385.787	271.75
386.013	284.75
386.238	299.75
386.463	246.75
386.688	243.75
386.913	223.75
387.138	223.75
387.363	238.75
387.588	249.75
387.813	238.75
388.038	275.75
388.263	255.75
388.488	240.75
388.713	258.75
388.938	296.75
389.163	259.75
389.387	225.75
389.612	216.75
389.837	247.75
390.062	218.75
390.287	232.75
390.512	234.75
390.736	230.75
390.961	208.75
391.186	210.75
391.411	219.75
391.636	199.75
391.86	234.75
392.085	254.75
392.31	223.75
392.534	242.75
392.759	245.75
392.984	248.75
393.208	235.75
393.433	221.75
393.658	228.75
393.882	208.75
394.107	196.75
394.331	225.75
394.556	201.75
394.78	208.75
395.005	214.75
395.229	203.75
395.454	216.75
395.678	219.75
395.903	239.75
396.127	210.75
396.352	219.75
396.576	238.75
396.801	242.75
397.025	247.75
397.249	266.75
397.474	254.75
397.698	246.75
397.922	227.75
398.147	224.75
398.371	218.75
398.595	238.75
398.82	228.75
399.044	223.75
399.268	270.75
399.492	279.75
399.717	290.75
399.941	264.75
400.165	286.75
400.389	247.75
400.613	249.75
400.837	252.75
401.062	238.75
401.286	236.75
401.51	237.75
401.734	220.75
401.958	237.75
402.182	237.75
402.406	263.75
402.63	239.75
402.854	256.75
403.078	309.75
403.302	357.75
403.526	393.75
403.75	354.75
403.974	278.75
404.198	278.75
404.422	318.75
404.645	333.75
404.869	372.75
405.093	292.75
405.317	259.75
405.541	247.75
405.765	265.75
405.988	266.75
406.212	266.75
406.436	319.75
406.66	331.75
406.883	283.75
407.107	292.75
407.331	309.75
407.555	312.75
407.778	279.75
408.002	263.75
408.226	266.75
408.449	274.75
408.673	268.75
408.896	236.75
409.12	235.75
409.344	212.75
409.567	255.75
409.791	251.75
410.014	247.75
410.238	241.75
410.461	237.75
410.685	263.75
410.908	226.75
411.132	233.75
411.355	244.75
411.578	256.75
411.802	246.75
412.025	264.75
412.249	237.75
412.472	274.75
412.695	256.75
412.919	252.75
413.142	254.75
413.365	274.75
413.589	284.75
413.812	243.75
414.035	237.75
414.258	236.75
414.482	255.75
414.705	274.75
414.928	238.75
415.151	250.75
415.374	224.75
415.597	216.75
415.821	230.75
416.044	228.75
416.267	234.75
416.49	229.75
416.713	231.75
416.936	228.75
417.159	215.75
417.382	229.75
417.605	226.75
417.828	223.75
418.051	239.75
418.274	250.75
418.497	238.75
418.72	252.75
418.943	256.75
419.166	282.75
419.389	254.75
419.611	256.75
419.834	261.75
420.057	273.75
420.28	262.75
420.503	257.75
420.726	239.75
420.948	223.75
421.171	239.75
421.394	235.75
421.617	210.75
421.839	229.75
422.062	251.75
422.285	223.75
422.507	223.75
422.73	256.75
422.953	246.75
423.175	239.75
423.398	249.75
423.621	259.75
423.843	259.75
424.066	256.75
424.288	250.75
424.511	245.75
424.733	253.75
424.956	242.75
425.178	250.75
425.401	317.75
425.623	375.75
425.846	297.75
426.068	270.75
426.291	255.75
426.513	252.75
426.735	237.75
426.958	253.75
427.18	279.75
427.402	328.75
427.625	364.75
427.847	320.75
428.069	244.75
428.292	230.75
428.514	254.75
428.736	227.75
428.958	240.75
429.181	304.75
429.403	258.75
429.625	232.75
429.847	224.75
430.069	222.75
430.292	229.75
430.514	244.75
430.736	240.75
430.958	265.75
431.18	261.75
431.402	240.75
431.624	218.75
431.846	218.75
432.068	215.75
432.29	241.75
432.512	238.75
432.734	273.75
432.956	285.75
433.178	226.75
433.4	227.75
433.622	235.75
433.844	266.75
434.066	252.75
434.287	240.75
434.509	253.75
434.731	258.75
434.953	229.75
435.175	252.75
435.397	288.75
435.618	252.75
435.84	219.75
436.062	215.75
436.284	238.75
436.505	215.75
436.727	219.75
436.949	226.75
437.17	217.75
437.392	236.75
437.614	218.75
437.835	228.75
438.057	232.75
438.278	230.75
438.5	308.75
438.721	324.75
438.943	242.75
439.165	216.75
439.386	215.75
439.608	221.75
439.829	222.75
440.05	211.75
440.272	221.75
440.493	240.75
440.715	292.75
440.936	239.75
441.158	225.75
441.379	231.75
441.6	253.75
441.822	255.75
442.043	237.75
442.264	241.75
442.486	215.75
442.707	219.75
442.928	229.75
443.149	235.75
443.371	252.75
443.592	239.75
443.813	253.75
444.034	231.75
444.255	234.75
444.476	256.75
444.698	254.75
444.919	276.75
445.14	367.75
445.361	310.75
445.582	268.75
445.803	251.75
446.024	239.75
446.245	258.75
446.466	236.75
446.687	221.75
446.908	250.75
447.129	220.75
447.35	211.75
447.571	241.75
447.792	210.75
448.013	210.75
448.234	221.75
448.455	205.75
448.675	203.75
448.896	206.75
449.117	199.75
449.338	206.75
449.559	218.75
449.779	223.75
450	241.75
450.221	215.75
450.442	216.75
450.662	213.75
450.883	214.75
451.104	219.75
451.324	219.75
451.545	222.75
451.766	218.75
451.986	199.75
452.207	234.75
452.428	207.75
452.648	224.75
452.869	211.75
453.089	225.75
453.31	212.75
453.53	213.75
453.751	223.75
453.971	210.75
454.192	198.75
454.412	223.75
454.633	208.75
454.853	205.75
455.073	195.75
455.294	187.75
455.514	201.75
455.734	206.75
455.955	215.75
456.175	213.75
456.395	206.75
456.616	195.75
456.836	200.75
457.056	206.75
457.276	179.75
457.497	189.75
457.717	200.75
457.937	186.75
458.157	211.75
458.377	206.75
458.598	198.75
458.818	214.75
459.038	211.75
459.258	220.75
459.478	223.75
459.698	237.75
459.918	252.75
460.138	244.75
460.358	256.75
460.578	245.75
460.798	240.75
461.018	246.75
461.238	209.75
461.458	236.75
461.678	248.75
461.898	246.75
462.118	246.75
462.338	249.75
462.558	242.75
462.777	279.75
462.997	284.75
463.217	298.75
463.437	304.75
463.657	267.75
463.876	260.75
464.096	262.75
464.316	277.75
464.536	262.75
464.755	291.75
464.975	306.75
465.195	255.75
465.414	254.75
465.634	263.75
465.854	244.75
466.073	236.75
466.293	227.75
466.512	234.75
466.732	256.75
466.951	256.75
467.171	242.75
467.391	226.75
467.61	235.75
467.829	224.75
468.049	238.75
468.268	222.75
468.488	223.75
468.707	234.75
468.927	256.75
469.146	284.75
469.365	259.75
469.585	242.75
469.804	253.75
470.023	276.75
470.243	261.75
470.462	243.75
470.681	241.75
470.901	243.75
471.12	258.75
471.339	262.75
471.558	233.75
471.777	229.75
471.997	230.75
472.216	278.75
472.435	264.75
472.654	229.75
472.873	242.75
473.092	237.75
473.311	258.75
473.53	226.75
473.749	251.75
473.968	256.75
474.187	245.75
474.406	245.75
474.625	234.75
474.844	252.75
475.063	263.75
475.282	254.75
475.501	265.75
475.72	290.75
475.939	260.75
476.158	264.75
476.377	289.75
476.596	347.75
476.814	346.75
477.033	297.75
477.252	274.75
477.471	241.75
477.69	248.75
477.908	289.75
478.127	264.75
478.346	275.75
478.564	301.75
478.783	288.75
479.002	277.75
479.22	302.75
479.439	325.75
479.658	319.75
479.876	286.75
480.095	300.75
480.313	306.75
480.532	289.75
480.751	290.75
480.969	294.75
481.188	296.75
481.406	301.75
481.624	310.75
481.843	292.75
482.061	274.75
482.28	280.75
482.498	352.75
482.717	323.75
482.935	287.75
483.153	282.75
483.372	252.75
483.59	235.75
483.808	266.75
484.027	264.75
484.245	228.75
484.463	246.75
484.681	264.75
484.9	262.75
485.118	301.75
485.336	284.75
485.554	271.75
485.772	296.75
485.99	290.75
486.209	307.75
486.427	286.75
486.645	284.75
486.863	290.75
487.081	284.75
487.299	310.75
487.517	303.75
487.735	267.75
487.953	284.75
488.171	294.75
488.389	272.75
488.607	271.75
488.825	279.75
489.043	284.75
489.261	319.75
489.479	338.75
489.696	303.75
489.914	279.75
490.132	271.75
490.35	278.75
490.568	276.75
490.786	272.75
491.003	270.75
491.221	300.75
491.439	282.75
491.657	268.75
491.874	287.75
492.092	308.75
492.31	366.75
492.527	346.75
492.745	326.75
492.963	294.75
493.18	283.75
493.398	278.75
493.615	298.75
493.833	291.75
494.05	295.75
494.268	288.75
494.485	308.75
494.703	303.75
494.92	302.75
495.138	300.75
495.355	298.75
495.573	288.75
495.79	303.75
496.008	372.75
496.225	334.75
496.442	294.75
496.66	314.75
496.877	301.75
497.094	319.75
497.312	305.75
497.529	298.75
497.746	280.75
497.963	317.75
498.181	333.75
498.398	354.75
498.615	353.75
498.832	385.75
499.049	398.75
499.267	384.75
499.484	400.75
499.701	420.75
499.918	474.75
500.135	519.75
500.352	554.75
500.569	555.75
500.786	570.75
501.003	551.75
501.22	488.75
501.437	459.75
501.654	393.75
501.871	368.75
502.088	379.75
502.305	363.75
502.522	315.75
