Data from NickelSpatula.Lamp.E5.5.P2_HRD10591_11-52-52-590.txt Node
Date: Tue Jul 23 11:52:52 EDT 2019
User: cochatt
Spectrometer: HR+D1059
Trigger mode: 1
Integration Time (sec): 1.000000E-1
Scans to average: 1
Electric dark correction enabled: true
Nonlinearity correction enabled: false
Boxcar width: 0
XAxis mode: Wavelengths
Number of Pixels in Spectrum: 2048
>>>>>Begin Spectral Data<<<<<
223.165	-11.81
223.4	-11.81
223.635	-11.81
223.869	-24.81
224.104	-16.81
224.338	-14.81
224.573	-12.81
224.808	2.19
225.042	-9.81
225.277	-19.81
225.511	-13.81
225.746	1.19
225.98	3.19
226.215	17.19
226.449	27.19
226.683	16.19
226.918	25.19
227.152	32.19
227.387	31.19
227.621	34.19
227.856	46.19
228.09	41.19
228.324	50.19
228.559	49.19
228.793	69.19
229.027	69.19
229.262	85.19
229.496	70.19
229.73	76.19
229.964	95.19
230.199	92.19
230.433	100.19
230.667	103.19
230.901	109.19
231.136	94.19
231.37	102.19
231.604	94.19
231.838	103.19
232.072	103.19
232.306	94.19
232.541	102.19
232.775	103.19
233.009	116.19
233.243	122.19
233.477	116.19
233.711	113.19
233.945	127.19
234.179	143.19
234.413	121.19
234.647	116.19
234.881	152.19
235.115	135.19
235.349	127.19
235.583	122.19
235.817	112.19
236.051	115.19
236.285	139.19
236.519	138.19
236.753	138.19
236.987	158.19
237.221	121.19
237.455	136.19
237.689	143.19
237.922	137.19
238.156	133.19
238.39	141.19
238.624	156.19
238.858	143.19
239.091	144.19
239.325	134.19
239.559	138.19
239.793	142.19
240.027	161.19
240.26	165.19
240.494	166.19
240.728	150.19
240.961	166.19
241.195	164.19
241.429	153.19
241.662	163.19
241.896	154.19
242.13	134.19
242.363	134.19
242.597	134.19
242.83	149.19
243.064	138.19
243.298	148.19
243.531	175.19
243.765	166.19
243.998	175.19
244.232	153.19
244.465	160.19
244.699	150.19
244.932	173.19
245.166	175.19
245.399	163.19
245.633	160.19
245.866	154.19
246.099	150.19
246.333	181.19
246.566	210.19
246.8	190.19
247.033	181.19
247.266	189.19
247.5	182.19
247.733	161.19
247.966	154.19
248.2	196.19
248.433	195.19
248.666	203.19
248.899	211.19
249.133	210.19
249.366	238.19
249.599	237.19
249.832	208.19
250.066	203.19
250.299	213.19
250.532	198.19
250.765	198.19
250.998	180.19
251.231	174.19
251.465	199.19
251.698	200.19
251.931	182.19
252.164	198.19
252.397	233.19
252.63	243.19
252.863	255.19
253.096	260.19
253.329	267.19
253.562	230.19
253.795	265.19
254.028	303.19
254.261	296.19
254.494	279.19
254.727	279.19
254.96	249.19
255.193	267.19
255.426	265.19
255.659	203.19
255.892	203.19
256.124	226.19
256.357	238.19
256.59	277.19
256.823	266.19
257.056	232.19
257.289	214.19
257.521	223.19
257.754	279.19
257.987	310.19
258.22	270.19
258.452	227.19
258.685	267.19
258.918	297.19
259.151	276.19
259.383	291.19
259.616	349.19
259.849	335.19
260.081	352.19
260.314	388.19
260.547	325.19
260.779	335.19
261.012	381.19
261.244	341.19
261.477	334.19
261.71	316.19
261.942	275.19
262.175	299.19
262.407	283.19
262.64	294.19
262.872	305.19
263.105	344.19
263.337	356.19
263.57	329.19
263.802	253.19
264.035	240.19
264.267	229.19
264.499	193.19
264.732	179.19
264.964	184.19
265.197	192.19
265.429	197.19
265.661	201.19
265.894	208.19
266.126	217.19
266.358	236.19
266.591	286.19
266.823	342.19
267.055	307.19
267.287	287.19
267.52	285.19
267.752	306.19
267.984	309.19
268.216	323.19
268.448	275.19
268.681	273.19
268.913	277.19
269.145	294.19
269.377	289.19
269.609	299.19
269.841	284.19
270.073	295.19
270.306	304.19
270.538	328.19
270.77	311.19
271.002	326.19
271.234	336.19
271.466	338.19
271.698	312.19
271.93	297.19
272.162	317.19
272.394	293.19
272.626	304.19
272.858	292.19
273.09	325.19
273.322	283.19
273.553	264.19
273.785	294.19
274.017	383.19
274.249	463.19
274.481	500.19
274.713	522.19
274.945	587.19
275.176	618.19
275.408	534.19
275.64	499.19
275.872	523.19
276.104	465.19
276.335	399.19
276.567	378.19
276.799	410.19
277.031	427.19
277.262	325.19
277.494	270.19
277.726	253.19
277.957	281.19
278.189	323.19
278.421	306.19
278.652	312.19
278.884	295.19
279.115	289.19
279.347	280.19
279.579	269.19
279.81	299.19
280.042	267.19
280.273	298.19
280.505	263.19
280.736	244.19
280.968	251.19
281.199	242.19
281.431	301.19
281.662	290.19
281.894	278.19
282.125	263.19
282.356	295.19
282.588	296.19
282.819	279.19
283.051	295.19
283.282	354.19
283.513	393.19
283.745	435.19
283.976	438.19
284.207	418.19
284.439	434.19
284.67	425.19
284.901	375.19
285.132	390.19
285.364	409.19
285.595	389.19
285.826	401.19
286.057	426.19
286.288	390.19
286.52	414.19
286.751	429.19
286.982	430.19
287.213	377.19
287.444	355.19
287.675	377.19
287.906	385.19
288.138	346.19
288.369	312.19
288.6	294.19
288.831	302.19
289.062	345.19
289.293	378.19
289.524	363.19
289.755	335.19
289.986	350.19
290.217	332.19
290.448	271.19
290.679	243.19
290.91	203.19
291.141	218.19
291.371	230.19
291.602	217.19
291.833	218.19
292.064	250.19
292.295	268.19
292.526	317.19
292.757	318.19
292.987	340.19
293.218	348.19
293.449	372.19
293.68	396.19
293.91	352.19
294.141	352.19
294.372	352.19
294.603	337.19
294.833	346.19
295.064	411.19
295.295	389.19
295.525	308.19
295.756	273.19
295.987	219.19
296.217	247.19
296.448	226.19
296.679	253.19
296.909	275.19
297.14	289.19
297.37	315.19
297.601	307.19
297.831	250.19
298.062	278.19
298.292	307.19
298.523	338.19
298.753	370.19
298.984	343.19
299.214	307.19
299.445	249.19
299.675	247.19
299.905	233.19
300.136	263.19
300.366	263.19
300.597	265.19
300.827	253.19
301.057	224.19
301.288	249.19
301.518	247.19
301.748	290.19
301.979	288.19
302.209	301.19
302.439	310.19
302.669	281.19
302.9	277.19
303.13	249.19
303.36	253.19
303.59	255.19
303.82	264.19
304.051	288.19
304.281	295.19
304.511	293.19
304.741	262.19
304.971	261.19
305.201	294.19
305.431	285.19
305.661	240.19
305.891	265.19
306.121	254.19
306.352	238.19
306.582	212.19
306.812	210.19
307.042	203.19
307.272	202.19
307.502	187.19
307.731	183.19
307.961	215.19
308.191	203.19
308.421	194.19
308.651	204.19
308.881	192.19
309.111	209.19
309.341	204.19
309.571	215.19
309.8	204.19
310.03	207.19
310.26	234.19
310.49	207.19
310.72	208.19
310.949	208.19
311.179	211.19
311.409	227.19
311.639	245.19
311.868	321.19
312.098	375.19
312.328	381.19
312.557	379.19
312.787	389.19
313.017	360.19
313.246	353.19
313.476	406.19
313.706	319.19
313.935	271.19
314.165	257.19
314.394	234.19
314.624	221.19
314.853	226.19
315.083	235.19
315.312	222.19
315.542	228.19
315.771	226.19
316.001	203.19
316.23	187.19
316.46	200.19
316.689	193.19
316.919	215.19
317.148	239.19
317.377	209.19
317.607	205.19
317.836	224.19
318.065	253.19
318.295	271.19
318.524	271.19
318.753	226.19
318.983	217.19
319.212	219.19
319.441	218.19
319.67	232.19
319.9	259.19
320.129	265.19
320.358	234.19
320.587	205.19
320.816	213.19
321.046	241.19
321.275	267.19
321.504	281.19
321.733	277.19
321.962	254.19
322.191	247.19
322.42	240.19
322.649	241.19
322.878	259.19
323.108	254.19
323.337	241.19
323.566	251.19
323.795	237.19
324.024	235.19
324.253	235.19
324.482	224.19
324.71	234.19
324.939	277.19
325.168	257.19
325.397	209.19
325.626	204.19
325.855	215.19
326.084	221.19
326.313	208.19
326.542	228.19
326.77	227.19
326.999	208.19
327.228	242.19
327.457	238.19
327.686	232.19
327.914	225.19
328.143	198.19
328.372	222.19
328.6	193.19
328.829	189.19
329.058	210.19
329.287	203.19
329.515	196.19
329.744	219.19
329.972	191.19
330.201	202.19
330.43	209.19
330.658	228.19
330.887	238.19
331.115	227.19
331.344	232.19
331.572	218.19
331.801	222.19
332.03	203.19
332.258	217.19
332.486	231.19
332.715	243.19
332.943	209.19
333.172	214.19
333.4	213.19
333.629	237.19
333.857	249.19
334.085	269.19
334.314	259.19
334.542	257.19
334.771	214.19
334.999	231.19
335.227	231.19
335.455	230.19
335.684	238.19
335.912	280.19
336.14	284.19
336.369	283.19
336.597	253.19
336.825	309.19
337.053	325.19
337.281	273.19
337.51	225.19
337.738	227.19
337.966	238.19
338.194	250.19
338.422	250.19
338.65	217.19
338.878	207.19
339.106	221.19
339.334	233.19
339.562	264.19
339.79	230.19
340.018	206.19
340.246	240.19
340.474	230.19
340.702	271.19
340.93	266.19
341.158	284.19
341.386	249.19
341.614	240.19
341.842	248.19
342.07	245.19
342.298	282.19
342.526	309.19
342.754	256.19
342.981	253.19
343.209	242.19
343.437	258.19
343.665	271.19
343.893	273.19
344.12	299.19
344.348	360.19
344.576	328.19
344.804	272.19
345.031	227.19
345.259	215.19
345.487	241.19
345.714	233.19
345.942	267.19
346.17	290.19
346.397	278.19
346.625	243.19
346.853	229.19
347.08	204.19
347.308	230.19
347.535	263.19
347.763	264.19
347.99	241.19
348.218	223.19
348.445	230.19
348.673	240.19
348.9	239.19
349.128	259.19
349.355	255.19
349.583	238.19
349.81	238.19
350.037	226.19
350.265	217.19
350.492	194.19
350.72	191.19
350.947	186.19
351.174	238.19
351.402	216.19
351.629	221.19
351.856	221.19
352.083	203.19
352.311	218.19
352.538	234.19
352.765	244.19
352.992	224.19
353.22	240.19
353.447	238.19
353.674	224.19
353.901	216.19
354.128	227.19
354.355	223.19
354.583	215.19
354.81	254.19
355.037	247.19
355.264	230.19
355.491	241.19
355.718	242.19
355.945	251.19
356.172	257.19
356.399	233.19
356.626	277.19
356.853	347.19
357.08	346.19
357.307	370.19
357.534	301.19
357.761	317.19
357.988	362.19
358.215	427.19
358.441	401.19
358.668	346.19
358.895	311.19
359.122	271.19
359.349	287.19
359.576	299.19
359.802	270.19
360.029	233.19
360.256	233.19
360.483	278.19
360.709	346.19
360.936	349.19
361.163	311.19
361.39	269.19
361.616	232.19
361.843	255.19
362.07	330.19
362.296	285.19
362.523	224.19
362.749	215.19
362.976	210.19
363.203	264.19
363.429	268.19
363.656	233.19
363.882	225.19
364.109	223.19
364.335	229.19
364.562	229.19
364.788	258.19
365.015	288.19
365.241	269.19
365.468	227.19
365.694	186.19
365.92	211.19
366.147	210.19
366.373	192.19
366.599	184.19
366.826	206.19
367.052	203.19
367.278	203.19
367.505	201.19
367.731	224.19
367.957	240.19
368.184	237.19
368.41	224.19
368.636	209.19
368.862	225.19
369.089	242.19
369.315	214.19
369.541	214.19
369.767	211.19
369.993	209.19
370.219	207.19
370.445	205.19
370.672	240.19
370.898	250.19
371.124	250.19
371.35	221.19
371.576	208.19
371.802	239.19
372.028	261.19
372.254	299.19
372.48	266.19
372.706	233.19
372.932	233.19
373.158	247.19
373.384	300.19
373.61	381.19
373.835	385.19
374.061	308.19
374.287	269.19
374.513	302.19
374.739	357.19
374.965	333.19
375.191	370.19
375.416	279.19
375.642	255.19
375.868	289.19
376.094	305.19
376.319	251.19
376.545	286.19
376.771	272.19
376.997	254.19
377.222	194.19
377.448	188.19
377.674	177.19
377.899	203.19
378.125	201.19
378.35	198.19
378.576	204.19
378.802	215.19
379.027	222.19
379.253	202.19
379.478	216.19
379.704	237.19
379.929	253.19
380.155	253.19
380.38	230.19
380.606	230.19
380.831	254.19
381.057	230.19
381.282	237.19
381.507	264.19
381.733	290.19
381.958	323.19
382.184	330.19
382.409	358.19
382.634	367.19
382.86	369.19
383.085	325.19
383.31	245.19
383.535	285.19
383.761	276.19
383.986	265.19
384.211	305.19
384.436	312.19
384.662	266.19
384.887	232.19
385.112	245.19
385.337	254.19
385.562	239.19
385.787	263.19
386.013	287.19
386.238	293.19
386.463	243.19
386.688	234.19
386.913	211.19
387.138	218.19
387.363	227.19
387.588	243.19
387.813	231.19
388.038	282.19
388.263	258.19
388.488	240.19
388.713	245.19
388.938	271.19
389.163	257.19
389.387	209.19
389.612	221.19
389.837	225.19
390.062	242.19
390.287	237.19
390.512	233.19
390.736	204.19
390.961	222.19
391.186	225.19
391.411	218.19
391.636	224.19
391.86	245.19
392.085	257.19
392.31	249.19
392.534	231.19
392.759	255.19
392.984	255.19
393.208	238.19
393.433	225.19
393.658	221.19
393.882	214.19
394.107	219.19
394.331	222.19
394.556	212.19
394.78	201.19
395.005	199.19
395.229	214.19
395.454	219.19
395.678	218.19
395.903	225.19
396.127	221.19
396.352	200.19
396.576	221.19
396.801	234.19
397.025	263.19
397.249	255.19
397.474	235.19
397.698	237.19
397.922	237.19
398.147	230.19
398.371	216.19
398.595	234.19
398.82	240.19
399.044	223.19
399.268	240.19
399.492	290.19
399.717	287.19
399.941	301.19
400.165	286.19
400.389	250.19
400.613	257.19
400.837	241.19
401.062	233.19
401.286	227.19
401.51	230.19
401.734	226.19
401.958	253.19
402.182	245.19
402.406	256.19
402.63	227.19
402.854	245.19
403.078	288.19
403.302	372.19
403.526	403.19
403.75	341.19
403.974	286.19
404.198	275.19
404.422	300.19
404.645	320.19
404.869	359.19
405.093	297.19
405.317	268.19
405.541	249.19
405.765	258.19
405.988	255.19
406.212	268.19
406.436	314.19
406.66	329.19
406.883	278.19
407.107	276.19
407.331	315.19
407.555	326.19
407.778	297.19
408.002	276.19
408.226	271.19
408.449	269.19
408.673	259.19
408.896	259.19
409.12	245.19
409.344	241.19
409.567	218.19
409.791	232.19
410.014	238.19
410.238	240.19
410.461	245.19
410.685	238.19
410.908	226.19
411.132	231.19
411.355	233.19
411.578	248.19
411.802	233.19
412.025	238.19
412.249	237.19
412.472	260.19
412.695	232.19
412.919	226.19
413.142	237.19
413.365	244.19
413.589	257.19
413.812	242.19
414.035	230.19
414.258	244.19
414.482	257.19
414.705	262.19
414.928	227.19
415.151	215.19
415.374	231.19
415.597	222.19
415.821	239.19
416.044	251.19
416.267	232.19
416.49	223.19
416.713	220.19
416.936	190.19
417.159	229.19
417.382	222.19
417.605	237.19
417.828	224.19
418.051	228.19
418.274	240.19
418.497	223.19
418.72	222.19
418.943	237.19
419.166	247.19
419.389	266.19
419.611	249.19
419.834	250.19
420.057	259.19
420.28	259.19
420.503	243.19
420.726	225.19
420.948	230.19
421.171	231.19
421.394	217.19
421.617	213.19
421.839	242.19
422.062	231.19
422.285	246.19
422.507	237.19
422.73	234.19
422.953	244.19
423.175	230.19
423.398	234.19
423.621	246.19
423.843	281.19
424.066	257.19
424.288	233.19
424.511	242.19
424.733	235.19
424.956	255.19
425.178	266.19
425.401	296.19
425.623	360.19
425.846	285.19
426.068	257.19
426.291	261.19
426.513	241.19
426.735	240.19
426.958	256.19
427.18	285.19
427.402	354.19
427.625	367.19
427.847	325.19
428.069	230.19
428.292	217.19
428.514	226.19
428.736	213.19
428.958	263.19
429.181	320.19
429.403	269.19
429.625	223.19
429.847	221.19
430.069	229.19
430.292	227.19
430.514	203.19
430.736	217.19
430.958	275.19
431.18	242.19
431.402	215.19
431.624	228.19
431.846	225.19
432.068	201.19
432.29	215.19
432.512	233.19
432.734	272.19
432.956	272.19
433.178	214.19
433.4	193.19
433.622	228.19
433.844	230.19
434.066	239.19
434.287	237.19
434.509	256.19
434.731	263.19
434.953	233.19
435.175	248.19
435.397	270.19
435.618	243.19
435.84	225.19
436.062	226.19
436.284	212.19
436.505	206.19
436.727	205.19
436.949	221.19
437.17	209.19
437.392	230.19
437.614	207.19
437.835	204.19
438.057	214.19
438.278	239.19
438.5	294.19
438.721	322.19
438.943	229.19
439.165	198.19
439.386	192.19
439.608	213.19
439.829	226.19
440.05	226.19
440.272	226.19
440.493	246.19
440.715	278.19
440.936	266.19
441.158	222.19
441.379	225.19
441.6	264.19
441.822	274.19
442.043	210.19
442.264	238.19
442.486	220.19
442.707	238.19
442.928	216.19
443.149	240.19
443.371	237.19
443.592	241.19
443.813	250.19
444.034	234.19
444.255	261.19
444.476	256.19
444.698	245.19
444.919	250.19
445.14	352.19
445.361	314.19
445.582	253.19
445.803	212.19
446.024	243.19
446.245	251.19
446.466	241.19
446.687	227.19
446.908	213.19
447.129	205.19
447.35	219.19
447.571	213.19
447.792	193.19
448.013	199.19
448.234	212.19
448.455	194.19
448.675	204.19
448.896	208.19
449.117	212.19
449.338	218.19
449.559	231.19
449.779	220.19
450	241.19
450.221	221.19
450.442	189.19
450.662	199.19
450.883	215.19
451.104	201.19
451.324	217.19
451.545	202.19
451.766	212.19
451.986	201.19
452.207	205.19
452.428	203.19
452.648	209.19
452.869	221.19
453.089	239.19
453.31	226.19
453.53	221.19
453.751	197.19
453.971	203.19
454.192	217.19
454.412	216.19
454.633	237.19
454.853	221.19
455.073	221.19
455.294	193.19
455.514	196.19
455.734	200.19
455.955	212.19
456.175	203.19
456.395	189.19
456.616	203.19
456.836	199.19
457.056	199.19
457.276	185.19
457.497	169.19
457.717	189.19
457.937	192.19
458.157	186.19
458.377	199.19
458.598	208.19
458.818	197.19
459.038	215.19
459.258	223.19
459.478	224.19
459.698	234.19
459.918	219.19
460.138	247.19
460.358	240.19
460.578	249.19
460.798	230.19
461.018	239.19
461.238	234.19
461.458	230.19
461.678	241.19
461.898	255.19
462.118	240.19
462.338	260.19
462.558	245.19
462.777	271.19
462.997	273.19
463.217	282.19
463.437	282.19
463.657	265.19
463.876	254.19
464.096	266.19
464.316	265.19
464.536	266.19
464.755	267.19
464.975	262.19
465.195	279.19
465.414	288.19
465.634	251.19
465.854	242.19
466.073	228.19
466.293	218.19
466.512	245.19
466.732	252.19
466.951	255.19
467.171	241.19
467.391	223.19
467.61	224.19
467.829	225.19
468.049	229.19
468.268	217.19
468.488	224.19
468.707	221.19
468.927	258.19
469.146	255.19
469.365	257.19
469.585	242.19
469.804	246.19
470.023	276.19
470.243	241.19
470.462	228.19
470.681	224.19
470.901	242.19
471.12	233.19
471.339	241.19
471.558	232.19
471.777	228.19
471.997	247.19
472.216	267.19
472.435	250.19
472.654	228.19
472.873	227.19
473.092	252.19
473.311	250.19
473.53	219.19
473.749	228.19
473.968	217.19
474.187	211.19
474.406	254.19
474.625	219.19
474.844	211.19
475.063	235.19
475.282	241.19
475.501	252.19
475.72	261.19
475.939	262.19
476.158	271.19
476.377	296.19
476.596	328.19
476.814	336.19
477.033	287.19
477.252	257.19
477.471	250.19
477.69	240.19
477.908	257.19
478.127	283.19
478.346	264.19
478.564	295.19
478.783	285.19
479.002	268.19
479.22	290.19
479.439	317.19
479.658	289.19
479.876	271.19
480.095	284.19
480.313	296.19
480.532	287.19
480.751	263.19
480.969	297.19
481.188	291.19
481.406	296.19
481.624	282.19
481.843	259.19
482.061	255.19
482.28	279.19
482.498	356.19
482.717	333.19
482.935	288.19
483.153	253.19
483.372	251.19
483.59	256.19
483.808	239.19
484.027	236.19
484.245	234.19
484.463	234.19
484.681	256.19
484.9	260.19
485.118	271.19
485.336	269.19
485.554	232.19
485.772	255.19
485.99	283.19
486.209	278.19
486.427	305.19
486.645	273.19
486.863	270.19
487.081	289.19
487.299	303.19
487.517	292.19
487.735	269.19
487.953	295.19
488.171	290.19
488.389	280.19
488.607	267.19
488.825	273.19
489.043	294.19
489.261	322.19
489.479	346.19
489.696	302.19
489.914	287.19
490.132	275.19
490.35	277.19
490.568	266.19
490.786	261.19
491.003	271.19
491.221	273.19
491.439	281.19
491.657	281.19
491.874	273.19
492.092	309.19
492.31	369.19
492.527	358.19
492.745	318.19
492.963	301.19
493.18	288.19
493.398	291.19
493.615	287.19
493.833	286.19
494.05	275.19
494.268	286.19
494.485	267.19
494.703	288.19
494.92	282.19
495.138	273.19
495.355	253.19
495.573	282.19
495.79	293.19
496.008	367.19
496.225	331.19
496.442	303.19
496.66	310.19
496.877	327.19
497.094	324.19
497.312	290.19
497.529	309.19
497.746	298.19
497.963	310.19
498.181	322.19
498.398	341.19
498.615	367.19
498.832	359.19
499.049	383.19
499.267	369.19
499.484	390.19
499.701	407.19
499.918	436.19
500.135	473.19
500.352	529.19
500.569	552.19
500.786	566.19
501.003	524.19
501.22	477.19
501.437	435.19
501.654	391.19
501.871	387.19
502.088	365.19
502.305	334.19
502.522	342.19
