Data from NickelSpatula_HRD10591_16-34-45-125.txt Node
Date: Mon Jul 22 16:34:45 EDT 2019
User: cochatt
Spectrometer: HR+D1059
Trigger mode: 1
Integration Time (sec): 1.000000E-1
Scans to average: 1
Electric dark correction enabled: true
Nonlinearity correction enabled: false
Boxcar width: 0
XAxis mode: Wavelengths
Number of Pixels in Spectrum: 2048
>>>>>Begin Spectral Data<<<<<
223.165	-16.12
223.4	-16.12
223.635	-16.12
223.869	-23.12
224.104	-36.12
224.338	-25.12
224.573	-8.12
224.808	-15.12
225.042	-6.12
225.277	-3.12
225.511	3.88
225.746	7.88
225.98	7.88
226.215	9.88
226.449	20.88
226.683	20.88
226.918	24.88
227.152	36.88
227.387	25.88
227.621	39.88
227.856	52.88
228.09	41.88
228.324	53.88
228.559	56.88
228.793	66.88
229.027	70.88
229.262	75.88
229.496	69.88
229.73	82.88
229.964	81.88
230.199	84.88
230.433	96.88
230.667	84.88
230.901	103.88
231.136	87.88
231.37	90.88
231.604	85.88
231.838	100.88
232.072	109.88
232.306	98.88
232.541	100.88
232.775	100.88
233.009	117.88
233.243	108.88
233.477	125.88
233.711	136.88
233.945	109.88
234.179	118.88
234.413	123.88
234.647	118.88
234.881	122.88
235.115	139.88
235.349	132.88
235.583	139.88
235.817	123.88
236.051	142.88
236.285	122.88
236.519	144.88
236.753	123.88
236.987	131.88
237.221	128.88
237.455	123.88
237.689	149.88
237.922	151.88
238.156	149.88
238.39	164.88
238.624	158.88
238.858	159.88
239.091	144.88
239.325	155.88
239.559	140.88
239.793	137.88
240.027	179.88
240.26	154.88
240.494	142.88
240.728	151.88
240.961	177.88
241.195	167.88
241.429	162.88
241.662	177.88
241.896	149.88
242.13	150.88
242.363	133.88
242.597	144.88
242.83	142.88
243.064	151.88
243.298	177.88
243.531	180.88
243.765	179.88
243.998	171.88
244.232	170.88
244.465	173.88
244.699	163.88
244.932	185.88
245.166	168.88
245.399	154.88
245.633	154.88
245.866	160.88
246.099	157.88
246.333	177.88
246.566	205.88
246.8	187.88
247.033	181.88
247.266	186.88
247.5	177.88
247.733	190.88
247.966	185.88
248.2	193.88
248.433	200.88
248.666	210.88
248.899	205.88
249.133	230.88
249.366	223.88
249.599	265.88
249.832	250.88
250.066	212.88
250.299	223.88
250.532	218.88
250.765	218.88
250.998	205.88
251.231	188.88
251.465	195.88
251.698	219.88
251.931	198.88
252.164	221.88
252.397	220.88
252.63	240.88
252.863	277.88
253.096	305.88
253.329	275.88
253.562	276.88
253.795	296.88
254.028	312.88
254.261	339.88
254.494	303.88
254.727	282.88
254.96	268.88
255.193	279.88
255.426	275.88
255.659	214.88
255.892	212.88
256.124	225.88
256.357	253.88
256.59	257.88
256.823	282.88
257.056	259.88
257.289	219.88
257.521	228.88
257.754	268.88
257.987	321.88
258.22	266.88
258.452	257.88
258.685	268.88
258.918	280.88
259.151	294.88
259.383	313.88
259.616	344.88
259.849	340.88
260.081	372.88
260.314	395.88
260.547	341.88
260.779	341.88
261.012	377.88
261.244	351.88
261.477	381.88
261.71	344.88
261.942	291.88
262.175	305.88
262.407	281.88
262.64	284.88
262.872	335.88
263.105	360.88
263.337	367.88
263.57	361.88
263.802	263.88
264.035	223.88
264.267	223.88
264.499	193.88
264.732	190.88
264.964	187.88
265.197	190.88
265.429	202.88
265.661	201.88
265.894	214.88
266.126	239.88
266.358	233.88
266.591	285.88
266.823	343.88
267.055	321.88
267.287	276.88
267.52	290.88
267.752	315.88
267.984	329.88
268.216	338.88
268.448	254.88
268.681	271.88
268.913	294.88
269.145	309.88
269.377	307.88
269.609	303.88
269.841	295.88
270.073	316.88
270.306	339.88
270.538	322.88
270.77	332.88
271.002	343.88
271.234	338.88
271.466	335.88
271.698	330.88
271.93	329.88
272.162	321.88
272.394	317.88
272.626	301.88
272.858	312.88
273.09	329.88
273.322	316.88
273.553	265.88
273.785	308.88
274.017	396.88
274.249	507.88
274.481	530.88
274.713	522.88
274.945	631.88
275.176	635.88
275.408	589.88
275.64	547.88
275.872	559.88
276.104	478.88
276.335	407.88
276.567	416.88
276.799	441.88
277.031	443.88
277.262	389.88
277.494	291.88
277.726	282.88
277.957	294.88
278.189	326.88
278.421	339.88
278.652	323.88
278.884	321.88
279.115	297.88
279.347	261.88
279.579	271.88
279.81	292.88
280.042	295.88
280.273	303.88
280.505	269.88
280.736	244.88
280.968	239.88
281.199	257.88
281.431	286.88
281.662	286.88
281.894	273.88
282.125	287.88
282.356	321.88
282.588	330.88
282.819	277.88
283.051	303.88
283.282	367.88
283.513	399.88
283.745	453.88
283.976	444.88
284.207	443.88
284.439	441.88
284.67	416.88
284.901	374.88
285.132	408.88
285.364	422.88
285.595	399.88
285.826	412.88
286.057	433.88
286.288	407.88
286.52	426.88
286.751	446.88
286.982	447.88
287.213	392.88
287.444	392.88
287.675	390.88
287.906	411.88
288.138	343.88
288.369	322.88
288.6	307.88
288.831	304.88
289.062	346.88
289.293	363.88
289.524	346.88
289.755	341.88
289.986	372.88
290.217	333.88
290.448	261.88
290.679	229.88
290.91	228.88
291.141	194.88
291.371	220.88
291.602	223.88
291.833	212.88
292.064	232.88
292.295	260.88
292.526	312.88
292.757	307.88
292.987	308.88
293.218	338.88
293.449	355.88
293.68	390.88
293.91	352.88
294.141	366.88
294.372	345.88
294.603	307.88
294.833	343.88
295.064	400.88
295.295	403.88
295.525	307.88
295.756	265.88
295.987	229.88
296.217	222.88
296.448	221.88
296.679	234.88
296.909	252.88
297.14	277.88
297.37	293.88
297.601	296.88
297.831	275.88
298.062	281.88
298.292	306.88
298.523	332.88
298.753	351.88
298.984	323.88
299.214	284.88
299.445	243.88
299.675	247.88
299.905	225.88
300.136	226.88
300.366	235.88
300.597	250.88
300.827	212.88
301.057	219.88
301.288	231.88
301.518	254.88
301.748	267.88
301.979	301.88
302.209	303.88
302.439	291.88
302.669	281.88
302.9	267.88
303.13	260.88
303.36	255.88
303.59	243.88
303.82	245.88
304.051	270.88
304.281	282.88
304.511	307.88
304.741	256.88
304.971	253.88
305.201	273.88
305.431	266.88
305.661	246.88
305.891	223.88
306.121	225.88
306.352	223.88
306.582	221.88
306.812	187.88
307.042	195.88
307.272	198.88
307.502	183.88
307.731	203.88
307.961	192.88
308.191	194.88
308.421	180.88
308.651	190.88
308.881	168.88
309.111	184.88
309.341	185.88
309.571	202.88
309.8	205.88
310.03	195.88
310.26	219.88
310.49	221.88
310.72	212.88
310.949	196.88
311.179	196.88
311.409	199.88
311.639	225.88
311.868	265.88
312.098	362.88
312.328	397.88
312.557	360.88
312.787	395.88
313.017	362.88
313.246	360.88
313.476	401.88
313.706	340.88
313.935	277.88
314.165	231.88
314.394	193.88
314.624	201.88
314.853	216.88
315.083	227.88
315.312	213.88
315.542	213.88
315.771	190.88
316.001	176.88
316.23	191.88
316.46	197.88
316.689	179.88
316.919	189.88
317.148	211.88
317.377	188.88
317.607	198.88
317.836	207.88
318.065	224.88
318.295	255.88
318.524	250.88
318.753	207.88
318.983	191.88
319.212	201.88
319.441	208.88
319.67	241.88
319.9	261.88
320.129	244.88
320.358	220.88
320.587	191.88
320.816	223.88
321.046	212.88
321.275	269.88
321.504	269.88
321.733	249.88
321.962	238.88
322.191	248.88
322.42	212.88
322.649	226.88
322.878	253.88
323.108	251.88
323.337	210.88
323.566	226.88
323.795	217.88
324.024	234.88
324.253	222.88
324.482	210.88
324.71	221.88
324.939	249.88
325.168	234.88
325.397	194.88
325.626	191.88
325.855	203.88
326.084	201.88
326.313	188.88
326.542	181.88
326.77	191.88
326.999	192.88
327.228	191.88
327.457	208.88
327.686	209.88
327.914	199.88
328.143	196.88
328.372	172.88
328.6	197.88
328.829	193.88
329.058	196.88
329.287	187.88
329.515	194.88
329.744	190.88
329.972	183.88
330.201	169.88
330.43	184.88
330.658	195.88
330.887	216.88
331.115	217.88
331.344	198.88
331.572	228.88
331.801	193.88
332.03	184.88
332.258	197.88
332.486	208.88
332.715	194.88
332.943	189.88
333.172	199.88
333.4	192.88
333.629	224.88
333.857	229.88
334.085	234.88
334.314	227.88
334.542	220.88
334.771	192.88
334.999	193.88
335.227	205.88
335.455	199.88
335.684	226.88
335.912	251.88
336.14	253.88
336.369	242.88
336.597	257.88
336.825	282.88
337.053	305.88
337.281	257.88
337.51	202.88
337.738	212.88
337.966	210.88
338.194	229.88
338.422	208.88
338.65	189.88
338.878	186.88
339.106	194.88
339.334	207.88
339.562	236.88
339.79	218.88
340.018	204.88
340.246	220.88
340.474	245.88
340.702	260.88
340.93	259.88
341.158	258.88
341.386	232.88
341.614	227.88
341.842	223.88
342.07	217.88
342.298	255.88
342.526	274.88
342.754	248.88
342.981	216.88
343.209	217.88
343.437	219.88
343.665	253.88
343.893	232.88
344.12	259.88
344.348	309.88
344.576	304.88
344.804	263.88
345.031	227.88
345.259	191.88
345.487	212.88
345.714	210.88
345.942	218.88
346.17	230.88
346.397	243.88
346.625	207.88
346.853	209.88
347.08	182.88
347.308	194.88
347.535	219.88
347.763	239.88
347.99	215.88
348.218	193.88
348.445	213.88
348.673	203.88
348.9	203.88
349.128	207.88
349.355	234.88
349.583	225.88
349.81	202.88
350.037	194.88
350.265	180.88
350.492	190.88
350.72	167.88
350.947	177.88
351.174	189.88
351.402	199.88
351.629	195.88
351.856	189.88
352.083	183.88
352.311	195.88
352.538	209.88
352.765	239.88
352.992	205.88
353.22	214.88
353.447	218.88
353.674	205.88
353.901	202.88
354.128	193.88
354.355	215.88
354.583	226.88
354.81	216.88
355.037	223.88
355.264	213.88
355.491	204.88
355.718	213.88
355.945	223.88
356.172	215.88
356.399	204.88
356.626	245.88
356.853	288.88
357.08	319.88
357.307	357.88
357.534	262.88
357.761	278.88
357.988	328.88
358.215	379.88
358.441	343.88
358.668	314.88
358.895	320.88
359.122	249.88
359.349	246.88
359.576	274.88
359.802	222.88
360.029	199.88
360.256	201.88
360.483	253.88
360.709	312.88
360.936	327.88
361.163	272.88
361.39	230.88
361.616	234.88
361.843	219.88
362.07	281.88
362.296	262.88
362.523	203.88
362.749	194.88
362.976	196.88
363.203	242.88
363.429	254.88
363.656	230.88
363.882	179.88
364.109	211.88
364.335	211.88
364.562	204.88
364.788	205.88
365.015	256.88
365.241	248.88
365.468	194.88
365.694	182.88
365.92	181.88
366.147	154.88
366.373	171.88
366.599	167.88
366.826	173.88
367.052	167.88
367.278	170.88
367.505	160.88
367.731	196.88
367.957	202.88
368.184	187.88
368.41	205.88
368.636	207.88
368.862	210.88
369.089	210.88
369.315	190.88
369.541	165.88
369.767	188.88
369.993	169.88
370.219	180.88
370.445	187.88
370.672	205.88
370.898	210.88
371.124	220.88
371.35	207.88
371.576	186.88
371.802	185.88
372.028	212.88
372.254	243.88
372.48	216.88
372.706	218.88
372.932	224.88
373.158	209.88
373.384	237.88
373.61	305.88
373.835	329.88
374.061	270.88
374.287	227.88
374.513	261.88
374.739	293.88
374.965	300.88
375.191	314.88
375.416	226.88
375.642	214.88
375.868	224.88
376.094	239.88
376.319	223.88
376.545	236.88
376.771	247.88
376.997	240.88
377.222	187.88
377.448	151.88
377.674	155.88
377.899	169.88
378.125	152.88
378.35	154.88
378.576	165.88
378.802	166.88
379.027	210.88
379.253	195.88
379.478	204.88
379.704	219.88
379.929	221.88
380.155	216.88
380.38	190.88
380.606	211.88
380.831	233.88
381.057	240.88
381.282	216.88
381.507	232.88
381.733	259.88
381.958	269.88
382.184	294.88
382.409	315.88
382.634	289.88
382.86	329.88
383.085	269.88
383.31	216.88
383.535	245.88
383.761	245.88
383.986	223.88
384.211	261.88
384.436	274.88
384.662	213.88
384.887	224.88
385.112	212.88
385.337	223.88
385.562	193.88
385.787	217.88
386.013	238.88
386.238	243.88
386.463	194.88
386.688	221.88
386.913	196.88
387.138	197.88
387.363	195.88
387.588	214.88
387.813	205.88
388.038	220.88
388.263	207.88
388.488	207.88
388.713	239.88
388.938	242.88
389.163	201.88
389.387	204.88
389.612	179.88
389.837	197.88
390.062	189.88
390.287	211.88
390.512	204.88
390.736	205.88
390.961	194.88
391.186	181.88
391.411	180.88
391.636	187.88
391.86	199.88
392.085	210.88
392.31	215.88
392.534	185.88
392.759	192.88
392.984	213.88
393.208	187.88
393.433	200.88
393.658	173.88
393.882	180.88
394.107	177.88
394.331	173.88
394.556	172.88
394.78	179.88
395.005	175.88
395.229	181.88
395.454	179.88
395.678	165.88
395.903	183.88
396.127	199.88
396.352	183.88
396.576	195.88
396.801	212.88
397.025	216.88
397.249	225.88
397.474	211.88
397.698	193.88
397.922	216.88
398.147	199.88
398.371	186.88
398.595	206.88
398.82	191.88
399.044	200.88
399.268	215.88
399.492	233.88
399.717	224.88
399.941	224.88
400.165	231.88
400.389	207.88
400.613	202.88
400.837	217.88
401.062	202.88
401.286	190.88
401.51	205.88
401.734	189.88
401.958	197.88
402.182	198.88
402.406	173.88
402.63	194.88
402.854	210.88
403.078	244.88
403.302	285.88
403.526	319.88
403.75	269.88
403.974	220.88
404.198	255.88
404.422	240.88
404.645	254.88
404.869	307.88
405.093	241.88
405.317	223.88
405.541	214.88
405.765	233.88
405.988	221.88
406.212	220.88
406.436	226.88
406.66	264.88
406.883	223.88
407.107	235.88
407.331	267.88
407.555	263.88
407.778	215.88
408.002	235.88
408.226	235.88
408.449	228.88
408.673	211.88
408.896	213.88
409.12	188.88
409.344	191.88
409.567	193.88
409.791	188.88
410.014	208.88
410.238	193.88
410.461	187.88
410.685	201.88
410.908	189.88
411.132	206.88
411.355	193.88
411.578	200.88
411.802	201.88
412.025	209.88
412.249	204.88
412.472	187.88
412.695	206.88
412.919	204.88
413.142	214.88
413.365	227.88
413.589	201.88
413.812	195.88
414.035	200.88
414.258	180.88
414.482	214.88
414.705	233.88
414.928	205.88
415.151	193.88
415.374	199.88
415.597	204.88
415.821	188.88
416.044	187.88
416.267	204.88
416.49	175.88
416.713	191.88
416.936	179.88
417.159	169.88
417.382	185.88
417.605	193.88
417.828	202.88
418.051	196.88
418.274	206.88
418.497	214.88
418.72	203.88
418.943	208.88
419.166	210.88
419.389	192.88
419.611	200.88
419.834	207.88
420.057	211.88
420.28	227.88
420.503	211.88
420.726	186.88
420.948	193.88
421.171	194.88
421.394	179.88
421.617	190.88
421.839	174.88
422.062	199.88
422.285	188.88
422.507	193.88
422.73	213.88
422.953	208.88
423.175	190.88
423.398	196.88
423.621	216.88
423.843	241.88
424.066	215.88
424.288	198.88
424.511	191.88
424.733	195.88
424.956	201.88
425.178	221.88
425.401	239.88
425.623	301.88
425.846	239.88
426.068	209.88
426.291	228.88
426.513	193.88
426.735	199.88
426.958	205.88
427.18	227.88
427.402	285.88
427.625	304.88
427.847	253.88
428.069	195.88
428.292	192.88
428.514	184.88
428.736	188.88
428.958	204.88
429.181	246.88
429.403	207.88
429.625	211.88
429.847	192.88
430.069	185.88
430.292	191.88
430.514	190.88
430.736	193.88
430.958	250.88
431.18	223.88
431.402	191.88
431.624	179.88
431.846	184.88
432.068	200.88
432.29	181.88
432.512	179.88
432.734	252.88
432.956	229.88
433.178	196.88
433.4	184.88
433.622	197.88
433.844	193.88
434.066	218.88
434.287	208.88
434.509	192.88
434.731	211.88
434.953	183.88
435.175	196.88
435.397	242.88
435.618	197.88
435.84	188.88
436.062	195.88
436.284	188.88
436.505	165.88
436.727	167.88
436.949	167.88
437.17	185.88
437.392	186.88
437.614	186.88
437.835	190.88
438.057	181.88
438.278	183.88
438.5	246.88
438.721	279.88
438.943	201.88
439.165	172.88
439.386	149.88
439.608	177.88
439.829	184.88
440.05	183.88
440.272	198.88
440.493	201.88
440.715	242.88
440.936	212.88
441.158	179.88
441.379	191.88
441.6	198.88
441.822	233.88
442.043	202.88
442.264	189.88
442.486	186.88
442.707	183.88
442.928	189.88
443.149	173.88
443.371	197.88
443.592	188.88
443.813	206.88
444.034	208.88
444.255	186.88
444.476	213.88
444.698	191.88
444.919	202.88
445.14	320.88
445.361	260.88
445.582	223.88
445.803	209.88
446.024	202.88
446.245	217.88
446.466	211.88
446.687	199.88
446.908	192.88
447.129	170.88
447.35	175.88
447.571	170.88
447.792	188.88
448.013	170.88
448.234	179.88
448.455	177.88
448.675	181.88
448.896	156.88
449.117	181.88
449.338	183.88
449.559	185.88
449.779	199.88
450	203.88
450.221	185.88
450.442	193.88
450.662	187.88
450.883	176.88
451.104	179.88
451.324	178.88
451.545	181.88
451.766	195.88
451.986	190.88
452.207	182.88
452.428	163.88
452.648	169.88
452.869	177.88
453.089	189.88
453.31	175.88
453.53	177.88
453.751	195.88
453.971	168.88
454.192	173.88
454.412	192.88
454.633	185.88
454.853	170.88
455.073	162.88
455.294	166.88
455.514	148.88
455.734	173.88
455.955	186.88
456.175	175.88
456.395	165.88
456.616	156.88
456.836	162.88
457.056	163.88
457.276	157.88
457.497	161.88
457.717	179.88
457.937	175.88
458.157	183.88
458.377	168.88
458.598	179.88
458.818	167.88
459.038	169.88
459.258	173.88
459.478	176.88
459.698	190.88
459.918	210.88
460.138	212.88
460.358	199.88
460.578	190.88
460.798	187.88
461.018	186.88
461.238	183.88
461.458	190.88
461.678	197.88
461.898	198.88
462.118	214.88
462.338	226.88
462.558	215.88
462.777	216.88
462.997	223.88
463.217	215.88
463.437	238.88
463.657	209.88
463.876	215.88
464.096	236.88
464.316	218.88
464.536	221.88
464.755	213.88
464.975	218.88
465.195	204.88
465.414	226.88
465.634	217.88
465.854	214.88
466.073	179.88
466.293	190.88
466.512	197.88
466.732	216.88
466.951	231.88
467.171	204.88
467.391	195.88
467.61	199.88
467.829	193.88
468.049	196.88
468.268	171.88
468.488	196.88
468.707	206.88
468.927	207.88
469.146	243.88
469.365	226.88
469.585	212.88
469.804	223.88
470.023	222.88
470.243	184.88
470.462	203.88
470.681	198.88
470.901	200.88
471.12	211.88
471.339	203.88
471.558	187.88
471.777	199.88
471.997	201.88
472.216	229.88
472.435	244.88
472.654	207.88
472.873	212.88
473.092	231.88
473.311	222.88
473.53	212.88
473.749	199.88
473.968	214.88
474.187	206.88
474.406	206.88
474.625	200.88
474.844	203.88
475.063	211.88
475.282	226.88
475.501	235.88
475.72	248.88
475.939	226.88
476.158	228.88
476.377	297.88
476.596	321.88
476.814	307.88
477.033	290.88
477.252	236.88
477.471	204.88
477.69	209.88
477.908	240.88
478.127	204.88
478.346	213.88
478.564	259.88
478.783	227.88
479.002	236.88
479.22	290.88
479.439	268.88
479.658	255.88
479.876	224.88
480.095	257.88
480.313	252.88
480.532	225.88
480.751	247.88
480.969	232.88
481.188	245.88
481.406	284.88
481.624	236.88
481.843	227.88
482.061	198.88
482.28	243.88
482.498	314.88
482.717	298.88
482.935	257.88
483.153	236.88
483.372	211.88
483.59	220.88
483.808	224.88
484.027	236.88
484.245	191.88
484.463	185.88
484.681	218.88
484.9	216.88
485.118	247.88
485.336	232.88
485.554	219.88
485.772	227.88
485.99	239.88
486.209	265.88
486.427	256.88
486.645	246.88
486.863	260.88
487.081	256.88
487.299	282.88
487.517	273.88
487.735	249.88
487.953	243.88
488.171	237.88
488.389	232.88
488.607	224.88
488.825	222.88
489.043	264.88
489.261	285.88
489.479	321.88
489.696	271.88
489.914	238.88
490.132	225.88
490.35	226.88
490.568	227.88
490.786	234.88
491.003	227.88
491.221	222.88
491.439	212.88
491.657	235.88
491.874	251.88
492.092	300.88
492.31	354.88
492.527	345.88
492.745	267.88
492.963	281.88
493.18	258.88
493.398	275.88
493.615	241.88
493.833	265.88
494.05	259.88
494.268	252.88
494.485	251.88
494.703	251.88
494.92	249.88
495.138	239.88
495.355	252.88
495.573	250.88
495.79	269.88
496.008	369.88
496.225	316.88
496.442	267.88
496.66	262.88
496.877	271.88
497.094	291.88
497.312	262.88
497.529	248.88
497.746	265.88
497.963	283.88
498.181	289.88
498.398	307.88
498.615	319.88
498.832	329.88
499.049	332.88
499.267	314.88
499.484	315.88
499.701	330.88
499.918	356.88
500.135	403.88
500.352	395.88
500.569	409.88
500.786	419.88
501.003	413.88
501.22	393.88
501.437	355.88
501.654	348.88
501.871	337.88
502.088	312.88
502.305	305.88
502.522	303.88
502.739	309.88
