Data from NickelSpatula.Lamp.E5.5.P2_HRD10591_11-52-32-554.txt Node
Date: Tue Jul 23 11:52:32 EDT 2019
User: cochatt
Spectrometer: HR+D1059
Trigger mode: 1
Integration Time (sec): 1.000000E-1
Scans to average: 1
Electric dark correction enabled: true
Nonlinearity correction enabled: false
Boxcar width: 0
XAxis mode: Wavelengths
Number of Pixels in Spectrum: 2048
>>>>>Begin Spectral Data<<<<<
223.165	-18.12
223.4	-18.12
223.635	-18.12
223.869	-25.12
224.104	-23.12
224.338	-5.12
224.573	-22.12
224.808	-13.12
225.042	-6.12
225.277	-3.12
225.511	-6.12
225.746	10.88
225.98	15.88
226.215	2.88
226.449	23.88
226.683	11.88
226.918	27.88
227.152	28.88
227.387	29.88
227.621	27.88
227.856	37.88
228.09	55.88
228.324	50.88
228.559	60.88
228.793	53.88
229.027	52.88
229.262	68.88
229.496	80.88
229.73	85.88
229.964	80.88
230.199	78.88
230.433	102.88
230.667	84.88
230.901	117.88
231.136	95.88
231.37	92.88
231.604	105.88
231.838	109.88
232.072	105.88
232.306	105.88
232.541	117.88
232.775	110.88
233.009	120.88
233.243	103.88
233.477	128.88
233.711	144.88
233.945	124.88
234.179	115.88
234.413	136.88
234.647	134.88
234.881	145.88
235.115	144.88
235.349	134.88
235.583	129.88
235.817	125.88
236.051	118.88
236.285	142.88
236.519	160.88
236.753	138.88
236.987	144.88
237.221	134.88
237.455	115.88
237.689	131.88
237.922	142.88
238.156	139.88
238.39	161.88
238.624	185.88
238.858	174.88
239.091	144.88
239.325	149.88
239.559	145.88
239.793	174.88
240.027	192.88
240.26	173.88
240.494	169.88
240.728	165.88
240.961	208.88
241.195	174.88
241.429	174.88
241.662	177.88
241.896	148.88
242.13	144.88
242.363	144.88
242.597	142.88
242.83	164.88
243.064	154.88
243.298	168.88
243.531	175.88
243.765	192.88
243.998	164.88
244.232	159.88
244.465	182.88
244.699	147.88
244.932	196.88
245.166	176.88
245.399	175.88
245.633	158.88
245.866	140.88
246.099	156.88
246.333	196.88
246.566	199.88
246.8	200.88
247.033	201.88
247.266	194.88
247.5	191.88
247.733	196.88
247.966	182.88
248.2	165.88
248.433	213.88
248.666	202.88
248.899	220.88
249.133	218.88
249.366	240.88
249.599	241.88
249.832	239.88
250.066	215.88
250.299	223.88
250.532	236.88
250.765	200.88
250.998	206.88
251.231	197.88
251.465	205.88
251.698	212.88
251.931	211.88
252.164	216.88
252.397	223.88
252.63	270.88
252.863	279.88
253.096	272.88
253.329	281.88
253.562	274.88
253.795	295.88
254.028	319.88
254.261	335.88
254.494	304.88
254.727	266.88
254.96	274.88
255.193	265.88
255.426	278.88
255.659	205.88
255.892	216.88
256.124	214.88
256.357	236.88
256.59	294.88
256.823	270.88
257.056	229.88
257.289	220.88
257.521	239.88
257.754	288.88
257.987	339.88
258.22	290.88
258.452	255.88
258.685	290.88
258.918	293.88
259.151	284.88
259.383	318.88
259.616	367.88
259.849	359.88
260.081	394.88
260.314	410.88
260.547	340.88
260.779	350.88
261.012	408.88
261.244	371.88
261.477	379.88
261.71	350.88
261.942	302.88
262.175	284.88
262.407	304.88
262.64	302.88
262.872	337.88
263.105	384.88
263.337	419.88
263.57	360.88
263.802	260.88
264.035	228.88
264.267	216.88
264.499	190.88
264.732	180.88
264.964	189.88
265.197	184.88
265.429	196.88
265.661	216.88
265.894	236.88
266.126	244.88
266.358	241.88
266.591	317.88
266.823	361.88
267.055	341.88
267.287	304.88
267.52	317.88
267.752	325.88
267.984	334.88
268.216	324.88
268.448	275.88
268.681	272.88
268.913	293.88
269.145	319.88
269.377	333.88
269.609	325.88
269.841	292.88
270.073	320.88
270.306	353.88
270.538	321.88
270.77	342.88
271.002	339.88
271.234	343.88
271.466	348.88
271.698	331.88
271.93	322.88
272.162	324.88
272.394	318.88
272.626	303.88
272.858	349.88
273.09	333.88
273.322	324.88
273.553	283.88
273.785	316.88
274.017	420.88
274.249	480.88
274.481	530.88
274.713	584.88
274.945	686.88
275.176	696.88
275.408	625.88
275.64	555.88
275.872	592.88
276.104	502.88
276.335	433.88
276.567	403.88
276.799	420.88
277.031	464.88
277.262	374.88
277.494	304.88
277.726	276.88
277.957	311.88
278.189	332.88
278.421	330.88
278.652	330.88
278.884	301.88
279.115	293.88
279.347	296.88
279.579	295.88
279.81	285.88
280.042	287.88
280.273	285.88
280.505	272.88
280.736	252.88
280.968	250.88
281.199	256.88
281.431	310.88
281.662	294.88
281.894	267.88
282.125	280.88
282.356	321.88
282.588	325.88
282.819	290.88
283.051	300.88
283.282	391.88
283.513	423.88
283.745	476.88
283.976	464.88
284.207	453.88
284.439	442.88
284.67	466.88
284.901	385.88
285.132	425.88
285.364	431.88
285.595	416.88
285.826	422.88
286.057	447.88
286.288	409.88
286.52	428.88
286.751	457.88
286.982	464.88
287.213	401.88
287.444	402.88
287.675	414.88
287.906	416.88
288.138	343.88
288.369	333.88
288.6	306.88
288.831	296.88
289.062	351.88
289.293	395.88
289.524	370.88
289.755	353.88
289.986	359.88
290.217	327.88
290.448	265.88
290.679	236.88
290.91	209.88
291.141	212.88
291.371	243.88
291.602	227.88
291.833	239.88
292.064	240.88
292.295	293.88
292.526	319.88
292.757	326.88
292.987	342.88
293.218	361.88
293.449	361.88
293.68	394.88
293.91	386.88
294.141	389.88
294.372	390.88
294.603	319.88
294.833	371.88
295.064	425.88
295.295	426.88
295.525	328.88
295.756	288.88
295.987	261.88
296.217	237.88
296.448	237.88
296.679	278.88
296.909	274.88
297.14	291.88
297.37	320.88
297.601	322.88
297.831	263.88
298.062	304.88
298.292	324.88
298.523	330.88
298.753	372.88
298.984	352.88
299.214	293.88
299.445	272.88
299.675	264.88
299.905	242.88
300.136	253.88
300.366	270.88
300.597	272.88
300.827	239.88
301.057	255.88
301.288	250.88
301.518	244.88
301.748	310.88
301.979	310.88
302.209	316.88
302.439	310.88
302.669	284.88
302.9	272.88
303.13	285.88
303.36	247.88
303.59	257.88
303.82	264.88
304.051	276.88
304.281	310.88
304.511	320.88
304.741	259.88
304.971	281.88
305.201	302.88
305.431	295.88
305.661	263.88
305.891	252.88
306.121	258.88
306.352	226.88
306.582	210.88
306.812	207.88
307.042	212.88
307.272	195.88
307.502	200.88
307.731	233.88
307.961	220.88
308.191	223.88
308.421	219.88
308.651	208.88
308.881	188.88
309.111	190.88
309.341	209.88
309.571	207.88
309.8	210.88
310.03	213.88
310.26	227.88
310.49	224.88
310.72	206.88
310.949	205.88
311.179	208.88
311.409	226.88
311.639	245.88
311.868	332.88
312.098	387.88
312.328	419.88
312.557	390.88
312.787	424.88
313.017	356.88
313.246	382.88
313.476	434.88
313.706	365.88
313.935	309.88
314.165	239.88
314.394	228.88
314.624	232.88
314.853	246.88
315.083	252.88
315.312	245.88
315.542	236.88
315.771	230.88
316.001	227.88
316.23	208.88
316.46	206.88
316.689	214.88
316.919	193.88
317.148	207.88
317.377	211.88
317.607	213.88
317.836	209.88
318.065	241.88
318.295	290.88
318.524	257.88
318.753	218.88
318.983	197.88
319.212	224.88
319.441	223.88
319.67	259.88
319.9	274.88
320.129	254.88
320.358	219.88
320.587	216.88
320.816	228.88
321.046	256.88
321.275	307.88
321.504	275.88
321.733	270.88
321.962	263.88
322.191	264.88
322.42	217.88
322.649	238.88
322.878	262.88
323.108	260.88
323.337	249.88
323.566	238.88
323.795	237.88
324.024	250.88
324.253	224.88
324.482	221.88
324.71	244.88
324.939	263.88
325.168	268.88
325.397	201.88
325.626	220.88
325.855	224.88
326.084	225.88
326.313	226.88
326.542	201.88
326.77	205.88
326.999	201.88
327.228	218.88
327.457	228.88
327.686	227.88
327.914	201.88
328.143	204.88
328.372	188.88
328.6	201.88
328.829	211.88
329.058	214.88
329.287	209.88
329.515	223.88
329.744	192.88
329.972	202.88
330.201	189.88
330.43	198.88
330.658	214.88
330.887	249.88
331.115	240.88
331.344	244.88
331.572	224.88
331.801	215.88
332.03	210.88
332.258	212.88
332.486	224.88
332.715	237.88
332.943	220.88
333.172	233.88
333.4	236.88
333.629	256.88
333.857	258.88
334.085	274.88
334.314	276.88
334.542	254.88
334.771	222.88
334.999	223.88
335.227	228.88
335.455	239.88
335.684	248.88
335.912	276.88
336.14	297.88
336.369	283.88
336.597	292.88
336.825	288.88
337.053	357.88
337.281	288.88
337.51	230.88
337.738	213.88
337.966	239.88
338.194	272.88
338.422	245.88
338.65	215.88
338.878	209.88
339.106	224.88
339.334	228.88
339.562	234.88
339.79	228.88
340.018	222.88
340.246	237.88
340.474	264.88
340.702	280.88
340.93	291.88
341.158	290.88
341.386	257.88
341.614	241.88
341.842	245.88
342.07	257.88
342.298	285.88
342.526	310.88
342.754	280.88
342.981	248.88
343.209	225.88
343.437	263.88
343.665	278.88
343.893	287.88
344.12	316.88
344.348	382.88
344.576	350.88
344.804	282.88
345.031	233.88
345.259	227.88
345.487	242.88
345.714	236.88
345.942	251.88
346.17	279.88
346.397	266.88
346.625	231.88
346.853	228.88
347.08	216.88
347.308	231.88
347.535	267.88
347.763	266.88
347.99	236.88
348.218	222.88
348.445	240.88
348.673	252.88
348.9	214.88
349.128	259.88
349.355	245.88
349.583	242.88
349.81	236.88
350.037	222.88
350.265	198.88
350.492	191.88
350.72	208.88
350.947	196.88
351.174	203.88
351.402	228.88
351.629	221.88
351.856	202.88
352.083	202.88
352.311	226.88
352.538	225.88
352.765	271.88
352.992	230.88
353.22	220.88
353.447	243.88
353.674	225.88
353.901	209.88
354.128	220.88
354.355	229.88
354.583	214.88
354.81	239.88
355.037	238.88
355.264	217.88
355.491	272.88
355.718	244.88
355.945	238.88
356.172	239.88
356.399	241.88
356.626	257.88
356.853	320.88
357.08	341.88
357.307	359.88
357.534	289.88
357.761	295.88
357.988	351.88
358.215	410.88
358.441	392.88
358.668	318.88
358.895	320.88
359.122	260.88
359.349	256.88
359.576	304.88
359.802	269.88
360.029	203.88
360.256	225.88
360.483	266.88
360.709	347.88
360.936	349.88
361.163	302.88
361.39	252.88
361.616	231.88
361.843	262.88
362.07	328.88
362.296	282.88
362.523	224.88
362.749	214.88
362.976	221.88
363.203	270.88
363.429	288.88
363.656	235.88
363.882	213.88
364.109	215.88
364.335	220.88
364.562	215.88
364.788	250.88
365.015	302.88
365.241	251.88
365.468	223.88
365.694	193.88
365.92	194.88
366.147	208.88
366.373	190.88
366.599	209.88
366.826	204.88
367.052	197.88
367.278	201.88
367.505	207.88
367.731	222.88
367.957	240.88
368.184	209.88
368.41	223.88
368.636	213.88
368.862	233.88
369.089	223.88
369.315	215.88
369.541	217.88
369.767	192.88
369.993	190.88
370.219	185.88
370.445	206.88
370.672	242.88
370.898	244.88
371.124	230.88
371.35	224.88
371.576	225.88
371.802	222.88
372.028	256.88
372.254	286.88
372.48	236.88
372.706	249.88
372.932	242.88
373.158	248.88
373.384	296.88
373.61	365.88
373.835	380.88
374.061	302.88
374.287	261.88
374.513	294.88
374.739	357.88
374.965	368.88
375.191	366.88
375.416	270.88
375.642	245.88
375.868	277.88
376.094	306.88
376.319	259.88
376.545	267.88
376.771	279.88
376.997	265.88
377.222	218.88
377.448	212.88
377.674	182.88
377.899	208.88
378.125	184.88
378.35	183.88
378.576	185.88
378.802	203.88
379.027	223.88
379.253	205.88
379.478	204.88
379.704	237.88
379.929	245.88
380.155	232.88
380.38	232.88
380.606	237.88
380.831	241.88
381.057	238.88
381.282	223.88
381.507	267.88
381.733	293.88
381.958	322.88
382.184	332.88
382.409	350.88
382.634	336.88
382.86	362.88
383.085	330.88
383.31	261.88
383.535	278.88
383.761	276.88
383.986	267.88
384.211	309.88
384.436	292.88
384.662	238.88
384.887	249.88
385.112	257.88
385.337	256.88
385.562	240.88
385.787	265.88
386.013	292.88
386.238	301.88
386.463	246.88
386.688	238.88
386.913	224.88
387.138	217.88
387.363	215.88
387.588	237.88
387.813	221.88
388.038	242.88
388.263	246.88
388.488	240.88
388.713	264.88
388.938	298.88
389.163	263.88
389.387	217.88
389.612	223.88
389.837	229.88
390.062	221.88
390.287	246.88
390.512	238.88
390.736	238.88
390.961	227.88
391.186	204.88
391.411	214.88
391.636	219.88
391.86	223.88
392.085	275.88
392.31	256.88
392.534	231.88
392.759	227.88
392.984	243.88
393.208	250.88
393.433	223.88
393.658	214.88
393.882	234.88
394.107	201.88
394.331	201.88
394.556	204.88
394.78	209.88
395.005	210.88
395.229	214.88
395.454	221.88
395.678	216.88
395.903	217.88
396.127	205.88
396.352	231.88
396.576	227.88
396.801	233.88
397.025	264.88
397.249	252.88
397.474	223.88
397.698	231.88
397.922	233.88
398.147	216.88
398.371	226.88
398.595	226.88
398.82	225.88
399.044	241.88
399.268	264.88
399.492	266.88
399.717	287.88
399.941	302.88
400.165	260.88
400.389	253.88
400.613	263.88
400.837	249.88
401.062	240.88
401.286	231.88
401.51	222.88
401.734	228.88
401.958	239.88
402.182	228.88
402.406	230.88
402.63	256.88
402.854	262.88
403.078	278.88
403.302	349.88
403.526	353.88
403.75	316.88
403.974	264.88
404.198	287.88
404.422	300.88
404.645	343.88
404.869	366.88
405.093	304.88
405.317	269.88
405.541	249.88
405.765	248.88
405.988	245.88
406.212	264.88
406.436	288.88
406.66	322.88
406.883	256.88
407.107	274.88
407.331	308.88
407.555	312.88
407.778	266.88
408.002	274.88
408.226	266.88
408.449	280.88
408.673	257.88
408.896	252.88
409.12	233.88
409.344	243.88
409.567	219.88
409.791	258.88
410.014	244.88
410.238	243.88
410.461	243.88
410.685	248.88
410.908	242.88
411.132	260.88
411.355	242.88
411.578	254.88
411.802	221.88
412.025	241.88
412.249	240.88
412.472	241.88
412.695	257.88
412.919	239.88
413.142	244.88
413.365	255.88
413.589	256.88
413.812	237.88
414.035	244.88
414.258	240.88
414.482	241.88
414.705	249.88
414.928	246.88
415.151	222.88
415.374	205.88
415.597	215.88
415.821	226.88
416.044	214.88
416.267	228.88
416.49	230.88
416.713	233.88
416.936	226.88
417.159	232.88
417.382	227.88
417.605	238.88
417.828	237.88
418.051	239.88
418.274	226.88
418.497	224.88
418.72	232.88
418.943	246.88
419.166	236.88
419.389	280.88
419.611	236.88
419.834	236.88
420.057	260.88
420.28	261.88
420.503	245.88
420.726	228.88
420.948	224.88
421.171	223.88
421.394	228.88
421.617	227.88
421.839	218.88
422.062	232.88
422.285	247.88
422.507	244.88
422.73	240.88
422.953	236.88
423.175	239.88
423.398	261.88
423.621	253.88
423.843	260.88
424.066	249.88
424.288	241.88
424.511	237.88
424.733	258.88
424.956	241.88
425.178	265.88
425.401	288.88
425.623	350.88
425.846	318.88
426.068	260.88
426.291	274.88
426.513	258.88
426.735	226.88
426.958	264.88
427.18	274.88
427.402	333.88
427.625	358.88
427.847	301.88
428.069	226.88
428.292	221.88
428.514	238.88
428.736	236.88
428.958	250.88
429.181	297.88
429.403	252.88
429.625	245.88
429.847	221.88
430.069	227.88
430.292	232.88
430.514	223.88
430.736	232.88
430.958	271.88
431.18	253.88
431.402	216.88
431.624	228.88
431.846	207.88
432.068	212.88
432.29	227.88
432.512	233.88
432.734	289.88
432.956	259.88
433.178	228.88
433.4	210.88
433.622	247.88
433.844	252.88
434.066	249.88
434.287	245.88
434.509	236.88
434.731	243.88
434.953	240.88
435.175	253.88
435.397	287.88
435.618	240.88
435.84	218.88
436.062	217.88
436.284	216.88
436.505	219.88
436.727	203.88
436.949	228.88
437.17	217.88
437.392	228.88
437.614	204.88
437.835	209.88
438.057	210.88
438.278	241.88
438.5	316.88
438.721	325.88
438.943	252.88
439.165	216.88
439.386	209.88
439.608	224.88
439.829	222.88
440.05	205.88
440.272	206.88
440.493	249.88
440.715	286.88
440.936	267.88
441.158	232.88
441.379	221.88
441.6	240.88
441.822	260.88
442.043	254.88
442.264	227.88
442.486	224.88
442.707	237.88
442.928	248.88
443.149	233.88
443.371	242.88
443.592	252.88
443.813	237.88
444.034	242.88
444.255	252.88
444.476	261.88
444.698	266.88
444.919	273.88
445.14	359.88
445.361	302.88
445.582	236.88
445.803	256.88
446.024	236.88
446.245	246.88
446.466	237.88
446.687	221.88
446.908	229.88
447.129	211.88
447.35	205.88
447.571	226.88
447.792	212.88
448.013	196.88
448.234	210.88
448.455	213.88
448.675	206.88
448.896	222.88
449.117	208.88
449.338	206.88
449.559	211.88
449.779	251.88
450	220.88
450.221	210.88
450.442	220.88
450.662	216.88
450.883	206.88
451.104	210.88
451.324	226.88
451.545	230.88
451.766	232.88
451.986	194.88
452.207	213.88
452.428	214.88
452.648	213.88
452.869	196.88
453.089	227.88
453.31	213.88
453.53	204.88
453.751	206.88
453.971	209.88
454.192	216.88
454.412	213.88
454.633	197.88
454.853	209.88
455.073	209.88
455.294	216.88
455.514	209.88
455.734	215.88
455.955	209.88
456.175	230.88
456.395	178.88
456.616	201.88
456.836	202.88
457.056	192.88
457.276	191.88
457.497	184.88
457.717	208.88
457.937	193.88
458.157	206.88
458.377	202.88
458.598	197.88
458.818	193.88
459.038	233.88
459.258	211.88
459.478	219.88
459.698	245.88
459.918	270.88
460.138	233.88
460.358	229.88
460.578	238.88
460.798	239.88
461.018	239.88
461.238	240.88
461.458	237.88
461.678	258.88
461.898	243.88
462.118	258.88
462.338	265.88
462.558	262.88
462.777	277.88
462.997	267.88
463.217	284.88
463.437	309.88
463.657	278.88
463.876	266.88
464.096	264.88
464.316	280.88
464.536	275.88
464.755	277.88
464.975	261.88
465.195	253.88
465.414	272.88
465.634	241.88
465.854	243.88
466.073	212.88
466.293	217.88
466.512	236.88
466.732	259.88
466.951	253.88
467.171	222.88
467.391	241.88
467.61	220.88
467.829	272.88
468.049	249.88
468.268	221.88
468.488	232.88
468.707	232.88
468.927	274.88
469.146	296.88
469.365	274.88
469.585	248.88
469.804	247.88
470.023	285.88
470.243	252.88
470.462	244.88
470.681	219.88
470.901	213.88
471.12	248.88
471.339	228.88
471.558	229.88
471.777	224.88
471.997	254.88
472.216	274.88
472.435	275.88
472.654	269.88
472.873	236.88
473.092	250.88
473.311	267.88
473.53	236.88
473.749	254.88
473.968	253.88
474.187	258.88
474.406	237.88
474.625	240.88
474.844	238.88
475.063	256.88
475.282	274.88
475.501	273.88
475.72	278.88
475.939	249.88
476.158	261.88
476.377	309.88
476.596	333.88
476.814	342.88
477.033	297.88
477.252	254.88
477.471	262.88
477.69	275.88
477.908	269.88
478.127	272.88
478.346	260.88
478.564	294.88
478.783	272.88
479.002	283.88
479.22	290.88
479.439	355.88
479.658	305.88
479.876	264.88
480.095	290.88
480.313	303.88
480.532	287.88
480.751	296.88
480.969	296.88
481.188	309.88
481.406	312.88
481.624	320.88
481.843	283.88
482.061	256.88
482.28	298.88
482.498	331.88
482.717	335.88
482.935	295.88
483.153	291.88
483.372	261.88
483.59	250.88
483.808	245.88
484.027	249.88
484.245	233.88
484.463	241.88
484.681	266.88
484.9	267.88
485.118	272.88
485.336	277.88
485.554	261.88
485.772	257.88
485.99	294.88
486.209	302.88
486.427	295.88
486.645	308.88
486.863	316.88
487.081	303.88
487.299	325.88
487.517	304.88
487.735	272.88
487.953	287.88
488.171	295.88
488.389	280.88
488.607	274.88
488.825	285.88
489.043	294.88
489.261	311.88
489.479	334.88
489.696	296.88
489.914	270.88
490.132	276.88
490.35	273.88
490.568	253.88
490.786	297.88
491.003	275.88
491.221	278.88
491.439	282.88
491.657	245.88
491.874	290.88
492.092	339.88
492.31	360.88
492.527	368.88
492.745	336.88
492.963	300.88
493.18	310.88
493.398	292.88
493.615	316.88
493.833	290.88
494.05	297.88
494.268	297.88
494.485	297.88
494.703	264.88
494.92	281.88
495.138	276.88
495.355	279.88
495.573	285.88
495.79	321.88
496.008	376.88
496.225	328.88
496.442	303.88
496.66	320.88
496.877	322.88
497.094	305.88
497.312	294.88
497.529	313.88
497.746	313.88
497.963	312.88
498.181	338.88
498.398	359.88
498.615	368.88
498.832	414.88
499.049	402.88
499.267	406.88
499.484	389.88
499.701	407.88
499.918	444.88
500.135	488.88
500.352	511.88
500.569	537.88
500.786	541.88
501.003	538.88
501.22	462.88
501.437	416.88
501.654	394.88
501.871	378.88
502.088	398.88
502.305	348.88
502.522	350.88
