Data from NickelSpatula.Lamp.E5.5.P2_HRD10591_11-51-34-559.txt Node
Date: Tue Jul 23 11:51:34 EDT 2019
User: cochatt
Spectrometer: HR+D1059
Trigger mode: 1
Integration Time (sec): 1.000000E-1
Scans to average: 1
Electric dark correction enabled: true
Nonlinearity correction enabled: false
Boxcar width: 0
XAxis mode: Wavelengths
Number of Pixels in Spectrum: 2048
>>>>>Begin Spectral Data<<<<<
223.165	-19.31
223.4	-19.31
223.635	-19.31
223.869	-19.31
224.104	-17.31
224.338	-3.31
224.573	-18.31
224.808	-14.31
225.042	-3.31
225.277	-9.31
225.511	-4.31
225.746	11.69
225.98	7.69
226.215	4.69
226.449	6.69
226.683	17.69
226.918	31.69
227.152	28.69
227.387	25.69
227.621	51.69
227.856	36.69
228.09	40.69
228.324	42.69
228.559	56.69
228.793	51.69
229.027	72.69
229.262	69.69
229.496	70.69
229.73	70.69
229.964	83.69
230.199	92.69
230.433	102.69
230.667	101.69
230.901	94.69
231.136	107.69
231.37	83.69
231.604	92.69
231.838	92.69
232.072	101.69
232.306	112.69
232.541	106.69
232.775	104.69
233.009	106.69
233.243	106.69
233.477	116.69
233.711	114.69
233.945	118.69
234.179	102.69
234.413	119.69
234.647	135.69
234.881	142.69
235.115	139.69
235.349	139.69
235.583	135.69
235.817	122.69
236.051	130.69
236.285	143.69
236.519	129.69
236.753	126.69
236.987	118.69
237.221	118.69
237.455	131.69
237.689	119.69
237.922	134.69
238.156	140.69
238.39	157.69
238.624	166.69
238.858	158.69
239.091	127.69
239.325	131.69
239.559	142.69
239.793	154.69
240.027	181.69
240.26	162.69
240.494	145.69
240.728	156.69
240.961	165.69
241.195	159.69
241.429	186.69
241.662	155.69
241.896	151.69
242.13	149.69
242.363	127.69
242.597	118.69
242.83	142.69
243.064	156.69
243.298	146.69
243.531	142.69
243.765	160.69
243.998	166.69
244.232	159.69
244.465	164.69
244.699	174.69
244.932	159.69
245.166	167.69
245.399	138.69
245.633	135.69
245.866	146.69
246.099	173.69
246.333	162.69
246.566	190.69
246.8	185.69
247.033	192.69
247.266	171.69
247.5	167.69
247.733	150.69
247.966	168.69
248.2	156.69
248.433	177.69
248.666	179.69
248.899	175.69
249.133	197.69
249.366	225.69
249.599	228.69
249.832	218.69
250.066	206.69
250.299	197.69
250.532	189.69
250.765	191.69
250.998	167.69
251.231	165.69
251.465	193.69
251.698	192.69
251.931	180.69
252.164	211.69
252.397	213.69
252.63	232.69
252.863	255.69
253.096	245.69
253.329	255.69
253.562	240.69
253.795	263.69
254.028	287.69
254.261	289.69
254.494	262.69
254.727	245.69
254.96	228.69
255.193	233.69
255.426	227.69
255.659	194.69
255.892	187.69
256.124	206.69
256.357	250.69
256.59	265.69
256.823	266.69
257.056	230.69
257.289	204.69
257.521	203.69
257.754	250.69
257.987	274.69
258.22	263.69
258.452	222.69
258.685	259.69
258.918	271.69
259.151	286.69
259.383	275.69
259.616	316.69
259.849	320.69
260.081	334.69
260.314	376.69
260.547	303.69
260.779	316.69
261.012	348.69
261.244	321.69
261.477	333.69
261.71	314.69
261.942	276.69
262.175	294.69
262.407	252.69
262.64	286.69
262.872	319.69
263.105	338.69
263.337	368.69
263.57	316.69
263.802	229.69
264.035	224.69
264.267	227.69
264.499	184.69
264.732	181.69
264.964	159.69
265.197	188.69
265.429	177.69
265.661	204.69
265.894	203.69
266.126	210.69
266.358	236.69
266.591	268.69
266.823	303.69
267.055	292.69
267.287	273.69
267.52	268.69
267.752	279.69
267.984	307.69
268.216	292.69
268.448	256.69
268.681	249.69
268.913	285.69
269.145	277.69
269.377	276.69
269.609	265.69
269.841	254.69
270.073	278.69
270.306	302.69
270.538	308.69
270.77	300.69
271.002	289.69
271.234	327.69
271.466	316.69
271.698	323.69
271.93	307.69
272.162	299.69
272.394	303.69
272.626	290.69
272.858	289.69
273.09	310.69
273.322	288.69
273.553	261.69
273.785	304.69
274.017	384.69
274.249	420.69
274.481	446.69
274.713	500.69
274.945	564.69
275.176	596.69
275.408	527.69
275.64	487.69
275.872	498.69
276.104	443.69
276.335	392.69
276.567	371.69
276.799	378.69
277.031	404.69
277.262	342.69
277.494	259.69
277.726	254.69
277.957	283.69
278.189	298.69
278.421	307.69
278.652	291.69
278.884	290.69
279.115	278.69
279.347	261.69
279.579	264.69
279.81	276.69
280.042	261.69
280.273	284.69
280.505	242.69
280.736	247.69
280.968	234.69
281.199	256.69
281.431	275.69
281.662	272.69
281.894	270.69
282.125	268.69
282.356	304.69
282.588	287.69
282.819	271.69
283.051	287.69
283.282	334.69
283.513	389.69
283.745	402.69
283.976	411.69
284.207	398.69
284.439	407.69
284.67	418.69
284.901	338.69
285.132	367.69
285.364	394.69
285.595	375.69
285.826	398.69
286.057	391.69
286.288	389.69
286.52	408.69
286.751	407.69
286.982	412.69
287.213	368.69
287.444	343.69
287.675	364.69
287.906	376.69
288.138	328.69
288.369	292.69
288.6	271.69
288.831	295.69
289.062	315.69
289.293	344.69
289.524	338.69
289.755	326.69
289.986	335.69
290.217	306.69
290.448	256.69
290.679	239.69
290.91	219.69
291.141	235.69
291.371	227.69
291.602	245.69
291.833	234.69
292.064	220.69
292.295	258.69
292.526	293.69
292.757	303.69
292.987	320.69
293.218	338.69
293.449	340.69
293.68	363.69
293.91	344.69
294.141	362.69
294.372	324.69
294.603	296.69
294.833	323.69
295.064	396.69
295.295	369.69
295.525	290.69
295.756	234.69
295.987	238.69
296.217	230.69
296.448	215.69
296.679	256.69
296.909	268.69
297.14	279.69
297.37	303.69
297.601	304.69
297.831	267.69
298.062	271.69
298.292	293.69
298.523	307.69
298.753	337.69
298.984	340.69
299.214	273.69
299.445	248.69
299.675	226.69
299.905	240.69
300.136	231.69
300.366	254.69
300.597	243.69
300.827	229.69
301.057	216.69
301.288	259.69
301.518	270.69
301.748	278.69
301.979	300.69
302.209	305.69
302.439	293.69
302.669	279.69
302.9	277.69
303.13	250.69
303.36	261.69
303.59	244.69
303.82	253.69
304.051	274.69
304.281	282.69
304.511	293.69
304.741	261.69
304.971	269.69
305.201	287.69
305.431	278.69
305.661	244.69
305.891	237.69
306.121	234.69
306.352	217.69
306.582	226.69
306.812	218.69
307.042	211.69
307.272	199.69
307.502	193.69
307.731	212.69
307.961	206.69
308.191	211.69
308.421	187.69
308.651	188.69
308.881	208.69
309.111	212.69
309.341	193.69
309.571	217.69
309.8	235.69
310.03	230.69
310.26	225.69
310.49	215.69
310.72	204.69
310.949	200.69
311.179	219.69
311.409	242.69
311.639	228.69
311.868	299.69
312.098	345.69
312.328	383.69
312.557	379.69
312.787	386.69
313.017	325.69
313.246	354.69
313.476	381.69
313.706	339.69
313.935	282.69
314.165	253.69
314.394	222.69
314.624	214.69
314.853	242.69
315.083	221.69
315.312	226.69
315.542	232.69
315.771	224.69
316.001	202.69
316.23	208.69
316.46	195.69
316.689	210.69
316.919	215.69
317.148	206.69
317.377	189.69
317.607	209.69
317.836	196.69
318.065	239.69
318.295	258.69
318.524	262.69
318.753	219.69
318.983	222.69
319.212	227.69
319.441	205.69
319.67	249.69
319.9	268.69
320.129	238.69
320.358	217.69
320.587	214.69
320.816	242.69
321.046	250.69
321.275	263.69
321.504	286.69
321.733	256.69
321.962	252.69
322.191	274.69
322.42	251.69
322.649	265.69
322.878	260.69
323.108	260.69
323.337	246.69
323.566	237.69
323.795	230.69
324.024	234.69
324.253	236.69
324.482	238.69
324.71	248.69
324.939	246.69
325.168	249.69
325.397	217.69
325.626	220.69
325.855	229.69
326.084	226.69
326.313	213.69
326.542	202.69
326.77	218.69
326.999	215.69
327.228	218.69
327.457	215.69
327.686	238.69
327.914	207.69
328.143	208.69
328.372	184.69
328.6	196.69
328.829	216.69
329.058	210.69
329.287	196.69
329.515	212.69
329.744	209.69
329.972	206.69
330.201	188.69
330.43	207.69
330.658	200.69
330.887	237.69
331.115	237.69
331.344	213.69
331.572	221.69
331.801	221.69
332.03	200.69
332.258	196.69
332.486	218.69
332.715	246.69
332.943	222.69
333.172	235.69
333.4	235.69
333.629	238.69
333.857	286.69
334.085	254.69
334.314	259.69
334.542	245.69
334.771	246.69
334.999	242.69
335.227	225.69
335.455	214.69
335.684	244.69
335.912	257.69
336.14	296.69
336.369	275.69
336.597	241.69
336.825	301.69
337.053	306.69
337.281	271.69
337.51	233.69
337.738	234.69
337.966	231.69
338.194	258.69
338.422	236.69
338.65	234.69
338.878	214.69
339.106	212.69
339.334	248.69
339.562	245.69
339.79	239.69
340.018	218.69
340.246	224.69
340.474	244.69
340.702	263.69
340.93	271.69
341.158	273.69
341.386	252.69
341.614	240.69
341.842	240.69
342.07	246.69
342.298	277.69
342.526	291.69
342.754	265.69
342.981	243.69
343.209	221.69
343.437	250.69
343.665	275.69
343.893	257.69
344.12	288.69
344.348	362.69
344.576	326.69
344.804	260.69
345.031	241.69
345.259	214.69
345.487	223.69
345.714	231.69
345.942	242.69
346.17	265.69
346.397	256.69
346.625	223.69
346.853	210.69
347.08	216.69
347.308	214.69
347.535	271.69
347.763	280.69
347.99	242.69
348.218	226.69
348.445	220.69
348.673	229.69
348.9	239.69
349.128	246.69
349.355	250.69
349.583	239.69
349.81	210.69
350.037	219.69
350.265	197.69
350.492	195.69
350.72	189.69
350.947	184.69
351.174	194.69
351.402	213.69
351.629	220.69
351.856	224.69
352.083	207.69
352.311	235.69
352.538	231.69
352.765	232.69
352.992	239.69
353.22	228.69
353.447	242.69
353.674	239.69
353.901	215.69
354.128	238.69
354.355	223.69
354.583	217.69
354.81	227.69
355.037	239.69
355.264	232.69
355.491	236.69
355.718	248.69
355.945	244.69
356.172	231.69
356.399	252.69
356.626	279.69
356.853	304.69
357.08	337.69
357.307	368.69
357.534	274.69
357.761	303.69
357.988	382.69
358.215	395.69
358.441	370.69
358.668	310.69
358.895	321.69
359.122	276.69
359.349	287.69
359.576	325.69
359.802	257.69
360.029	226.69
360.256	231.69
360.483	278.69
360.709	336.69
360.936	362.69
361.163	308.69
361.39	250.69
361.616	215.69
361.843	259.69
362.07	314.69
362.296	274.69
362.523	222.69
362.749	206.69
362.976	226.69
363.203	268.69
363.429	284.69
363.656	232.69
363.882	211.69
364.109	231.69
364.335	234.69
364.562	218.69
364.788	246.69
365.015	275.69
365.241	241.69
365.468	214.69
365.694	191.69
365.92	204.69
366.147	196.69
366.373	196.69
366.599	203.69
366.826	213.69
367.052	206.69
367.278	206.69
367.505	202.69
367.731	214.69
367.957	234.69
368.184	225.69
368.41	246.69
368.636	228.69
368.862	226.69
369.089	228.69
369.315	206.69
369.541	210.69
369.767	200.69
369.993	206.69
370.219	207.69
370.445	197.69
370.672	242.69
370.898	250.69
371.124	251.69
371.35	222.69
371.576	219.69
371.802	232.69
372.028	255.69
372.254	299.69
372.48	252.69
372.706	232.69
372.932	238.69
373.158	248.69
373.384	312.69
373.61	366.69
373.835	403.69
374.061	295.69
374.287	280.69
374.513	301.69
374.739	350.69
374.965	366.69
375.191	347.69
375.416	282.69
375.642	238.69
375.868	265.69
376.094	307.69
376.319	260.69
376.545	282.69
376.771	283.69
376.997	264.69
377.222	207.69
377.448	192.69
377.674	198.69
377.899	204.69
378.125	191.69
378.35	202.69
378.576	194.69
378.802	219.69
379.027	222.69
379.253	212.69
379.478	209.69
379.704	248.69
379.929	242.69
380.155	261.69
380.38	229.69
380.606	238.69
380.831	260.69
381.057	243.69
381.282	228.69
381.507	267.69
381.733	302.69
381.958	325.69
382.184	325.69
382.409	348.69
382.634	347.69
382.86	366.69
383.085	298.69
383.31	253.69
383.535	263.69
383.761	279.69
383.986	268.69
384.211	304.69
384.436	280.69
384.662	252.69
384.887	233.69
385.112	238.69
385.337	250.69
385.562	244.69
385.787	273.69
386.013	293.69
386.238	302.69
386.463	249.69
386.688	223.69
386.913	227.69
387.138	225.69
387.363	248.69
387.588	219.69
387.813	245.69
388.038	251.69
388.263	225.69
388.488	221.69
388.713	264.69
388.938	265.69
389.163	226.69
389.387	218.69
389.612	216.69
389.837	232.69
390.062	226.69
390.287	230.69
390.512	236.69
390.736	227.69
390.961	206.69
391.186	218.69
391.411	210.69
391.636	200.69
391.86	238.69
392.085	261.69
392.31	254.69
392.534	253.69
392.759	251.69
392.984	250.69
393.208	223.69
393.433	212.69
393.658	203.69
393.882	196.69
394.107	204.69
394.331	213.69
394.556	206.69
394.78	226.69
395.005	220.69
395.229	220.69
395.454	223.69
395.678	209.69
395.903	221.69
396.127	215.69
396.352	230.69
396.576	252.69
396.801	220.69
397.025	242.69
397.249	258.69
397.474	219.69
397.698	234.69
397.922	234.69
398.147	236.69
398.371	232.69
398.595	241.69
398.82	252.69
399.044	247.69
399.268	242.69
399.492	282.69
399.717	278.69
399.941	285.69
400.165	278.69
400.389	242.69
400.613	247.69
400.837	241.69
401.062	232.69
401.286	191.69
401.51	231.69
401.734	221.69
401.958	245.69
402.182	229.69
402.406	240.69
402.63	242.69
402.854	262.69
403.078	291.69
403.302	371.69
403.526	394.69
403.75	349.69
403.974	285.69
404.198	288.69
404.422	327.69
404.645	308.69
404.869	351.69
405.093	289.69
405.317	245.69
405.541	264.69
405.765	261.69
405.988	262.69
406.212	268.69
406.436	278.69
406.66	333.69
406.883	287.69
407.107	288.69
407.331	322.69
407.555	319.69
407.778	251.69
408.002	264.69
408.226	278.69
408.449	271.69
408.673	256.69
408.896	252.69
409.12	244.69
409.344	250.69
409.567	236.69
409.791	238.69
410.014	240.69
410.238	246.69
410.461	242.69
410.685	228.69
410.908	240.69
411.132	239.69
411.355	228.69
411.578	229.69
411.802	229.69
412.025	230.69
412.249	225.69
412.472	236.69
412.695	252.69
412.919	261.69
413.142	260.69
413.365	260.69
413.589	264.69
413.812	229.69
414.035	242.69
414.258	236.69
414.482	245.69
414.705	261.69
414.928	250.69
415.151	222.69
415.374	233.69
415.597	236.69
415.821	248.69
416.044	242.69
416.267	222.69
416.49	242.69
416.713	229.69
416.936	212.69
417.159	227.69
417.382	219.69
417.605	226.69
417.828	235.69
418.051	232.69
418.274	250.69
418.497	229.69
418.72	238.69
418.943	250.69
419.166	246.69
419.389	243.69
419.611	267.69
419.834	252.69
420.057	263.69
420.28	274.69
420.503	246.69
420.726	244.69
420.948	236.69
421.171	242.69
421.394	239.69
421.617	220.69
421.839	216.69
422.062	231.69
422.285	227.69
422.507	230.69
422.73	250.69
422.953	264.69
423.175	269.69
423.398	242.69
423.621	244.69
423.843	278.69
424.066	254.69
424.288	241.69
424.511	248.69
424.733	240.69
424.956	248.69
425.178	266.69
425.401	302.69
425.623	364.69
425.846	306.69
426.068	240.69
426.291	257.69
426.513	256.69
426.735	245.69
426.958	255.69
427.18	277.69
427.402	334.69
427.625	358.69
427.847	304.69
428.069	245.69
428.292	238.69
428.514	232.69
428.736	234.69
428.958	247.69
429.181	321.69
429.403	247.69
429.625	223.69
429.847	206.69
430.069	224.69
430.292	250.69
430.514	218.69
430.736	227.69
430.958	245.69
431.18	273.69
431.402	226.69
431.624	230.69
431.846	222.69
432.068	205.69
432.29	215.69
432.512	248.69
432.734	286.69
432.956	255.69
433.178	242.69
433.4	222.69
433.622	219.69
433.844	218.69
434.066	268.69
434.287	232.69
434.509	242.69
434.731	271.69
434.953	241.69
435.175	250.69
435.397	275.69
435.618	249.69
435.84	210.69
436.062	219.69
436.284	222.69
436.505	221.69
436.727	212.69
436.949	216.69
437.17	221.69
437.392	223.69
437.614	233.69
437.835	217.69
438.057	222.69
438.278	246.69
438.5	326.69
438.721	316.69
438.943	230.69
439.165	204.69
439.386	210.69
439.608	209.69
439.829	209.69
440.05	218.69
440.272	211.69
440.493	244.69
440.715	287.69
440.936	228.69
441.158	228.69
441.379	237.69
441.6	248.69
441.822	258.69
442.043	237.69
442.264	230.69
442.486	224.69
442.707	231.69
442.928	228.69
443.149	241.69
443.371	238.69
443.592	236.69
443.813	260.69
444.034	235.69
444.255	236.69
444.476	254.69
444.698	242.69
444.919	254.69
445.14	328.69
445.361	299.69
445.582	242.69
445.803	240.69
446.024	243.69
446.245	261.69
446.466	242.69
446.687	227.69
446.908	225.69
447.129	218.69
447.35	217.69
447.571	215.69
447.792	236.69
448.013	193.69
448.234	211.69
448.455	205.69
448.675	205.69
448.896	223.69
449.117	220.69
449.338	228.69
449.559	228.69
449.779	223.69
450	222.69
450.221	224.69
450.442	201.69
450.662	208.69
450.883	199.69
451.104	208.69
451.324	212.69
451.545	216.69
451.766	223.69
451.986	225.69
452.207	206.69
452.428	220.69
452.648	210.69
452.869	226.69
453.089	221.69
453.31	207.69
453.53	208.69
453.751	199.69
453.971	195.69
454.192	197.69
454.412	199.69
454.633	225.69
454.853	215.69
455.073	179.69
455.294	200.69
455.514	199.69
455.734	209.69
455.955	205.69
456.175	197.69
456.395	190.69
456.616	196.69
456.836	193.69
457.056	192.69
457.276	184.69
457.497	205.69
457.717	188.69
457.937	190.69
458.157	199.69
458.377	210.69
458.598	220.69
458.818	196.69
459.038	214.69
459.258	219.69
459.478	225.69
459.698	228.69
459.918	244.69
460.138	226.69
460.358	248.69
460.578	242.69
460.798	236.69
461.018	235.69
461.238	227.69
461.458	232.69
461.678	256.69
461.898	261.69
462.118	234.69
462.338	252.69
462.558	253.69
462.777	271.69
462.997	278.69
463.217	303.69
463.437	291.69
463.657	288.69
463.876	264.69
464.096	263.69
464.316	269.69
464.536	264.69
464.755	271.69
464.975	264.69
465.195	277.69
465.414	256.69
465.634	234.69
465.854	230.69
466.073	213.69
466.293	221.69
466.512	235.69
466.732	250.69
466.951	242.69
467.171	226.69
467.391	229.69
467.61	221.69
467.829	219.69
468.049	215.69
468.268	215.69
468.488	222.69
468.707	238.69
468.927	264.69
469.146	254.69
469.365	250.69
469.585	231.69
469.804	250.69
470.023	264.69
470.243	239.69
470.462	242.69
470.681	239.69
470.901	245.69
471.12	256.69
471.339	260.69
471.558	244.69
471.777	227.69
471.997	236.69
472.216	268.69
472.435	263.69
472.654	231.69
472.873	245.69
473.092	239.69
473.311	251.69
473.53	247.69
473.749	222.69
473.968	235.69
474.187	236.69
474.406	220.69
474.625	227.69
474.844	222.69
475.063	266.69
475.282	242.69
475.501	256.69
475.72	284.69
475.939	262.69
476.158	265.69
476.377	283.69
476.596	316.69
476.814	321.69
477.033	290.69
477.252	259.69
477.471	243.69
477.69	238.69
477.908	260.69
478.127	282.69
478.346	274.69
478.564	291.69
478.783	276.69
479.002	277.69
479.22	304.69
479.439	323.69
479.658	276.69
479.876	277.69
480.095	267.69
480.313	296.69
480.532	270.69
480.751	274.69
480.969	292.69
481.188	302.69
481.406	286.69
481.624	275.69
481.843	274.69
482.061	231.69
482.28	276.69
482.498	338.69
482.717	344.69
482.935	284.69
483.153	295.69
483.372	236.69
483.59	254.69
483.808	258.69
484.027	243.69
484.245	255.69
484.463	242.69
484.681	253.69
484.9	268.69
485.118	284.69
485.336	286.69
485.554	255.69
485.772	274.69
485.99	282.69
486.209	274.69
486.427	302.69
486.645	272.69
486.863	287.69
487.081	283.69
487.299	293.69
487.517	310.69
487.735	273.69
487.953	288.69
488.171	283.69
488.389	267.69
488.607	269.69
488.825	265.69
489.043	306.69
489.261	317.69
489.479	362.69
489.696	281.69
489.914	286.69
490.132	270.69
490.35	246.69
490.568	260.69
490.786	270.69
491.003	268.69
491.221	258.69
491.439	255.69
491.657	281.69
491.874	277.69
492.092	312.69
492.31	350.69
492.527	362.69
492.745	328.69
492.963	290.69
493.18	278.69
493.398	275.69
493.615	276.69
493.833	298.69
494.05	288.69
494.268	282.69
494.485	281.69
494.703	271.69
494.92	269.69
495.138	271.69
495.355	276.69
495.573	273.69
495.79	308.69
496.008	353.69
496.225	323.69
496.442	300.69
496.66	291.69
496.877	319.69
497.094	304.69
497.312	300.69
497.529	297.69
497.746	304.69
497.963	291.69
498.181	322.69
498.398	347.69
498.615	349.69
498.832	382.69
499.049	382.69
499.267	367.69
499.484	381.69
499.701	405.69
499.918	432.69
500.135	485.69
500.352	552.69
500.569	561.69
500.786	568.69
501.003	529.69
501.22	444.69
501.437	442.69
501.654	434.69
501.871	386.69
502.088	384.69
502.305	352.69
502.522	342.69
