Data from NickelSpatula_HRD10591_16-35-04-126.txt Node
Date: Mon Jul 22 16:35:04 EDT 2019
User: cochatt
Spectrometer: HR+D1059
Trigger mode: 1
Integration Time (sec): 1.000000E-1
Scans to average: 1
Electric dark correction enabled: true
Nonlinearity correction enabled: false
Boxcar width: 0
XAxis mode: Wavelengths
Number of Pixels in Spectrum: 2048
>>>>>Begin Spectral Data<<<<<
223.165	-17.56
223.4	-17.56
223.635	-17.56
223.869	-4.56
224.104	-11.56
224.338	-24.56
224.573	-12.56
224.808	-2.56
225.042	-12.56
225.277	-16.56
225.511	-2.56
225.746	-4.56
225.98	12.44
226.215	15.44
226.449	19.44
226.683	18.44
226.918	13.44
227.152	30.44
227.387	33.44
227.621	25.44
227.856	51.44
228.09	54.44
228.324	44.44
228.559	62.44
228.793	60.44
229.027	88.44
229.262	74.44
229.496	85.44
229.73	84.44
229.964	90.44
230.199	93.44
230.433	87.44
230.667	102.44
230.901	86.44
231.136	106.44
231.37	101.44
231.604	97.44
231.838	87.44
232.072	99.44
232.306	101.44
232.541	102.44
232.775	107.44
233.009	90.44
233.243	121.44
233.477	114.44
233.711	109.44
233.945	121.44
234.179	113.44
234.413	125.44
234.647	118.44
234.881	132.44
235.115	130.44
235.349	125.44
235.583	129.44
235.817	111.44
236.051	122.44
236.285	128.44
236.519	133.44
236.753	142.44
236.987	129.44
237.221	136.44
237.455	135.44
237.689	135.44
237.922	132.44
238.156	141.44
238.39	165.44
238.624	169.44
238.858	154.44
239.091	135.44
239.325	147.44
239.559	135.44
239.793	139.44
240.027	169.44
240.26	155.44
240.494	170.44
240.728	149.44
240.961	172.44
241.195	170.44
241.429	166.44
241.662	153.44
241.896	150.44
242.13	129.44
242.363	127.44
242.597	138.44
242.83	154.44
243.064	138.44
243.298	181.44
243.531	181.44
243.765	173.44
243.998	158.44
244.232	183.44
244.465	172.44
244.699	150.44
244.932	157.44
245.166	173.44
245.399	169.44
245.633	156.44
245.866	160.44
246.099	166.44
246.333	157.44
246.566	183.44
246.8	172.44
247.033	174.44
247.266	174.44
247.5	172.44
247.733	173.44
247.966	155.44
248.2	171.44
248.433	188.44
248.666	190.44
248.899	194.44
249.133	204.44
249.366	203.44
249.599	236.44
249.832	205.44
250.066	195.44
250.299	206.44
250.532	196.44
250.765	187.44
250.998	193.44
251.231	183.44
251.465	190.44
251.698	201.44
251.931	199.44
252.164	177.44
252.397	215.44
252.63	251.44
252.863	245.44
253.096	266.44
253.329	235.44
253.562	243.44
253.795	282.44
254.028	295.44
254.261	299.44
254.494	261.44
254.727	259.44
254.96	240.44
255.193	256.44
255.426	258.44
255.659	190.44
255.892	183.44
256.124	181.44
256.357	237.44
256.59	265.44
256.823	265.44
257.056	217.44
257.289	201.44
257.521	207.44
257.754	253.44
257.987	276.44
258.22	250.44
258.452	220.44
258.685	232.44
258.918	261.44
259.151	277.44
259.383	287.44
259.616	312.44
259.849	315.44
260.081	337.44
260.314	364.44
260.547	272.44
260.779	308.44
261.012	335.44
261.244	329.44
261.477	317.44
261.71	311.44
261.942	270.44
262.175	264.44
262.407	259.44
262.64	270.44
262.872	303.44
263.105	330.44
263.337	346.44
263.57	315.44
263.802	228.44
264.035	195.44
264.267	201.44
264.499	190.44
264.732	161.44
264.964	173.44
265.197	172.44
265.429	168.44
265.661	197.44
265.894	183.44
266.126	195.44
266.358	209.44
266.591	246.44
266.823	296.44
267.055	293.44
267.287	271.44
267.52	270.44
267.752	285.44
267.984	293.44
268.216	277.44
268.448	229.44
268.681	231.44
268.913	268.44
269.145	283.44
269.377	293.44
269.609	258.44
269.841	260.44
270.073	270.44
270.306	290.44
270.538	298.44
270.77	318.44
271.002	288.44
271.234	307.44
271.466	303.44
271.698	307.44
271.93	294.44
272.162	281.44
272.394	285.44
272.626	286.44
272.858	280.44
273.09	274.44
273.322	250.44
273.553	259.44
273.785	272.44
274.017	366.44
274.249	429.44
274.481	443.44
274.713	469.44
274.945	536.44
275.176	556.44
275.408	511.44
275.64	487.44
275.872	462.44
276.104	417.44
276.335	337.44
276.567	371.44
276.799	357.44
277.031	391.44
277.262	310.44
277.494	263.44
277.726	238.44
277.957	257.44
278.189	302.44
278.421	279.44
278.652	277.44
278.884	258.44
279.115	259.44
279.347	242.44
279.579	243.44
279.81	247.44
280.042	238.44
280.273	261.44
280.505	230.44
280.736	221.44
280.968	206.44
281.199	207.44
281.431	261.44
281.662	263.44
281.894	236.44
282.125	257.44
282.356	266.44
282.588	277.44
282.819	232.44
283.051	285.44
283.282	324.44
283.513	366.44
283.745	408.44
283.976	383.44
284.207	370.44
284.439	396.44
284.67	375.44
284.901	341.44
285.132	362.44
285.364	371.44
285.595	340.44
285.826	371.44
286.057	391.44
286.288	357.44
286.52	377.44
286.751	379.44
286.982	380.44
287.213	346.44
287.444	334.44
287.675	346.44
287.906	351.44
288.138	308.44
288.369	281.44
288.6	265.44
288.831	267.44
289.062	315.44
289.293	345.44
289.524	323.44
289.755	310.44
289.986	316.44
290.217	293.44
290.448	247.44
290.679	210.44
290.91	189.44
291.141	206.44
291.371	209.44
291.602	202.44
291.833	215.44
292.064	217.44
292.295	245.44
292.526	279.44
292.757	270.44
292.987	296.44
293.218	318.44
293.449	312.44
293.68	341.44
293.91	304.44
294.141	312.44
294.372	305.44
294.603	267.44
294.833	298.44
295.064	346.44
295.295	332.44
295.525	267.44
295.756	228.44
295.987	215.44
296.217	205.44
296.448	209.44
296.679	226.44
296.909	253.44
297.14	254.44
297.37	275.44
297.601	286.44
297.831	231.44
298.062	262.44
298.292	275.44
298.523	286.44
298.753	336.44
298.984	290.44
299.214	239.44
299.445	222.44
299.675	217.44
299.905	228.44
300.136	202.44
300.366	218.44
300.597	220.44
300.827	216.44
301.057	196.44
301.288	205.44
301.518	217.44
301.748	252.44
301.979	238.44
302.209	261.44
302.439	273.44
302.669	235.44
302.9	214.44
303.13	248.44
303.36	227.44
303.59	217.44
303.82	207.44
304.051	229.44
304.281	246.44
304.511	257.44
304.741	216.44
304.971	231.44
305.201	247.44
305.431	237.44
305.661	226.44
305.891	206.44
306.121	195.44
306.352	194.44
306.582	179.44
306.812	179.44
307.042	162.44
307.272	172.44
307.502	171.44
307.731	184.44
307.961	183.44
308.191	186.44
308.421	173.44
308.651	166.44
308.881	173.44
309.111	190.44
309.341	173.44
309.571	186.44
309.8	188.44
310.03	200.44
310.26	206.44
310.49	194.44
310.72	201.44
310.949	186.44
311.179	184.44
311.409	191.44
311.639	214.44
311.868	236.44
312.098	330.44
312.328	326.44
312.557	357.44
312.787	341.44
313.017	300.44
313.246	300.44
313.476	355.44
313.706	320.44
313.935	252.44
314.165	216.44
314.394	199.44
314.624	195.44
314.853	213.44
315.083	206.44
315.312	194.44
315.542	201.44
315.771	199.44
316.001	184.44
316.23	175.44
316.46	177.44
316.689	183.44
316.919	183.44
317.148	195.44
317.377	185.44
317.607	193.44
317.836	190.44
318.065	217.44
318.295	235.44
318.524	238.44
318.753	204.44
318.983	187.44
319.212	186.44
319.441	185.44
319.67	234.44
319.9	226.44
320.129	225.44
320.358	189.44
320.587	171.44
320.816	192.44
321.046	226.44
321.275	244.44
321.504	230.44
321.733	222.44
321.962	226.44
322.191	215.44
322.42	189.44
322.649	223.44
322.878	233.44
323.108	216.44
323.337	213.44
323.566	220.44
323.795	222.44
324.024	199.44
324.253	189.44
324.482	182.44
324.71	212.44
324.939	212.44
325.168	219.44
325.397	185.44
325.626	195.44
325.855	183.44
326.084	172.44
326.313	185.44
326.542	174.44
326.77	184.44
326.999	179.44
327.228	186.44
327.457	191.44
327.686	184.44
327.914	189.44
328.143	182.44
328.372	179.44
328.6	187.44
328.829	173.44
329.058	190.44
329.287	179.44
329.515	179.44
329.744	169.44
329.972	186.44
330.201	159.44
330.43	175.44
330.658	185.44
330.887	222.44
331.115	196.44
331.344	217.44
331.572	197.44
331.801	183.44
332.03	182.44
332.258	170.44
332.486	188.44
332.715	208.44
332.943	198.44
333.172	201.44
333.4	197.44
333.629	211.44
333.857	205.44
334.085	209.44
334.314	213.44
334.542	207.44
334.771	199.44
334.999	200.44
335.227	205.44
335.455	205.44
335.684	189.44
335.912	218.44
336.14	249.44
336.369	238.44
336.597	236.44
336.825	254.44
337.053	289.44
337.281	225.44
337.51	191.44
337.738	185.44
337.966	198.44
338.194	221.44
338.422	205.44
338.65	186.44
338.878	187.44
339.106	198.44
339.334	210.44
339.562	207.44
339.79	202.44
340.018	196.44
340.246	202.44
340.474	230.44
340.702	203.44
340.93	250.44
341.158	237.44
341.386	209.44
341.614	215.44
341.842	190.44
342.07	204.44
342.298	252.44
342.526	269.44
342.754	221.44
342.981	220.44
343.209	202.44
343.437	212.44
343.665	238.44
343.893	240.44
344.12	247.44
344.348	286.44
344.576	264.44
344.804	206.44
345.031	214.44
345.259	193.44
345.487	192.44
345.714	204.44
345.942	207.44
346.17	213.44
346.397	221.44
346.625	189.44
346.853	195.44
347.08	186.44
347.308	190.44
347.535	211.44
347.763	218.44
347.99	195.44
348.218	177.44
348.445	191.44
348.673	195.44
348.9	194.44
349.128	191.44
349.355	208.44
349.583	194.44
349.81	193.44
350.037	185.44
350.265	167.44
350.492	156.44
350.72	164.44
350.947	175.44
351.174	169.44
351.402	190.44
351.629	181.44
351.856	185.44
352.083	175.44
352.311	193.44
352.538	196.44
352.765	212.44
352.992	208.44
353.22	183.44
353.447	227.44
353.674	198.44
353.901	174.44
354.128	191.44
354.355	187.44
354.583	182.44
354.81	204.44
355.037	199.44
355.264	201.44
355.491	210.44
355.718	213.44
355.945	209.44
356.172	206.44
356.399	193.44
356.626	226.44
356.853	269.44
357.08	296.44
357.307	302.44
357.534	235.44
357.761	234.44
357.988	282.44
358.215	320.44
358.441	309.44
358.668	273.44
358.895	265.44
359.122	222.44
359.349	225.44
359.576	229.44
359.802	195.44
360.029	193.44
360.256	190.44
360.483	233.44
360.709	286.44
360.936	285.44
361.163	258.44
361.39	227.44
361.616	192.44
361.843	206.44
362.07	261.44
362.296	216.44
362.523	181.44
362.749	194.44
362.976	194.44
363.203	222.44
363.429	213.44
363.656	220.44
363.882	183.44
364.109	197.44
364.335	207.44
364.562	182.44
364.788	205.44
365.015	235.44
365.241	209.44
365.468	205.44
365.694	177.44
365.92	186.44
366.147	155.44
366.373	171.44
366.599	169.44
366.826	174.44
367.052	177.44
367.278	180.44
367.505	166.44
367.731	191.44
367.957	209.44
368.184	194.44
368.41	200.44
368.636	201.44
368.862	195.44
369.089	197.44
369.315	171.44
369.541	187.44
369.767	174.44
369.993	163.44
370.219	166.44
370.445	191.44
370.672	204.44
370.898	186.44
371.124	179.44
371.35	199.44
371.576	184.44
371.802	182.44
372.028	203.44
372.254	220.44
372.48	206.44
372.706	194.44
372.932	213.44
373.158	193.44
373.384	234.44
373.61	270.44
373.835	295.44
374.061	241.44
374.287	206.44
374.513	229.44
374.739	297.44
374.965	260.44
375.191	255.44
375.416	214.44
375.642	182.44
375.868	220.44
376.094	237.44
376.319	201.44
376.545	206.44
376.771	225.44
376.997	213.44
377.222	168.44
377.448	155.44
377.674	173.44
377.899	150.44
378.125	155.44
378.35	172.44
378.576	158.44
378.802	179.44
379.027	165.44
379.253	189.44
379.478	184.44
379.704	182.44
379.929	199.44
380.155	205.44
380.38	177.44
380.606	182.44
380.831	213.44
381.057	202.44
381.282	175.44
381.507	218.44
381.733	235.44
381.958	254.44
382.184	267.44
382.409	291.44
382.634	265.44
382.86	263.44
383.085	243.44
383.31	210.44
383.535	231.44
383.761	232.44
383.986	217.44
384.211	255.44
384.436	245.44
384.662	214.44
384.887	197.44
385.112	196.44
385.337	206.44
385.562	196.44
385.787	202.44
386.013	237.44
386.238	227.44
386.463	221.44
386.688	192.44
386.913	197.44
387.138	170.44
387.363	198.44
387.588	197.44
387.813	202.44
388.038	219.44
388.263	202.44
388.488	183.44
388.713	195.44
388.938	248.44
389.163	205.44
389.387	192.44
389.612	186.44
389.837	199.44
390.062	177.44
390.287	190.44
390.512	201.44
390.736	174.44
390.961	170.44
391.186	179.44
391.411	158.44
391.636	177.44
391.86	197.44
392.085	211.44
392.31	211.44
392.534	200.44
392.759	185.44
392.984	200.44
393.208	200.44
393.433	187.44
393.658	192.44
393.882	174.44
394.107	158.44
394.331	170.44
394.556	165.44
394.78	180.44
395.005	176.44
395.229	187.44
395.454	174.44
395.678	187.44
395.903	190.44
396.127	198.44
396.352	199.44
396.576	193.44
396.801	207.44
397.025	213.44
397.249	211.44
397.474	201.44
397.698	182.44
397.922	210.44
398.147	177.44
398.371	189.44
398.595	208.44
398.82	189.44
399.044	206.44
399.268	209.44
399.492	214.44
399.717	231.44
399.941	223.44
400.165	219.44
400.389	205.44
400.613	221.44
400.837	203.44
401.062	193.44
401.286	170.44
401.51	187.44
401.734	193.44
401.958	177.44
402.182	185.44
402.406	172.44
402.63	180.44
402.854	197.44
403.078	214.44
403.302	259.44
403.526	264.44
403.75	254.44
403.974	226.44
404.198	238.44
404.422	245.44
404.645	261.44
404.869	268.44
405.093	227.44
405.317	204.44
405.541	199.44
405.765	211.44
405.988	204.44
406.212	216.44
406.436	228.44
406.66	273.44
406.883	220.44
407.107	223.44
407.331	249.44
407.555	260.44
407.778	221.44
408.002	223.44
408.226	231.44
408.449	228.44
408.673	210.44
408.896	208.44
409.12	190.44
409.344	196.44
409.567	182.44
409.791	195.44
410.014	190.44
410.238	187.44
410.461	191.44
410.685	185.44
410.908	192.44
411.132	192.44
411.355	195.44
411.578	190.44
411.802	177.44
412.025	190.44
412.249	193.44
412.472	211.44
412.695	194.44
412.919	197.44
413.142	198.44
413.365	200.44
413.589	213.44
413.812	197.44
414.035	195.44
414.258	180.44
414.482	217.44
414.705	210.44
414.928	198.44
415.151	177.44
415.374	196.44
415.597	193.44
415.821	184.44
416.044	185.44
416.267	195.44
416.49	193.44
416.713	184.44
416.936	186.44
417.159	186.44
417.382	188.44
417.605	189.44
417.828	201.44
418.051	201.44
418.274	217.44
418.497	202.44
418.72	204.44
418.943	204.44
419.166	213.44
419.389	209.44
419.611	219.44
419.834	198.44
420.057	234.44
420.28	208.44
420.503	200.44
420.726	196.44
420.948	193.44
421.171	174.44
421.394	195.44
421.617	185.44
421.839	179.44
422.062	190.44
422.285	192.44
422.507	209.44
422.73	210.44
422.953	191.44
423.175	177.44
423.398	196.44
423.621	208.44
423.843	222.44
424.066	195.44
424.288	194.44
424.511	189.44
424.733	191.44
424.956	205.44
425.178	201.44
425.401	239.44
425.623	244.44
425.846	207.44
426.068	219.44
426.291	224.44
426.513	218.44
426.735	194.44
426.958	191.44
427.18	217.44
427.402	280.44
427.625	277.44
427.847	211.44
428.069	202.44
428.292	187.44
428.514	201.44
428.736	189.44
428.958	184.44
429.181	229.44
429.403	209.44
429.625	181.44
429.847	174.44
430.069	203.44
430.292	179.44
430.514	174.44
430.736	201.44
430.958	213.44
431.18	212.44
431.402	183.44
431.624	173.44
431.846	165.44
432.068	179.44
432.29	185.44
432.512	199.44
432.734	235.44
432.956	223.44
433.178	183.44
433.4	196.44
433.622	178.44
433.844	190.44
434.066	204.44
434.287	193.44
434.509	200.44
434.731	224.44
434.953	194.44
435.175	209.44
435.397	210.44
435.618	196.44
435.84	183.44
436.062	195.44
436.284	193.44
436.505	168.44
436.727	189.44
436.949	172.44
437.17	178.44
437.392	189.44
437.614	181.44
437.835	180.44
438.057	189.44
438.278	188.44
438.5	231.44
438.721	239.44
438.943	201.44
439.165	188.44
439.386	173.44
439.608	187.44
439.829	177.44
440.05	179.44
440.272	194.44
440.493	202.44
440.715	229.44
440.936	221.44
441.158	185.44
441.379	191.44
441.6	210.44
441.822	192.44
442.043	188.44
442.264	189.44
442.486	189.44
442.707	184.44
442.928	195.44
443.149	199.44
443.371	191.44
443.592	191.44
443.813	182.44
444.034	203.44
444.255	186.44
444.476	206.44
444.698	209.44
444.919	211.44
445.14	310.44
445.361	269.44
445.582	211.44
445.803	198.44
446.024	205.44
446.245	191.44
446.466	214.44
446.687	190.44
446.908	187.44
447.129	190.44
447.35	185.44
447.571	182.44
447.792	161.44
448.013	161.44
448.234	186.44
448.455	183.44
448.675	160.44
448.896	181.44
449.117	178.44
449.338	162.44
449.559	177.44
449.779	180.44
450	189.44
450.221	185.44
450.442	185.44
450.662	170.44
450.883	186.44
451.104	183.44
451.324	179.44
451.545	182.44
451.766	188.44
451.986	183.44
452.207	186.44
452.428	173.44
452.648	167.44
452.869	178.44
453.089	183.44
453.31	170.44
453.53	164.44
453.751	173.44
453.971	175.44
454.192	181.44
454.412	175.44
454.633	168.44
454.853	185.44
455.073	166.44
455.294	172.44
455.514	148.44
455.734	172.44
455.955	170.44
456.175	186.44
456.395	171.44
456.616	157.44
456.836	160.44
457.056	168.44
457.276	140.44
457.497	161.44
457.717	158.44
457.937	162.44
458.157	164.44
458.377	173.44
458.598	162.44
458.818	170.44
459.038	178.44
459.258	173.44
459.478	187.44
459.698	179.44
459.918	202.44
460.138	205.44
460.358	207.44
460.578	187.44
460.798	187.44
461.018	199.44
461.238	189.44
461.458	189.44
461.678	194.44
461.898	207.44
462.118	205.44
462.338	205.44
462.558	200.44
462.777	199.44
462.997	222.44
463.217	211.44
463.437	217.44
463.657	214.44
463.876	200.44
464.096	201.44
464.316	216.44
464.536	207.44
464.755	213.44
464.975	214.44
465.195	207.44
465.414	225.44
465.634	211.44
465.854	201.44
466.073	182.44
466.293	177.44
466.512	181.44
466.732	218.44
466.951	229.44
467.171	210.44
467.391	175.44
467.61	205.44
467.829	206.44
468.049	213.44
468.268	207.44
468.488	191.44
468.707	190.44
468.927	201.44
469.146	223.44
469.365	211.44
469.585	184.44
469.804	193.44
470.023	205.44
470.243	191.44
470.462	199.44
470.681	194.44
470.901	197.44
471.12	190.44
471.339	202.44
471.558	190.44
471.777	187.44
471.997	202.44
472.216	231.44
472.435	219.44
472.654	201.44
472.873	214.44
473.092	225.44
473.311	217.44
473.53	211.44
473.749	182.44
473.968	185.44
474.187	214.44
474.406	203.44
474.625	189.44
474.844	182.44
475.063	208.44
475.282	217.44
475.501	237.44
475.72	244.44
475.939	205.44
476.158	213.44
476.377	250.44
476.596	284.44
476.814	283.44
477.033	250.44
477.252	211.44
477.471	195.44
477.69	210.44
477.908	219.44
478.127	252.44
478.346	220.44
478.564	255.44
478.783	227.44
479.002	221.44
479.22	257.44
479.439	282.44
479.658	229.44
479.876	217.44
480.095	225.44
480.313	241.44
480.532	219.44
480.751	219.44
480.969	226.44
481.188	243.44
481.406	256.44
481.624	246.44
481.843	221.44
482.061	224.44
482.28	229.44
482.498	282.44
482.717	291.44
482.935	238.44
483.153	217.44
483.372	195.44
483.59	225.44
483.808	217.44
484.027	201.44
484.245	217.44
484.463	205.44
484.681	219.44
484.9	221.44
485.118	242.44
485.336	223.44
485.554	215.44
485.772	218.44
485.99	228.44
486.209	232.44
486.427	226.44
486.645	244.44
486.863	243.44
487.081	221.44
487.299	273.44
487.517	285.44
487.735	236.44
487.953	258.44
488.171	261.44
488.389	215.44
488.607	215.44
488.825	217.44
489.043	246.44
489.261	289.44
489.479	290.44
489.696	233.44
489.914	239.44
490.132	214.44
490.35	216.44
490.568	216.44
490.786	224.44
491.003	218.44
491.221	214.44
491.439	208.44
491.657	210.44
491.874	236.44
492.092	280.44
492.31	319.44
492.527	318.44
492.745	292.44
492.963	237.44
493.18	235.44
493.398	251.44
493.615	245.44
493.833	228.44
494.05	230.44
494.268	250.44
494.485	241.44
494.703	217.44
494.92	248.44
495.138	223.44
495.355	227.44
495.573	237.44
495.79	266.44
496.008	324.44
496.225	285.44
496.442	246.44
496.66	257.44
496.877	264.44
497.094	260.44
497.312	237.44
497.529	257.44
497.746	261.44
497.963	253.44
498.181	277.44
498.398	293.44
498.615	320.44
498.832	315.44
499.049	321.44
499.267	305.44
499.484	288.44
499.701	331.44
499.918	354.44
500.135	356.44
500.352	371.44
500.569	393.44
500.786	392.44
501.003	396.44
501.22	363.44
501.437	326.44
501.654	314.44
501.871	283.44
502.088	307.44
502.305	296.44
502.522	295.44
