Data from NickelSpatula_HRD10591_16-34-41-126.txt Node
Date: Mon Jul 22 16:34:41 EDT 2019
User: cochatt
Spectrometer: HR+D1059
Trigger mode: 1
Integration Time (sec): 1.000000E-1
Scans to average: 1
Electric dark correction enabled: true
Nonlinearity correction enabled: false
Boxcar width: 0
XAxis mode: Wavelengths
Number of Pixels in Spectrum: 2048
>>>>>Begin Spectral Data<<<<<
223.165	-11.06
223.4	-11.06
223.635	-11.06
223.869	-23.06
224.104	-19.06
224.338	-8.06
224.573	-11.06
224.808	-10.06
225.042	-6.06
225.277	-21.06
225.511	2.94
225.746	1.94
225.98	5.94
226.215	18.94
226.449	17.94
226.683	15.94
226.918	18.94
227.152	26.94
227.387	28.94
227.621	39.94
227.856	36.94
228.09	44.94
228.324	41.94
228.559	53.94
228.793	48.94
229.027	74.94
229.262	57.94
229.496	68.94
229.73	87.94
229.964	84.94
230.199	87.94
230.433	93.94
230.667	95.94
230.901	96.94
231.136	103.94
231.37	93.94
231.604	96.94
231.838	103.94
232.072	98.94
232.306	97.94
232.541	96.94
232.775	118.94
233.009	112.94
233.243	117.94
233.477	97.94
233.711	122.94
233.945	107.94
234.179	108.94
234.413	122.94
234.647	131.94
234.881	138.94
235.115	126.94
235.349	141.94
235.583	121.94
235.817	128.94
236.051	134.94
236.285	132.94
236.519	132.94
236.753	120.94
236.987	129.94
237.221	129.94
237.455	128.94
237.689	124.94
237.922	135.94
238.156	130.94
238.39	144.94
238.624	176.94
238.858	162.94
239.091	149.94
239.325	150.94
239.559	134.94
239.793	142.94
240.027	167.94
240.26	159.94
240.494	164.94
240.728	152.94
240.961	169.94
241.195	174.94
241.429	166.94
241.662	168.94
241.896	131.94
242.13	126.94
242.363	131.94
242.597	146.94
242.83	140.94
243.064	145.94
243.298	154.94
243.531	170.94
243.765	180.94
243.998	167.94
244.232	162.94
244.465	161.94
244.699	163.94
244.932	169.94
245.166	175.94
245.399	138.94
245.633	155.94
245.866	165.94
246.099	153.94
246.333	174.94
246.566	194.94
246.8	205.94
247.033	192.94
247.266	175.94
247.5	174.94
247.733	155.94
247.966	164.94
248.2	165.94
248.433	195.94
248.666	194.94
248.899	196.94
249.133	199.94
249.366	231.94
249.599	246.94
249.832	233.94
250.066	214.94
250.299	203.94
250.532	210.94
250.765	200.94
250.998	177.94
251.231	171.94
251.465	199.94
251.698	210.94
251.931	190.94
252.164	209.94
252.397	231.94
252.63	239.94
252.863	258.94
253.096	289.94
253.329	264.94
253.562	239.94
253.795	271.94
254.028	300.94
254.261	331.94
254.494	302.94
254.727	267.94
254.96	254.94
255.193	278.94
255.426	274.94
255.659	237.94
255.892	201.94
256.124	226.94
256.357	231.94
256.59	277.94
256.823	260.94
257.056	221.94
257.289	202.94
257.521	218.94
257.754	254.94
257.987	284.94
258.22	270.94
258.452	240.94
258.685	250.94
258.918	279.94
259.151	286.94
259.383	276.94
259.616	320.94
259.849	326.94
260.081	368.94
260.314	363.94
260.547	324.94
260.779	332.94
261.012	372.94
261.244	340.94
261.477	338.94
261.71	335.94
261.942	302.94
262.175	281.94
262.407	266.94
262.64	284.94
262.872	319.94
263.105	339.94
263.337	366.94
263.57	329.94
263.802	240.94
264.035	220.94
264.267	202.94
264.499	187.94
264.732	183.94
264.964	181.94
265.197	184.94
265.429	195.94
265.661	192.94
265.894	211.94
266.126	210.94
266.358	233.94
266.591	270.94
266.823	320.94
267.055	314.94
267.287	289.94
267.52	270.94
267.752	297.94
267.984	320.94
268.216	306.94
268.448	242.94
268.681	262.94
268.913	276.94
269.145	272.94
269.377	298.94
269.609	308.94
269.841	276.94
270.073	285.94
270.306	308.94
270.538	306.94
270.77	318.94
271.002	308.94
271.234	319.94
271.466	336.94
271.698	289.94
271.93	291.94
272.162	297.94
272.394	292.94
272.626	304.94
272.858	306.94
273.09	300.94
273.322	290.94
273.553	262.94
273.785	304.94
274.017	370.94
274.249	483.94
274.481	479.94
274.713	531.94
274.945	590.94
275.176	613.94
275.408	539.94
275.64	520.94
275.872	520.94
276.104	438.94
276.335	379.94
276.567	395.94
276.799	416.94
277.031	430.94
277.262	324.94
277.494	283.94
277.726	271.94
277.957	281.94
278.189	306.94
278.421	322.94
278.652	306.94
278.884	280.94
279.115	275.94
279.347	244.94
279.579	262.94
279.81	258.94
280.042	267.94
280.273	273.94
280.505	257.94
280.736	233.94
280.968	236.94
281.199	253.94
281.431	275.94
281.662	283.94
281.894	260.94
282.125	275.94
282.356	311.94
282.588	288.94
282.819	267.94
283.051	270.94
283.282	325.94
283.513	378.94
283.745	406.94
283.976	424.94
284.207	416.94
284.439	404.94
284.67	380.94
284.901	363.94
285.132	382.94
285.364	424.94
285.595	357.94
285.826	374.94
286.057	398.94
286.288	401.94
286.52	412.94
286.751	417.94
286.982	422.94
287.213	376.94
287.444	351.94
287.675	371.94
287.906	377.94
288.138	310.94
288.369	278.94
288.6	278.94
288.831	280.94
289.062	344.94
289.293	341.94
289.524	338.94
289.755	339.94
289.986	330.94
290.217	304.94
290.448	230.94
290.679	214.94
290.91	208.94
291.141	207.94
291.371	211.94
291.602	232.94
291.833	230.94
292.064	225.94
292.295	261.94
292.526	298.94
292.757	311.94
292.987	328.94
293.218	336.94
293.449	314.94
293.68	336.94
293.91	342.94
294.141	327.94
294.372	323.94
294.603	307.94
294.833	312.94
295.064	384.94
295.295	355.94
295.525	270.94
295.756	244.94
295.987	212.94
296.217	212.94
296.448	232.94
296.679	217.94
296.909	227.94
297.14	273.94
297.37	297.94
297.601	278.94
297.831	240.94
298.062	270.94
298.292	292.94
298.523	299.94
298.753	338.94
298.984	311.94
299.214	260.94
299.445	217.94
299.675	202.94
299.905	207.94
300.136	214.94
300.366	225.94
300.597	234.94
300.827	221.94
301.057	216.94
301.288	214.94
301.518	226.94
301.748	255.94
301.979	274.94
302.209	273.94
302.439	258.94
302.669	262.94
302.9	246.94
303.13	241.94
303.36	241.94
303.59	233.94
303.82	229.94
304.051	241.94
304.281	278.94
304.511	292.94
304.741	238.94
304.971	252.94
305.201	266.94
305.431	270.94
305.661	238.94
305.891	213.94
306.121	220.94
306.352	200.94
306.582	176.94
306.812	186.94
307.042	178.94
307.272	181.94
307.502	199.94
307.731	201.94
307.961	193.94
308.191	183.94
308.421	173.94
308.651	182.94
308.881	175.94
309.111	169.94
309.341	165.94
309.571	189.94
309.8	200.94
310.03	203.94
310.26	216.94
310.49	194.94
310.72	195.94
310.949	177.94
311.179	183.94
311.409	201.94
311.639	210.94
311.868	278.94
312.098	352.94
312.328	391.94
312.557	364.94
312.787	360.94
313.017	331.94
313.246	358.94
313.476	370.94
313.706	328.94
313.935	262.94
314.165	220.94
314.394	212.94
314.624	190.94
314.853	224.94
315.083	220.94
315.312	215.94
315.542	192.94
315.771	188.94
316.001	193.94
316.23	186.94
316.46	178.94
316.689	182.94
316.919	186.94
317.148	194.94
317.377	198.94
317.607	202.94
317.836	197.94
318.065	217.94
318.295	249.94
318.524	227.94
318.753	216.94
318.983	204.94
319.212	180.94
319.441	203.94
319.67	221.94
319.9	224.94
320.129	220.94
320.358	194.94
320.587	188.94
320.816	200.94
321.046	206.94
321.275	247.94
321.504	244.94
321.733	224.94
321.962	241.94
322.191	222.94
322.42	195.94
322.649	226.94
322.878	234.94
323.108	218.94
323.337	228.94
323.566	226.94
323.795	204.94
324.024	216.94
324.253	202.94
324.482	203.94
324.71	218.94
324.939	226.94
325.168	212.94
325.397	179.94
325.626	184.94
325.855	186.94
326.084	197.94
326.313	203.94
326.542	159.94
326.77	190.94
326.999	166.94
327.228	186.94
327.457	217.94
327.686	200.94
327.914	190.94
328.143	188.94
328.372	171.94
328.6	181.94
328.829	180.94
329.058	195.94
329.287	197.94
329.515	182.94
329.744	200.94
329.972	172.94
330.201	180.94
330.43	170.94
330.658	213.94
330.887	201.94
331.115	209.94
331.344	209.94
331.572	188.94
331.801	183.94
332.03	193.94
332.258	186.94
332.486	204.94
332.715	199.94
332.943	200.94
333.172	187.94
333.4	204.94
333.629	207.94
333.857	235.94
334.085	228.94
334.314	240.94
334.542	230.94
334.771	222.94
334.999	196.94
335.227	191.94
335.455	205.94
335.684	207.94
335.912	223.94
336.14	255.94
336.369	255.94
336.597	221.94
336.825	240.94
337.053	299.94
337.281	261.94
337.51	207.94
337.738	201.94
337.966	215.94
338.194	215.94
338.422	225.94
338.65	197.94
338.878	207.94
339.106	180.94
339.334	204.94
339.562	210.94
339.79	196.94
340.018	190.94
340.246	198.94
340.474	235.94
340.702	228.94
340.93	238.94
341.158	248.94
341.386	217.94
341.614	210.94
341.842	215.94
342.07	214.94
342.298	249.94
342.526	258.94
342.754	218.94
342.981	206.94
343.209	215.94
343.437	230.94
343.665	233.94
343.893	238.94
344.12	258.94
344.348	313.94
344.576	290.94
344.804	234.94
345.031	207.94
345.259	199.94
345.487	191.94
345.714	190.94
345.942	213.94
346.17	226.94
346.397	233.94
346.625	199.94
346.853	185.94
347.08	198.94
347.308	193.94
347.535	219.94
347.763	228.94
347.99	193.94
348.218	177.94
348.445	201.94
348.673	216.94
348.9	187.94
349.128	210.94
349.355	208.94
349.583	211.94
349.81	204.94
350.037	194.94
350.265	180.94
350.492	178.94
350.72	151.94
350.947	183.94
351.174	193.94
351.402	178.94
351.629	190.94
351.856	195.94
352.083	194.94
352.311	191.94
352.538	210.94
352.765	221.94
352.992	202.94
353.22	220.94
353.447	209.94
353.674	194.94
353.901	184.94
354.128	199.94
354.355	201.94
354.583	203.94
354.81	210.94
355.037	200.94
355.264	205.94
355.491	198.94
355.718	201.94
355.945	213.94
356.172	188.94
356.399	204.94
356.626	247.94
356.853	270.94
357.08	309.94
357.307	329.94
357.534	271.94
357.761	260.94
357.988	310.94
358.215	348.94
358.441	324.94
358.668	310.94
358.895	276.94
359.122	232.94
359.349	207.94
359.576	245.94
359.802	238.94
360.029	195.94
360.256	190.94
360.483	238.94
360.709	274.94
360.936	303.94
361.163	258.94
361.39	219.94
361.616	186.94
361.843	217.94
362.07	260.94
362.296	249.94
362.523	209.94
362.749	186.94
362.976	171.94
363.203	220.94
363.429	244.94
363.656	207.94
363.882	207.94
364.109	199.94
364.335	199.94
364.562	170.94
364.788	203.94
365.015	231.94
365.241	203.94
365.468	178.94
365.694	179.94
365.92	181.94
366.147	141.94
366.373	158.94
366.599	162.94
366.826	158.94
367.052	164.94
367.278	169.94
367.505	165.94
367.731	181.94
367.957	194.94
368.184	196.94
368.41	207.94
368.636	172.94
368.862	216.94
369.089	199.94
369.315	175.94
369.541	170.94
369.767	171.94
369.993	175.94
370.219	161.94
370.445	174.94
370.672	169.94
370.898	222.94
371.124	206.94
371.35	187.94
371.576	170.94
371.802	187.94
372.028	220.94
372.254	243.94
372.48	223.94
372.706	191.94
372.932	212.94
373.158	212.94
373.384	234.94
373.61	291.94
373.835	293.94
374.061	261.94
374.287	215.94
374.513	254.94
374.739	292.94
374.965	299.94
375.191	282.94
375.416	212.94
375.642	186.94
375.868	222.94
376.094	240.94
376.319	207.94
376.545	226.94
376.771	231.94
376.997	198.94
377.222	179.94
377.448	161.94
377.674	170.94
377.899	169.94
378.125	157.94
378.35	171.94
378.576	170.94
378.802	175.94
379.027	182.94
379.253	191.94
379.478	175.94
379.704	208.94
379.929	207.94
380.155	208.94
380.38	179.94
380.606	193.94
380.831	222.94
381.057	195.94
381.282	195.94
381.507	215.94
381.733	250.94
381.958	268.94
382.184	282.94
382.409	295.94
382.634	277.94
382.86	299.94
383.085	264.94
383.31	218.94
383.535	223.94
383.761	245.94
383.986	221.94
384.211	254.94
384.436	238.94
384.662	199.94
384.887	217.94
385.112	200.94
385.337	202.94
385.562	188.94
385.787	220.94
386.013	238.94
386.238	233.94
386.463	195.94
386.688	200.94
386.913	195.94
387.138	186.94
387.363	181.94
387.588	176.94
387.813	193.94
388.038	209.94
388.263	195.94
388.488	212.94
388.713	214.94
388.938	227.94
389.163	190.94
389.387	180.94
389.612	188.94
389.837	185.94
390.062	185.94
390.287	202.94
390.512	202.94
390.736	180.94
390.961	209.94
391.186	199.94
391.411	174.94
391.636	170.94
391.86	208.94
392.085	217.94
392.31	228.94
392.534	203.94
392.759	191.94
392.984	206.94
393.208	204.94
393.433	184.94
393.658	168.94
393.882	151.94
394.107	169.94
394.331	178.94
394.556	165.94
394.78	191.94
395.005	174.94
395.229	183.94
395.454	173.94
395.678	197.94
395.903	201.94
396.127	166.94
396.352	190.94
396.576	199.94
396.801	203.94
397.025	207.94
397.249	216.94
397.474	201.94
397.698	184.94
397.922	204.94
398.147	185.94
398.371	212.94
398.595	203.94
398.82	199.94
399.044	192.94
399.268	219.94
399.492	220.94
399.717	222.94
399.941	237.94
400.165	222.94
400.389	220.94
400.613	206.94
400.837	214.94
401.062	201.94
401.286	207.94
401.51	188.94
401.734	186.94
401.958	211.94
402.182	195.94
402.406	195.94
402.63	200.94
402.854	221.94
403.078	222.94
403.302	278.94
403.526	291.94
403.75	260.94
403.974	235.94
404.198	213.94
404.422	239.94
404.645	278.94
404.869	276.94
405.093	230.94
405.317	216.94
405.541	217.94
405.765	218.94
405.988	195.94
406.212	229.94
406.436	236.94
406.66	272.94
406.883	240.94
407.107	234.94
407.331	274.94
407.555	267.94
407.778	222.94
408.002	212.94
408.226	221.94
408.449	221.94
408.673	228.94
408.896	193.94
409.12	195.94
409.344	198.94
409.567	177.94
409.791	190.94
410.014	190.94
410.238	198.94
410.461	185.94
410.685	184.94
410.908	188.94
411.132	199.94
411.355	187.94
411.578	194.94
411.802	205.94
412.025	216.94
412.249	200.94
412.472	201.94
412.695	205.94
412.919	197.94
413.142	195.94
413.365	219.94
413.589	215.94
413.812	241.94
414.035	201.94
414.258	195.94
414.482	214.94
414.705	213.94
414.928	196.94
415.151	193.94
415.374	196.94
415.597	195.94
415.821	199.94
416.044	199.94
416.267	186.94
416.49	192.94
416.713	190.94
416.936	180.94
417.159	199.94
417.382	182.94
417.605	177.94
417.828	203.94
418.051	196.94
418.274	204.94
418.497	202.94
418.72	207.94
418.943	206.94
419.166	211.94
419.389	226.94
419.611	201.94
419.834	209.94
420.057	226.94
420.28	216.94
420.503	202.94
420.726	210.94
420.948	186.94
421.171	198.94
421.394	208.94
421.617	200.94
421.839	188.94
422.062	202.94
422.285	191.94
422.507	180.94
422.73	206.94
422.953	207.94
423.175	188.94
423.398	202.94
423.621	215.94
423.843	214.94
424.066	210.94
424.288	214.94
424.511	201.94
424.733	206.94
424.956	200.94
425.178	215.94
425.401	244.94
425.623	276.94
425.846	239.94
426.068	207.94
426.291	233.94
426.513	206.94
426.735	220.94
426.958	209.94
427.18	226.94
427.402	272.94
427.625	278.94
427.847	258.94
428.069	190.94
428.292	190.94
428.514	185.94
428.736	182.94
428.958	189.94
429.181	241.94
429.403	205.94
429.625	200.94
429.847	184.94
430.069	191.94
430.292	204.94
430.514	177.94
430.736	186.94
430.958	231.94
431.18	224.94
431.402	184.94
431.624	172.94
431.846	179.94
432.068	166.94
432.29	176.94
432.512	200.94
432.734	238.94
432.956	218.94
433.178	186.94
433.4	180.94
433.622	186.94
433.844	204.94
434.066	216.94
434.287	200.94
434.509	190.94
434.731	208.94
434.953	202.94
435.175	192.94
435.397	234.94
435.618	193.94
435.84	189.94
436.062	189.94
436.284	178.94
436.505	184.94
436.727	171.94
436.949	176.94
437.17	171.94
437.392	193.94
437.614	177.94
437.835	181.94
438.057	169.94
438.278	184.94
438.5	252.94
438.721	256.94
438.943	194.94
439.165	179.94
439.386	181.94
439.608	185.94
439.829	179.94
440.05	188.94
440.272	188.94
440.493	212.94
440.715	230.94
440.936	211.94
441.158	184.94
441.379	175.94
441.6	203.94
441.822	220.94
442.043	167.94
442.264	186.94
442.486	180.94
442.707	179.94
442.928	181.94
443.149	186.94
443.371	202.94
443.592	181.94
443.813	204.94
444.034	197.94
444.255	187.94
444.476	160.94
444.698	208.94
444.919	191.94
445.14	322.94
445.361	265.94
445.582	210.94
445.803	183.94
446.024	214.94
446.245	201.94
446.466	202.94
446.687	194.94
446.908	195.94
447.129	182.94
447.35	184.94
447.571	180.94
447.792	180.94
448.013	184.94
448.234	177.94
448.455	161.94
448.675	177.94
448.896	182.94
449.117	185.94
449.338	180.94
449.559	186.94
449.779	194.94
450	194.94
450.221	192.94
450.442	177.94
450.662	178.94
450.883	159.94
451.104	172.94
451.324	177.94
451.545	193.94
451.766	156.94
451.986	160.94
452.207	189.94
452.428	178.94
452.648	170.94
452.869	184.94
453.089	183.94
453.31	178.94
453.53	166.94
453.751	160.94
453.971	167.94
454.192	169.94
454.412	171.94
454.633	189.94
454.853	186.94
455.073	167.94
455.294	171.94
455.514	162.94
455.734	165.94
455.955	197.94
456.175	189.94
456.395	143.94
456.616	176.94
456.836	158.94
457.056	146.94
457.276	169.94
457.497	163.94
457.717	162.94
457.937	170.94
458.157	178.94
458.377	172.94
458.598	171.94
458.818	185.94
459.038	180.94
459.258	171.94
459.478	198.94
459.698	190.94
459.918	190.94
460.138	203.94
460.358	201.94
460.578	194.94
460.798	205.94
461.018	187.94
461.238	179.94
461.458	189.94
461.678	207.94
461.898	198.94
462.118	195.94
462.338	214.94
462.558	198.94
462.777	213.94
462.997	219.94
463.217	209.94
463.437	225.94
463.657	208.94
463.876	227.94
464.096	230.94
464.316	209.94
464.536	221.94
464.755	232.94
464.975	259.94
465.195	222.94
465.414	220.94
465.634	209.94
465.854	200.94
466.073	175.94
466.293	175.94
466.512	197.94
466.732	232.94
466.951	222.94
467.171	201.94
467.391	182.94
467.61	185.94
467.829	178.94
468.049	192.94
468.268	172.94
468.488	191.94
468.707	215.94
468.927	219.94
469.146	231.94
469.365	211.94
469.585	208.94
469.804	199.94
470.023	228.94
470.243	210.94
470.462	194.94
470.681	195.94
470.901	218.94
471.12	211.94
471.339	231.94
471.558	209.94
471.777	203.94
471.997	220.94
472.216	238.94
472.435	215.94
472.654	222.94
472.873	210.94
473.092	202.94
473.311	213.94
473.53	209.94
473.749	201.94
473.968	222.94
474.187	214.94
474.406	202.94
474.625	189.94
474.844	195.94
475.063	198.94
475.282	204.94
475.501	230.94
475.72	264.94
475.939	227.94
476.158	220.94
476.377	268.94
476.596	279.94
476.814	304.94
477.033	267.94
477.252	228.94
477.471	196.94
477.69	207.94
477.908	229.94
478.127	244.94
478.346	235.94
478.564	250.94
478.783	229.94
479.002	225.94
479.22	240.94
479.439	276.94
479.658	254.94
479.876	224.94
480.095	243.94
480.313	265.94
480.532	225.94
480.751	222.94
480.969	233.94
481.188	245.94
481.406	230.94
481.624	252.94
481.843	204.94
482.061	215.94
482.28	246.94
482.498	292.94
482.717	286.94
482.935	241.94
483.153	228.94
483.372	228.94
483.59	207.94
483.808	200.94
484.027	222.94
484.245	181.94
484.463	202.94
484.681	229.94
484.9	223.94
485.118	245.94
485.336	214.94
485.554	222.94
485.772	228.94
485.99	243.94
486.209	244.94
486.427	245.94
486.645	244.94
486.863	247.94
487.081	241.94
487.299	283.94
487.517	265.94
487.735	220.94
487.953	257.94
488.171	231.94
488.389	235.94
488.607	207.94
488.825	216.94
489.043	241.94
489.261	282.94
489.479	304.94
489.696	251.94
489.914	245.94
490.132	211.94
490.35	224.94
490.568	229.94
490.786	212.94
491.003	202.94
491.221	222.94
491.439	242.94
491.657	215.94
491.874	222.94
492.092	286.94
492.31	336.94
492.527	329.94
492.745	276.94
492.963	242.94
493.18	235.94
493.398	266.94
493.615	242.94
493.833	246.94
494.05	240.94
494.268	251.94
494.485	238.94
494.703	241.94
494.92	252.94
495.138	223.94
495.355	238.94
495.573	232.94
495.79	288.94
496.008	351.94
496.225	272.94
496.442	263.94
496.66	254.94
496.877	264.94
497.094	279.94
497.312	239.94
497.529	263.94
497.746	240.94
497.963	246.94
498.181	279.94
498.398	313.94
498.615	308.94
498.832	320.94
499.049	330.94
499.267	300.94
499.484	306.94
499.701	320.94
499.918	352.94
500.135	386.94
500.352	416.94
500.569	421.94
500.786	430.94
501.003	410.94
501.22	370.94
501.437	346.94
501.654	352.94
501.871	322.94
502.088	304.94
502.305	274.94
502.522	302.94
502.739	307.94
