Data from NickelSpatula_HRD10591_16-33-24-126.txt Node
Date: Mon Jul 22 16:33:24 EDT 2019
User: cochatt
Spectrometer: HR+D1059
Trigger mode: 1
Integration Time (sec): 1.000000E-1
Scans to average: 1
Electric dark correction enabled: true
Nonlinearity correction enabled: false
Boxcar width: 0
XAxis mode: Wavelengths
Number of Pixels in Spectrum: 2048
>>>>>Begin Spectral Data<<<<<
223.165	-25.88
223.4	-25.88
223.635	-25.88
223.869	-24.88
224.104	-22.88
224.338	-14.88
224.573	-16.88
224.808	-2.88
225.042	-14.88
225.277	7.12
225.511	-8.88
225.746	3.12
225.98	10.12
226.215	12.12
226.449	22.12
226.683	26.12
226.918	28.12
227.152	23.12
227.387	21.12
227.621	38.12
227.856	52.12
228.09	43.12
228.324	55.12
228.559	57.12
228.793	57.12
229.027	79.12
229.262	59.12
229.496	80.12
229.73	87.12
229.964	90.12
230.199	91.12
230.433	96.12
230.667	93.12
230.901	98.12
231.136	92.12
231.37	89.12
231.604	92.12
231.838	109.12
232.072	97.12
232.306	103.12
232.541	105.12
232.775	95.12
233.009	105.12
233.243	93.12
233.477	101.12
233.711	114.12
233.945	114.12
234.179	119.12
234.413	129.12
234.647	133.12
234.881	145.12
235.115	134.12
235.349	120.12
235.583	140.12
235.817	107.12
236.051	102.12
236.285	125.12
236.519	136.12
236.753	147.12
236.987	136.12
237.221	115.12
237.455	125.12
237.689	138.12
237.922	141.12
238.156	139.12
238.39	147.12
238.624	167.12
238.858	159.12
239.091	137.12
239.325	115.12
239.559	137.12
239.793	147.12
240.027	178.12
240.26	164.12
240.494	151.12
240.728	165.12
240.961	159.12
241.195	165.12
241.429	173.12
241.662	149.12
241.896	135.12
242.13	134.12
242.363	114.12
242.597	124.12
242.83	169.12
243.064	155.12
243.298	171.12
243.531	159.12
243.765	166.12
243.998	159.12
244.232	168.12
244.465	166.12
244.699	146.12
244.932	148.12
245.166	172.12
245.399	154.12
245.633	155.12
245.866	152.12
246.099	168.12
246.333	160.12
246.566	182.12
246.8	204.12
247.033	175.12
247.266	177.12
247.5	176.12
247.733	176.12
247.966	158.12
248.2	162.12
248.433	169.12
248.666	196.12
248.899	184.12
249.133	184.12
249.366	231.12
249.599	231.12
249.832	208.12
250.066	193.12
250.299	202.12
250.532	185.12
250.765	180.12
250.998	183.12
251.231	179.12
251.465	184.12
251.698	188.12
251.931	195.12
252.164	215.12
252.397	199.12
252.63	235.12
252.863	261.12
253.096	261.12
253.329	251.12
253.562	241.12
253.795	267.12
254.028	285.12
254.261	288.12
254.494	263.12
254.727	239.12
254.96	241.12
255.193	256.12
255.426	242.12
255.659	212.12
255.892	194.12
256.124	194.12
256.357	229.12
256.59	262.12
256.823	259.12
257.056	223.12
257.289	207.12
257.521	220.12
257.754	259.12
257.987	273.12
258.22	248.12
258.452	228.12
258.685	248.12
258.918	290.12
259.151	251.12
259.383	277.12
259.616	314.12
259.849	317.12
260.081	347.12
260.314	364.12
260.547	309.12
260.779	303.12
261.012	369.12
261.244	339.12
261.477	331.12
261.71	329.12
261.942	275.12
262.175	295.12
262.407	282.12
262.64	291.12
262.872	313.12
263.105	341.12
263.337	359.12
263.57	313.12
263.802	219.12
264.035	219.12
264.267	211.12
264.499	182.12
264.732	180.12
264.964	169.12
265.197	185.12
265.429	184.12
265.661	209.12
265.894	187.12
266.126	220.12
266.358	233.12
266.591	253.12
266.823	318.12
267.055	325.12
267.287	284.12
267.52	271.12
267.752	296.12
267.984	318.12
268.216	312.12
268.448	268.12
268.681	257.12
268.913	258.12
269.145	274.12
269.377	299.12
269.609	291.12
269.841	272.12
270.073	294.12
270.306	323.12
270.538	325.12
270.77	302.12
271.002	312.12
271.234	340.12
271.466	313.12
271.698	322.12
271.93	297.12
272.162	300.12
272.394	295.12
272.626	287.12
272.858	288.12
273.09	303.12
273.322	274.12
273.553	259.12
273.785	266.12
274.017	370.12
274.249	440.12
274.481	450.12
274.713	473.12
274.945	532.12
275.176	572.12
275.408	526.12
275.64	472.12
275.872	482.12
276.104	455.12
276.335	375.12
276.567	374.12
276.799	366.12
277.031	400.12
277.262	332.12
277.494	259.12
277.726	255.12
277.957	268.12
278.189	319.12
278.421	297.12
278.652	301.12
278.884	292.12
279.115	273.12
279.347	267.12
279.579	265.12
279.81	256.12
280.042	262.12
280.273	272.12
280.505	263.12
280.736	241.12
280.968	222.12
281.199	228.12
281.431	244.12
281.662	269.12
281.894	259.12
282.125	280.12
282.356	294.12
282.588	308.12
282.819	259.12
283.051	305.12
283.282	325.12
283.513	376.12
283.745	418.12
283.976	418.12
284.207	396.12
284.439	415.12
284.67	401.12
284.901	361.12
285.132	378.12
285.364	406.12
285.595	355.12
285.826	375.12
286.057	411.12
286.288	399.12
286.52	407.12
286.751	408.12
286.982	405.12
287.213	365.12
287.444	369.12
287.675	380.12
287.906	391.12
288.138	334.12
288.369	279.12
288.6	287.12
288.831	276.12
289.062	353.12
289.293	344.12
289.524	348.12
289.755	321.12
289.986	348.12
290.217	296.12
290.448	264.12
290.679	214.12
290.91	220.12
291.141	214.12
291.371	213.12
291.602	210.12
291.833	219.12
292.064	223.12
292.295	253.12
292.526	297.12
292.757	310.12
292.987	317.12
293.218	324.12
293.449	342.12
293.68	364.12
293.91	340.12
294.141	348.12
294.372	324.12
294.603	304.12
294.833	330.12
295.064	370.12
295.295	376.12
295.525	303.12
295.756	257.12
295.987	203.12
296.217	212.12
296.448	234.12
296.679	240.12
296.909	241.12
297.14	260.12
297.37	291.12
297.601	269.12
297.831	242.12
298.062	264.12
298.292	292.12
298.523	303.12
298.753	336.12
298.984	337.12
299.214	279.12
299.445	234.12
299.675	219.12
299.905	213.12
300.136	218.12
300.366	243.12
300.597	228.12
300.827	217.12
301.057	213.12
301.288	225.12
301.518	242.12
301.748	263.12
301.979	281.12
302.209	269.12
302.439	273.12
302.669	234.12
302.9	244.12
303.13	251.12
303.36	241.12
303.59	224.12
303.82	221.12
304.051	243.12
304.281	294.12
304.511	280.12
304.741	229.12
304.971	251.12
305.201	268.12
305.431	273.12
305.661	240.12
305.891	215.12
306.121	219.12
306.352	205.12
306.582	199.12
306.812	202.12
307.042	198.12
307.272	178.12
307.502	193.12
307.731	199.12
307.961	196.12
308.191	177.12
308.421	187.12
308.651	168.12
308.881	176.12
309.111	184.12
309.341	171.12
309.571	181.12
309.8	211.12
310.03	201.12
310.26	198.12
310.49	204.12
310.72	176.12
310.949	201.12
311.179	197.12
311.409	207.12
311.639	206.12
311.868	274.12
312.098	343.12
312.328	386.12
312.557	343.12
312.787	370.12
313.017	323.12
313.246	349.12
313.476	381.12
313.706	340.12
313.935	267.12
314.165	227.12
314.394	185.12
314.624	213.12
314.853	241.12
315.083	236.12
315.312	192.12
315.542	220.12
315.771	212.12
316.001	185.12
316.23	176.12
316.46	186.12
316.689	179.12
316.919	188.12
317.148	193.12
317.377	196.12
317.607	189.12
317.836	210.12
318.065	225.12
318.295	252.12
318.524	241.12
318.753	206.12
318.983	206.12
319.212	197.12
319.441	196.12
319.67	226.12
319.9	273.12
320.129	239.12
320.358	191.12
320.587	210.12
320.816	217.12
321.046	219.12
321.275	272.12
321.504	265.12
321.733	229.12
321.962	258.12
322.191	235.12
322.42	226.12
322.649	234.12
322.878	260.12
323.108	240.12
323.337	226.12
323.566	227.12
323.795	210.12
324.024	205.12
324.253	204.12
324.482	203.12
324.71	219.12
324.939	231.12
325.168	214.12
325.397	204.12
325.626	194.12
325.855	187.12
326.084	195.12
326.313	193.12
326.542	187.12
326.77	185.12
326.999	187.12
327.228	203.12
327.457	220.12
327.686	223.12
327.914	190.12
328.143	179.12
328.372	184.12
328.6	174.12
328.829	183.12
329.058	192.12
329.287	191.12
329.515	215.12
329.744	190.12
329.972	169.12
330.201	169.12
330.43	192.12
330.658	196.12
330.887	185.12
331.115	209.12
331.344	206.12
331.572	212.12
331.801	197.12
332.03	203.12
332.258	187.12
332.486	210.12
332.715	220.12
332.943	200.12
333.172	197.12
333.4	215.12
333.629	234.12
333.857	243.12
334.085	218.12
334.314	223.12
334.542	228.12
334.771	211.12
334.999	194.12
335.227	192.12
335.455	203.12
335.684	206.12
335.912	247.12
336.14	263.12
336.369	264.12
336.597	252.12
336.825	277.12
337.053	318.12
337.281	269.12
337.51	211.12
337.738	205.12
337.966	209.12
338.194	242.12
338.422	242.12
338.65	212.12
338.878	195.12
339.106	202.12
339.334	213.12
339.562	216.12
339.79	207.12
340.018	210.12
340.246	224.12
340.474	244.12
340.702	251.12
340.93	263.12
341.158	262.12
341.386	222.12
341.614	207.12
341.842	210.12
342.07	223.12
342.298	258.12
342.526	273.12
342.754	223.12
342.981	216.12
343.209	212.12
343.437	244.12
343.665	241.12
343.893	241.12
344.12	279.12
344.348	330.12
344.576	287.12
344.804	224.12
345.031	215.12
345.259	203.12
345.487	194.12
345.714	205.12
345.942	229.12
346.17	251.12
346.397	234.12
346.625	215.12
346.853	208.12
347.08	208.12
347.308	192.12
347.535	227.12
347.763	249.12
347.99	207.12
348.218	207.12
348.445	205.12
348.673	198.12
348.9	202.12
349.128	230.12
349.355	227.12
349.583	208.12
349.81	217.12
350.037	213.12
350.265	186.12
350.492	179.12
350.72	175.12
350.947	183.12
351.174	181.12
351.402	189.12
351.629	208.12
351.856	181.12
352.083	185.12
352.311	204.12
352.538	216.12
352.765	240.12
352.992	228.12
353.22	204.12
353.447	213.12
353.674	210.12
353.901	186.12
354.128	184.12
354.355	187.12
354.583	203.12
354.81	193.12
355.037	237.12
355.264	206.12
355.491	216.12
355.718	232.12
355.945	222.12
356.172	215.12
356.399	216.12
356.626	239.12
356.853	275.12
357.08	314.12
357.307	341.12
357.534	279.12
357.761	261.12
357.988	307.12
358.215	360.12
358.441	330.12
358.668	303.12
358.895	288.12
359.122	235.12
359.349	218.12
359.576	231.12
359.802	229.12
360.029	199.12
360.256	206.12
360.483	245.12
360.709	297.12
360.936	299.12
361.163	278.12
361.39	229.12
361.616	205.12
361.843	223.12
362.07	285.12
362.296	257.12
362.523	201.12
362.749	185.12
362.976	199.12
363.203	229.12
363.429	255.12
363.656	219.12
363.882	195.12
364.109	213.12
364.335	217.12
364.562	187.12
364.788	200.12
365.015	229.12
365.241	230.12
365.468	193.12
365.694	187.12
365.92	175.12
366.147	178.12
366.373	170.12
366.599	169.12
366.826	187.12
367.052	176.12
367.278	173.12
367.505	147.12
367.731	208.12
367.957	204.12
368.184	206.12
368.41	201.12
368.636	192.12
368.862	201.12
369.089	200.12
369.315	187.12
369.541	188.12
369.767	186.12
369.993	193.12
370.219	185.12
370.445	194.12
370.672	224.12
370.898	216.12
371.124	203.12
371.35	192.12
371.576	199.12
371.802	202.12
372.028	215.12
372.254	245.12
372.48	217.12
372.706	212.12
372.932	204.12
373.158	226.12
373.384	256.12
373.61	288.12
373.835	319.12
374.061	250.12
374.287	229.12
374.513	270.12
374.739	291.12
374.965	300.12
375.191	310.12
375.416	228.12
375.642	212.12
375.868	219.12
376.094	237.12
376.319	219.12
376.545	241.12
376.771	255.12
376.997	229.12
377.222	190.12
377.448	180.12
377.674	177.12
377.899	178.12
378.125	165.12
378.35	161.12
378.576	181.12
378.802	181.12
379.027	194.12
379.253	196.12
379.478	192.12
379.704	225.12
379.929	223.12
380.155	209.12
380.38	194.12
380.606	208.12
380.831	239.12
381.057	212.12
381.282	189.12
381.507	217.12
381.733	250.12
381.958	268.12
382.184	275.12
382.409	285.12
382.634	291.12
382.86	318.12
383.085	269.12
383.31	232.12
383.535	245.12
383.761	258.12
383.986	236.12
384.211	263.12
384.436	275.12
384.662	225.12
384.887	192.12
385.112	220.12
385.337	226.12
385.562	213.12
385.787	229.12
386.013	241.12
386.238	244.12
386.463	203.12
386.688	203.12
386.913	182.12
387.138	194.12
387.363	205.12
387.588	205.12
387.813	212.12
388.038	208.12
388.263	201.12
388.488	197.12
388.713	219.12
388.938	244.12
389.163	231.12
389.387	196.12
389.612	207.12
389.837	191.12
390.062	215.12
390.287	202.12
390.512	205.12
390.736	198.12
390.961	189.12
391.186	196.12
391.411	191.12
391.636	188.12
391.86	215.12
392.085	223.12
392.31	216.12
392.534	197.12
392.759	192.12
392.984	210.12
393.208	216.12
393.433	199.12
393.658	200.12
393.882	173.12
394.107	166.12
394.331	169.12
394.556	192.12
394.78	186.12
395.005	190.12
395.229	176.12
395.454	191.12
395.678	192.12
395.903	195.12
396.127	187.12
396.352	195.12
396.576	223.12
396.801	213.12
397.025	243.12
397.249	233.12
397.474	210.12
397.698	193.12
397.922	212.12
398.147	200.12
398.371	180.12
398.595	196.12
398.82	202.12
399.044	186.12
399.268	204.12
399.492	216.12
399.717	232.12
399.941	230.12
400.165	227.12
400.389	205.12
400.613	237.12
400.837	226.12
401.062	192.12
401.286	186.12
401.51	190.12
401.734	199.12
401.958	203.12
402.182	207.12
402.406	202.12
402.63	191.12
402.854	218.12
403.078	212.12
403.302	290.12
403.526	303.12
403.75	289.12
403.974	243.12
404.198	231.12
404.422	250.12
404.645	265.12
404.869	294.12
405.093	236.12
405.317	211.12
405.541	227.12
405.765	218.12
405.988	225.12
406.212	222.12
406.436	253.12
406.66	261.12
406.883	242.12
407.107	241.12
407.331	260.12
407.555	258.12
407.778	233.12
408.002	239.12
408.226	199.12
408.449	227.12
408.673	226.12
408.896	197.12
409.12	211.12
409.344	201.12
409.567	214.12
409.791	195.12
410.014	206.12
410.238	194.12
410.461	203.12
410.685	204.12
410.908	188.12
411.132	197.12
411.355	186.12
411.578	203.12
411.802	196.12
412.025	200.12
412.249	198.12
412.472	217.12
412.695	207.12
412.919	209.12
413.142	222.12
413.365	221.12
413.589	251.12
413.812	229.12
414.035	185.12
414.258	195.12
414.482	223.12
414.705	210.12
414.928	209.12
415.151	199.12
415.374	193.12
415.597	215.12
415.821	210.12
416.044	194.12
416.267	195.12
416.49	192.12
416.713	185.12
416.936	187.12
417.159	176.12
417.382	198.12
417.605	209.12
417.828	203.12
418.051	200.12
418.274	184.12
418.497	198.12
418.72	189.12
418.943	218.12
419.166	212.12
419.389	195.12
419.611	213.12
419.834	222.12
420.057	225.12
420.28	241.12
420.503	214.12
420.726	199.12
420.948	203.12
421.171	194.12
421.394	202.12
421.617	200.12
421.839	187.12
422.062	218.12
422.285	183.12
422.507	202.12
422.73	209.12
422.953	203.12
423.175	205.12
423.398	194.12
423.621	219.12
423.843	245.12
424.066	213.12
424.288	197.12
424.511	195.12
424.733	194.12
424.956	204.12
425.178	228.12
425.401	238.12
425.623	284.12
425.846	258.12
426.068	221.12
426.291	234.12
426.513	220.12
426.735	196.12
426.958	210.12
427.18	225.12
427.402	289.12
427.625	288.12
427.847	249.12
428.069	199.12
428.292	203.12
428.514	208.12
428.736	173.12
428.958	212.12
429.181	242.12
429.403	223.12
429.625	187.12
429.847	180.12
430.069	191.12
430.292	191.12
430.514	194.12
430.736	183.12
430.958	231.12
431.18	220.12
431.402	188.12
431.624	173.12
431.846	179.12
432.068	171.12
432.29	173.12
432.512	184.12
432.734	235.12
432.956	234.12
433.178	202.12
433.4	183.12
433.622	190.12
433.844	199.12
434.066	208.12
434.287	223.12
434.509	198.12
434.731	197.12
434.953	193.12
435.175	202.12
435.397	220.12
435.618	192.12
435.84	186.12
436.062	179.12
436.284	171.12
436.505	179.12
436.727	176.12
436.949	180.12
437.17	182.12
437.392	208.12
437.614	193.12
437.835	179.12
438.057	187.12
438.278	205.12
438.5	263.12
438.721	273.12
438.943	224.12
439.165	172.12
439.386	183.12
439.608	160.12
439.829	176.12
440.05	172.12
440.272	188.12
440.493	189.12
440.715	251.12
440.936	212.12
441.158	193.12
441.379	197.12
441.6	191.12
441.822	226.12
442.043	197.12
442.264	208.12
442.486	208.12
442.707	193.12
442.928	193.12
443.149	201.12
443.371	194.12
443.592	180.12
443.813	204.12
444.034	184.12
444.255	170.12
444.476	211.12
444.698	206.12
444.919	219.12
445.14	299.12
445.361	271.12
445.582	203.12
445.803	209.12
446.024	220.12
446.245	197.12
446.466	217.12
446.687	189.12
446.908	185.12
447.129	195.12
447.35	163.12
447.571	200.12
447.792	183.12
448.013	177.12
448.234	164.12
448.455	182.12
448.675	163.12
448.896	183.12
449.117	171.12
449.338	182.12
449.559	177.12
449.779	199.12
450	196.12
450.221	181.12
450.442	192.12
450.662	187.12
450.883	179.12
451.104	163.12
451.324	167.12
451.545	176.12
451.766	180.12
451.986	187.12
452.207	179.12
452.428	191.12
452.648	183.12
452.869	186.12
453.089	198.12
453.31	181.12
453.53	173.12
453.751	159.12
453.971	171.12
454.192	188.12
454.412	204.12
454.633	179.12
454.853	170.12
455.073	160.12
455.294	163.12
455.514	172.12
455.734	170.12
455.955	179.12
456.175	180.12
456.395	169.12
456.616	163.12
456.836	170.12
457.056	148.12
457.276	152.12
457.497	165.12
457.717	149.12
457.937	161.12
458.157	161.12
458.377	165.12
458.598	151.12
458.818	175.12
459.038	188.12
459.258	186.12
459.478	189.12
459.698	206.12
459.918	215.12
460.138	184.12
460.358	208.12
460.578	211.12
460.798	194.12
461.018	200.12
461.238	191.12
461.458	195.12
461.678	187.12
461.898	196.12
462.118	202.12
462.338	195.12
462.558	208.12
462.777	219.12
462.997	244.12
463.217	213.12
463.437	234.12
463.657	215.12
463.876	221.12
464.096	219.12
464.316	212.12
464.536	206.12
464.755	239.12
464.975	229.12
465.195	215.12
465.414	233.12
465.634	209.12
465.854	212.12
466.073	187.12
466.293	180.12
466.512	207.12
466.732	231.12
466.951	224.12
467.171	196.12
467.391	191.12
467.61	194.12
467.829	182.12
468.049	194.12
468.268	184.12
468.488	183.12
468.707	198.12
468.927	204.12
469.146	240.12
469.365	227.12
469.585	188.12
469.804	212.12
470.023	223.12
470.243	205.12
470.462	191.12
470.681	201.12
470.901	209.12
471.12	201.12
471.339	207.12
471.558	206.12
471.777	193.12
471.997	208.12
472.216	230.12
472.435	224.12
472.654	209.12
472.873	198.12
473.092	207.12
473.311	215.12
473.53	187.12
473.749	201.12
473.968	212.12
474.187	216.12
474.406	195.12
474.625	195.12
474.844	188.12
475.063	211.12
475.282	207.12
475.501	220.12
475.72	269.12
475.939	234.12
476.158	207.12
476.377	257.12
476.596	284.12
476.814	308.12
477.033	271.12
477.252	205.12
477.471	182.12
477.69	208.12
477.908	212.12
478.127	231.12
478.346	223.12
478.564	244.12
478.783	224.12
479.002	211.12
479.22	251.12
479.439	252.12
479.658	237.12
479.876	218.12
480.095	241.12
480.313	253.12
480.532	235.12
480.751	217.12
480.969	218.12
481.188	232.12
481.406	253.12
481.624	246.12
481.843	216.12
482.061	225.12
482.28	240.12
482.498	295.12
482.717	315.12
482.935	237.12
483.153	230.12
483.372	223.12
483.59	211.12
483.808	211.12
484.027	209.12
484.245	218.12
484.463	204.12
484.681	210.12
484.9	221.12
485.118	220.12
485.336	222.12
485.554	190.12
485.772	212.12
485.99	247.12
486.209	232.12
486.427	231.12
486.645	244.12
486.863	287.12
487.081	253.12
487.299	274.12
487.517	277.12
487.735	233.12
487.953	232.12
488.171	256.12
488.389	232.12
488.607	211.12
488.825	226.12
489.043	245.12
489.261	277.12
489.479	298.12
489.696	254.12
489.914	232.12
490.132	211.12
490.35	232.12
490.568	214.12
490.786	213.12
491.003	218.12
491.221	241.12
491.439	223.12
491.657	224.12
491.874	237.12
492.092	284.12
492.31	350.12
492.527	335.12
492.745	263.12
492.963	257.12
493.18	245.12
493.398	231.12
493.615	265.12
493.833	255.12
494.05	241.12
494.268	255.12
494.485	231.12
494.703	223.12
494.92	241.12
495.138	223.12
495.355	225.12
495.573	226.12
495.79	284.12
496.008	351.12
496.225	306.12
496.442	272.12
496.66	257.12
496.877	281.12
497.094	239.12
497.312	261.12
497.529	236.12
497.746	249.12
497.963	267.12
498.181	272.12
498.398	306.12
498.615	306.12
498.832	326.12
499.049	345.12
499.267	302.12
499.484	297.12
499.701	313.12
499.918	377.12
500.135	383.12
500.352	383.12
500.569	425.12
500.786	440.12
501.003	434.12
501.22	375.12
501.437	359.12
501.654	343.12
501.871	317.12
502.088	324.12
502.305	288.12
502.522	300.12
502.739	290.12
