Data from NickelSpatula_HRD10591_16-34-36-126.txt Node
Date: Mon Jul 22 16:34:36 EDT 2019
User: cochatt
Spectrometer: HR+D1059
Trigger mode: 1
Integration Time (sec): 1.000000E-1
Scans to average: 1
Electric dark correction enabled: true
Nonlinearity correction enabled: false
Boxcar width: 0
XAxis mode: Wavelengths
Number of Pixels in Spectrum: 2048
>>>>>Begin Spectral Data<<<<<
223.165	-20.06
223.4	-20.06
223.635	-20.06
223.869	-13.06
224.104	-18.06
224.338	-0.06
224.573	-11.06
224.808	-0.06
225.042	-7.06
225.277	-22.06
225.511	-20.06
225.746	-8.06
225.98	12.94
226.215	21.94
226.449	10.94
226.683	23.94
226.918	25.94
227.152	23.94
227.387	33.94
227.621	50.94
227.856	45.94
228.09	33.94
228.324	45.94
228.559	48.94
228.793	49.94
229.027	74.94
229.262	93.94
229.496	90.94
229.73	74.94
229.964	82.94
230.199	93.94
230.433	82.94
230.667	99.94
230.901	108.94
231.136	104.94
231.37	87.94
231.604	120.94
231.838	112.94
232.072	111.94
232.306	102.94
232.541	106.94
232.775	101.94
233.009	103.94
233.243	94.94
233.477	119.94
233.711	119.94
233.945	114.94
234.179	109.94
234.413	125.94
234.647	128.94
234.881	137.94
235.115	141.94
235.349	127.94
235.583	126.94
235.817	122.94
236.051	127.94
236.285	129.94
236.519	135.94
236.753	143.94
236.987	132.94
237.221	139.94
237.455	144.94
237.689	127.94
237.922	125.94
238.156	143.94
238.39	145.94
238.624	165.94
238.858	161.94
239.091	143.94
239.325	133.94
239.559	138.94
239.793	135.94
240.027	174.94
240.26	146.94
240.494	157.94
240.728	167.94
240.961	173.94
241.195	167.94
241.429	164.94
241.662	163.94
241.896	129.94
242.13	140.94
242.363	142.94
242.597	132.94
242.83	162.94
243.064	149.94
243.298	157.94
243.531	155.94
243.765	170.94
243.998	172.94
244.232	169.94
244.465	149.94
244.699	153.94
244.932	175.94
245.166	177.94
245.399	163.94
245.633	172.94
245.866	142.94
246.099	161.94
246.333	168.94
246.566	195.94
246.8	189.94
247.033	190.94
247.266	171.94
247.5	157.94
247.733	187.94
247.966	159.94
248.2	165.94
248.433	201.94
248.666	197.94
248.899	204.94
249.133	206.94
249.366	214.94
249.599	240.94
249.832	221.94
250.066	207.94
250.299	188.94
250.532	190.94
250.765	184.94
250.998	197.94
251.231	177.94
251.465	199.94
251.698	191.94
251.931	198.94
252.164	200.94
252.397	210.94
252.63	228.94
252.863	252.94
253.096	262.94
253.329	261.94
253.562	258.94
253.795	265.94
254.028	295.94
254.261	301.94
254.494	263.94
254.727	261.94
254.96	269.94
255.193	261.94
255.426	269.94
255.659	203.94
255.892	191.94
256.124	212.94
256.357	234.94
256.59	273.94
256.823	255.94
257.056	233.94
257.289	221.94
257.521	231.94
257.754	237.94
257.987	277.94
258.22	277.94
258.452	219.94
258.685	254.94
258.918	297.94
259.151	269.94
259.383	275.94
259.616	311.94
259.849	327.94
260.081	351.94
260.314	369.94
260.547	282.94
260.779	315.94
261.012	342.94
261.244	339.94
261.477	349.94
261.71	339.94
261.942	282.94
262.175	290.94
262.407	271.94
262.64	296.94
262.872	316.94
263.105	339.94
263.337	356.94
263.57	332.94
263.802	252.94
264.035	225.94
264.267	221.94
264.499	189.94
264.732	166.94
264.964	187.94
265.197	185.94
265.429	185.94
265.661	206.94
265.894	202.94
266.126	221.94
266.358	238.94
266.591	270.94
266.823	338.94
267.055	305.94
267.287	280.94
267.52	279.94
267.752	301.94
267.984	317.94
268.216	299.94
268.448	254.94
268.681	258.94
268.913	284.94
269.145	285.94
269.377	306.94
269.609	290.94
269.841	294.94
270.073	277.94
270.306	324.94
270.538	316.94
270.77	309.94
271.002	322.94
271.234	305.94
271.466	317.94
271.698	312.94
271.93	314.94
272.162	321.94
272.394	307.94
272.626	289.94
272.858	307.94
273.09	308.94
273.322	265.94
273.553	253.94
273.785	300.94
274.017	368.94
274.249	456.94
274.481	482.94
274.713	510.94
274.945	580.94
275.176	596.94
275.408	550.94
275.64	517.94
275.872	513.94
276.104	446.94
276.335	409.94
276.567	386.94
276.799	393.94
277.031	427.94
277.262	327.94
277.494	271.94
277.726	254.94
277.957	282.94
278.189	294.94
278.421	308.94
278.652	302.94
278.884	303.94
279.115	263.94
279.347	261.94
279.579	271.94
279.81	269.94
280.042	277.94
280.273	279.94
280.505	242.94
280.736	232.94
280.968	244.94
281.199	233.94
281.431	285.94
281.662	274.94
281.894	264.94
282.125	281.94
282.356	294.94
282.588	286.94
282.819	266.94
283.051	275.94
283.282	335.94
283.513	385.94
283.745	429.94
283.976	401.94
284.207	414.94
284.439	405.94
284.67	401.94
284.901	351.94
285.132	380.94
285.364	393.94
285.595	344.94
285.826	399.94
286.057	421.94
286.288	387.94
286.52	394.94
286.751	422.94
286.982	419.94
287.213	369.94
287.444	350.94
287.675	371.94
287.906	372.94
288.138	330.94
288.369	297.94
288.6	277.94
288.831	291.94
289.062	318.94
289.293	356.94
289.524	328.94
289.755	333.94
289.986	353.94
290.217	287.94
290.448	234.94
290.679	220.94
290.91	205.94
291.141	217.94
291.371	223.94
291.602	208.94
291.833	213.94
292.064	233.94
292.295	237.94
292.526	289.94
292.757	313.94
292.987	319.94
293.218	329.94
293.449	337.94
293.68	357.94
293.91	329.94
294.141	341.94
294.372	332.94
294.603	304.94
294.833	318.94
295.064	381.94
295.295	357.94
295.525	281.94
295.756	256.94
295.987	234.94
296.217	221.94
296.448	214.94
296.679	229.94
296.909	241.94
297.14	249.94
297.37	291.94
297.601	277.94
297.831	234.94
298.062	259.94
298.292	288.94
298.523	319.94
298.753	344.94
298.984	334.94
299.214	277.94
299.445	237.94
299.675	214.94
299.905	209.94
300.136	227.94
300.366	251.94
300.597	259.94
300.827	229.94
301.057	213.94
301.288	229.94
301.518	235.94
301.748	250.94
301.979	277.94
302.209	277.94
302.439	282.94
302.669	245.94
302.9	263.94
303.13	242.94
303.36	243.94
303.59	221.94
303.82	245.94
304.051	248.94
304.281	310.94
304.511	282.94
304.741	238.94
304.971	257.94
305.201	280.94
305.431	251.94
305.661	245.94
305.891	230.94
306.121	222.94
306.352	203.94
306.582	203.94
306.812	190.94
307.042	193.94
307.272	175.94
307.502	186.94
307.731	183.94
307.961	189.94
308.191	186.94
308.421	185.94
308.651	187.94
308.881	187.94
309.111	182.94
309.341	182.94
309.571	197.94
309.8	200.94
310.03	212.94
310.26	221.94
310.49	221.94
310.72	198.94
310.949	198.94
311.179	204.94
311.409	195.94
311.639	220.94
311.868	271.94
312.098	355.94
312.328	383.94
312.557	339.94
312.787	357.94
313.017	331.94
313.246	350.94
313.476	378.94
313.706	350.94
313.935	277.94
314.165	232.94
314.394	196.94
314.624	197.94
314.853	221.94
315.083	205.94
315.312	225.94
315.542	207.94
315.771	203.94
316.001	172.94
316.23	196.94
316.46	181.94
316.689	174.94
316.919	178.94
317.148	185.94
317.377	197.94
317.607	193.94
317.836	188.94
318.065	220.94
318.295	263.94
318.524	238.94
318.753	204.94
318.983	191.94
319.212	202.94
319.441	217.94
319.67	233.94
319.9	238.94
320.129	239.94
320.358	219.94
320.587	209.94
320.816	206.94
321.046	225.94
321.275	261.94
321.504	255.94
321.733	247.94
321.962	242.94
322.191	241.94
322.42	217.94
322.649	220.94
322.878	242.94
323.108	231.94
323.337	239.94
323.566	222.94
323.795	220.94
324.024	217.94
324.253	212.94
324.482	233.94
324.71	216.94
324.939	225.94
325.168	233.94
325.397	202.94
325.626	203.94
325.855	203.94
326.084	210.94
326.313	195.94
326.542	178.94
326.77	198.94
326.999	199.94
327.228	207.94
327.457	214.94
327.686	212.94
327.914	195.94
328.143	182.94
328.372	169.94
328.6	191.94
328.829	204.94
329.058	194.94
329.287	193.94
329.515	189.94
329.744	177.94
329.972	179.94
330.201	167.94
330.43	184.94
330.658	211.94
330.887	226.94
331.115	191.94
331.344	205.94
331.572	214.94
331.801	214.94
332.03	164.94
332.258	189.94
332.486	197.94
332.715	199.94
332.943	186.94
333.172	199.94
333.4	191.94
333.629	215.94
333.857	229.94
334.085	225.94
334.314	240.94
334.542	218.94
334.771	211.94
334.999	206.94
335.227	223.94
335.455	202.94
335.684	212.94
335.912	230.94
336.14	270.94
336.369	242.94
336.597	250.94
336.825	280.94
337.053	299.94
337.281	263.94
337.51	214.94
337.738	183.94
337.966	219.94
338.194	228.94
338.422	224.94
338.65	216.94
338.878	202.94
339.106	194.94
339.334	219.94
339.562	222.94
339.79	201.94
340.018	197.94
340.246	212.94
340.474	238.94
340.702	253.94
340.93	253.94
341.158	279.94
341.386	228.94
341.614	222.94
341.842	207.94
342.07	226.94
342.298	243.94
342.526	270.94
342.754	236.94
342.981	228.94
343.209	204.94
343.437	233.94
343.665	250.94
343.893	255.94
344.12	273.94
344.348	313.94
344.576	307.94
344.804	249.94
345.031	231.94
345.259	206.94
345.487	210.94
345.714	207.94
345.942	209.94
346.17	249.94
346.397	219.94
346.625	204.94
346.853	201.94
347.08	188.94
347.308	223.94
347.535	255.94
347.763	237.94
347.99	218.94
348.218	197.94
348.445	205.94
348.673	203.94
348.9	194.94
349.128	199.94
349.355	227.94
349.583	217.94
349.81	214.94
350.037	211.94
350.265	183.94
350.492	178.94
350.72	165.94
350.947	171.94
351.174	188.94
351.402	203.94
351.629	196.94
351.856	188.94
352.083	179.94
352.311	194.94
352.538	211.94
352.765	220.94
352.992	207.94
353.22	195.94
353.447	207.94
353.674	205.94
353.901	193.94
354.128	185.94
354.355	226.94
354.583	202.94
354.81	216.94
355.037	220.94
355.264	207.94
355.491	215.94
355.718	231.94
355.945	237.94
356.172	229.94
356.399	212.94
356.626	242.94
356.853	300.94
357.08	335.94
357.307	345.94
357.534	264.94
357.761	276.94
357.988	306.94
358.215	381.94
358.441	355.94
358.668	307.94
358.895	301.94
359.122	231.94
359.349	236.94
359.576	272.94
359.802	227.94
360.029	183.94
360.256	216.94
360.483	251.94
360.709	305.94
360.936	327.94
361.163	285.94
361.39	213.94
361.616	195.94
361.843	229.94
362.07	280.94
362.296	257.94
362.523	205.94
362.749	190.94
362.976	186.94
363.203	217.94
363.429	249.94
363.656	231.94
363.882	214.94
364.109	216.94
364.335	222.94
364.562	192.94
364.788	211.94
365.015	241.94
365.241	233.94
365.468	200.94
365.694	190.94
365.92	181.94
366.147	170.94
366.373	175.94
366.599	171.94
366.826	166.94
367.052	181.94
367.278	182.94
367.505	173.94
367.731	193.94
367.957	214.94
368.184	204.94
368.41	210.94
368.636	203.94
368.862	214.94
369.089	202.94
369.315	197.94
369.541	187.94
369.767	181.94
369.993	183.94
370.219	156.94
370.445	189.94
370.672	195.94
370.898	224.94
371.124	211.94
371.35	216.94
371.576	170.94
371.802	207.94
372.028	225.94
372.254	244.94
372.48	217.94
372.706	210.94
372.932	214.94
373.158	209.94
373.384	247.94
373.61	303.94
373.835	325.94
374.061	259.94
374.287	222.94
374.513	259.94
374.739	284.94
374.965	291.94
375.191	311.94
375.416	221.94
375.642	199.94
375.868	236.94
376.094	266.94
376.319	220.94
376.545	232.94
376.771	250.94
376.997	234.94
377.222	171.94
377.448	174.94
377.674	150.94
377.899	156.94
378.125	169.94
378.35	161.94
378.576	161.94
378.802	173.94
379.027	199.94
379.253	208.94
379.478	190.94
379.704	213.94
379.929	225.94
380.155	221.94
380.38	201.94
380.606	197.94
380.831	231.94
381.057	221.94
381.282	209.94
381.507	225.94
381.733	250.94
381.958	273.94
382.184	289.94
382.409	307.94
382.634	307.94
382.86	322.94
383.085	267.94
383.31	236.94
383.535	219.94
383.761	253.94
383.986	225.94
384.211	268.94
384.436	266.94
384.662	213.94
384.887	193.94
385.112	205.94
385.337	229.94
385.562	193.94
385.787	229.94
386.013	225.94
386.238	226.94
386.463	213.94
386.688	183.94
386.913	212.94
387.138	187.94
387.363	203.94
387.588	208.94
387.813	208.94
388.038	229.94
388.263	202.94
388.488	191.94
388.713	227.94
388.938	224.94
389.163	214.94
389.387	201.94
389.612	198.94
389.837	206.94
390.062	193.94
390.287	212.94
390.512	220.94
390.736	191.94
390.961	199.94
391.186	190.94
391.411	195.94
391.636	189.94
391.86	205.94
392.085	202.94
392.31	210.94
392.534	201.94
392.759	204.94
392.984	206.94
393.208	205.94
393.433	179.94
393.658	169.94
393.882	174.94
394.107	171.94
394.331	173.94
394.556	170.94
394.78	152.94
395.005	190.94
395.229	194.94
395.454	184.94
395.678	208.94
395.903	193.94
396.127	177.94
396.352	197.94
396.576	219.94
396.801	213.94
397.025	245.94
397.249	213.94
397.474	207.94
397.698	184.94
397.922	217.94
398.147	204.94
398.371	184.94
398.595	199.94
398.82	203.94
399.044	227.94
399.268	203.94
399.492	221.94
399.717	206.94
399.941	229.94
400.165	214.94
400.389	204.94
400.613	199.94
400.837	199.94
401.062	198.94
401.286	189.94
401.51	185.94
401.734	198.94
401.958	195.94
402.182	197.94
402.406	186.94
402.63	190.94
402.854	207.94
403.078	238.94
403.302	285.94
403.526	275.94
403.75	285.94
403.974	220.94
404.198	219.94
404.422	241.94
404.645	276.94
404.869	282.94
405.093	239.94
405.317	231.94
405.541	213.94
405.765	221.94
405.988	209.94
406.212	234.94
406.436	243.94
406.66	269.94
406.883	230.94
407.107	238.94
407.331	272.94
407.555	256.94
407.778	228.94
408.002	232.94
408.226	229.94
408.449	236.94
408.673	216.94
408.896	210.94
409.12	181.94
409.344	185.94
409.567	196.94
409.791	201.94
410.014	197.94
410.238	188.94
410.461	185.94
410.685	207.94
410.908	184.94
411.132	220.94
411.355	195.94
411.578	210.94
411.802	193.94
412.025	212.94
412.249	210.94
412.472	200.94
412.695	202.94
412.919	192.94
413.142	202.94
413.365	231.94
413.589	236.94
413.812	197.94
414.035	183.94
414.258	214.94
414.482	212.94
414.705	226.94
414.928	190.94
415.151	180.94
415.374	186.94
415.597	202.94
415.821	182.94
416.044	188.94
416.267	189.94
416.49	183.94
416.713	193.94
416.936	198.94
417.159	195.94
417.382	187.94
417.605	201.94
417.828	206.94
418.051	199.94
418.274	211.94
418.497	190.94
418.72	189.94
418.943	205.94
419.166	206.94
419.389	226.94
419.611	201.94
419.834	202.94
420.057	226.94
420.28	238.94
420.503	219.94
420.726	193.94
420.948	205.94
421.171	194.94
421.394	185.94
421.617	211.94
421.839	198.94
422.062	181.94
422.285	195.94
422.507	192.94
422.73	195.94
422.953	207.94
423.175	203.94
423.398	207.94
423.621	218.94
423.843	235.94
424.066	203.94
424.288	202.94
424.511	196.94
424.733	194.94
424.956	214.94
425.178	229.94
425.401	241.94
425.623	284.94
425.846	233.94
426.068	205.94
426.291	232.94
426.513	226.94
426.735	178.94
426.958	206.94
427.18	231.94
427.402	293.94
427.625	291.94
427.847	254.94
428.069	200.94
428.292	203.94
428.514	184.94
428.736	188.94
428.958	218.94
429.181	231.94
429.403	220.94
429.625	193.94
429.847	193.94
430.069	191.94
430.292	203.94
430.514	182.94
430.736	203.94
430.958	246.94
431.18	216.94
431.402	171.94
431.624	193.94
431.846	178.94
432.068	157.94
432.29	171.94
432.512	177.94
432.734	243.94
432.956	226.94
433.178	189.94
433.4	177.94
433.622	186.94
433.844	198.94
434.066	208.94
434.287	216.94
434.509	194.94
434.731	207.94
434.953	202.94
435.175	206.94
435.397	227.94
435.618	193.94
435.84	180.94
436.062	170.94
436.284	192.94
436.505	187.94
436.727	163.94
436.949	172.94
437.17	177.94
437.392	187.94
437.614	180.94
437.835	199.94
438.057	179.94
438.278	214.94
438.5	243.94
438.721	269.94
438.943	193.94
439.165	173.94
439.386	165.94
439.608	179.94
439.829	164.94
440.05	155.94
440.272	166.94
440.493	208.94
440.715	233.94
440.936	202.94
441.158	189.94
441.379	197.94
441.6	189.94
441.822	222.94
442.043	197.94
442.264	192.94
442.486	198.94
442.707	198.94
442.928	193.94
443.149	196.94
443.371	200.94
443.592	188.94
443.813	194.94
444.034	186.94
444.255	205.94
444.476	207.94
444.698	191.94
444.919	194.94
445.14	325.94
445.361	259.94
445.582	220.94
445.803	209.94
446.024	197.94
446.245	201.94
446.466	222.94
446.687	187.94
446.908	184.94
447.129	179.94
447.35	170.94
447.571	179.94
447.792	179.94
448.013	171.94
448.234	173.94
448.455	165.94
448.675	168.94
448.896	171.94
449.117	179.94
449.338	177.94
449.559	182.94
449.779	196.94
450	185.94
450.221	200.94
450.442	175.94
450.662	190.94
450.883	183.94
451.104	172.94
451.324	165.94
451.545	192.94
451.766	184.94
451.986	169.94
452.207	173.94
452.428	183.94
452.648	154.94
452.869	199.94
453.089	185.94
453.31	192.94
453.53	160.94
453.751	172.94
453.971	169.94
454.192	181.94
454.412	163.94
454.633	175.94
454.853	185.94
455.073	173.94
455.294	157.94
455.514	168.94
455.734	162.94
455.955	175.94
456.175	175.94
456.395	155.94
456.616	152.94
456.836	182.94
457.056	172.94
457.276	153.94
457.497	148.94
457.717	159.94
457.937	171.94
458.157	165.94
458.377	160.94
458.598	160.94
458.818	161.94
459.038	178.94
459.258	197.94
459.478	176.94
459.698	206.94
459.918	170.94
460.138	195.94
460.358	218.94
460.578	186.94
460.798	225.94
461.018	205.94
461.238	179.94
461.458	168.94
461.678	178.94
461.898	200.94
462.118	184.94
462.338	205.94
462.558	209.94
462.777	221.94
462.997	238.94
463.217	220.94
463.437	212.94
463.657	221.94
463.876	206.94
464.096	200.94
464.316	219.94
464.536	237.94
464.755	227.94
464.975	228.94
465.195	215.94
465.414	214.94
465.634	224.94
465.854	213.94
466.073	184.94
466.293	187.94
466.512	197.94
466.732	220.94
466.951	234.94
467.171	201.94
467.391	172.94
467.61	199.94
467.829	180.94
468.049	201.94
468.268	176.94
468.488	188.94
468.707	197.94
468.927	215.94
469.146	236.94
469.365	209.94
469.585	217.94
469.804	206.94
470.023	224.94
470.243	215.94
470.462	195.94
470.681	203.94
470.901	202.94
471.12	194.94
471.339	214.94
471.558	187.94
471.777	192.94
471.997	213.94
472.216	233.94
472.435	240.94
472.654	215.94
472.873	205.94
473.092	204.94
473.311	220.94
473.53	191.94
473.749	191.94
473.968	226.94
474.187	211.94
474.406	217.94
474.625	208.94
474.844	201.94
475.063	213.94
475.282	217.94
475.501	232.94
475.72	241.94
475.939	225.94
476.158	220.94
476.377	257.94
476.596	289.94
476.814	287.94
477.033	252.94
477.252	214.94
477.471	202.94
477.69	217.94
477.908	218.94
478.127	225.94
478.346	225.94
478.564	249.94
478.783	229.94
479.002	227.94
479.22	242.94
479.439	294.94
479.658	231.94
479.876	222.94
480.095	237.94
480.313	246.94
480.532	234.94
480.751	229.94
480.969	237.94
481.188	253.94
481.406	252.94
481.624	220.94
481.843	213.94
482.061	229.94
482.28	230.94
482.498	279.94
482.717	292.94
482.935	232.94
483.153	222.94
483.372	216.94
483.59	197.94
483.808	205.94
484.027	202.94
484.245	193.94
484.463	209.94
484.681	205.94
484.9	219.94
485.118	228.94
485.336	218.94
485.554	211.94
485.772	223.94
485.99	231.94
486.209	245.94
486.427	241.94
486.645	238.94
486.863	244.94
487.081	242.94
487.299	278.94
487.517	262.94
487.735	236.94
487.953	234.94
488.171	254.94
488.389	233.94
488.607	214.94
488.825	224.94
489.043	238.94
489.261	286.94
489.479	297.94
489.696	253.94
489.914	225.94
490.132	219.94
490.35	206.94
490.568	213.94
490.786	224.94
491.003	205.94
491.221	228.94
491.439	213.94
491.657	217.94
491.874	231.94
492.092	272.94
492.31	357.94
492.527	343.94
492.745	291.94
492.963	251.94
493.18	274.94
493.398	263.94
493.615	246.94
493.833	264.94
494.05	237.94
494.268	250.94
494.485	231.94
494.703	245.94
494.92	227.94
495.138	236.94
495.355	241.94
495.573	243.94
495.79	265.94
496.008	363.94
496.225	288.94
496.442	251.94
496.66	256.94
496.877	275.94
497.094	237.94
497.312	252.94
497.529	244.94
497.746	246.94
497.963	252.94
498.181	291.94
498.398	279.94
498.615	314.94
498.832	326.94
499.049	316.94
499.267	286.94
499.484	317.94
499.701	323.94
499.918	335.94
500.135	370.94
500.352	393.94
500.569	390.94
500.786	415.94
501.003	404.94
501.22	357.94
501.437	334.94
501.654	323.94
501.871	307.94
502.088	296.94
502.305	283.94
502.522	285.94
