Data from NickelSpatula.Lamp.E10.P2_HRD10591_11-57-57-530.txt Node
Date: Tue Jul 23 11:57:57 EDT 2019
User: cochatt
Spectrometer: HR+D1059
Trigger mode: 1
Integration Time (sec): 1.000000E-1
Scans to average: 1
Electric dark correction enabled: true
Nonlinearity correction enabled: false
Boxcar width: 0
XAxis mode: Wavelengths
Number of Pixels in Spectrum: 2048
>>>>>Begin Spectral Data<<<<<
223.165	-27.75
223.4	-27.75
223.635	-27.75
223.869	-23.75
224.104	-13.75
224.338	-21.75
224.573	-14.75
224.808	1.25
225.042	-21.75
225.277	7.25
225.511	-2.75
225.746	13.25
225.98	4.25
226.215	15.25
226.449	20.25
226.683	10.25
226.918	32.25
227.152	22.25
227.387	45.25
227.621	37.25
227.856	40.25
228.09	41.25
228.324	53.25
228.559	55.25
228.793	72.25
229.027	142.25
229.262	151.25
229.496	159.25
229.73	180.25
229.964	199.25
230.199	227.25
230.433	207.25
230.667	191.25
230.901	193.25
231.136	200.25
231.37	215.25
231.604	217.25
231.838	241.25
232.072	246.25
232.306	245.25
232.541	249.25
232.775	253.25
233.009	265.25
233.243	294.25
233.477	292.25
233.711	337.25
233.945	314.25
234.179	334.25
234.413	336.25
234.647	382.25
234.881	454.25
235.115	436.25
235.349	394.25
235.583	345.25
235.817	347.25
236.051	358.25
236.285	411.25
236.519	449.25
236.753	419.25
236.987	432.25
237.221	402.25
237.455	409.25
237.689	410.25
237.922	466.25
238.156	475.25
238.39	552.25
238.624	669.25
238.858	582.25
239.091	469.25
239.325	513.25
239.559	465.25
239.793	528.25
240.027	634.25
240.26	587.25
240.494	578.25
240.728	592.25
240.961	673.25
241.195	650.25
241.429	629.25
241.662	600.25
241.896	512.25
242.13	464.25
242.363	447.25
242.597	450.25
242.83	543.25
243.064	535.25
243.298	585.25
243.531	622.25
243.765	635.25
243.998	610.25
244.232	591.25
244.465	595.25
244.699	572.25
244.932	665.25
245.166	616.25
245.399	581.25
245.633	535.25
245.866	581.25
246.099	579.25
246.333	707.25
246.566	767.25
246.8	771.25
247.033	737.25
247.266	686.25
247.5	686.25
247.733	635.25
247.966	643.25
248.2	679.25
248.433	765.25
248.666	853.25
248.899	832.25
249.133	836.25
249.366	1002.25
249.599	1065.25
249.832	949.25
250.066	810.25
250.299	841.25
250.532	817.25
250.765	804.25
250.998	753.25
251.231	706.25
251.465	758.25
251.698	806.25
251.931	788.25
252.164	834.25
252.397	936.25
252.63	1049.25
252.863	1170.25
253.096	1176.25
253.329	1112.25
253.562	1112.25
253.795	1203.25
254.028	1377.25
254.261	1389.25
254.494	1230.25
254.727	1109.25
254.96	1092.25
255.193	1192.25
255.426	1093.25
255.659	854.25
255.892	785.25
256.124	857.25
256.357	1041.25
256.59	1181.25
256.823	1131.25
257.056	937.25
257.289	913.25
257.521	978.25
257.754	1113.25
257.987	1272.25
258.22	1083.25
258.452	1005.25
258.685	1143.25
258.918	1297.25
259.151	1216.25
259.383	1314.25
259.616	1487.25
259.849	1541.25
260.081	1679.25
260.314	1904.25
260.547	1478.25
260.779	1506.25
261.012	1682.25
261.244	1622.25
261.477	1613.25
261.71	1525.25
261.942	1299.25
262.175	1238.25
262.407	1182.25
262.64	1275.25
262.872	1522.25
263.105	1627.25
263.337	1718.25
263.57	1513.25
263.802	1034.25
264.035	863.25
264.267	851.25
264.499	758.25
264.732	675.25
264.964	676.25
265.197	686.25
265.429	742.25
265.661	814.25
265.894	838.25
266.126	889.25
266.358	1030.25
266.591	1217.25
266.823	1494.25
267.055	1379.25
267.287	1231.25
267.52	1215.25
267.752	1326.25
267.984	1449.25
268.216	1366.25
268.448	1134.25
268.681	1100.25
268.913	1235.25
269.145	1279.25
269.377	1261.25
269.609	1292.25
269.841	1225.25
270.073	1304.25
270.306	1377.25
270.538	1378.25
270.77	1391.25
271.002	1391.25
271.234	1473.25
271.466	1542.25
271.698	1409.25
271.93	1403.25
272.162	1378.25
272.394	1383.25
272.626	1358.25
272.858	1433.25
273.09	1467.25
273.322	1290.25
273.553	1269.25
273.785	1483.25
274.017	1941.25
274.249	2391.25
274.481	2507.25
274.713	2757.25
274.945	3074.25
275.176	3231.25
275.408	2894.25
275.64	2569.25
275.872	2600.25
276.104	2135.25
276.335	1854.25
276.567	1887.25
276.799	1951.25
277.031	2066.25
277.262	1591.25
277.494	1248.25
277.726	1180.25
277.957	1313.25
278.189	1467.25
278.421	1453.25
278.652	1453.25
278.884	1345.25
279.115	1265.25
279.347	1189.25
279.579	1183.25
279.81	1151.25
280.042	1156.25
280.273	1223.25
280.505	1140.25
280.736	983.25
280.968	999.25
281.199	1072.25
281.431	1226.25
281.662	1205.25
281.894	1145.25
282.125	1227.25
282.356	1344.25
282.588	1376.25
282.819	1219.25
283.051	1350.25
283.282	1675.25
283.513	1924.25
283.745	2106.25
283.976	2132.25
284.207	2002.25
284.439	2057.25
284.67	1998.25
284.901	1794.25
285.132	1891.25
285.364	1989.25
285.595	1891.25
285.826	1965.25
286.057	2049.25
286.288	1965.25
286.52	1992.25
286.751	2098.25
286.982	2062.25
287.213	1810.25
287.444	1733.25
287.675	1845.25
287.906	1821.25
288.138	1510.25
288.369	1347.25
288.6	1256.25
288.831	1299.25
289.062	1573.25
289.293	1638.25
289.524	1588.25
289.755	1576.25
289.986	1631.25
290.217	1418.25
290.448	1103.25
290.679	957.25
290.91	918.25
291.141	918.25
291.371	952.25
291.602	943.25
291.833	986.25
292.064	1040.25
292.295	1197.25
292.526	1382.25
292.757	1442.25
292.987	1535.25
293.218	1522.25
293.449	1566.25
293.68	1693.25
293.91	1576.25
294.141	1625.25
294.372	1512.25
294.603	1412.25
294.833	1532.25
295.064	1817.25
295.295	1721.25
295.525	1299.25
295.756	1153.25
295.987	977.25
296.217	979.25
296.448	1035.25
296.679	1086.25
296.909	1202.25
297.14	1283.25
297.37	1380.25
297.601	1338.25
297.831	1140.25
298.062	1253.25
298.292	1404.25
298.523	1524.25
298.753	1768.25
298.984	1557.25
299.214	1254.25
299.445	1070.25
299.675	1002.25
299.905	993.25
300.136	1026.25
300.366	1175.25
300.597	1106.25
300.827	986.25
301.057	953.25
301.288	984.25
301.518	1057.25
301.748	1170.25
301.979	1281.25
302.209	1384.25
302.439	1402.25
302.669	1205.25
302.9	1180.25
303.13	1136.25
303.36	1083.25
303.59	1035.25
303.82	1076.25
304.051	1231.25
304.281	1313.25
304.511	1266.25
304.741	1118.25
304.971	1171.25
305.201	1279.25
305.431	1176.25
305.661	1031.25
305.891	1011.25
306.121	1071.25
306.352	941.25
306.582	866.25
306.812	855.25
307.042	847.25
307.272	789.25
307.502	802.25
307.731	866.25
307.961	884.25
308.191	829.25
308.421	799.25
308.651	809.25
308.881	758.25
309.111	774.25
309.341	767.25
309.571	885.25
309.8	929.25
310.03	925.25
310.26	972.25
310.49	944.25
310.72	855.25
310.949	858.25
311.179	873.25
311.409	908.25
311.639	1091.25
311.868	1377.25
312.098	1738.25
312.328	1897.25
312.557	1847.25
312.787	1863.25
313.017	1665.25
313.246	1800.25
313.476	1913.25
313.706	1611.25
313.935	1287.25
314.165	1042.25
314.394	952.25
314.624	938.25
314.853	996.25
315.083	1044.25
315.312	981.25
315.542	991.25
315.771	911.25
316.001	834.25
316.23	829.25
316.46	802.25
316.689	828.25
316.919	862.25
317.148	879.25
317.377	857.25
317.607	849.25
317.836	942.25
318.065	1087.25
318.295	1229.25
318.524	1139.25
318.753	996.25
318.983	913.25
319.212	902.25
319.441	978.25
319.67	1099.25
319.9	1181.25
320.129	1102.25
320.358	960.25
320.587	954.25
320.816	991.25
321.046	1149.25
321.275	1291.25
321.504	1269.25
321.733	1206.25
321.962	1189.25
322.191	1106.25
322.42	1061.25
322.649	1100.25
322.878	1160.25
323.108	1147.25
323.337	1087.25
323.566	1041.25
323.795	1023.25
324.024	1024.25
324.253	951.25
324.482	951.25
324.71	1060.25
324.939	1187.25
325.168	1081.25
325.397	913.25
325.626	898.25
325.855	888.25
326.084	892.25
326.313	901.25
326.542	810.25
326.77	865.25
326.999	886.25
327.228	949.25
327.457	1007.25
327.686	999.25
327.914	847.25
328.143	813.25
328.372	796.25
328.6	843.25
328.829	856.25
329.058	875.25
329.287	885.25
329.515	881.25
329.744	866.25
329.972	826.25
330.201	782.25
330.43	837.25
330.658	918.25
330.887	1044.25
331.115	1025.25
331.344	973.25
331.572	936.25
331.801	895.25
332.03	822.25
332.258	859.25
332.486	915.25
332.715	981.25
332.943	902.25
333.172	913.25
333.4	913.25
333.629	1004.25
333.857	1101.25
334.085	1095.25
334.314	1105.25
334.542	1053.25
334.771	956.25
334.999	919.25
335.227	907.25
335.455	925.25
335.684	1029.25
335.912	1178.25
336.14	1302.25
336.369	1218.25
336.597	1189.25
336.825	1363.25
337.053	1476.25
337.281	1183.25
337.51	970.25
337.738	931.25
337.966	1035.25
338.194	1165.25
338.422	1065.25
338.65	929.25
338.878	862.25
339.106	912.25
339.334	1011.25
339.562	1053.25
339.79	994.25
340.018	943.25
340.246	1031.25
340.474	1150.25
340.702	1244.25
340.93	1284.25
341.158	1299.25
341.386	1113.25
341.614	1077.25
341.842	1061.25
342.07	1144.25
342.298	1268.25
342.526	1371.25
342.754	1149.25
342.981	1067.25
343.209	1020.25
343.437	1110.25
343.665	1184.25
343.893	1125.25
344.12	1369.25
344.348	1559.25
344.576	1392.25
344.804	1171.25
345.031	1013.25
345.259	937.25
345.487	949.25
345.714	1002.25
345.942	1078.25
346.17	1148.25
346.397	1104.25
346.625	971.25
346.853	938.25
347.08	915.25
347.308	1000.25
347.535	1069.25
347.763	1090.25
347.99	946.25
348.218	914.25
348.445	979.25
348.673	959.25
348.9	969.25
349.128	983.25
349.355	1059.25
349.583	1034.25
349.81	970.25
350.037	927.25
350.265	831.25
350.492	786.25
350.72	791.25
350.947	801.25
351.174	883.25
351.402	926.25
351.629	952.25
351.856	922.25
352.083	870.25
352.311	923.25
352.538	1029.25
352.765	1115.25
352.992	1018.25
353.22	966.25
353.447	950.25
353.674	969.25
353.901	910.25
354.128	933.25
354.355	942.25
354.583	972.25
354.81	938.25
355.037	985.25
355.264	981.25
355.491	999.25
355.718	1112.25
355.945	1089.25
356.172	1066.25
356.399	1080.25
356.626	1277.25
356.853	1540.25
357.08	1638.25
357.307	1681.25
357.534	1320.25
357.761	1314.25
357.988	1666.25
358.215	1977.25
358.441	1873.25
358.668	1570.25
358.895	1401.25
359.122	1159.25
359.349	1159.25
359.576	1297.25
359.802	1041.25
360.029	918.25
360.256	1021.25
360.483	1242.25
360.709	1539.25
360.936	1599.25
361.163	1385.25
361.39	1077.25
361.616	1007.25
361.843	1192.25
362.07	1430.25
362.296	1317.25
362.523	1028.25
362.749	911.25
362.976	959.25
363.203	1145.25
363.429	1302.25
363.656	1062.25
363.882	967.25
364.109	938.25
364.335	985.25
364.562	928.25
364.788	1077.25
365.015	1257.25
365.241	1119.25
365.468	915.25
365.694	831.25
365.92	777.25
366.147	770.25
366.373	767.25
366.599	784.25
366.826	786.25
367.052	798.25
367.278	820.25
367.505	774.25
367.731	881.25
367.957	971.25
368.184	1016.25
368.41	955.25
368.636	1001.25
368.862	1010.25
369.089	987.25
369.315	875.25
369.541	865.25
369.767	835.25
369.993	831.25
370.219	835.25
370.445	887.25
370.672	984.25
370.898	1053.25
371.124	1040.25
371.35	913.25
371.576	866.25
371.802	975.25
372.028	1090.25
372.254	1264.25
372.48	1114.25
372.706	986.25
372.932	1075.25
373.158	1098.25
373.384	1335.25
373.61	1750.25
373.835	1775.25
374.061	1286.25
374.287	1109.25
374.513	1331.25
374.739	1608.25
374.965	1630.25
375.191	1603.25
375.416	1121.25
375.642	987.25
375.868	1161.25
376.094	1295.25
376.319	1148.25
376.545	1236.25
376.771	1309.25
376.997	1136.25
377.222	849.25
377.448	743.25
377.674	740.25
377.899	720.25
378.125	729.25
378.35	719.25
378.576	767.25
378.802	837.25
379.027	894.25
379.253	874.25
379.478	905.25
379.704	1009.25
379.929	1063.25
380.155	1033.25
380.38	912.25
380.606	969.25
380.831	1037.25
381.057	977.25
381.282	952.25
381.507	1119.25
381.733	1379.25
381.958	1472.25
382.184	1530.25
382.409	1620.25
382.634	1573.25
382.86	1652.25
383.085	1370.25
383.31	1089.25
383.535	1185.25
383.761	1208.25
383.986	1117.25
384.211	1338.25
384.436	1301.25
384.662	1015.25
384.887	955.25
385.112	978.25
385.337	1015.25
385.562	968.25
385.787	1073.25
386.013	1201.25
386.238	1219.25
386.463	980.25
386.688	972.25
386.913	937.25
387.138	882.25
387.363	943.25
387.588	951.25
387.813	986.25
388.038	1062.25
388.263	955.25
388.488	949.25
388.713	1051.25
388.938	1143.25
389.163	979.25
389.387	892.25
389.612	888.25
389.837	933.25
390.062	919.25
390.287	950.25
390.512	994.25
390.736	913.25
390.961	884.25
391.186	826.25
391.411	827.25
391.636	814.25
391.86	925.25
392.085	967.25
392.31	982.25
392.534	931.25
392.759	890.25
392.984	960.25
393.208	949.25
393.433	857.25
393.658	791.25
393.882	761.25
394.107	788.25
394.331	802.25
394.556	785.25
394.78	764.25
395.005	832.25
395.229	870.25
395.454	884.25
395.678	881.25
395.903	891.25
396.127	834.25
396.352	859.25
396.576	983.25
396.801	965.25
397.025	1073.25
397.249	1094.25
397.474	937.25
397.698	883.25
397.922	947.25
398.147	918.25
398.371	884.25
398.595	939.25
398.82	958.25
399.044	925.25
399.268	1008.25
399.492	1061.25
399.717	1034.25
399.941	1085.25
400.165	1041.25
400.389	1043.25
400.613	1016.25
400.837	1022.25
401.062	915.25
401.286	892.25
401.51	926.25
401.734	905.25
401.958	922.25
402.182	895.25
402.406	886.25
402.63	927.25
402.854	913.25
403.078	1039.25
403.302	1274.25
403.526	1287.25
403.75	1159.25
403.974	1021.25
404.198	1103.25
404.422	1199.25
404.645	1363.25
404.869	1531.25
405.093	1145.25
405.317	996.25
405.541	1010.25
405.765	993.25
405.988	981.25
406.212	1100.25
406.436	1243.25
406.66	1390.25
406.883	1108.25
407.107	1171.25
407.331	1343.25
407.555	1310.25
407.778	1064.25
408.002	998.25
408.226	1054.25
408.449	1050.25
408.673	1012.25
408.896	923.25
409.12	911.25
409.344	894.25
409.567	914.25
409.791	885.25
410.014	872.25
410.238	882.25
410.461	888.25
410.685	898.25
410.908	867.25
411.132	913.25
411.355	929.25
411.578	930.25
411.802	939.25
412.025	971.25
412.249	1000.25
412.472	967.25
412.695	965.25
412.919	942.25
413.142	984.25
413.365	1026.25
413.589	1041.25
413.812	922.25
414.035	871.25
414.258	893.25
414.482	1009.25
414.705	1028.25
414.928	914.25
415.151	875.25
415.374	867.25
415.597	904.25
415.821	899.25
416.044	890.25
416.267	842.25
416.49	890.25
416.713	839.25
416.936	844.25
417.159	872.25
417.382	878.25
417.605	882.25
417.828	903.25
418.051	903.25
418.274	933.25
418.497	933.25
418.72	902.25
418.943	959.25
419.166	982.25
419.389	1017.25
419.611	961.25
419.834	985.25
420.057	1112.25
420.28	1081.25
420.503	978.25
420.726	907.25
420.948	873.25
421.171	895.25
421.394	894.25
421.617	840.25
421.839	882.25
422.062	921.25
422.285	953.25
422.507	937.25
422.73	942.25
422.953	945.25
423.175	925.25
423.398	952.25
423.621	1005.25
423.843	1043.25
424.066	946.25
424.288	922.25
424.511	881.25
424.733	917.25
424.956	936.25
425.178	1040.25
425.401	1205.25
425.623	1341.25
425.846	1133.25
426.068	961.25
426.291	1093.25
426.513	1016.25
426.735	935.25
426.958	1013.25
427.18	1113.25
427.402	1465.25
427.625	1438.25
427.847	1163.25
428.069	870.25
428.292	913.25
428.514	900.25
428.736	847.25
428.958	916.25
429.181	1110.25
429.403	959.25
429.625	871.25
429.847	850.25
430.069	912.25
430.292	903.25
430.514	856.25
430.736	901.25
430.958	1167.25
431.18	1053.25
431.402	815.25
431.624	817.25
431.846	805.25
432.068	785.25
432.29	827.25
432.512	931.25
432.734	1181.25
432.956	1086.25
433.178	861.25
433.4	815.25
433.622	845.25
433.844	851.25
434.066	925.25
434.287	891.25
434.509	874.25
434.731	889.25
434.953	861.25
435.175	920.25
435.397	1045.25
435.618	896.25
435.84	817.25
436.062	799.25
436.284	817.25
436.505	783.25
436.727	772.25
436.949	810.25
437.17	829.25
437.392	827.25
437.614	821.25
437.835	792.25
438.057	814.25
438.278	970.25
438.5	1341.25
438.721	1333.25
438.943	901.25
439.165	817.25
439.386	778.25
439.608	785.25
439.829	757.25
440.05	784.25
440.272	847.25
440.493	996.25
440.715	1194.25
440.936	958.25
441.158	819.25
441.379	838.25
441.6	983.25
441.822	1009.25
442.043	872.25
442.264	883.25
442.486	869.25
442.707	882.25
442.928	843.25
443.149	871.25
443.371	877.25
443.592	901.25
443.813	922.25
444.034	889.25
444.255	896.25
444.476	937.25
444.698	940.25
444.919	947.25
445.14	1018.25
445.361	994.25
445.582	929.25
445.803	933.25
446.024	918.25
446.245	908.25
446.466	884.25
446.687	819.25
446.908	873.25
447.129	831.25
447.35	793.25
447.571	802.25
447.792	800.25
448.013	795.25
448.234	773.25
448.455	773.25
448.675	786.25
448.896	816.25
449.117	777.25
449.338	795.25
449.559	828.25
449.779	861.25
450	846.25
450.221	823.25
450.442	837.25
450.662	810.25
450.883	797.25
451.104	817.25
451.324	801.25
451.545	795.25
451.766	802.25
451.986	789.25
452.207	780.25
452.428	771.25
452.648	762.25
452.869	798.25
453.089	839.25
453.31	824.25
453.53	753.25
453.751	753.25
453.971	710.25
454.192	750.25
454.412	804.25
454.633	745.25
454.853	743.25
455.073	708.25
455.294	722.25
455.514	754.25
455.734	769.25
455.955	807.25
456.175	794.25
456.395	741.25
456.616	705.25
456.836	710.25
457.056	689.25
457.276	713.25
457.497	726.25
457.717	695.25
457.937	719.25
458.157	694.25
458.377	725.25
458.598	715.25
458.818	760.25
459.038	775.25
459.258	809.25
459.478	843.25
459.698	896.25
459.918	887.25
460.138	883.25
460.358	889.25
460.578	866.25
460.798	872.25
461.018	872.25
461.238	848.25
461.458	843.25
461.678	866.25
461.898	938.25
462.118	936.25
462.338	927.25
462.558	923.25
462.777	976.25
462.997	1002.25
463.217	995.25
463.437	1009.25
463.657	978.25
463.876	955.25
464.096	945.25
464.316	950.25
464.536	964.25
464.755	997.25
464.975	1010.25
465.195	951.25
465.414	977.25
465.634	952.25
465.854	908.25
466.073	869.25
466.293	857.25
466.512	918.25
466.732	1021.25
466.951	1041.25
467.171	921.25
467.391	865.25
467.61	847.25
467.829	902.25
468.049	913.25
468.268	892.25
468.488	890.25
468.707	921.25
468.927	1050.25
469.146	1150.25
469.365	1025.25
469.585	949.25
469.804	1009.25
470.023	1121.25
470.243	954.25
470.462	906.25
470.681	875.25
470.901	917.25
471.12	931.25
471.339	970.25
471.558	912.25
471.777	932.25
471.997	1015.25
472.216	1094.25
472.435	1052.25
472.654	970.25
472.873	941.25
473.092	979.25
473.311	1067.25
473.53	939.25
473.749	928.25
473.968	951.25
474.187	953.25
474.406	949.25
474.625	922.25
474.844	951.25
475.063	1041.25
475.282	1009.25
475.501	1073.25
475.72	1115.25
475.939	1085.25
476.158	1115.25
476.377	1273.25
476.596	1418.25
476.814	1503.25
477.033	1250.25
477.252	1047.25
477.471	989.25
477.69	1023.25
477.908	1073.25
478.127	1126.25
478.346	1060.25
478.564	1148.25
478.783	1103.25
479.002	1097.25
479.22	1267.25
479.439	1411.25
479.658	1227.25
479.876	1113.25
480.095	1205.25
480.313	1223.25
480.532	1118.25
480.751	1066.25
480.969	1098.25
481.188	1262.25
481.406	1319.25
481.624	1220.25
481.843	1143.25
482.061	1066.25
482.28	1203.25
482.498	1439.25
482.717	1392.25
482.935	1169.25
483.153	1137.25
483.372	1078.25
483.59	1034.25
483.808	1069.25
484.027	1037.25
484.245	989.25
484.463	979.25
484.681	1029.25
484.9	1077.25
485.118	1165.25
485.336	1074.25
485.554	1025.25
485.772	1077.25
485.99	1176.25
486.209	1206.25
486.427	1248.25
486.645	1205.25
486.863	1235.25
487.081	1213.25
487.299	1347.25
487.517	1308.25
487.735	1239.25
487.953	1211.25
488.171	1286.25
488.389	1154.25
488.607	1095.25
488.825	1146.25
489.043	1241.25
489.261	1407.25
489.479	1535.25
489.696	1253.25
489.914	1173.25
490.132	1079.25
490.35	1109.25
490.568	1109.25
490.786	1114.25
491.003	1136.25
491.221	1151.25
491.439	1117.25
491.657	1115.25
491.874	1220.25
492.092	1450.25
492.31	1739.25
492.527	1696.25
492.745	1531.25
492.963	1309.25
493.18	1283.25
493.398	1311.25
493.615	1295.25
493.833	1249.25
494.05	1200.25
494.268	1237.25
494.485	1238.25
494.703	1187.25
494.92	1211.25
