Data from NickelSpatula.Lamp.E10.P2_HRD10591_11-57-05-534.txt Node
Date: Tue Jul 23 11:57:05 EDT 2019
User: cochatt
Spectrometer: HR+D1059
Trigger mode: 1
Integration Time (sec): 1.000000E-1
Scans to average: 1
Electric dark correction enabled: true
Nonlinearity correction enabled: false
Boxcar width: 0
XAxis mode: Wavelengths
Number of Pixels in Spectrum: 2048
>>>>>Begin Spectral Data<<<<<
223.165	-24.94
223.4	-24.94
223.635	-24.94
223.869	-18.94
224.104	-36.94
224.338	-16.94
224.573	-16.94
224.808	-14.94
225.042	-0.94
225.277	6.06
225.511	-5.94
225.746	2.06
225.98	16.06
226.215	7.06
226.449	17.06
226.683	32.06
226.918	26.06
227.152	30.06
227.387	29.06
227.621	28.06
227.856	51.06
228.09	47.06
228.324	47.06
228.559	54.06
228.793	72.06
229.027	129.06
229.262	151.06
229.496	162.06
229.73	166.06
229.964	168.06
230.199	207.06
230.433	223.06
230.667	205.06
230.901	216.06
231.136	181.06
231.37	198.06
231.604	211.06
231.838	219.06
232.072	239.06
232.306	246.06
232.541	230.06
232.775	240.06
233.009	264.06
233.243	285.06
233.477	315.06
233.711	338.06
233.945	341.06
234.179	321.06
234.413	335.06
234.647	344.06
234.881	413.06
235.115	401.06
235.349	385.06
235.583	345.06
235.817	328.06
236.051	348.06
236.285	394.06
236.519	473.06
236.753	424.06
236.987	402.06
237.221	379.06
237.455	387.06
237.689	419.06
237.922	439.06
238.156	472.06
238.39	521.06
238.624	629.06
238.858	574.06
239.091	471.06
239.325	493.06
239.559	467.06
239.793	530.06
240.027	628.06
240.26	616.06
240.494	559.06
240.728	574.06
240.961	649.06
241.195	608.06
241.429	609.06
241.662	590.06
241.896	503.06
242.13	447.06
242.363	451.06
242.597	475.06
242.83	535.06
243.064	503.06
243.298	561.06
243.531	610.06
243.765	616.06
243.998	611.06
244.232	587.06
244.465	569.06
244.699	558.06
244.932	650.06
245.166	619.06
245.399	543.06
245.633	504.06
245.866	546.06
246.099	595.06
246.333	700.06
246.566	723.06
246.8	735.06
247.033	719.06
247.266	671.06
247.5	656.06
247.733	650.06
247.966	638.06
248.2	640.06
248.433	720.06
248.666	827.06
248.899	808.06
249.133	827.06
249.366	935.06
249.599	993.06
249.832	913.06
250.066	786.06
250.299	799.06
250.532	785.06
250.765	783.06
250.998	736.06
251.231	714.06
251.465	747.06
251.698	794.06
251.931	779.06
252.164	776.06
252.397	883.06
252.63	996.06
252.863	1111.06
253.096	1135.06
253.329	1114.06
253.562	1049.06
253.795	1195.06
254.028	1297.06
254.261	1311.06
254.494	1183.06
254.727	1120.06
254.96	1084.06
255.193	1116.06
255.426	1094.06
255.659	835.06
255.892	775.06
256.124	823.06
256.357	978.06
256.59	1126.06
256.823	1104.06
257.056	933.06
257.289	903.06
257.521	924.06
257.754	1096.06
257.987	1277.06
258.22	1065.06
258.452	988.06
258.685	1095.06
258.918	1204.06
259.151	1197.06
259.383	1235.06
259.616	1471.06
259.849	1507.06
260.081	1651.06
260.314	1802.06
260.547	1441.06
260.779	1427.06
261.012	1674.06
261.244	1600.06
261.477	1531.06
261.71	1477.06
261.942	1236.06
262.175	1231.06
262.407	1141.06
262.64	1279.06
262.872	1461.06
263.105	1553.06
263.337	1659.06
263.57	1453.06
263.802	1014.06
264.035	857.06
264.267	859.06
264.499	754.06
264.732	683.06
264.964	649.06
265.197	683.06
265.429	765.06
265.661	800.06
265.894	823.06
266.126	897.06
266.358	1008.06
266.591	1225.06
266.823	1427.06
267.055	1308.06
267.287	1197.06
267.52	1211.06
267.752	1251.06
267.984	1363.06
268.216	1326.06
268.448	1106.06
268.681	1062.06
268.913	1159.06
269.145	1170.06
269.377	1281.06
269.609	1279.06
269.841	1192.06
270.073	1254.06
270.306	1314.06
270.538	1346.06
270.77	1340.06
271.002	1345.06
271.234	1406.06
271.466	1411.06
271.698	1383.06
271.93	1355.06
272.162	1384.06
272.394	1352.06
272.626	1326.06
272.858	1385.06
273.09	1427.06
273.322	1233.06
273.553	1190.06
273.785	1432.06
274.017	1845.06
274.249	2270.06
274.481	2369.06
274.713	2613.06
274.945	3011.06
275.176	3032.06
275.408	2704.06
275.64	2481.06
275.872	2544.06
276.104	2144.06
276.335	1823.06
276.567	1835.06
276.799	1906.06
277.031	2011.06
277.262	1531.06
277.494	1196.06
277.726	1171.06
277.957	1292.06
278.189	1393.06
278.421	1425.06
278.652	1354.06
278.884	1315.06
279.115	1206.06
279.347	1141.06
279.579	1136.06
279.81	1154.06
280.042	1153.06
280.273	1163.06
280.505	1080.06
280.736	957.06
280.968	1000.06
281.199	1059.06
281.431	1189.06
281.662	1179.06
281.894	1141.06
282.125	1201.06
282.356	1299.06
282.588	1318.06
282.819	1206.06
283.051	1317.06
283.282	1599.06
283.513	1881.06
283.745	2101.06
283.976	2071.06
284.207	1955.06
284.439	1991.06
284.67	1916.06
284.901	1683.06
285.132	1850.06
285.364	1924.06
285.595	1737.06
285.826	1866.06
286.057	1899.06
286.288	1876.06
286.52	1943.06
286.751	1981.06
286.982	2015.06
287.213	1760.06
287.444	1698.06
287.675	1748.06
287.906	1741.06
288.138	1504.06
288.369	1308.06
288.6	1268.06
288.831	1318.06
289.062	1540.06
289.293	1637.06
289.524	1540.06
289.755	1539.06
289.986	1567.06
290.217	1412.06
290.448	1051.06
290.679	942.06
290.91	876.06
291.141	887.06
291.371	950.06
291.602	961.06
291.833	958.06
292.064	1020.06
292.295	1187.06
292.526	1342.06
292.757	1387.06
292.987	1473.06
293.218	1484.06
293.449	1547.06
293.68	1638.06
293.91	1547.06
294.141	1601.06
294.372	1503.06
294.603	1350.06
294.833	1514.06
295.064	1787.06
295.295	1702.06
295.525	1278.06
295.756	1068.06
295.987	950.06
296.217	980.06
296.448	997.06
296.679	1035.06
296.909	1110.06
297.14	1229.06
297.37	1331.06
297.601	1261.06
297.831	1075.06
298.062	1172.06
298.292	1333.06
298.523	1427.06
298.753	1625.06
298.984	1479.06
299.214	1205.06
299.445	1004.06
299.675	945.06
299.905	931.06
300.136	965.06
300.366	1084.06
300.597	1058.06
300.827	918.06
301.057	910.06
301.288	916.06
301.518	995.06
301.748	1134.06
301.979	1221.06
302.209	1294.06
302.439	1288.06
302.669	1123.06
302.9	1117.06
303.13	1099.06
303.36	1032.06
303.59	996.06
303.82	1025.06
304.051	1168.06
304.281	1229.06
304.511	1239.06
304.741	1100.06
304.971	1134.06
305.201	1211.06
305.431	1131.06
305.661	977.06
305.891	967.06
306.121	976.06
306.352	911.06
306.582	830.06
306.812	811.06
307.042	817.06
307.272	785.06
307.502	797.06
307.731	834.06
307.961	862.06
308.191	829.06
308.421	765.06
308.651	781.06
308.881	716.06
309.111	719.06
309.341	766.06
309.571	869.06
309.8	860.06
310.03	860.06
310.26	895.06
310.49	902.06
310.72	820.06
310.949	836.06
311.179	838.06
311.409	876.06
311.639	1011.06
311.868	1317.06
312.098	1712.06
312.328	1827.06
312.557	1730.06
312.787	1782.06
313.017	1537.06
313.246	1715.06
313.476	1851.06
313.706	1512.06
313.935	1248.06
314.165	979.06
314.394	913.06
314.624	928.06
314.853	963.06
315.083	982.06
315.312	968.06
315.542	978.06
315.771	888.06
316.001	814.06
316.23	792.06
316.46	799.06
316.689	813.06
316.919	832.06
317.148	848.06
317.377	839.06
317.607	846.06
317.836	924.06
318.065	1036.06
318.295	1167.06
318.524	1111.06
318.753	933.06
318.983	893.06
319.212	839.06
319.441	933.06
319.67	1064.06
319.9	1128.06
320.129	1068.06
320.358	945.06
320.587	899.06
320.816	933.06
321.046	1075.06
321.275	1195.06
321.504	1199.06
321.733	1162.06
321.962	1095.06
322.191	1055.06
322.42	1008.06
322.649	1034.06
322.878	1103.06
323.108	1143.06
323.337	984.06
323.566	1003.06
323.795	1011.06
324.024	967.06
324.253	937.06
324.482	900.06
324.71	969.06
324.939	1134.06
325.168	1029.06
325.397	903.06
325.626	840.06
325.855	856.06
326.084	882.06
326.313	817.06
326.542	774.06
326.77	832.06
326.999	840.06
327.228	900.06
327.457	897.06
327.686	929.06
327.914	813.06
328.143	796.06
328.372	781.06
328.6	804.06
328.829	821.06
329.058	831.06
329.287	835.06
329.515	856.06
329.744	835.06
329.972	811.06
330.201	785.06
330.43	819.06
330.658	915.06
330.887	973.06
331.115	983.06
331.344	927.06
331.572	910.06
331.801	864.06
332.03	820.06
332.258	852.06
332.486	897.06
332.715	955.06
332.943	889.06
333.172	882.06
333.4	916.06
333.629	981.06
333.857	1033.06
334.085	1071.06
334.314	1081.06
334.542	1004.06
334.771	920.06
334.999	904.06
335.227	905.06
335.455	917.06
335.684	985.06
335.912	1123.06
336.14	1232.06
336.369	1179.06
336.597	1136.06
336.825	1336.06
337.053	1409.06
337.281	1109.06
337.51	936.06
337.738	919.06
337.966	1009.06
338.194	1105.06
338.422	1040.06
338.65	919.06
338.878	837.06
339.106	859.06
339.334	973.06
339.562	1000.06
339.79	909.06
340.018	908.06
340.246	966.06
340.474	1124.06
340.702	1176.06
340.93	1200.06
341.158	1225.06
341.386	1023.06
341.614	1025.06
341.842	1039.06
342.07	1074.06
342.298	1262.06
342.526	1282.06
342.754	1097.06
342.981	990.06
343.209	975.06
343.437	1061.06
343.665	1087.06
343.893	1119.06
344.12	1240.06
344.348	1451.06
344.576	1313.06
344.804	1072.06
345.031	989.06
345.259	941.06
345.487	949.06
345.714	941.06
345.942	1011.06
346.17	1122.06
346.397	1050.06
346.625	906.06
346.853	879.06
347.08	871.06
347.308	947.06
347.535	1036.06
347.763	1075.06
347.99	934.06
348.218	866.06
348.445	943.06
348.673	903.06
348.9	920.06
349.128	979.06
349.355	981.06
349.583	981.06
349.81	913.06
350.037	894.06
350.265	808.06
350.492	764.06
350.72	758.06
350.947	792.06
351.174	812.06
351.402	879.06
351.629	893.06
351.856	831.06
352.083	833.06
352.311	879.06
352.538	955.06
352.765	1042.06
352.992	931.06
353.22	893.06
353.447	911.06
353.674	889.06
353.901	882.06
354.128	866.06
354.355	895.06
354.583	898.06
354.81	911.06
355.037	968.06
355.264	923.06
355.491	988.06
355.718	1046.06
355.945	996.06
356.172	1010.06
356.399	983.06
356.626	1181.06
356.853	1427.06
357.08	1483.06
357.307	1524.06
357.534	1186.06
357.761	1208.06
357.988	1515.06
358.215	1740.06
358.441	1709.06
358.668	1427.06
358.895	1283.06
359.122	1062.06
359.349	1079.06
359.576	1167.06
359.802	990.06
360.029	869.06
360.256	942.06
360.483	1113.06
360.709	1378.06
360.936	1405.06
361.163	1271.06
361.39	1018.06
361.616	962.06
361.843	1077.06
362.07	1320.06
362.296	1216.06
362.523	961.06
362.749	831.06
362.976	877.06
363.203	1072.06
363.429	1161.06
363.656	968.06
363.882	880.06
364.109	927.06
364.335	895.06
364.562	901.06
364.788	980.06
365.015	1148.06
365.241	1047.06
365.468	867.06
365.694	778.06
365.92	783.06
366.147	712.06
366.373	750.06
366.599	776.06
366.826	731.06
367.052	749.06
367.278	799.06
367.505	777.06
367.731	841.06
367.957	930.06
368.184	952.06
368.41	927.06
368.636	931.06
368.862	949.06
369.089	923.06
369.315	832.06
369.541	834.06
369.767	839.06
369.993	793.06
370.219	819.06
370.445	843.06
370.672	919.06
370.898	964.06
371.124	965.06
371.35	868.06
371.576	823.06
371.802	882.06
372.028	1079.06
372.254	1199.06
372.48	983.06
372.706	930.06
372.932	977.06
373.158	982.06
373.384	1189.06
373.61	1568.06
373.835	1594.06
374.061	1222.06
374.287	1067.06
374.513	1201.06
374.739	1422.06
374.965	1451.06
375.191	1485.06
375.416	1049.06
375.642	973.06
375.868	1087.06
376.094	1171.06
376.319	1062.06
376.545	1149.06
376.771	1209.06
376.997	1036.06
377.222	806.06
377.448	731.06
377.674	731.06
377.899	697.06
378.125	731.06
378.35	747.06
378.576	727.06
378.802	799.06
379.027	868.06
379.253	824.06
379.478	854.06
379.704	929.06
379.929	968.06
380.155	965.06
380.38	858.06
380.606	902.06
380.831	992.06
381.057	947.06
381.282	863.06
381.507	1054.06
381.733	1265.06
381.958	1333.06
382.184	1401.06
382.409	1454.06
382.634	1454.06
382.86	1495.06
383.085	1280.06
383.31	1028.06
383.535	1102.06
383.761	1094.06
383.986	1069.06
384.211	1240.06
384.436	1200.06
384.662	962.06
384.887	929.06
385.112	936.06
385.337	980.06
385.562	938.06
385.787	993.06
386.013	1087.06
386.238	1120.06
386.463	953.06
386.688	902.06
386.913	887.06
387.138	855.06
387.363	887.06
387.588	905.06
387.813	908.06
388.038	991.06
388.263	910.06
388.488	894.06
388.713	1014.06
388.938	1084.06
389.163	940.06
389.387	851.06
389.612	860.06
389.837	883.06
390.062	857.06
390.287	907.06
390.512	940.06
390.736	864.06
390.961	849.06
391.186	835.06
391.411	810.06
391.636	809.06
391.86	864.06
392.085	928.06
392.31	956.06
392.534	905.06
392.759	863.06
392.984	916.06
393.208	907.06
393.433	815.06
393.658	763.06
393.882	776.06
394.107	767.06
394.331	767.06
394.556	789.06
394.78	780.06
395.005	816.06
395.229	827.06
395.454	844.06
395.678	831.06
395.903	866.06
396.127	820.06
396.352	828.06
396.576	913.06
396.801	921.06
397.025	1012.06
397.249	1014.06
397.474	897.06
397.698	870.06
397.922	904.06
398.147	859.06
398.371	897.06
398.595	908.06
398.82	880.06
399.044	904.06
399.268	972.06
399.492	988.06
399.717	1033.06
399.941	1065.06
400.165	1005.06
400.389	998.06
400.613	999.06
400.837	983.06
401.062	894.06
401.286	847.06
401.51	859.06
401.734	861.06
401.958	897.06
402.182	885.06
402.406	895.06
402.63	873.06
402.854	920.06
403.078	1023.06
403.302	1205.06
403.526	1247.06
403.75	1119.06
403.974	1019.06
404.198	1040.06
404.422	1120.06
404.645	1294.06
404.869	1421.06
405.093	1112.06
405.317	943.06
405.541	946.06
405.765	950.06
405.988	967.06
406.212	1035.06
406.436	1182.06
406.66	1300.06
406.883	1058.06
407.107	1079.06
407.331	1249.06
407.555	1219.06
407.778	1055.06
408.002	1037.06
408.226	1046.06
408.449	1021.06
408.673	974.06
408.896	902.06
409.12	913.06
409.344	888.06
409.567	880.06
409.791	859.06
410.014	886.06
410.238	860.06
410.461	863.06
410.685	883.06
410.908	893.06
411.132	906.06
411.355	915.06
411.578	924.06
411.802	899.06
412.025	944.06
412.249	928.06
412.472	918.06
412.695	926.06
412.919	915.06
413.142	937.06
413.365	992.06
413.589	992.06
413.812	920.06
414.035	884.06
414.258	907.06
414.482	989.06
414.705	972.06
414.928	904.06
415.151	869.06
415.374	852.06
415.597	860.06
415.821	888.06
416.044	870.06
416.267	874.06
416.49	828.06
416.713	848.06
416.936	831.06
417.159	845.06
417.382	873.06
417.605	866.06
417.828	884.06
418.051	880.06
418.274	893.06
418.497	893.06
418.72	873.06
418.943	903.06
419.166	957.06
419.389	981.06
419.611	975.06
419.834	969.06
420.057	1056.06
420.28	1041.06
420.503	935.06
420.726	881.06
420.948	864.06
421.171	857.06
421.394	862.06
421.617	821.06
421.839	825.06
422.062	888.06
422.285	873.06
422.507	914.06
422.73	899.06
422.953	914.06
423.175	903.06
423.398	891.06
423.621	981.06
423.843	980.06
424.066	935.06
424.288	902.06
424.511	886.06
424.733	884.06
424.956	920.06
425.178	1006.06
425.401	1116.06
425.623	1271.06
425.846	1055.06
426.068	937.06
426.291	1029.06
426.513	965.06
426.735	903.06
426.958	914.06
427.18	1077.06
427.402	1320.06
427.625	1315.06
427.847	1087.06
428.069	871.06
428.292	851.06
428.514	854.06
428.736	827.06
428.958	901.06
429.181	1022.06
429.403	882.06
429.625	841.06
429.847	830.06
430.069	853.06
430.292	887.06
430.514	829.06
430.736	899.06
430.958	1090.06
431.18	1020.06
431.402	848.06
431.624	765.06
431.846	783.06
432.068	779.06
432.29	795.06
432.512	881.06
432.734	1119.06
432.956	1051.06
433.178	852.06
433.4	826.06
433.622	833.06
433.844	862.06
434.066	880.06
434.287	872.06
434.509	847.06
434.731	869.06
434.953	858.06
435.175	898.06
435.397	968.06
435.618	857.06
435.84	811.06
436.062	808.06
436.284	805.06
436.505	795.06
436.727	758.06
436.949	781.06
437.17	831.06
437.392	812.06
437.614	808.06
437.835	791.06
438.057	814.06
438.278	889.06
438.5	1241.06
438.721	1254.06
438.943	881.06
439.165	779.06
439.386	749.06
439.608	762.06
439.829	755.06
440.05	784.06
440.272	829.06
440.493	950.06
440.715	1112.06
440.936	920.06
441.158	834.06
441.379	843.06
441.6	931.06
441.822	941.06
442.043	871.06
442.264	851.06
442.486	873.06
442.707	841.06
442.928	836.06
443.149	867.06
443.371	876.06
443.592	911.06
443.813	911.06
444.034	897.06
444.255	911.06
444.476	935.06
444.698	911.06
444.919	914.06
445.14	988.06
445.361	964.06
445.582	923.06
445.803	923.06
446.024	907.06
446.245	929.06
446.466	889.06
446.687	875.06
446.908	841.06
447.129	811.06
447.35	747.06
447.571	781.06
447.792	759.06
448.013	783.06
448.234	769.06
448.455	767.06
448.675	766.06
448.896	802.06
449.117	773.06
449.338	799.06
449.559	816.06
449.779	841.06
450	827.06
450.221	796.06
450.442	781.06
450.662	777.06
450.883	791.06
451.104	786.06
451.324	755.06
451.545	773.06
451.766	779.06
451.986	759.06
452.207	744.06
452.428	753.06
452.648	737.06
452.869	748.06
453.089	820.06
453.31	772.06
453.53	740.06
453.751	689.06
453.971	717.06
454.192	755.06
454.412	761.06
454.633	752.06
454.853	724.06
455.073	730.06
455.294	697.06
455.514	731.06
455.734	772.06
455.955	791.06
456.175	804.06
456.395	719.06
456.616	712.06
456.836	705.06
457.056	686.06
457.276	698.06
457.497	681.06
457.717	687.06
457.937	699.06
458.157	697.06
458.377	707.06
458.598	764.06
458.818	767.06
459.038	789.06
459.258	805.06
459.478	840.06
459.698	883.06
459.918	902.06
460.138	853.06
460.358	857.06
460.578	837.06
460.798	834.06
461.018	875.06
461.238	815.06
461.458	849.06
461.678	872.06
461.898	907.06
462.118	888.06
462.338	912.06
462.558	950.06
462.777	953.06
462.997	985.06
463.217	987.06
463.437	1029.06
463.657	1004.06
463.876	952.06
464.096	925.06
464.316	940.06
464.536	941.06
464.755	975.06
464.975	956.06
465.195	958.06
465.414	971.06
465.634	923.06
465.854	916.06
466.073	839.06
466.293	859.06
466.512	920.06
466.732	973.06
466.951	1005.06
467.171	892.06
467.391	876.06
467.61	843.06
467.829	903.06
468.049	913.06
468.268	860.06
468.488	858.06
468.707	885.06
468.927	1015.06
469.146	1101.06
469.365	989.06
469.585	937.06
469.804	988.06
470.023	1068.06
470.243	973.06
470.462	901.06
470.681	892.06
470.901	898.06
471.12	930.06
471.339	967.06
471.558	906.06
471.777	911.06
471.997	952.06
472.216	1049.06
472.435	1039.06
472.654	957.06
472.873	945.06
473.092	941.06
473.311	1001.06
473.53	923.06
473.749	899.06
473.968	943.06
474.187	952.06
474.406	894.06
474.625	903.06
474.844	929.06
475.063	1008.06
475.282	1005.06
475.501	1032.06
475.72	1076.06
475.939	1044.06
476.158	1062.06
476.377	1223.06
476.596	1381.06
476.814	1420.06
477.033	1185.06
477.252	1038.06
477.471	983.06
477.69	996.06
477.908	1090.06
478.127	1095.06
478.346	1035.06
478.564	1085.06
478.783	1067.06
479.002	1096.06
479.22	1248.06
479.439	1392.06
479.658	1180.06
479.876	1071.06
480.095	1185.06
480.313	1191.06
480.532	1124.06
480.751	1075.06
480.969	1081.06
481.188	1245.06
481.406	1284.06
481.624	1217.06
481.843	1100.06
482.061	1054.06
482.28	1148.06
482.498	1389.06
482.717	1298.06
482.935	1155.06
483.153	1088.06
483.372	1053.06
483.59	1019.06
483.808	1039.06
484.027	1005.06
484.245	963.06
484.463	971.06
484.681	972.06
484.9	1095.06
485.118	1120.06
485.336	1078.06
485.554	1045.06
485.772	1055.06
485.99	1143.06
486.209	1199.06
486.427	1175.06
486.645	1173.06
486.863	1201.06
487.081	1161.06
487.299	1302.06
487.517	1267.06
487.735	1169.06
487.953	1211.06
488.171	1183.06
488.389	1157.06
488.607	1067.06
488.825	1108.06
489.043	1215.06
489.261	1363.06
489.479	1414.06
489.696	1247.06
489.914	1145.06
490.132	1101.06
490.35	1080.06
490.568	1091.06
490.786	1099.06
491.003	1136.06
491.221	1114.06
491.439	1111.06
491.657	1088.06
491.874	1187.06
492.092	1412.06
492.31	1632.06
492.527	1628.06
492.745	1442.06
492.963	1272.06
493.18	1269.06
493.398	1249.06
493.615	1257.06
493.833	1227.06
494.05	1236.06
494.268	1231.06
494.485	1212.06
494.703	1149.06
494.92	1221.06
495.138	1193.06
495.355	1197.06
495.573	1216.06
495.79	1295.06
