Data from NickelSpatula_HRD10591_16-34-42-125.txt Node
Date: Mon Jul 22 16:34:42 EDT 2019
User: cochatt
Spectrometer: HR+D1059
Trigger mode: 1
Integration Time (sec): 1.000000E-1
Scans to average: 1
Electric dark correction enabled: true
Nonlinearity correction enabled: false
Boxcar width: 0
XAxis mode: Wavelengths
Number of Pixels in Spectrum: 2048
>>>>>Begin Spectral Data<<<<<
223.165	-12.88
223.4	-12.88
223.635	-12.88
223.869	-9.88
224.104	-4.88
224.338	-13.88
224.573	-21.88
224.808	-16.88
225.042	-16.88
225.277	1.12
225.511	0.12
225.746	-1.88
225.98	1.12
226.215	11.12
226.449	13.12
226.683	16.12
226.918	25.12
227.152	31.12
227.387	37.12
227.621	58.12
227.856	42.12
228.09	42.12
228.324	37.12
228.559	57.12
228.793	68.12
229.027	67.12
229.262	74.12
229.496	81.12
229.73	76.12
229.964	92.12
230.199	107.12
230.433	102.12
230.667	99.12
230.901	107.12
231.136	92.12
231.37	99.12
231.604	100.12
231.838	103.12
232.072	99.12
232.306	111.12
232.541	113.12
232.775	110.12
233.009	97.12
233.243	115.12
233.477	142.12
233.711	126.12
233.945	137.12
234.179	114.12
234.413	126.12
234.647	133.12
234.881	138.12
235.115	135.12
235.349	131.12
235.583	131.12
235.817	132.12
236.051	131.12
236.285	155.12
236.519	147.12
236.753	158.12
236.987	154.12
237.221	138.12
237.455	150.12
237.689	142.12
237.922	141.12
238.156	134.12
238.39	177.12
238.624	182.12
238.858	181.12
239.091	150.12
239.325	162.12
239.559	145.12
239.793	148.12
240.027	187.12
240.26	173.12
240.494	159.12
240.728	189.12
240.961	195.12
241.195	186.12
241.429	182.12
241.662	169.12
241.896	152.12
242.13	127.12
242.363	155.12
242.597	162.12
242.83	165.12
243.064	163.12
243.298	168.12
243.531	188.12
243.765	174.12
243.998	173.12
244.232	174.12
244.465	179.12
244.699	179.12
244.932	172.12
245.166	182.12
245.399	155.12
245.633	155.12
245.866	186.12
246.099	181.12
246.333	185.12
246.566	205.12
246.8	191.12
247.033	190.12
247.266	196.12
247.5	193.12
247.733	172.12
247.966	178.12
248.2	191.12
248.433	193.12
248.666	205.12
248.899	209.12
249.133	209.12
249.366	263.12
249.599	248.12
249.832	241.12
250.066	228.12
250.299	238.12
250.532	218.12
250.765	200.12
250.998	199.12
251.231	195.12
251.465	197.12
251.698	203.12
251.931	220.12
252.164	231.12
252.397	244.12
252.63	261.12
252.863	279.12
253.096	282.12
253.329	282.12
253.562	274.12
253.795	313.12
254.028	307.12
254.261	340.12
254.494	310.12
254.727	267.12
254.96	274.12
255.193	306.12
255.426	285.12
255.659	228.12
255.892	215.12
256.124	222.12
256.357	244.12
256.59	296.12
256.823	282.12
257.056	237.12
257.289	232.12
257.521	238.12
257.754	281.12
257.987	326.12
258.22	275.12
258.452	233.12
258.685	276.12
258.918	302.12
259.151	323.12
259.383	314.12
259.616	369.12
259.849	376.12
260.081	387.12
260.314	407.12
260.547	316.12
260.779	347.12
261.012	400.12
261.244	376.12
261.477	367.12
261.71	333.12
261.942	307.12
262.175	303.12
262.407	306.12
262.64	302.12
262.872	334.12
263.105	375.12
263.337	395.12
263.57	349.12
263.802	265.12
264.035	227.12
264.267	239.12
264.499	207.12
264.732	179.12
264.964	178.12
265.197	189.12
265.429	187.12
265.661	192.12
265.894	214.12
266.126	227.12
266.358	228.12
266.591	279.12
266.823	341.12
267.055	329.12
267.287	304.12
267.52	299.12
267.752	321.12
267.984	324.12
268.216	316.12
268.448	273.12
268.681	258.12
268.913	299.12
269.145	307.12
269.377	325.12
269.609	301.12
269.841	302.12
270.073	310.12
270.306	331.12
270.538	335.12
270.77	337.12
271.002	340.12
271.234	354.12
271.466	361.12
271.698	331.12
271.93	327.12
272.162	333.12
272.394	317.12
272.626	301.12
272.858	327.12
273.09	326.12
273.322	291.12
273.553	297.12
273.785	333.12
274.017	422.12
274.249	510.12
274.481	519.12
274.713	577.12
274.945	622.12
275.176	661.12
275.408	627.12
275.64	557.12
275.872	555.12
276.104	492.12
276.335	458.12
276.567	429.12
276.799	435.12
277.031	461.12
277.262	385.12
277.494	303.12
277.726	260.12
277.957	296.12
278.189	338.12
278.421	318.12
278.652	317.12
278.884	314.12
279.115	298.12
279.347	277.12
279.579	280.12
279.81	289.12
280.042	290.12
280.273	296.12
280.505	283.12
280.736	249.12
280.968	236.12
281.199	250.12
281.431	280.12
281.662	273.12
281.894	270.12
282.125	289.12
282.356	303.12
282.588	309.12
282.819	281.12
283.051	311.12
283.282	365.12
283.513	416.12
283.745	461.12
283.976	460.12
284.207	428.12
284.439	447.12
284.67	436.12
284.901	390.12
285.132	395.12
285.364	434.12
285.595	424.12
285.826	421.12
286.057	446.12
286.288	414.12
286.52	409.12
286.751	451.12
286.982	443.12
287.213	392.12
287.444	383.12
287.675	415.12
287.906	395.12
288.138	353.12
288.369	313.12
288.6	295.12
288.831	301.12
289.062	342.12
289.293	379.12
289.524	364.12
289.755	355.12
289.986	374.12
290.217	332.12
290.448	249.12
290.679	238.12
290.91	241.12
291.141	216.12
291.371	221.12
291.602	240.12
291.833	235.12
292.064	244.12
292.295	279.12
292.526	313.12
292.757	327.12
292.987	321.12
293.218	323.12
293.449	363.12
293.68	394.12
293.91	353.12
294.141	378.12
294.372	338.12
294.603	332.12
294.833	349.12
295.064	392.12
295.295	380.12
295.525	309.12
295.756	253.12
295.987	231.12
296.217	233.12
296.448	232.12
296.679	248.12
296.909	269.12
297.14	288.12
297.37	317.12
297.601	286.12
297.831	275.12
298.062	273.12
298.292	304.12
298.523	344.12
298.753	372.12
298.984	342.12
299.214	294.12
299.445	238.12
299.675	231.12
299.905	234.12
300.136	239.12
300.366	257.12
300.597	245.12
300.827	236.12
301.057	223.12
301.288	228.12
301.518	248.12
301.748	283.12
301.979	296.12
302.209	305.12
302.439	267.12
302.669	277.12
302.9	281.12
303.13	259.12
303.36	251.12
303.59	231.12
303.82	243.12
304.051	268.12
304.281	287.12
304.511	311.12
304.741	269.12
304.971	274.12
305.201	275.12
305.431	263.12
305.661	225.12
305.891	244.12
306.121	218.12
306.352	215.12
306.582	206.12
306.812	194.12
307.042	187.12
307.272	178.12
307.502	195.12
307.731	204.12
307.961	198.12
308.191	213.12
308.421	183.12
308.651	181.12
308.881	178.12
309.111	166.12
309.341	176.12
309.571	199.12
309.8	205.12
310.03	205.12
310.26	215.12
310.49	215.12
310.72	186.12
310.949	187.12
311.179	188.12
311.409	203.12
311.639	241.12
311.868	291.12
312.098	355.12
312.328	414.12
312.557	375.12
312.787	385.12
313.017	347.12
313.246	377.12
313.476	430.12
313.706	340.12
313.935	263.12
314.165	252.12
314.394	205.12
314.624	207.12
314.853	211.12
315.083	213.12
315.312	211.12
315.542	235.12
315.771	207.12
316.001	186.12
316.23	190.12
316.46	195.12
316.689	181.12
316.919	200.12
317.148	205.12
317.377	197.12
317.607	186.12
317.836	197.12
318.065	236.12
318.295	269.12
318.524	243.12
318.753	211.12
318.983	205.12
319.212	195.12
319.441	217.12
319.67	236.12
319.9	271.12
320.129	257.12
320.358	216.12
320.587	212.12
320.816	231.12
321.046	246.12
321.275	258.12
321.504	267.12
321.733	263.12
321.962	265.12
322.191	241.12
322.42	226.12
322.649	234.12
322.878	248.12
323.108	243.12
323.337	230.12
323.566	228.12
323.795	232.12
324.024	215.12
324.253	194.12
324.482	211.12
324.71	214.12
324.939	246.12
325.168	248.12
325.397	201.12
325.626	204.12
325.855	195.12
326.084	208.12
326.313	204.12
326.542	174.12
326.77	179.12
326.999	200.12
327.228	218.12
327.457	208.12
327.686	209.12
327.914	184.12
328.143	191.12
328.372	186.12
328.6	182.12
328.829	182.12
329.058	198.12
329.287	194.12
329.515	188.12
329.744	200.12
329.972	185.12
330.201	165.12
330.43	188.12
330.658	206.12
330.887	220.12
331.115	233.12
331.344	205.12
331.572	207.12
331.801	197.12
332.03	196.12
332.258	189.12
332.486	211.12
332.715	217.12
332.943	199.12
333.172	202.12
333.4	215.12
333.629	214.12
333.857	229.12
334.085	230.12
334.314	227.12
334.542	226.12
334.771	211.12
334.999	197.12
335.227	205.12
335.455	193.12
335.684	209.12
335.912	229.12
336.14	263.12
336.369	252.12
336.597	252.12
336.825	269.12
337.053	316.12
337.281	255.12
337.51	222.12
337.738	211.12
337.966	217.12
338.194	249.12
338.422	218.12
338.65	203.12
338.878	181.12
339.106	189.12
339.334	211.12
339.562	207.12
339.79	212.12
340.018	204.12
340.246	210.12
340.474	257.12
340.702	250.12
340.93	269.12
341.158	260.12
341.386	205.12
341.614	224.12
341.842	214.12
342.07	229.12
342.298	266.12
342.526	257.12
342.754	233.12
342.981	217.12
343.209	220.12
343.437	242.12
343.665	249.12
343.893	231.12
344.12	273.12
344.348	326.12
344.576	296.12
344.804	246.12
345.031	197.12
345.259	188.12
345.487	205.12
345.714	203.12
345.942	223.12
346.17	241.12
346.397	231.12
346.625	197.12
346.853	209.12
347.08	189.12
347.308	218.12
347.535	223.12
347.763	224.12
347.99	222.12
348.218	203.12
348.445	218.12
348.673	211.12
348.9	211.12
349.128	220.12
349.355	215.12
349.583	230.12
349.81	195.12
350.037	207.12
350.265	175.12
350.492	165.12
350.72	151.12
350.947	185.12
351.174	184.12
351.402	202.12
351.629	211.12
351.856	209.12
352.083	193.12
352.311	218.12
352.538	216.12
352.765	224.12
352.992	227.12
353.22	209.12
353.447	213.12
353.674	214.12
353.901	208.12
354.128	211.12
354.355	221.12
354.583	204.12
354.81	229.12
355.037	221.12
355.264	227.12
355.491	217.12
355.718	249.12
355.945	235.12
356.172	229.12
356.399	228.12
356.626	250.12
356.853	318.12
357.08	333.12
357.307	346.12
357.534	297.12
357.761	289.12
357.988	347.12
358.215	377.12
358.441	364.12
358.668	339.12
358.895	291.12
359.122	243.12
359.349	254.12
359.576	269.12
359.802	219.12
360.029	197.12
360.256	208.12
360.483	265.12
360.709	325.12
360.936	337.12
361.163	287.12
361.39	212.12
361.616	210.12
361.843	230.12
362.07	289.12
362.296	279.12
362.523	225.12
362.749	186.12
362.976	202.12
363.203	233.12
363.429	247.12
363.656	213.12
363.882	196.12
364.109	221.12
364.335	217.12
364.562	203.12
364.788	219.12
365.015	269.12
365.241	250.12
365.468	217.12
365.694	173.12
365.92	167.12
366.147	170.12
366.373	168.12
366.599	178.12
366.826	164.12
367.052	166.12
367.278	170.12
367.505	161.12
367.731	181.12
367.957	217.12
368.184	216.12
368.41	197.12
368.636	201.12
368.862	220.12
369.089	213.12
369.315	189.12
369.541	180.12
369.767	191.12
369.993	163.12
370.219	185.12
370.445	189.12
370.672	199.12
370.898	211.12
371.124	233.12
371.35	187.12
371.576	170.12
371.802	205.12
372.028	217.12
372.254	269.12
372.48	217.12
372.706	209.12
372.932	231.12
373.158	238.12
373.384	260.12
373.61	310.12
373.835	345.12
374.061	261.12
374.287	226.12
374.513	265.12
374.739	299.12
374.965	309.12
375.191	291.12
375.416	231.12
375.642	205.12
375.868	248.12
376.094	261.12
376.319	226.12
376.545	243.12
376.771	252.12
376.997	222.12
377.222	181.12
377.448	157.12
377.674	154.12
377.899	149.12
378.125	159.12
378.35	161.12
378.576	164.12
378.802	177.12
379.027	195.12
379.253	192.12
379.478	196.12
379.704	205.12
379.929	214.12
380.155	227.12
380.38	203.12
380.606	188.12
380.831	243.12
381.057	224.12
381.282	215.12
381.507	221.12
381.733	275.12
381.958	307.12
382.184	308.12
382.409	315.12
382.634	304.12
382.86	328.12
383.085	290.12
383.31	230.12
383.535	228.12
383.761	277.12
383.986	252.12
384.211	281.12
384.436	283.12
384.662	205.12
384.887	203.12
385.112	212.12
385.337	229.12
385.562	211.12
385.787	226.12
386.013	256.12
386.238	237.12
386.463	216.12
386.688	206.12
386.913	199.12
387.138	199.12
387.363	202.12
387.588	211.12
387.813	203.12
388.038	211.12
388.263	209.12
388.488	201.12
388.713	231.12
388.938	239.12
389.163	206.12
389.387	202.12
389.612	188.12
389.837	183.12
390.062	199.12
390.287	215.12
390.512	217.12
390.736	199.12
390.961	181.12
391.186	188.12
391.411	193.12
391.636	171.12
391.86	213.12
392.085	213.12
392.31	210.12
392.534	199.12
392.759	200.12
392.984	215.12
393.208	205.12
393.433	181.12
393.658	169.12
393.882	182.12
394.107	192.12
394.331	185.12
394.556	183.12
394.78	179.12
395.005	166.12
395.229	183.12
395.454	193.12
395.678	203.12
395.903	194.12
396.127	189.12
396.352	175.12
396.576	196.12
396.801	209.12
397.025	227.12
397.249	229.12
397.474	211.12
397.698	187.12
397.922	220.12
398.147	189.12
398.371	187.12
398.595	205.12
398.82	198.12
399.044	206.12
399.268	212.12
399.492	219.12
399.717	205.12
399.941	219.12
400.165	219.12
400.389	207.12
400.613	217.12
400.837	200.12
401.062	193.12
401.286	177.12
401.51	181.12
401.734	195.12
401.958	203.12
402.182	185.12
402.406	189.12
402.63	204.12
402.854	204.12
403.078	235.12
403.302	298.12
403.526	311.12
403.75	269.12
403.974	233.12
404.198	248.12
404.422	267.12
404.645	279.12
404.869	300.12
405.093	234.12
405.317	209.12
405.541	208.12
405.765	201.12
405.988	207.12
406.212	228.12
406.436	248.12
406.66	274.12
406.883	230.12
407.107	222.12
407.331	261.12
407.555	259.12
407.778	242.12
408.002	221.12
408.226	238.12
408.449	229.12
408.673	206.12
408.896	198.12
409.12	211.12
409.344	200.12
409.567	190.12
409.791	188.12
410.014	193.12
410.238	193.12
410.461	197.12
410.685	189.12
410.908	186.12
411.132	184.12
411.355	196.12
411.578	205.12
411.802	196.12
412.025	202.12
412.249	211.12
412.472	200.12
412.695	223.12
412.919	221.12
413.142	209.12
413.365	217.12
413.589	224.12
413.812	197.12
414.035	179.12
414.258	199.12
414.482	213.12
414.705	221.12
414.928	183.12
415.151	177.12
415.374	181.12
415.597	198.12
415.821	223.12
416.044	191.12
416.267	188.12
416.49	182.12
416.713	185.12
416.936	182.12
417.159	197.12
417.382	197.12
417.605	186.12
417.828	202.12
418.051	210.12
418.274	198.12
418.497	197.12
418.72	200.12
418.943	181.12
419.166	211.12
419.389	228.12
419.611	213.12
419.834	217.12
420.057	230.12
420.28	234.12
420.503	210.12
420.726	200.12
420.948	186.12
421.171	192.12
421.394	182.12
421.617	177.12
421.839	183.12
422.062	185.12
422.285	188.12
422.507	195.12
422.73	185.12
422.953	201.12
423.175	211.12
423.398	197.12
423.621	210.12
423.843	232.12
424.066	203.12
424.288	189.12
424.511	201.12
424.733	195.12
424.956	203.12
425.178	213.12
425.401	254.12
425.623	289.12
425.846	230.12
426.068	215.12
426.291	242.12
426.513	216.12
426.735	197.12
426.958	211.12
427.18	229.12
427.402	290.12
427.625	306.12
427.847	261.12
428.069	198.12
428.292	212.12
428.514	200.12
428.736	194.12
428.958	186.12
429.181	236.12
429.403	205.12
429.625	195.12
429.847	185.12
430.069	189.12
430.292	205.12
430.514	180.12
430.736	200.12
430.958	230.12
431.18	238.12
431.402	180.12
431.624	180.12
431.846	184.12
432.068	157.12
432.29	171.12
432.512	179.12
432.734	250.12
432.956	225.12
433.178	177.12
433.4	197.12
433.622	189.12
433.844	192.12
434.066	210.12
434.287	210.12
434.509	209.12
434.731	201.12
434.953	178.12
435.175	198.12
435.397	242.12
435.618	213.12
435.84	193.12
436.062	177.12
436.284	185.12
436.505	179.12
436.727	170.12
436.949	170.12
437.17	195.12
437.392	170.12
437.614	172.12
437.835	180.12
438.057	179.12
438.278	199.12
438.5	271.12
438.721	269.12
438.943	203.12
439.165	166.12
439.386	142.12
439.608	181.12
439.829	176.12
440.05	179.12
440.272	195.12
440.493	193.12
440.715	261.12
440.936	207.12
441.158	184.12
441.379	191.12
441.6	204.12
441.822	221.12
442.043	193.12
442.264	184.12
442.486	201.12
442.707	188.12
442.928	174.12
443.149	199.12
443.371	201.12
443.592	200.12
443.813	218.12
444.034	187.12
444.255	196.12
444.476	202.12
444.698	201.12
444.919	205.12
445.14	340.12
445.361	269.12
445.582	214.12
445.803	222.12
446.024	202.12
446.245	202.12
446.466	207.12
446.687	193.12
446.908	171.12
447.129	174.12
447.35	173.12
447.571	162.12
447.792	186.12
448.013	173.12
448.234	171.12
448.455	163.12
448.675	175.12
448.896	174.12
449.117	181.12
449.338	177.12
449.559	196.12
449.779	202.12
450	203.12
450.221	194.12
450.442	200.12
450.662	174.12
450.883	178.12
451.104	171.12
451.324	201.12
451.545	187.12
451.766	180.12
451.986	165.12
452.207	174.12
452.428	176.12
452.648	173.12
452.869	181.12
453.089	182.12
453.31	190.12
453.53	171.12
453.751	164.12
453.971	179.12
454.192	181.12
454.412	180.12
454.633	185.12
454.853	169.12
455.073	158.12
455.294	161.12
455.514	160.12
455.734	166.12
455.955	174.12
456.175	187.12
456.395	157.12
456.616	155.12
456.836	156.12
457.056	150.12
457.276	171.12
457.497	163.12
457.717	181.12
457.937	156.12
458.157	172.12
458.377	153.12
458.598	178.12
458.818	154.12
459.038	171.12
459.258	188.12
459.478	195.12
459.698	191.12
459.918	210.12
460.138	198.12
460.358	186.12
460.578	188.12
460.798	185.12
461.018	193.12
461.238	189.12
461.458	204.12
461.678	193.12
461.898	201.12
462.118	197.12
462.338	198.12
462.558	206.12
462.777	199.12
462.997	225.12
463.217	228.12
463.437	213.12
463.657	212.12
463.876	205.12
464.096	205.12
464.316	207.12
464.536	214.12
464.755	222.12
464.975	223.12
465.195	230.12
465.414	229.12
465.634	210.12
465.854	207.12
466.073	200.12
466.293	196.12
466.512	209.12
466.732	218.12
466.951	222.12
467.171	208.12
467.391	197.12
467.61	187.12
467.829	201.12
468.049	188.12
468.268	193.12
468.488	195.12
468.707	187.12
468.927	233.12
469.146	245.12
469.365	209.12
469.585	205.12
469.804	215.12
470.023	223.12
470.243	213.12
470.462	194.12
470.681	180.12
470.901	199.12
471.12	210.12
471.339	221.12
471.558	206.12
471.777	209.12
471.997	219.12
472.216	213.12
472.435	215.12
472.654	206.12
472.873	208.12
473.092	206.12
473.311	230.12
473.53	202.12
473.749	203.12
473.968	220.12
474.187	201.12
474.406	223.12
474.625	199.12
474.844	202.12
475.063	214.12
475.282	220.12
475.501	228.12
475.72	262.12
475.939	234.12
476.158	222.12
476.377	285.12
476.596	311.12
476.814	299.12
477.033	276.12
477.252	228.12
477.471	223.12
477.69	196.12
477.908	225.12
478.127	240.12
478.346	220.12
478.564	255.12
478.783	238.12
479.002	214.12
479.22	257.12
479.439	294.12
479.658	230.12
479.876	242.12
480.095	247.12
480.313	269.12
480.532	230.12
480.751	218.12
480.969	222.12
481.188	261.12
481.406	263.12
481.624	246.12
481.843	242.12
482.061	221.12
482.28	241.12
482.498	308.12
482.717	302.12
482.935	250.12
483.153	243.12
483.372	212.12
483.59	211.12
483.808	221.12
484.027	220.12
484.245	208.12
484.463	205.12
484.681	209.12
484.9	229.12
485.118	251.12
485.336	220.12
485.554	199.12
485.772	202.12
485.99	221.12
486.209	246.12
486.427	259.12
486.645	243.12
486.863	261.12
487.081	259.12
487.299	290.12
487.517	279.12
487.735	249.12
487.953	251.12
488.171	244.12
488.389	245.12
488.607	213.12
488.825	237.12
489.043	262.12
489.261	296.12
489.479	318.12
489.696	255.12
489.914	246.12
490.132	203.12
490.35	234.12
490.568	224.12
490.786	231.12
491.003	247.12
491.221	242.12
491.439	219.12
491.657	207.12
491.874	246.12
492.092	293.12
492.31	352.12
492.527	334.12
492.745	302.12
492.963	256.12
493.18	257.12
493.398	246.12
493.615	257.12
493.833	246.12
494.05	246.12
494.268	263.12
494.485	246.12
494.703	245.12
494.92	238.12
495.138	236.12
495.355	244.12
495.573	267.12
495.79	282.12
496.008	364.12
496.225	299.12
496.442	274.12
496.66	271.12
496.877	267.12
497.094	260.12
497.312	266.12
497.529	260.12
497.746	274.12
497.963	259.12
498.181	299.12
498.398	302.12
498.615	339.12
498.832	329.12
499.049	341.12
499.267	316.12
499.484	299.12
499.701	340.12
499.918	356.12
500.135	378.12
500.352	391.12
500.569	406.12
500.786	414.12
501.003	420.12
501.22	350.12
501.437	354.12
501.654	333.12
501.871	305.12
502.088	309.12
502.305	281.12
502.522	310.12
502.739	294.12
