Data from NickelSpatula_HRD10591_16-35-22-125.txt Node
Date: Mon Jul 22 16:35:22 EDT 2019
User: cochatt
Spectrometer: HR+D1059
Trigger mode: 1
Integration Time (sec): 1.000000E-1
Scans to average: 1
Electric dark correction enabled: true
Nonlinearity correction enabled: false
Boxcar width: 0
XAxis mode: Wavelengths
Number of Pixels in Spectrum: 2048
>>>>>Begin Spectral Data<<<<<
223.165	-11.62
223.4	-11.62
223.635	-11.62
223.869	-4.62
224.104	-15.62
224.338	-17.62
224.573	-9.62
224.808	-10.62
225.042	-12.62
225.277	-1.62
225.511	-8.62
225.746	2.38
225.98	14.38
226.215	7.38
226.449	6.38
226.683	22.38
226.918	21.38
227.152	18.38
227.387	22.38
227.621	27.38
227.856	31.38
228.09	43.38
228.324	45.38
228.559	50.38
228.793	77.38
229.027	61.38
229.262	82.38
229.496	71.38
229.73	77.38
229.964	97.38
230.199	91.38
230.433	83.38
230.667	88.38
230.901	89.38
231.136	95.38
231.37	99.38
231.604	105.38
231.838	99.38
232.072	98.38
232.306	118.38
232.541	107.38
232.775	95.38
233.009	131.38
233.243	115.38
233.477	120.38
233.711	134.38
233.945	121.38
234.179	119.38
234.413	127.38
234.647	123.38
234.881	130.38
235.115	131.38
235.349	128.38
235.583	142.38
235.817	120.38
236.051	141.38
236.285	130.38
236.519	132.38
236.753	130.38
236.987	138.38
237.221	125.38
237.455	140.38
237.689	128.38
237.922	143.38
238.156	131.38
238.39	153.38
238.624	169.38
238.858	173.38
239.091	122.38
239.325	132.38
239.559	147.38
239.793	148.38
240.027	183.38
240.26	171.38
240.494	139.38
240.728	169.38
240.961	191.38
241.195	172.38
241.429	155.38
241.662	160.38
241.896	147.38
242.13	145.38
242.363	137.38
242.597	144.38
242.83	158.38
243.064	143.38
243.298	173.38
243.531	162.38
243.765	186.38
243.998	179.38
244.232	178.38
244.465	182.38
244.699	171.38
244.932	183.38
245.166	181.38
245.399	154.38
245.633	153.38
245.866	159.38
246.099	164.38
246.333	185.38
246.566	207.38
246.8	198.38
247.033	190.38
247.266	184.38
247.5	164.38
247.733	188.38
247.966	184.38
248.2	176.38
248.433	196.38
248.666	206.38
248.899	198.38
249.133	201.38
249.366	228.38
249.599	250.38
249.832	210.38
250.066	207.38
250.299	207.38
250.532	185.38
250.765	204.38
250.998	189.38
251.231	187.38
251.465	207.38
251.698	197.38
251.931	200.38
252.164	212.38
252.397	224.38
252.63	240.38
252.863	258.38
253.096	269.38
253.329	264.38
253.562	263.38
253.795	279.38
254.028	313.38
254.261	314.38
254.494	294.38
254.727	268.38
254.96	265.38
255.193	256.38
255.426	269.38
255.659	232.38
255.892	194.38
256.124	197.38
256.357	239.38
256.59	258.38
256.823	277.38
257.056	227.38
257.289	217.38
257.521	222.38
257.754	246.38
257.987	263.38
258.22	271.38
258.452	243.38
258.685	271.38
258.918	288.38
259.151	280.38
259.383	287.38
259.616	309.38
259.849	327.38
260.081	341.38
260.314	360.38
260.547	313.38
260.779	309.38
261.012	354.38
261.244	334.38
261.477	346.38
261.71	317.38
261.942	291.38
262.175	299.38
262.407	262.38
262.64	281.38
262.872	327.38
263.105	336.38
263.337	357.38
263.57	314.38
263.802	243.38
264.035	200.38
264.267	213.38
264.499	208.38
264.732	186.38
264.964	165.38
265.197	193.38
265.429	191.38
265.661	190.38
265.894	185.38
266.126	221.38
266.358	235.38
266.591	288.38
266.823	321.38
267.055	313.38
267.287	270.38
267.52	264.38
267.752	273.38
267.984	308.38
268.216	296.38
268.448	253.38
268.681	248.38
268.913	301.38
269.145	278.38
269.377	287.38
269.609	288.38
269.841	267.38
270.073	285.38
270.306	299.38
270.538	297.38
270.77	302.38
271.002	320.38
271.234	339.38
271.466	332.38
271.698	332.38
271.93	283.38
272.162	303.38
272.394	294.38
272.626	314.38
272.858	323.38
273.09	310.38
273.322	278.38
273.553	281.38
273.785	297.38
274.017	385.38
274.249	436.38
274.481	470.38
274.713	520.38
274.945	578.38
275.176	581.38
275.408	554.38
275.64	499.38
275.872	500.38
276.104	465.38
276.335	380.38
276.567	388.38
276.799	386.38
277.031	400.38
277.262	344.38
277.494	274.38
277.726	253.38
277.957	274.38
278.189	323.38
278.421	319.38
278.652	304.38
278.884	307.38
279.115	285.38
279.347	251.38
279.579	279.38
279.81	247.38
280.042	285.38
280.273	275.38
280.505	252.38
280.736	236.38
280.968	245.38
281.199	222.38
281.431	271.38
281.662	248.38
281.894	235.38
282.125	274.38
282.356	281.38
282.588	315.38
282.819	276.38
283.051	298.38
283.282	350.38
283.513	392.38
283.745	407.38
283.976	418.38
284.207	395.38
284.439	412.38
284.67	390.38
284.901	344.38
285.132	375.38
285.364	394.38
285.595	350.38
285.826	380.38
286.057	438.38
286.288	367.38
286.52	406.38
286.751	414.38
286.982	416.38
287.213	378.38
287.444	383.38
287.675	386.38
287.906	362.38
288.138	326.38
288.369	306.38
288.6	279.38
288.831	278.38
289.062	333.38
289.293	365.38
289.524	334.38
289.755	342.38
289.986	342.38
290.217	318.38
290.448	227.38
290.679	229.38
290.91	211.38
291.141	208.38
291.371	213.38
291.602	222.38
291.833	216.38
292.064	244.38
292.295	254.38
292.526	294.38
292.757	290.38
292.987	333.38
293.218	332.38
293.449	336.38
293.68	351.38
293.91	325.38
294.141	350.38
294.372	321.38
294.603	306.38
294.833	328.38
295.064	347.38
295.295	370.38
295.525	282.38
295.756	266.38
295.987	222.38
296.217	221.38
296.448	234.38
296.679	244.38
296.909	276.38
297.14	279.38
297.37	296.38
297.601	280.38
297.831	233.38
298.062	262.38
298.292	304.38
298.523	313.38
298.753	351.38
298.984	333.38
299.214	266.38
299.445	216.38
299.675	222.38
299.905	226.38
300.136	221.38
300.366	234.38
300.597	217.38
300.827	218.38
301.057	223.38
301.288	213.38
301.518	228.38
301.748	266.38
301.979	252.38
302.209	252.38
302.439	270.38
302.669	242.38
302.9	278.38
303.13	235.38
303.36	251.38
303.59	212.38
303.82	239.38
304.051	278.38
304.281	292.38
304.511	276.38
304.741	237.38
304.971	242.38
305.201	257.38
305.431	243.38
305.661	228.38
305.891	214.38
306.121	244.38
306.352	220.38
306.582	196.38
306.812	189.38
307.042	168.38
307.272	202.38
307.502	166.38
307.731	190.38
307.961	207.38
308.191	205.38
308.421	190.38
308.651	186.38
308.881	175.38
309.111	175.38
309.341	191.38
309.571	196.38
309.8	199.38
310.03	196.38
310.26	215.38
310.49	207.38
310.72	196.38
310.949	171.38
311.179	199.38
311.409	222.38
311.639	214.38
311.868	266.38
312.098	330.38
312.328	371.38
312.557	362.38
312.787	366.38
313.017	339.38
313.246	356.38
313.476	375.38
313.706	307.38
313.935	255.38
314.165	204.38
314.394	194.38
314.624	192.38
314.853	215.38
315.083	211.38
315.312	213.38
315.542	204.38
315.771	207.38
316.001	182.38
316.23	191.38
316.46	172.38
316.689	193.38
316.919	185.38
317.148	186.38
317.377	184.38
317.607	204.38
317.836	210.38
318.065	232.38
318.295	269.38
318.524	230.38
318.753	207.38
318.983	211.38
319.212	208.38
319.441	200.38
319.67	230.38
319.9	235.38
320.129	237.38
320.358	196.38
320.587	212.38
320.816	194.38
321.046	236.38
321.275	269.38
321.504	254.38
321.733	249.38
321.962	269.38
322.191	243.38
322.42	221.38
322.649	235.38
322.878	266.38
323.108	256.38
323.337	244.38
323.566	234.38
323.795	220.38
324.024	219.38
324.253	198.38
324.482	203.38
324.71	221.38
324.939	236.38
325.168	236.38
325.397	204.38
325.626	193.38
325.855	207.38
326.084	191.38
326.313	197.38
326.542	199.38
326.77	188.38
326.999	201.38
327.228	194.38
327.457	220.38
327.686	213.38
327.914	182.38
328.143	182.38
328.372	180.38
328.6	176.38
328.829	190.38
329.058	191.38
329.287	180.38
329.515	190.38
329.744	197.38
329.972	180.38
330.201	186.38
330.43	186.38
330.658	200.38
330.887	227.38
331.115	211.38
331.344	204.38
331.572	213.38
331.801	173.38
332.03	175.38
332.258	188.38
332.486	190.38
332.715	203.38
332.943	198.38
333.172	195.38
333.4	188.38
333.629	218.38
333.857	231.38
334.085	214.38
334.314	232.38
334.542	232.38
334.771	222.38
334.999	200.38
335.227	193.38
335.455	178.38
335.684	202.38
335.912	231.38
336.14	278.38
336.369	253.38
336.597	253.38
336.825	272.38
337.053	292.38
337.281	240.38
337.51	199.38
337.738	202.38
337.966	206.38
338.194	234.38
338.422	226.38
338.65	197.38
338.878	184.38
339.106	198.38
339.334	206.38
339.562	214.38
339.79	218.38
340.018	187.38
340.246	218.38
340.474	226.38
340.702	264.38
340.93	263.38
341.158	239.38
341.386	216.38
341.614	202.38
341.842	213.38
342.07	227.38
342.298	249.38
342.526	263.38
342.754	248.38
342.981	216.38
343.209	217.38
343.437	227.38
343.665	249.38
343.893	231.38
344.12	271.38
344.348	282.38
344.576	288.38
344.804	231.38
345.031	208.38
345.259	199.38
345.487	204.38
345.714	204.38
345.942	213.38
346.17	256.38
346.397	237.38
346.625	205.38
346.853	191.38
347.08	191.38
347.308	199.38
347.535	231.38
347.763	220.38
347.99	212.38
348.218	186.38
348.445	207.38
348.673	194.38
348.9	209.38
349.128	226.38
349.355	210.38
349.583	212.38
349.81	207.38
350.037	200.38
350.265	181.38
350.492	173.38
350.72	167.38
350.947	170.38
351.174	180.38
351.402	186.38
351.629	178.38
351.856	194.38
352.083	185.38
352.311	201.38
352.538	216.38
352.765	241.38
352.992	219.38
353.22	208.38
353.447	208.38
353.674	214.38
353.901	200.38
354.128	216.38
354.355	213.38
354.583	212.38
354.81	207.38
355.037	218.38
355.264	207.38
355.491	216.38
355.718	236.38
355.945	223.38
356.172	220.38
356.399	207.38
356.626	250.38
356.853	303.38
357.08	342.38
357.307	320.38
357.534	250.38
357.761	272.38
357.988	317.38
358.215	361.38
358.441	338.38
358.668	302.38
358.895	284.38
359.122	247.38
359.349	248.38
359.576	273.38
359.802	242.38
360.029	193.38
360.256	208.38
360.483	259.38
360.709	292.38
360.936	324.38
361.163	284.38
361.39	223.38
361.616	199.38
361.843	221.38
362.07	263.38
362.296	278.38
362.523	206.38
362.749	184.38
362.976	202.38
363.203	230.38
363.429	268.38
363.656	212.38
363.882	197.38
364.109	208.38
364.335	214.38
364.562	205.38
364.788	213.38
365.015	265.38
365.241	238.38
365.468	186.38
365.694	168.38
365.92	170.38
366.147	154.38
366.373	170.38
366.599	180.38
366.826	166.38
367.052	166.38
367.278	179.38
367.505	183.38
367.731	184.38
367.957	202.38
368.184	196.38
368.41	201.38
368.636	203.38
368.862	208.38
369.089	188.38
369.315	163.38
369.541	186.38
369.767	164.38
369.993	180.38
370.219	171.38
370.445	190.38
370.672	218.38
370.898	213.38
371.124	214.38
371.35	180.38
371.576	189.38
371.802	185.38
372.028	215.38
372.254	235.38
372.48	221.38
372.706	191.38
372.932	219.38
373.158	240.38
373.384	247.38
373.61	311.38
373.835	303.38
374.061	270.38
374.287	216.38
374.513	253.38
374.739	310.38
374.965	314.38
375.191	293.38
375.416	209.38
375.642	213.38
375.868	229.38
376.094	259.38
376.319	225.38
376.545	242.38
376.771	245.38
376.997	219.38
377.222	164.38
377.448	162.38
377.674	166.38
377.899	164.38
378.125	157.38
378.35	158.38
378.576	155.38
378.802	209.38
379.027	193.38
379.253	199.38
379.478	190.38
379.704	212.38
379.929	204.38
380.155	215.38
380.38	195.38
380.606	200.38
380.831	222.38
381.057	226.38
381.282	191.38
381.507	211.38
381.733	268.38
381.958	286.38
382.184	293.38
382.409	298.38
382.634	312.38
382.86	316.38
383.085	281.38
383.31	242.38
383.535	230.38
383.761	239.38
383.986	224.38
384.211	274.38
384.436	256.38
384.662	204.38
384.887	215.38
385.112	225.38
385.337	213.38
385.562	223.38
385.787	222.38
386.013	259.38
386.238	228.38
386.463	203.38
386.688	202.38
386.913	198.38
387.138	187.38
387.363	203.38
387.588	194.38
387.813	194.38
388.038	219.38
388.263	205.38
388.488	182.38
388.713	223.38
388.938	233.38
389.163	197.38
389.387	186.38
389.612	186.38
389.837	214.38
390.062	197.38
390.287	204.38
390.512	211.38
390.736	200.38
390.961	185.38
391.186	188.38
391.411	175.38
391.636	196.38
391.86	193.38
392.085	199.38
392.31	198.38
392.534	214.38
392.759	211.38
392.984	208.38
393.208	203.38
393.433	175.38
393.658	186.38
393.882	151.38
394.107	178.38
394.331	165.38
394.556	175.38
394.78	165.38
395.005	200.38
395.229	179.38
395.454	187.38
395.678	172.38
395.903	198.38
396.127	177.38
396.352	174.38
396.576	210.38
396.801	218.38
397.025	226.38
397.249	242.38
397.474	198.38
397.698	191.38
397.922	203.38
398.147	187.38
398.371	178.38
398.595	208.38
398.82	196.38
399.044	192.38
399.268	223.38
399.492	194.38
399.717	204.38
399.941	219.38
400.165	212.38
400.389	217.38
400.613	198.38
400.837	196.38
401.062	185.38
401.286	183.38
401.51	192.38
401.734	192.38
401.958	196.38
402.182	186.38
402.406	186.38
402.63	181.38
402.854	189.38
403.078	232.38
403.302	272.38
403.526	278.38
403.75	260.38
403.974	217.38
404.198	224.38
404.422	269.38
404.645	264.38
404.869	303.38
405.093	234.38
405.317	224.38
405.541	203.38
405.765	220.38
405.988	223.38
406.212	232.38
406.436	230.38
406.66	270.38
406.883	219.38
407.107	231.38
407.331	265.38
407.555	237.38
407.778	212.38
408.002	222.38
408.226	231.38
408.449	214.38
408.673	227.38
408.896	197.38
409.12	185.38
409.344	184.38
409.567	184.38
409.791	190.38
410.014	192.38
410.238	176.38
410.461	176.38
410.685	183.38
410.908	202.38
411.132	190.38
411.355	187.38
411.578	197.38
411.802	198.38
412.025	195.38
412.249	205.38
412.472	195.38
412.695	190.38
412.919	193.38
413.142	201.38
413.365	202.38
413.589	217.38
413.812	182.38
414.035	192.38
414.258	186.38
414.482	218.38
414.705	213.38
414.928	186.38
415.151	180.38
415.374	194.38
415.597	206.38
415.821	200.38
416.044	191.38
416.267	186.38
416.49	184.38
416.713	173.38
416.936	191.38
417.159	184.38
417.382	174.38
417.605	198.38
417.828	191.38
418.051	192.38
418.274	191.38
418.497	198.38
418.72	194.38
418.943	197.38
419.166	195.38
419.389	194.38
419.611	207.38
419.834	198.38
420.057	225.38
420.28	234.38
420.503	213.38
420.726	196.38
420.948	181.38
421.171	199.38
421.394	187.38
421.617	178.38
421.839	192.38
422.062	207.38
422.285	194.38
422.507	182.38
422.73	183.38
422.953	212.38
423.175	201.38
423.398	181.38
423.621	208.38
423.843	212.38
424.066	199.38
424.288	212.38
424.511	196.38
424.733	186.38
424.956	191.38
425.178	229.38
425.401	220.38
425.623	271.38
425.846	239.38
426.068	226.38
426.291	242.38
426.513	214.38
426.735	182.38
426.958	191.38
427.18	218.38
427.402	282.38
427.625	277.38
427.847	234.38
428.069	184.38
428.292	196.38
428.514	201.38
428.736	201.38
428.958	187.38
429.181	234.38
429.403	203.38
429.625	189.38
429.847	187.38
430.069	196.38
430.292	187.38
430.514	192.38
430.736	179.38
430.958	235.38
431.18	208.38
431.402	197.38
431.624	164.38
431.846	164.38
432.068	171.38
432.29	170.38
432.512	192.38
432.734	248.38
432.956	221.38
433.178	180.38
433.4	165.38
433.622	180.38
433.844	177.38
434.066	199.38
434.287	201.38
434.509	198.38
434.731	212.38
434.953	194.38
435.175	188.38
435.397	215.38
435.618	189.38
435.84	188.38
436.062	172.38
436.284	197.38
436.505	165.38
436.727	169.38
436.949	170.38
437.17	176.38
437.392	188.38
437.614	189.38
437.835	189.38
438.057	187.38
438.278	186.38
438.5	257.38
438.721	264.38
438.943	198.38
439.165	183.38
439.386	162.38
439.608	164.38
439.829	172.38
440.05	176.38
440.272	173.38
440.493	206.38
440.715	240.38
440.936	214.38
441.158	192.38
441.379	185.38
441.6	208.38
441.822	216.38
442.043	190.38
442.264	178.38
442.486	200.38
442.707	175.38
442.928	194.38
443.149	199.38
443.371	185.38
443.592	182.38
443.813	197.38
444.034	196.38
444.255	195.38
444.476	208.38
444.698	201.38
444.919	204.38
445.14	314.38
445.361	259.38
445.582	210.38
445.803	215.38
446.024	208.38
446.245	222.38
446.466	236.38
446.687	185.38
446.908	194.38
447.129	183.38
447.35	168.38
447.571	166.38
447.792	181.38
448.013	170.38
448.234	170.38
448.455	169.38
448.675	171.38
448.896	190.38
449.117	182.38
449.338	184.38
449.559	179.38
449.779	179.38
450	187.38
450.221	195.38
450.442	185.38
450.662	176.38
450.883	182.38
451.104	169.38
451.324	181.38
451.545	182.38
451.766	172.38
451.986	187.38
452.207	178.38
452.428	180.38
452.648	173.38
452.869	175.38
453.089	194.38
453.31	183.38
453.53	184.38
453.751	173.38
453.971	166.38
454.192	162.38
454.412	179.38
454.633	172.38
454.853	154.38
455.073	162.38
455.294	175.38
455.514	162.38
455.734	171.38
455.955	173.38
456.175	178.38
456.395	163.38
456.616	164.38
456.836	159.38
457.056	164.38
457.276	167.38
457.497	159.38
457.717	170.38
457.937	174.38
458.157	156.38
458.377	161.38
458.598	165.38
458.818	160.38
459.038	165.38
459.258	166.38
459.478	175.38
459.698	202.38
459.918	184.38
460.138	196.38
460.358	211.38
460.578	183.38
460.798	196.38
461.018	191.38
461.238	189.38
461.458	181.38
461.678	192.38
461.898	200.38
462.118	208.38
462.338	185.38
462.558	208.38
462.777	213.38
462.997	214.38
463.217	219.38
463.437	193.38
463.657	219.38
463.876	196.38
464.096	199.38
464.316	207.38
464.536	191.38
464.755	202.38
464.975	216.38
465.195	201.38
465.414	218.38
465.634	202.38
465.854	204.38
466.073	190.38
466.293	184.38
466.512	195.38
466.732	204.38
466.951	218.38
467.171	205.38
467.391	188.38
467.61	184.38
467.829	211.38
468.049	206.38
468.268	188.38
468.488	173.38
468.707	176.38
468.927	225.38
469.146	238.38
469.365	206.38
469.585	213.38
469.804	203.38
470.023	214.38
470.243	186.38
470.462	191.38
470.681	195.38
470.901	184.38
471.12	198.38
471.339	211.38
471.558	192.38
471.777	202.38
471.997	203.38
472.216	236.38
472.435	222.38
472.654	218.38
472.873	219.38
473.092	207.38
473.311	221.38
473.53	202.38
473.749	190.38
473.968	204.38
474.187	196.38
474.406	208.38
474.625	203.38
474.844	198.38
475.063	214.38
475.282	215.38
475.501	231.38
475.72	242.38
475.939	234.38
476.158	218.38
476.377	262.38
476.596	294.38
476.814	293.38
477.033	248.38
477.252	210.38
477.471	198.38
477.69	215.38
477.908	203.38
478.127	229.38
478.346	229.38
478.564	246.38
478.783	244.38
479.002	222.38
479.22	251.38
479.439	272.38
479.658	239.38
479.876	223.38
480.095	226.38
480.313	248.38
480.532	229.38
480.751	223.38
480.969	233.38
481.188	247.38
481.406	233.38
481.624	239.38
481.843	228.38
482.061	195.38
482.28	221.38
482.498	289.38
482.717	289.38
482.935	243.38
483.153	239.38
483.372	208.38
483.59	219.38
483.808	194.38
484.027	218.38
484.245	200.38
484.463	200.38
484.681	201.38
484.9	216.38
485.118	220.38
485.336	226.38
485.554	225.38
485.772	221.38
485.99	233.38
486.209	235.38
486.427	234.38
486.645	228.38
486.863	247.38
487.081	243.38
487.299	264.38
487.517	260.38
487.735	237.38
487.953	242.38
488.171	243.38
488.389	228.38
488.607	218.38
488.825	231.38
489.043	260.38
489.261	273.38
489.479	312.38
489.696	242.38
489.914	219.38
490.132	199.38
490.35	218.38
490.568	219.38
490.786	219.38
491.003	210.38
491.221	222.38
491.439	217.38
491.657	222.38
491.874	209.38
492.092	289.38
492.31	351.38
492.527	354.38
492.745	277.38
492.963	258.38
493.18	240.38
493.398	246.38
493.615	250.38
493.833	260.38
494.05	260.38
494.268	246.38
494.485	239.38
494.703	239.38
494.92	236.38
495.138	247.38
495.355	245.38
495.573	244.38
495.79	274.38
496.008	343.38
496.225	290.38
496.442	259.38
496.66	270.38
496.877	278.38
497.094	269.38
497.312	264.38
497.529	255.38
497.746	243.38
497.963	250.38
498.181	278.38
498.398	302.38
498.615	309.38
498.832	312.38
499.049	333.38
499.267	298.38
499.484	300.38
499.701	296.38
499.918	332.38
500.135	358.38
500.352	374.38
500.569	396.38
500.786	408.38
501.003	386.38
501.22	331.38
501.437	338.38
501.654	318.38
501.871	294.38
502.088	297.38
502.305	274.38
502.522	289.38
502.739	299.38
