Data from NickelSpatula.Lamp.E5.5.P2_HRD10591_11-52-54-551.txt Node
Date: Tue Jul 23 11:52:54 EDT 2019
User: cochatt
Spectrometer: HR+D1059
Trigger mode: 1
Integration Time (sec): 1.000000E-1
Scans to average: 1
Electric dark correction enabled: true
Nonlinearity correction enabled: false
Boxcar width: 0
XAxis mode: Wavelengths
Number of Pixels in Spectrum: 2048
>>>>>Begin Spectral Data<<<<<
223.165	-15.38
223.4	-15.38
223.635	-15.38
223.869	-24.38
224.104	-19.38
224.338	-16.38
224.573	-23.38
224.808	-17.38
225.042	0.62
225.277	6.62
225.511	-11.38
225.746	10.62
225.98	12.62
226.215	-0.38
226.449	15.62
226.683	19.62
226.918	17.62
227.152	44.62
227.387	40.62
227.621	29.62
227.856	30.62
228.09	49.62
228.324	60.62
228.559	51.62
228.793	48.62
229.027	77.62
229.262	79.62
229.496	81.62
229.73	83.62
229.964	98.62
230.199	86.62
230.433	97.62
230.667	101.62
230.901	106.62
231.136	88.62
231.37	85.62
231.604	112.62
231.838	110.62
232.072	114.62
232.306	106.62
232.541	102.62
232.775	110.62
233.009	122.62
233.243	124.62
233.477	110.62
233.711	118.62
233.945	124.62
234.179	118.62
234.413	123.62
234.647	127.62
234.881	145.62
235.115	131.62
235.349	126.62
235.583	114.62
235.817	114.62
236.051	119.62
236.285	140.62
236.519	151.62
236.753	137.62
236.987	134.62
237.221	132.62
237.455	125.62
237.689	122.62
237.922	137.62
238.156	134.62
238.39	144.62
238.624	172.62
238.858	155.62
239.091	142.62
239.325	149.62
239.559	141.62
239.793	142.62
240.027	176.62
240.26	161.62
240.494	148.62
240.728	167.62
240.961	197.62
241.195	164.62
241.429	168.62
241.662	175.62
241.896	157.62
242.13	139.62
242.363	142.62
242.597	135.62
242.83	161.62
243.064	157.62
243.298	155.62
243.531	161.62
243.765	170.62
243.998	166.62
244.232	172.62
244.465	172.62
244.699	153.62
244.932	186.62
245.166	176.62
245.399	143.62
245.633	160.62
245.866	173.62
246.099	168.62
246.333	179.62
246.566	195.62
246.8	188.62
247.033	174.62
247.266	176.62
247.5	174.62
247.733	177.62
247.966	167.62
248.2	170.62
248.433	188.62
248.666	202.62
248.899	209.62
249.133	213.62
249.366	227.62
249.599	240.62
249.832	223.62
250.066	203.62
250.299	197.62
250.532	200.62
250.765	190.62
250.998	177.62
251.231	187.62
251.465	195.62
251.698	193.62
251.931	194.62
252.164	199.62
252.397	237.62
252.63	259.62
252.863	269.62
253.096	273.62
253.329	266.62
253.562	257.62
253.795	279.62
254.028	312.62
254.261	333.62
254.494	272.62
254.727	270.62
254.96	245.62
255.193	260.62
255.426	263.62
255.659	205.62
255.892	199.62
256.124	221.62
256.357	239.62
256.59	258.62
256.823	258.62
257.056	238.62
257.289	211.62
257.521	225.62
257.754	264.62
257.987	326.62
258.22	275.62
258.452	224.62
258.685	277.62
258.918	302.62
259.151	284.62
259.383	314.62
259.616	352.62
259.849	334.62
260.081	365.62
260.314	399.62
260.547	339.62
260.779	334.62
261.012	377.62
261.244	348.62
261.477	357.62
261.71	350.62
261.942	279.62
262.175	295.62
262.407	273.62
262.64	284.62
262.872	336.62
263.105	372.62
263.337	401.62
263.57	349.62
263.802	247.62
264.035	224.62
264.267	231.62
264.499	190.62
264.732	185.62
264.964	178.62
265.197	169.62
265.429	184.62
265.661	205.62
265.894	222.62
266.126	240.62
266.358	234.62
266.591	280.62
266.823	342.62
267.055	322.62
267.287	282.62
267.52	290.62
267.752	302.62
267.984	320.62
268.216	334.62
268.448	272.62
268.681	246.62
268.913	280.62
269.145	301.62
269.377	287.62
269.609	287.62
269.841	269.62
270.073	307.62
270.306	330.62
270.538	308.62
270.77	318.62
271.002	317.62
271.234	336.62
271.466	347.62
271.698	324.62
271.93	306.62
272.162	302.62
272.394	292.62
272.626	299.62
272.858	296.62
273.09	322.62
273.322	298.62
273.553	232.62
273.785	308.62
274.017	386.62
274.249	468.62
274.481	489.62
274.713	560.62
274.945	626.62
275.176	649.62
275.408	551.62
275.64	519.62
275.872	541.62
276.104	464.62
276.335	388.62
276.567	388.62
276.799	400.62
277.031	438.62
277.262	338.62
277.494	284.62
277.726	269.62
277.957	286.62
278.189	310.62
278.421	322.62
278.652	299.62
278.884	298.62
279.115	287.62
279.347	257.62
279.579	262.62
279.81	255.62
280.042	263.62
280.273	281.62
280.505	263.62
280.736	255.62
280.968	225.62
281.199	257.62
281.431	267.62
281.662	264.62
281.894	274.62
282.125	291.62
282.356	301.62
282.588	300.62
282.819	287.62
283.051	308.62
283.282	354.62
283.513	408.62
283.745	460.62
283.976	428.62
284.207	420.62
284.439	435.62
284.67	436.62
284.901	357.62
285.132	408.62
285.364	419.62
285.595	375.62
285.826	386.62
286.057	415.62
286.288	401.62
286.52	416.62
286.751	430.62
286.982	446.62
287.213	377.62
287.444	369.62
287.675	390.62
287.906	399.62
288.138	320.62
288.369	296.62
288.6	292.62
288.831	318.62
289.062	333.62
289.293	360.62
289.524	334.62
289.755	350.62
289.986	352.62
290.217	328.62
290.448	266.62
290.679	223.62
290.91	220.62
291.141	221.62
291.371	224.62
291.602	234.62
291.833	223.62
292.064	257.62
292.295	278.62
292.526	326.62
292.757	298.62
292.987	346.62
293.218	347.62
293.449	347.62
293.68	385.62
293.91	374.62
294.141	377.62
294.372	342.62
294.603	323.62
294.833	364.62
295.064	423.62
295.295	390.62
295.525	312.62
295.756	281.62
295.987	227.62
296.217	229.62
296.448	241.62
296.679	228.62
296.909	269.62
297.14	264.62
297.37	316.62
297.601	306.62
297.831	270.62
298.062	275.62
298.292	326.62
298.523	336.62
298.753	360.62
298.984	356.62
299.214	302.62
299.445	235.62
299.675	232.62
299.905	244.62
300.136	239.62
300.366	257.62
300.597	260.62
300.827	222.62
301.057	220.62
301.288	248.62
301.518	256.62
301.748	279.62
301.979	283.62
302.209	304.62
302.439	292.62
302.669	282.62
302.9	277.62
303.13	269.62
303.36	259.62
303.59	236.62
303.82	250.62
304.051	287.62
304.281	294.62
304.511	277.62
304.741	253.62
304.971	252.62
305.201	288.62
305.431	270.62
305.661	251.62
305.891	240.62
306.121	221.62
306.352	224.62
306.582	224.62
306.812	207.62
307.042	193.62
307.272	177.62
307.502	191.62
307.731	205.62
307.961	222.62
308.191	192.62
308.421	192.62
308.651	207.62
308.881	190.62
309.111	185.62
309.341	210.62
309.571	218.62
309.8	221.62
310.03	224.62
310.26	217.62
310.49	224.62
310.72	210.62
310.949	213.62
311.179	216.62
311.409	215.62
311.639	254.62
311.868	298.62
312.098	358.62
312.328	403.62
312.557	408.62
312.787	398.62
313.017	346.62
313.246	384.62
313.476	428.62
313.706	351.62
313.935	274.62
314.165	233.62
314.394	228.62
314.624	214.62
314.853	229.62
315.083	230.62
315.312	225.62
315.542	213.62
315.771	216.62
316.001	194.62
316.23	204.62
316.46	188.62
316.689	206.62
316.919	208.62
317.148	200.62
317.377	206.62
317.607	208.62
317.836	211.62
318.065	242.62
318.295	263.62
318.524	263.62
318.753	228.62
318.983	229.62
319.212	204.62
319.441	240.62
319.67	240.62
319.9	258.62
320.129	244.62
320.358	209.62
320.587	223.62
320.816	221.62
321.046	244.62
321.275	294.62
321.504	263.62
321.733	274.62
321.962	264.62
322.191	244.62
322.42	210.62
322.649	240.62
322.878	236.62
323.108	265.62
323.337	234.62
323.566	227.62
323.795	223.62
324.024	228.62
324.253	235.62
324.482	214.62
324.71	224.62
324.939	255.62
325.168	244.62
325.397	221.62
325.626	207.62
325.855	225.62
326.084	232.62
326.313	218.62
326.542	200.62
326.77	220.62
326.999	213.62
327.228	217.62
327.457	224.62
327.686	223.62
327.914	208.62
328.143	199.62
328.372	192.62
328.6	195.62
328.829	213.62
329.058	206.62
329.287	193.62
329.515	217.62
329.744	206.62
329.972	200.62
330.201	188.62
330.43	204.62
330.658	212.62
330.887	234.62
331.115	225.62
331.344	243.62
331.572	226.62
331.801	218.62
332.03	192.62
332.258	212.62
332.486	226.62
332.715	243.62
332.943	233.62
333.172	229.62
333.4	248.62
333.629	256.62
333.857	278.62
334.085	256.62
334.314	250.62
334.542	229.62
334.771	213.62
334.999	224.62
335.227	215.62
335.455	231.62
335.684	250.62
335.912	256.62
336.14	302.62
336.369	272.62
336.597	261.62
336.825	300.62
337.053	319.62
337.281	270.62
337.51	229.62
337.738	231.62
337.966	232.62
338.194	254.62
338.422	253.62
338.65	225.62
338.878	221.62
339.106	215.62
339.334	237.62
339.562	248.62
339.79	211.62
340.018	224.62
340.246	236.62
340.474	251.62
340.702	273.62
340.93	281.62
341.158	270.62
341.386	238.62
341.614	245.62
341.842	236.62
342.07	263.62
342.298	288.62
342.526	302.62
342.754	259.62
342.981	232.62
343.209	234.62
343.437	281.62
343.665	285.62
343.893	263.62
344.12	330.62
344.348	344.62
344.576	320.62
344.804	258.62
345.031	218.62
345.259	211.62
345.487	230.62
345.714	240.62
345.942	231.62
346.17	280.62
346.397	270.62
346.625	246.62
346.853	228.62
347.08	225.62
347.308	232.62
347.535	251.62
347.763	276.62
347.99	229.62
348.218	221.62
348.445	223.62
348.673	247.62
348.9	223.62
349.128	249.62
349.355	243.62
349.583	246.62
349.81	229.62
350.037	228.62
350.265	215.62
350.492	209.62
350.72	201.62
350.947	196.62
351.174	195.62
351.402	220.62
351.629	248.62
351.856	210.62
352.083	207.62
352.311	233.62
352.538	234.62
352.765	253.62
352.992	236.62
353.22	201.62
353.447	224.62
353.674	208.62
353.901	226.62
354.128	213.62
354.355	225.62
354.583	215.62
354.81	222.62
355.037	260.62
355.264	247.62
355.491	227.62
355.718	256.62
355.945	253.62
356.172	245.62
356.399	230.62
356.626	286.62
356.853	305.62
357.08	349.62
357.307	366.62
357.534	293.62
357.761	283.62
357.988	358.62
358.215	395.62
358.441	378.62
358.668	321.62
358.895	323.62
359.122	266.62
359.349	278.62
359.576	325.62
359.802	277.62
360.029	225.62
360.256	248.62
360.483	272.62
360.709	331.62
360.936	337.62
361.163	272.62
361.39	248.62
361.616	246.62
361.843	248.62
362.07	289.62
362.296	300.62
362.523	240.62
362.749	214.62
362.976	223.62
363.203	258.62
363.429	273.62
363.656	233.62
363.882	227.62
364.109	245.62
364.335	223.62
364.562	220.62
364.788	245.62
365.015	265.62
365.241	242.62
365.468	226.62
365.694	192.62
365.92	202.62
366.147	189.62
366.373	188.62
366.599	201.62
366.826	196.62
367.052	217.62
367.278	221.62
367.505	199.62
367.731	194.62
367.957	230.62
368.184	244.62
368.41	225.62
368.636	230.62
368.862	223.62
369.089	203.62
369.315	195.62
369.541	198.62
369.767	224.62
369.993	204.62
370.219	217.62
370.445	215.62
370.672	241.62
370.898	240.62
371.124	241.62
371.35	229.62
371.576	227.62
371.802	217.62
372.028	247.62
372.254	294.62
372.48	258.62
372.706	233.62
372.932	259.62
373.158	244.62
373.384	299.62
373.61	359.62
373.835	347.62
374.061	291.62
374.287	260.62
374.513	305.62
374.739	343.62
374.965	364.62
375.191	358.62
375.416	266.62
375.642	243.62
375.868	264.62
376.094	296.62
376.319	255.62
376.545	282.62
376.771	286.62
376.997	255.62
377.222	208.62
377.448	202.62
377.674	193.62
377.899	186.62
378.125	180.62
378.35	189.62
378.576	210.62
378.802	212.62
379.027	224.62
379.253	222.62
379.478	210.62
379.704	238.62
379.929	233.62
380.155	224.62
380.38	223.62
380.606	231.62
380.831	252.62
381.057	241.62
381.282	226.62
381.507	250.62
381.733	295.62
381.958	305.62
382.184	341.62
382.409	347.62
382.634	341.62
382.86	354.62
383.085	297.62
383.31	261.62
383.535	271.62
383.761	278.62
383.986	264.62
384.211	290.62
384.436	297.62
384.662	257.62
384.887	249.62
385.112	248.62
385.337	235.62
385.562	231.62
385.787	276.62
386.013	277.62
386.238	282.62
386.463	247.62
386.688	245.62
386.913	220.62
387.138	229.62
387.363	221.62
387.588	231.62
387.813	214.62
388.038	256.62
388.263	223.62
388.488	226.62
388.713	268.62
388.938	273.62
389.163	228.62
389.387	233.62
389.612	236.62
389.837	238.62
390.062	225.62
390.287	234.62
390.512	233.62
390.736	226.62
390.961	211.62
391.186	211.62
391.411	213.62
391.636	217.62
391.86	231.62
392.085	253.62
392.31	249.62
392.534	226.62
392.759	230.62
392.984	265.62
393.208	224.62
393.433	216.62
393.658	216.62
393.882	213.62
394.107	201.62
394.331	200.62
394.556	210.62
394.78	210.62
395.005	191.62
395.229	203.62
395.454	214.62
395.678	209.62
395.903	210.62
396.127	219.62
396.352	222.62
396.576	240.62
396.801	220.62
397.025	229.62
397.249	258.62
397.474	229.62
397.698	215.62
397.922	228.62
398.147	226.62
398.371	220.62
398.595	229.62
398.82	230.62
399.044	235.62
399.268	247.62
399.492	262.62
399.717	300.62
399.941	292.62
400.165	274.62
400.389	260.62
400.613	259.62
400.837	225.62
401.062	223.62
401.286	233.62
401.51	230.62
401.734	217.62
401.958	250.62
402.182	231.62
402.406	258.62
402.63	238.62
402.854	259.62
403.078	302.62
403.302	367.62
403.526	380.62
403.75	319.62
403.974	282.62
404.198	280.62
404.422	298.62
404.645	307.62
404.869	360.62
405.093	289.62
405.317	256.62
405.541	241.62
405.765	263.62
405.988	250.62
406.212	266.62
406.436	296.62
406.66	324.62
406.883	279.62
407.107	264.62
407.331	306.62
407.555	310.62
407.778	296.62
408.002	276.62
408.226	265.62
408.449	253.62
408.673	257.62
408.896	220.62
409.12	231.62
409.344	250.62
409.567	238.62
409.791	252.62
410.014	232.62
410.238	239.62
410.461	245.62
410.685	240.62
410.908	216.62
411.132	223.62
411.355	213.62
411.578	239.62
411.802	237.62
412.025	248.62
412.249	253.62
412.472	248.62
412.695	238.62
412.919	234.62
413.142	239.62
413.365	258.62
413.589	256.62
413.812	249.62
414.035	252.62
414.258	248.62
414.482	241.62
414.705	261.62
414.928	238.62
415.151	214.62
415.374	239.62
415.597	223.62
415.821	231.62
416.044	216.62
416.267	225.62
416.49	226.62
416.713	233.62
416.936	219.62
417.159	208.62
417.382	214.62
417.605	240.62
417.828	236.62
418.051	224.62
418.274	252.62
418.497	237.62
418.72	233.62
418.943	241.62
419.166	258.62
419.389	283.62
419.611	259.62
419.834	245.62
420.057	266.62
420.28	263.62
420.503	241.62
420.726	231.62
420.948	233.62
421.171	224.62
421.394	242.62
421.617	204.62
421.839	226.62
422.062	237.62
422.285	242.62
422.507	224.62
422.73	242.62
422.953	245.62
423.175	254.62
423.398	237.62
423.621	270.62
423.843	263.62
424.066	245.62
424.288	241.62
424.511	224.62
424.733	216.62
424.956	250.62
425.178	255.62
425.401	290.62
425.623	346.62
425.846	292.62
426.068	240.62
426.291	258.62
426.513	236.62
426.735	237.62
426.958	233.62
427.18	262.62
427.402	334.62
427.625	343.62
427.847	301.62
428.069	239.62
428.292	223.62
428.514	233.62
428.736	217.62
428.958	269.62
429.181	294.62
429.403	276.62
429.625	232.62
429.847	215.62
430.069	227.62
430.292	230.62
430.514	223.62
430.736	238.62
430.958	301.62
431.18	264.62
431.402	208.62
431.624	216.62
431.846	201.62
432.068	211.62
432.29	224.62
432.512	246.62
432.734	283.62
432.956	268.62
433.178	235.62
433.4	208.62
433.622	217.62
433.844	226.62
434.066	254.62
434.287	237.62
434.509	269.62
434.731	262.62
434.953	244.62
435.175	250.62
435.397	266.62
435.618	244.62
435.84	215.62
436.062	232.62
436.284	228.62
436.505	208.62
436.727	212.62
436.949	207.62
437.17	227.62
437.392	227.62
437.614	222.62
437.835	217.62
438.057	212.62
438.278	250.62
438.5	315.62
438.721	300.62
438.943	242.62
439.165	218.62
439.386	215.62
439.608	225.62
439.829	196.62
440.05	210.62
440.272	216.62
440.493	248.62
440.715	272.62
440.936	245.62
441.158	220.62
441.379	249.62
441.6	253.62
441.822	261.62
442.043	232.62
442.264	229.62
442.486	213.62
442.707	226.62
442.928	242.62
443.149	245.62
443.371	225.62
443.592	230.62
443.813	242.62
444.034	238.62
444.255	238.62
444.476	243.62
444.698	249.62
444.919	260.62
445.14	359.62
445.361	310.62
445.582	252.62
445.803	233.62
446.024	248.62
446.245	240.62
446.466	252.62
446.687	231.62
446.908	212.62
447.129	209.62
447.35	200.62
447.571	195.62
447.792	210.62
448.013	207.62
448.234	209.62
448.455	201.62
448.675	201.62
448.896	208.62
449.117	211.62
449.338	230.62
449.559	224.62
449.779	238.62
450	223.62
450.221	209.62
450.442	221.62
450.662	206.62
450.883	208.62
451.104	211.62
451.324	204.62
451.545	223.62
451.766	215.62
451.986	224.62
452.207	198.62
452.428	211.62
452.648	215.62
452.869	217.62
453.089	213.62
453.31	219.62
453.53	201.62
453.751	232.62
453.971	212.62
454.192	203.62
454.412	203.62
454.633	200.62
454.853	198.62
455.073	201.62
455.294	213.62
455.514	205.62
455.734	194.62
455.955	212.62
456.175	204.62
456.395	205.62
456.616	199.62
456.836	194.62
457.056	202.62
457.276	184.62
457.497	183.62
457.717	185.62
457.937	208.62
458.157	184.62
458.377	200.62
458.598	178.62
458.818	186.62
459.038	202.62
459.258	210.62
459.478	209.62
459.698	230.62
459.918	233.62
460.138	226.62
460.358	241.62
460.578	247.62
460.798	249.62
461.018	238.62
461.238	225.62
461.458	249.62
461.678	241.62
461.898	247.62
462.118	249.62
462.338	273.62
462.558	259.62
462.777	252.62
462.997	278.62
463.217	282.62
463.437	303.62
463.657	280.62
463.876	266.62
464.096	254.62
464.316	274.62
464.536	279.62
464.755	297.62
464.975	282.62
465.195	253.62
465.414	246.62
465.634	245.62
465.854	250.62
466.073	229.62
466.293	215.62
466.512	241.62
466.732	236.62
466.951	270.62
467.171	242.62
467.391	226.62
467.61	237.62
467.829	228.62
468.049	237.62
468.268	229.62
468.488	223.62
468.707	231.62
468.927	256.62
469.146	284.62
469.365	250.62
469.585	221.62
469.804	267.62
470.023	279.62
470.243	243.62
470.462	240.62
470.681	222.62
470.901	238.62
471.12	238.62
471.339	234.62
471.558	225.62
471.777	218.62
471.997	239.62
472.216	264.62
472.435	273.62
472.654	242.62
472.873	229.62
473.092	240.62
473.311	236.62
473.53	210.62
473.749	233.62
473.968	245.62
474.187	236.62
474.406	220.62
474.625	222.62
474.844	241.62
475.063	270.62
475.282	239.62
475.501	260.62
475.72	286.62
475.939	271.62
476.158	272.62
476.377	294.62
476.596	339.62
476.814	357.62
477.033	304.62
477.252	263.62
477.471	242.62
477.69	249.62
477.908	272.62
478.127	281.62
478.346	258.62
478.564	294.62
478.783	269.62
479.002	264.62
479.22	300.62
479.439	310.62
479.658	285.62
479.876	263.62
480.095	272.62
480.313	300.62
480.532	291.62
480.751	273.62
480.969	273.62
481.188	318.62
481.406	292.62
481.624	294.62
481.843	262.62
482.061	268.62
482.28	285.62
482.498	341.62
482.717	334.62
482.935	307.62
483.153	272.62
483.372	244.62
483.59	253.62
483.808	242.62
484.027	246.62
484.245	239.62
484.463	244.62
484.681	250.62
484.9	269.62
485.118	266.62
485.336	260.62
485.554	266.62
485.772	270.62
485.99	281.62
486.209	294.62
486.427	319.62
486.645	288.62
486.863	285.62
487.081	310.62
487.299	305.62
487.517	300.62
487.735	296.62
487.953	301.62
488.171	286.62
488.389	272.62
488.607	259.62
488.825	286.62
489.043	271.62
489.261	310.62
489.479	336.62
489.696	276.62
489.914	273.62
490.132	259.62
490.35	270.62
490.568	264.62
490.786	265.62
491.003	255.62
491.221	266.62
491.439	262.62
491.657	263.62
491.874	283.62
492.092	316.62
492.31	355.62
492.527	360.62
492.745	325.62
492.963	291.62
493.18	279.62
493.398	285.62
493.615	288.62
493.833	284.62
494.05	263.62
494.268	298.62
494.485	285.62
494.703	256.62
494.92	273.62
495.138	269.62
495.355	279.62
495.573	264.62
495.79	305.62
496.008	360.62
496.225	316.62
496.442	297.62
496.66	289.62
496.877	303.62
497.094	284.62
497.312	297.62
497.529	298.62
497.746	283.62
497.963	304.62
498.181	321.62
498.398	349.62
498.615	360.62
498.832	378.62
499.049	406.62
499.267	365.62
499.484	381.62
499.701	397.62
499.918	447.62
500.135	474.62
500.352	512.62
500.569	545.62
500.786	551.62
501.003	514.62
501.22	491.62
501.437	430.62
501.654	390.62
501.871	388.62
502.088	365.62
502.305	336.62
