Data from NickelSpatula.Lamp.E10.P2_HRD10591_11-59-59-523.txt Node
Date: Tue Jul 23 11:59:59 EDT 2019
User: cochatt
Spectrometer: HR+D1059
Trigger mode: 1
Integration Time (sec): 1.000000E-1
Scans to average: 1
Electric dark correction enabled: true
Nonlinearity correction enabled: false
Boxcar width: 0
XAxis mode: Wavelengths
Number of Pixels in Spectrum: 2048
>>>>>Begin Spectral Data<<<<<
223.165	4.06
223.4	4.06
223.635	4.06
223.869	-11.94
224.104	-28.94
224.338	-14.94
224.573	-20.94
224.808	-4.94
225.042	-8.94
225.277	-9.94
225.511	-7.94
225.746	7.06
225.98	-1.94
226.215	1.06
226.449	13.06
226.683	25.06
226.918	30.06
227.152	30.06
227.387	40.06
227.621	37.06
227.856	58.06
228.09	60.06
228.324	53.06
228.559	72.06
228.793	82.06
229.027	143.06
229.262	165.06
229.496	168.06
229.73	192.06
229.964	205.06
230.199	221.06
230.433	223.06
230.667	217.06
230.901	208.06
231.136	205.06
231.37	225.06
231.604	225.06
231.838	253.06
232.072	255.06
232.306	261.06
232.541	228.06
232.775	264.06
233.009	271.06
233.243	296.06
233.477	327.06
233.711	369.06
233.945	343.06
234.179	353.06
234.413	359.06
234.647	407.06
234.881	481.06
235.115	443.06
235.349	428.06
235.583	373.06
235.817	362.06
236.051	386.06
236.285	437.06
236.519	489.06
236.753	448.06
236.987	439.06
237.221	429.06
237.455	413.06
237.689	432.06
237.922	456.06
238.156	495.06
238.39	577.06
238.624	671.06
238.858	600.06
239.091	515.06
239.325	524.06
239.559	498.06
239.793	556.06
240.027	657.06
240.26	615.06
240.494	602.06
240.728	626.06
240.961	699.06
241.195	676.06
241.429	639.06
241.662	633.06
241.896	528.06
242.13	479.06
242.363	465.06
242.597	489.06
242.83	563.06
243.064	534.06
243.298	597.06
243.531	644.06
243.765	650.06
243.998	665.06
244.232	617.06
244.465	632.06
244.699	601.06
244.932	681.06
245.166	643.06
245.399	545.06
245.633	552.06
245.866	554.06
246.099	611.06
246.333	729.06
246.566	821.06
246.8	792.06
247.033	753.06
247.266	709.06
247.5	709.06
247.733	696.06
247.966	692.06
248.2	745.06
248.433	793.06
248.666	881.06
248.899	866.06
249.133	897.06
249.366	1039.06
249.599	1086.06
249.832	982.06
250.066	864.06
250.299	858.06
250.532	843.06
250.765	827.06
250.998	767.06
251.231	745.06
251.465	813.06
251.698	861.06
251.931	816.06
252.164	852.06
252.397	999.06
252.63	1088.06
252.863	1200.06
253.096	1236.06
253.329	1193.06
253.562	1118.06
253.795	1263.06
254.028	1384.06
254.261	1434.06
254.494	1298.06
254.727	1189.06
254.96	1164.06
255.193	1202.06
255.426	1146.06
255.659	869.06
255.892	811.06
256.124	901.06
256.357	1051.06
256.59	1237.06
256.823	1171.06
257.056	993.06
257.289	940.06
257.521	983.06
257.754	1169.06
257.987	1342.06
258.22	1121.06
258.452	1015.06
258.685	1174.06
258.918	1306.06
259.151	1240.06
259.383	1317.06
259.616	1545.06
259.849	1572.06
260.081	1793.06
260.314	1934.06
260.547	1527.06
260.779	1538.06
261.012	1773.06
261.244	1659.06
261.477	1695.06
261.71	1576.06
261.942	1337.06
262.175	1318.06
262.407	1235.06
262.64	1353.06
262.872	1529.06
263.105	1700.06
263.337	1784.06
263.57	1596.06
263.802	1087.06
264.035	911.06
264.267	897.06
264.499	808.06
264.732	733.06
264.964	746.06
265.197	748.06
265.429	819.06
265.661	853.06
265.894	864.06
266.126	949.06
266.358	1053.06
266.591	1268.06
266.823	1505.06
267.055	1449.06
267.287	1264.06
267.52	1263.06
267.752	1324.06
267.984	1489.06
268.216	1395.06
268.448	1153.06
268.681	1155.06
268.913	1252.06
269.145	1314.06
269.377	1374.06
269.609	1321.06
269.841	1250.06
270.073	1322.06
270.306	1407.06
270.538	1425.06
270.77	1436.06
271.002	1447.06
271.234	1504.06
271.466	1513.06
271.698	1497.06
271.93	1493.06
272.162	1483.06
272.394	1473.06
272.626	1421.06
272.858	1515.06
273.09	1557.06
273.322	1374.06
273.553	1306.06
273.785	1587.06
274.017	2035.06
274.249	2485.06
274.481	2659.06
274.713	2883.06
274.945	3250.06
275.176	3387.06
275.408	2936.06
275.64	2695.06
275.872	2727.06
276.104	2259.06
276.335	2020.06
276.567	1976.06
276.799	2023.06
277.031	2146.06
277.262	1653.06
277.494	1269.06
277.726	1261.06
277.957	1327.06
278.189	1521.06
278.421	1524.06
278.652	1496.06
278.884	1398.06
279.115	1288.06
279.347	1232.06
279.579	1227.06
279.81	1234.06
280.042	1285.06
280.273	1301.06
280.505	1190.06
280.736	1059.06
280.968	1029.06
281.199	1133.06
281.431	1273.06
281.662	1271.06
281.894	1205.06
282.125	1303.06
282.356	1363.06
282.588	1409.06
282.819	1313.06
283.051	1440.06
283.282	1730.06
283.513	2004.06
283.745	2233.06
283.976	2245.06
284.207	2043.06
284.439	2132.06
284.67	2059.06
284.901	1845.06
285.132	1998.06
285.364	2079.06
285.595	1941.06
285.826	2055.06
286.057	2073.06
286.288	1980.06
286.52	2060.06
286.751	2188.06
286.982	2143.06
287.213	1847.06
287.444	1801.06
287.675	1896.06
287.906	1847.06
288.138	1578.06
288.369	1416.06
288.6	1339.06
288.831	1343.06
289.062	1562.06
289.293	1753.06
289.524	1657.06
289.755	1626.06
289.986	1669.06
290.217	1483.06
290.448	1126.06
290.679	968.06
290.91	910.06
291.141	979.06
291.371	1014.06
291.602	1026.06
291.833	1010.06
292.064	1089.06
292.295	1247.06
292.526	1431.06
292.757	1517.06
292.987	1585.06
293.218	1606.06
293.449	1635.06
293.68	1737.06
293.91	1595.06
294.141	1673.06
294.372	1565.06
294.603	1482.06
294.833	1640.06
295.064	1886.06
295.295	1752.06
295.525	1377.06
295.756	1193.06
295.987	1028.06
296.217	1039.06
296.448	1068.06
296.679	1162.06
296.909	1287.06
297.14	1376.06
297.37	1484.06
297.601	1400.06
297.831	1201.06
298.062	1301.06
298.292	1464.06
298.523	1657.06
298.753	1838.06
298.984	1663.06
299.214	1318.06
299.445	1133.06
299.675	1071.06
299.905	1089.06
300.136	1128.06
300.366	1261.06
300.597	1208.06
300.827	1056.06
301.057	1057.06
301.288	1076.06
301.518	1132.06
301.748	1303.06
301.979	1421.06
302.209	1556.06
302.439	1545.06
302.669	1328.06
302.9	1255.06
303.13	1205.06
303.36	1175.06
303.59	1099.06
303.82	1175.06
304.051	1312.06
304.281	1413.06
304.511	1350.06
304.741	1177.06
304.971	1242.06
305.201	1337.06
305.431	1259.06
305.661	1079.06
305.891	1113.06
306.121	1142.06
306.352	989.06
306.582	914.06
306.812	885.06
307.042	896.06
307.272	836.06
307.502	858.06
307.731	905.06
307.961	946.06
308.191	889.06
308.421	841.06
308.651	826.06
308.881	799.06
309.111	797.06
309.341	853.06
309.571	909.06
309.8	934.06
310.03	994.06
310.26	1064.06
310.49	1018.06
310.72	934.06
310.949	867.06
311.179	885.06
311.409	951.06
311.639	1110.06
311.868	1428.06
312.098	1827.06
312.328	2015.06
312.557	1899.06
312.787	1923.06
313.017	1717.06
313.246	1869.06
313.476	2033.06
313.706	1661.06
313.935	1313.06
314.165	1065.06
314.394	990.06
314.624	977.06
314.853	1049.06
315.083	1073.06
315.312	1035.06
315.542	1057.06
315.771	983.06
316.001	904.06
316.23	867.06
316.46	872.06
316.689	871.06
316.919	899.06
317.148	938.06
317.377	909.06
317.607	947.06
317.836	1016.06
318.065	1146.06
318.295	1295.06
318.524	1140.06
318.753	1013.06
318.983	955.06
319.212	959.06
319.441	1065.06
319.67	1207.06
319.9	1282.06
320.129	1171.06
320.358	1004.06
320.587	969.06
320.816	1018.06
321.046	1260.06
321.275	1411.06
321.504	1413.06
321.733	1368.06
321.962	1313.06
322.191	1225.06
322.42	1191.06
322.649	1196.06
322.878	1307.06
323.108	1254.06
323.337	1147.06
323.566	1120.06
323.795	1115.06
324.024	1071.06
324.253	1001.06
324.482	1035.06
324.71	1142.06
324.939	1270.06
325.168	1196.06
325.397	954.06
325.626	949.06
325.855	949.06
326.084	980.06
326.313	886.06
326.542	855.06
326.77	915.06
326.999	916.06
327.228	989.06
327.457	1032.06
327.686	1051.06
327.914	896.06
328.143	863.06
328.372	878.06
328.6	875.06
328.829	936.06
329.058	939.06
329.287	928.06
329.515	945.06
329.744	893.06
329.972	826.06
330.201	810.06
330.43	863.06
330.658	955.06
330.887	1119.06
331.115	1064.06
331.344	1043.06
331.572	994.06
331.801	929.06
332.03	864.06
332.258	901.06
332.486	968.06
332.715	994.06
332.943	939.06
333.172	926.06
333.4	955.06
333.629	1062.06
333.857	1154.06
334.085	1129.06
334.314	1146.06
334.542	1085.06
334.771	973.06
334.999	984.06
335.227	936.06
335.455	957.06
335.684	1066.06
335.912	1240.06
336.14	1347.06
336.369	1290.06
336.597	1281.06
336.825	1409.06
337.053	1597.06
337.281	1283.06
337.51	1017.06
337.738	977.06
337.966	1096.06
338.194	1225.06
338.422	1126.06
338.65	973.06
338.878	889.06
339.106	959.06
339.334	1075.06
339.562	1127.06
339.79	1047.06
340.018	991.06
340.246	1067.06
340.474	1248.06
340.702	1319.06
340.93	1373.06
341.158	1352.06
341.386	1151.06
341.614	1155.06
341.842	1190.06
342.07	1212.06
342.298	1404.06
342.526	1443.06
342.754	1249.06
342.981	1191.06
343.209	1083.06
343.437	1176.06
343.665	1248.06
343.893	1245.06
344.12	1464.06
344.348	1727.06
344.576	1520.06
344.804	1293.06
345.031	1092.06
345.259	1014.06
345.487	1066.06
345.714	1073.06
345.942	1174.06
346.17	1210.06
346.397	1208.06
346.625	1036.06
346.853	1025.06
347.08	984.06
347.308	1039.06
347.535	1153.06
347.763	1209.06
347.99	1061.06
348.218	944.06
348.445	998.06
348.673	994.06
348.9	987.06
349.128	1102.06
349.355	1151.06
349.583	1084.06
349.81	1053.06
350.037	985.06
350.265	866.06
350.492	831.06
350.72	828.06
350.947	857.06
351.174	934.06
351.402	1001.06
351.629	1049.06
351.856	1006.06
352.083	912.06
352.311	999.06
352.538	1133.06
352.765	1230.06
352.992	1111.06
353.22	1015.06
353.447	1052.06
353.674	1003.06
353.901	1031.06
354.128	1068.06
354.355	1081.06
354.583	1032.06
354.81	1035.06
355.037	1092.06
355.264	1043.06
355.491	1151.06
355.718	1250.06
355.945	1203.06
356.172	1178.06
356.399	1177.06
356.626	1401.06
356.853	1761.06
357.08	1869.06
357.307	1913.06
357.534	1465.06
357.761	1505.06
357.988	1871.06
358.215	2239.06
358.441	2129.06
358.668	1748.06
358.895	1631.06
359.122	1270.06
359.349	1291.06
359.576	1428.06
359.802	1173.06
360.029	1013.06
360.256	1068.06
360.483	1364.06
360.709	1758.06
360.936	1768.06
361.163	1574.06
361.39	1215.06
361.616	1119.06
361.843	1331.06
362.07	1656.06
362.296	1451.06
362.523	1138.06
362.749	996.06
362.976	1057.06
363.203	1311.06
363.429	1444.06
363.656	1159.06
363.882	1035.06
364.109	1059.06
364.335	1079.06
364.562	1034.06
364.788	1186.06
365.015	1422.06
365.241	1236.06
365.468	1038.06
365.694	859.06
365.92	845.06
366.147	826.06
366.373	796.06
366.599	805.06
366.826	835.06
367.052	844.06
367.278	892.06
367.505	858.06
367.731	971.06
367.957	1073.06
368.184	1097.06
368.41	1056.06
368.636	1095.06
368.862	1137.06
369.089	1098.06
369.315	954.06
369.541	950.06
369.767	913.06
369.993	904.06
370.219	930.06
370.445	959.06
370.672	1077.06
370.898	1188.06
371.124	1174.06
371.35	994.06
371.576	944.06
371.802	1054.06
372.028	1236.06
372.254	1462.06
372.48	1233.06
372.706	1079.06
372.932	1169.06
373.158	1256.06
373.384	1464.06
373.61	2016.06
373.835	2029.06
374.061	1508.06
374.287	1229.06
374.513	1494.06
374.739	1797.06
374.965	1872.06
375.191	1807.06
375.416	1241.06
375.642	1069.06
375.868	1285.06
376.094	1450.06
376.319	1248.06
376.545	1367.06
376.771	1466.06
376.997	1238.06
377.222	895.06
377.448	782.06
377.674	751.06
377.899	799.06
378.125	797.06
378.35	779.06
378.576	804.06
378.802	906.06
379.027	991.06
379.253	919.06
379.478	963.06
379.704	1138.06
379.929	1169.06
380.155	1140.06
380.38	1005.06
380.606	1035.06
380.831	1190.06
381.057	1075.06
381.282	1031.06
381.507	1257.06
381.733	1587.06
381.958	1639.06
382.184	1751.06
382.409	1857.06
382.634	1843.06
382.86	1880.06
383.085	1560.06
383.31	1195.06
383.535	1310.06
383.761	1304.06
383.986	1234.06
384.211	1540.06
384.436	1481.06
384.662	1095.06
384.887	1080.06
385.112	1103.06
385.337	1107.06
385.562	1054.06
385.787	1146.06
386.013	1316.06
386.238	1347.06
386.463	1084.06
386.688	1055.06
386.913	1010.06
387.138	970.06
387.363	1043.06
387.588	1023.06
387.813	1013.06
388.038	1173.06
388.263	1031.06
388.488	1004.06
388.713	1217.06
388.938	1324.06
389.163	1087.06
389.387	971.06
389.612	954.06
389.837	1004.06
390.062	1027.06
390.287	1050.06
390.512	1061.06
390.736	999.06
390.961	927.06
391.186	892.06
391.411	855.06
391.636	873.06
391.86	989.06
392.085	1060.06
392.31	1068.06
392.534	1004.06
392.759	972.06
392.984	1063.06
393.208	1011.06
393.433	902.06
393.658	839.06
393.882	821.06
394.107	804.06
394.331	839.06
394.556	840.06
394.78	833.06
395.005	907.06
395.229	890.06
395.454	905.06
395.678	915.06
395.903	963.06
396.127	913.06
396.352	951.06
396.576	1028.06
396.801	1035.06
397.025	1185.06
397.249	1197.06
397.474	971.06
397.698	966.06
397.922	1018.06
398.147	975.06
398.371	943.06
398.595	1012.06
398.82	967.06
399.044	965.06
399.268	1049.06
399.492	1088.06
399.717	1112.06
399.941	1153.06
400.165	1064.06
400.389	1067.06
400.613	1088.06
400.837	1046.06
401.062	933.06
401.286	931.06
401.51	943.06
401.734	952.06
401.958	920.06
402.182	936.06
402.406	946.06
402.63	959.06
402.854	978.06
403.078	1142.06
403.302	1362.06
403.526	1427.06
403.75	1268.06
403.974	1084.06
404.198	1154.06
404.422	1292.06
404.645	1562.06
404.869	1696.06
405.093	1214.06
405.317	1035.06
405.541	1007.06
405.765	1047.06
405.988	1047.06
406.212	1153.06
406.436	1371.06
406.66	1473.06
406.883	1157.06
407.107	1215.06
407.331	1452.06
407.555	1356.06
407.778	1113.06
408.002	1097.06
408.226	1103.06
408.449	1087.06
408.673	1057.06
408.896	952.06
409.12	905.06
409.344	937.06
409.567	890.06
409.791	894.06
410.014	899.06
410.238	909.06
410.461	918.06
410.685	932.06
410.908	961.06
411.132	931.06
411.355	968.06
411.578	959.06
411.802	1009.06
412.025	1009.06
412.249	1030.06
412.472	997.06
412.695	953.06
412.919	982.06
413.142	1004.06
413.365	1078.06
413.589	1089.06
413.812	968.06
414.035	953.06
414.258	996.06
414.482	1084.06
414.705	1110.06
414.928	950.06
415.151	897.06
415.374	916.06
415.597	962.06
415.821	980.06
416.044	883.06
416.267	903.06
416.49	913.06
416.713	916.06
416.936	868.06
417.159	895.06
417.382	915.06
417.605	934.06
417.828	937.06
418.051	916.06
418.274	971.06
418.497	969.06
418.72	962.06
418.943	1019.06
419.166	1051.06
419.389	1051.06
419.611	1036.06
419.834	1106.06
420.057	1179.06
420.28	1140.06
420.503	1076.06
420.726	933.06
420.948	915.06
421.171	900.06
421.394	878.06
421.617	855.06
421.839	925.06
422.062	961.06
422.285	960.06
422.507	957.06
422.73	984.06
422.953	981.06
423.175	953.06
423.398	959.06
423.621	1067.06
423.843	1108.06
424.066	1041.06
424.288	978.06
424.511	934.06
424.733	938.06
424.956	992.06
425.178	1161.06
425.401	1289.06
425.623	1460.06
425.846	1214.06
426.068	1075.06
426.291	1179.06
426.513	1075.06
426.735	971.06
426.958	1056.06
427.18	1256.06
427.402	1645.06
427.625	1569.06
427.847	1292.06
428.069	954.06
428.292	939.06
428.514	955.06
428.736	887.06
428.958	1029.06
429.181	1182.06
429.403	1045.06
429.625	913.06
429.847	905.06
430.069	949.06
430.292	952.06
430.514	889.06
430.736	969.06
430.958	1283.06
431.18	1116.06
431.402	869.06
431.624	858.06
431.846	821.06
432.068	810.06
432.29	848.06
432.512	973.06
432.734	1331.06
432.956	1193.06
433.178	946.06
433.4	858.06
433.622	864.06
433.844	910.06
434.066	977.06
434.287	971.06
434.509	914.06
434.731	943.06
434.953	884.06
435.175	970.06
435.397	1089.06
435.618	932.06
435.84	857.06
436.062	835.06
436.284	876.06
436.505	804.06
436.727	784.06
436.949	813.06
437.17	858.06
437.392	891.06
437.614	840.06
437.835	836.06
438.057	881.06
438.278	1027.06
438.5	1510.06
438.721	1471.06
438.943	995.06
439.165	845.06
439.386	827.06
439.608	799.06
439.829	811.06
440.05	809.06
440.272	867.06
440.493	1057.06
440.715	1314.06
440.936	1025.06
441.158	892.06
441.379	911.06
441.6	1023.06
441.822	1084.06
442.043	921.06
442.264	884.06
442.486	897.06
442.707	883.06
442.928	882.06
443.149	876.06
443.371	915.06
443.592	940.06
443.813	912.06
444.034	909.06
444.255	899.06
444.476	968.06
444.698	964.06
444.919	961.06
445.14	1041.06
445.361	1030.06
445.582	1020.06
445.803	934.06
446.024	959.06
446.245	970.06
446.466	954.06
446.687	908.06
446.908	928.06
447.129	874.06
447.35	833.06
447.571	801.06
447.792	835.06
448.013	820.06
448.234	823.06
448.455	810.06
448.675	812.06
448.896	833.06
449.117	823.06
449.338	837.06
449.559	843.06
449.779	883.06
450	915.06
450.221	844.06
450.442	811.06
450.662	818.06
450.883	807.06
451.104	819.06
451.324	789.06
451.545	820.06
451.766	811.06
451.986	798.06
452.207	798.06
452.428	782.06
452.648	790.06
452.869	827.06
453.089	895.06
453.31	866.06
453.53	788.06
453.751	779.06
453.971	767.06
454.192	771.06
454.412	835.06
454.633	805.06
454.853	766.06
455.073	728.06
455.294	759.06
455.514	755.06
455.734	817.06
455.955	844.06
456.175	869.06
456.395	777.06
456.616	722.06
456.836	723.06
457.056	725.06
457.276	701.06
457.497	742.06
457.717	740.06
457.937	725.06
458.157	725.06
458.377	744.06
458.598	794.06
458.818	785.06
459.038	815.06
459.258	855.06
459.478	866.06
459.698	904.06
459.918	899.06
460.138	889.06
460.358	935.06
460.578	891.06
460.798	911.06
461.018	927.06
461.238	888.06
461.458	873.06
461.678	890.06
461.898	980.06
462.118	927.06
462.338	976.06
462.558	996.06
462.777	1012.06
462.997	1016.06
463.217	1033.06
463.437	1021.06
463.657	1028.06
463.876	1001.06
464.096	993.06
464.316	998.06
464.536	983.06
464.755	1038.06
464.975	1066.06
465.195	996.06
465.414	1035.06
465.634	980.06
465.854	938.06
466.073	850.06
466.293	889.06
466.512	953.06
466.732	1052.06
466.951	1108.06
467.171	947.06
467.391	877.06
467.61	876.06
467.829	940.06
468.049	974.06
468.268	891.06
468.488	887.06
468.707	933.06
468.927	1073.06
469.146	1190.06
469.365	1040.06
469.585	963.06
469.804	1053.06
470.023	1118.06
470.243	1005.06
470.462	946.06
470.681	931.06
470.901	944.06
471.12	1025.06
471.339	999.06
471.558	951.06
471.777	966.06
471.997	1062.06
472.216	1134.06
472.435	1139.06
472.654	986.06
472.873	981.06
473.092	997.06
473.311	1089.06
473.53	1005.06
473.749	979.06
473.968	1000.06
474.187	1003.06
474.406	967.06
474.625	940.06
474.844	961.06
475.063	1064.06
475.282	1025.06
475.501	1104.06
475.72	1161.06
475.939	1147.06
476.158	1148.06
476.377	1294.06
476.596	1465.06
476.814	1523.06
477.033	1287.06
477.252	1077.06
477.471	1003.06
477.69	1039.06
477.908	1146.06
478.127	1181.06
478.346	1079.06
478.564	1187.06
478.783	1130.06
479.002	1145.06
479.22	1331.06
479.439	1426.06
479.658	1255.06
479.876	1107.06
480.095	1227.06
480.313	1285.06
480.532	1141.06
480.751	1122.06
480.969	1116.06
481.188	1273.06
481.406	1330.06
481.624	1283.06
481.843	1150.06
482.061	1109.06
482.28	1237.06
482.498	1478.06
482.717	1443.06
482.935	1211.06
483.153	1191.06
483.372	1098.06
483.59	1076.06
483.808	1101.06
484.027	1068.06
484.245	1033.06
484.463	1000.06
484.681	1023.06
484.9	1107.06
485.118	1192.06
485.336	1136.06
485.554	1077.06
485.772	1139.06
485.99	1202.06
486.209	1288.06
486.427	1270.06
486.645	1207.06
486.863	1281.06
487.081	1267.06
487.299	1430.06
487.517	1392.06
487.735	1223.06
487.953	1270.06
488.171	1311.06
488.389	1190.06
488.607	1155.06
488.825	1237.06
489.043	1334.06
489.261	1536.06
489.479	1651.06
489.696	1337.06
489.914	1195.06
490.132	1158.06
490.35	1169.06
490.568	1192.06
490.786	1140.06
491.003	1197.06
491.221	1147.06
491.439	1185.06
491.657	1202.06
491.874	1299.06
492.092	1612.06
492.31	1939.06
492.527	1857.06
492.745	1560.06
492.963	1359.06
493.18	1330.06
