Data from NickelSpatula.Lamp.E5.5.P2_HRD10591_11-53-44-548.txt Node
Date: Tue Jul 23 11:53:44 EDT 2019
User: cochatt
Spectrometer: HR+D1059
Trigger mode: 1
Integration Time (sec): 1.000000E-1
Scans to average: 1
Electric dark correction enabled: true
Nonlinearity correction enabled: false
Boxcar width: 0
XAxis mode: Wavelengths
Number of Pixels in Spectrum: 2048
>>>>>Begin Spectral Data<<<<<
223.165	-14.19
223.4	-14.19
223.635	-14.19
223.869	-21.19
224.104	-11.19
224.338	-24.19
224.573	-4.19
224.808	-16.19
225.042	9.81
225.277	-12.19
225.511	2.81
225.746	5.81
225.98	14.81
226.215	4.81
226.449	11.81
226.683	15.81
226.918	10.81
227.152	26.81
227.387	37.81
227.621	58.81
227.856	60.81
228.09	39.81
228.324	60.81
228.559	55.81
228.793	66.81
229.027	69.81
229.262	72.81
229.496	98.81
229.73	92.81
229.964	98.81
230.199	97.81
230.433	98.81
230.667	100.81
230.901	103.81
231.136	103.81
231.37	95.81
231.604	114.81
231.838	105.81
232.072	95.81
232.306	103.81
232.541	104.81
232.775	103.81
233.009	101.81
233.243	118.81
233.477	118.81
233.711	116.81
233.945	135.81
234.179	126.81
234.413	117.81
234.647	122.81
234.881	133.81
235.115	131.81
235.349	125.81
235.583	120.81
235.817	120.81
236.051	123.81
236.285	129.81
236.519	129.81
236.753	143.81
236.987	124.81
237.221	111.81
237.455	139.81
237.689	138.81
237.922	128.81
238.156	118.81
238.39	146.81
238.624	157.81
238.858	167.81
239.091	127.81
239.325	139.81
239.559	144.81
239.793	146.81
240.027	155.81
240.26	152.81
240.494	146.81
240.728	163.81
240.961	161.81
241.195	160.81
241.429	154.81
241.662	162.81
241.896	129.81
242.13	128.81
242.363	138.81
242.597	118.81
242.83	155.81
243.064	131.81
243.298	157.81
243.531	162.81
243.765	165.81
243.998	167.81
244.232	160.81
244.465	156.81
244.699	153.81
244.932	169.81
245.166	148.81
245.399	140.81
245.633	156.81
245.866	152.81
246.099	168.81
246.333	183.81
246.566	181.81
246.8	183.81
247.033	171.81
247.266	175.81
247.5	167.81
247.733	171.81
247.966	159.81
248.2	180.81
248.433	187.81
248.666	179.81
248.899	193.81
249.133	182.81
249.366	197.81
249.599	232.81
249.832	217.81
250.066	197.81
250.299	211.81
250.532	206.81
250.765	194.81
250.998	176.81
251.231	177.81
251.465	180.81
251.698	182.81
251.931	195.81
252.164	200.81
252.397	225.81
252.63	227.81
252.863	247.81
253.096	248.81
253.329	224.81
253.562	217.81
253.795	244.81
254.028	275.81
254.261	288.81
254.494	263.81
254.727	249.81
254.96	225.81
255.193	263.81
255.426	252.81
255.659	205.81
255.892	183.81
256.124	200.81
256.357	225.81
256.59	259.81
256.823	260.81
257.056	217.81
257.289	206.81
257.521	212.81
257.754	256.81
257.987	303.81
258.22	255.81
258.452	222.81
258.685	264.81
258.918	275.81
259.151	252.81
259.383	279.81
259.616	327.81
259.849	337.81
260.081	330.81
260.314	369.81
260.547	316.81
260.779	299.81
261.012	346.81
261.244	301.81
261.477	333.81
261.71	306.81
261.942	281.81
262.175	265.81
262.407	268.81
262.64	245.81
262.872	307.81
263.105	330.81
263.337	348.81
263.57	309.81
263.802	235.81
264.035	223.81
264.267	207.81
264.499	198.81
264.732	161.81
264.964	168.81
265.197	167.81
265.429	173.81
265.661	192.81
265.894	196.81
266.126	197.81
266.358	223.81
266.591	267.81
266.823	295.81
267.055	321.81
267.287	263.81
267.52	262.81
267.752	284.81
267.984	304.81
268.216	308.81
268.448	258.81
268.681	245.81
268.913	259.81
269.145	274.81
269.377	288.81
269.609	271.81
269.841	259.81
270.073	275.81
270.306	289.81
270.538	304.81
270.77	311.81
271.002	285.81
271.234	325.81
271.466	312.81
271.698	295.81
271.93	295.81
272.162	298.81
272.394	285.81
272.626	291.81
272.858	276.81
273.09	294.81
273.322	275.81
273.553	238.81
273.785	264.81
274.017	363.81
274.249	428.81
274.481	455.81
274.713	493.81
274.945	560.81
275.176	582.81
275.408	517.81
275.64	478.81
275.872	477.81
276.104	423.81
276.335	364.81
276.567	352.81
276.799	385.81
277.031	400.81
277.262	327.81
277.494	257.81
277.726	248.81
277.957	255.81
278.189	280.81
278.421	301.81
278.652	268.81
278.884	259.81
279.115	263.81
279.347	251.81
279.579	253.81
279.81	275.81
280.042	266.81
280.273	268.81
280.505	256.81
280.736	233.81
280.968	219.81
281.199	244.81
281.431	273.81
281.662	260.81
281.894	245.81
282.125	276.81
282.356	283.81
282.588	292.81
282.819	246.81
283.051	277.81
283.282	328.81
283.513	379.81
283.745	422.81
283.976	401.81
284.207	385.81
284.439	407.81
284.67	371.81
284.901	349.81
285.132	375.81
285.364	388.81
285.595	343.81
285.826	384.81
286.057	389.81
286.288	364.81
286.52	380.81
286.751	403.81
286.982	419.81
287.213	376.81
287.444	334.81
287.675	360.81
287.906	361.81
288.138	313.81
288.369	272.81
288.6	289.81
288.831	268.81
289.062	350.81
289.293	336.81
289.524	342.81
289.755	309.81
289.986	341.81
290.217	308.81
290.448	249.81
290.679	207.81
290.91	216.81
291.141	212.81
291.371	215.81
291.602	240.81
291.833	217.81
292.064	219.81
292.295	256.81
292.526	300.81
292.757	293.81
292.987	321.81
293.218	328.81
293.449	348.81
293.68	357.81
293.91	337.81
294.141	357.81
294.372	334.81
294.603	293.81
294.833	340.81
295.064	377.81
295.295	370.81
295.525	285.81
295.756	233.81
295.987	227.81
296.217	214.81
296.448	219.81
296.679	213.81
296.909	269.81
297.14	265.81
297.37	268.81
297.601	281.81
297.831	248.81
298.062	278.81
298.292	297.81
298.523	319.81
298.753	320.81
298.984	321.81
299.214	257.81
299.445	251.81
299.675	235.81
299.905	221.81
300.136	210.81
300.366	229.81
300.597	246.81
300.827	235.81
301.057	218.81
301.288	234.81
301.518	224.81
301.748	245.81
301.979	277.81
302.209	307.81
302.439	303.81
302.669	260.81
302.9	262.81
303.13	247.81
303.36	241.81
303.59	237.81
303.82	248.81
304.051	276.81
304.281	275.81
304.511	258.81
304.741	246.81
304.971	253.81
305.201	273.81
305.431	259.81
305.661	239.81
305.891	249.81
306.121	214.81
306.352	218.81
306.582	195.81
306.812	190.81
307.042	190.81
307.272	172.81
307.502	188.81
307.731	225.81
307.961	219.81
308.191	210.81
308.421	194.81
308.651	188.81
308.881	183.81
309.111	192.81
309.341	191.81
309.571	210.81
309.8	217.81
310.03	198.81
310.26	211.81
310.49	218.81
310.72	203.81
310.949	205.81
311.179	195.81
311.409	225.81
311.639	248.81
311.868	269.81
312.098	346.81
312.328	369.81
312.557	363.81
312.787	373.81
313.017	303.81
313.246	336.81
313.476	380.81
313.706	317.81
313.935	282.81
314.165	231.81
314.394	209.81
314.624	224.81
314.853	229.81
315.083	227.81
315.312	234.81
315.542	223.81
315.771	214.81
316.001	193.81
316.23	186.81
316.46	195.81
316.689	188.81
316.919	212.81
317.148	198.81
317.377	199.81
317.607	218.81
317.836	216.81
318.065	227.81
318.295	246.81
318.524	222.81
318.753	221.81
318.983	204.81
319.212	194.81
319.441	209.81
319.67	234.81
319.9	239.81
320.129	239.81
320.358	209.81
320.587	190.81
320.816	208.81
321.046	245.81
321.275	261.81
321.504	265.81
321.733	264.81
321.962	235.81
322.191	233.81
322.42	244.81
322.649	227.81
322.878	249.81
323.108	236.81
323.337	235.81
323.566	232.81
323.795	237.81
324.024	219.81
324.253	228.81
324.482	214.81
324.71	221.81
324.939	265.81
325.168	263.81
325.397	212.81
325.626	209.81
325.855	224.81
326.084	213.81
326.313	213.81
326.542	204.81
326.77	195.81
326.999	224.81
327.228	228.81
327.457	219.81
327.686	215.81
327.914	213.81
328.143	195.81
328.372	196.81
328.6	179.81
328.829	196.81
329.058	211.81
329.287	207.81
329.515	202.81
329.744	224.81
329.972	205.81
330.201	198.81
330.43	180.81
330.658	189.81
330.887	215.81
331.115	239.81
331.344	213.81
331.572	220.81
331.801	204.81
332.03	193.81
332.258	216.81
332.486	219.81
332.715	224.81
332.943	212.81
333.172	221.81
333.4	230.81
333.629	260.81
333.857	261.81
334.085	253.81
334.314	238.81
334.542	262.81
334.771	221.81
334.999	225.81
335.227	216.81
335.455	221.81
335.684	233.81
335.912	258.81
336.14	293.81
336.369	275.81
336.597	265.81
336.825	277.81
337.053	300.81
337.281	262.81
337.51	200.81
337.738	210.81
337.966	220.81
338.194	256.81
338.422	248.81
338.65	215.81
338.878	213.81
339.106	215.81
339.334	226.81
339.562	215.81
339.79	226.81
340.018	232.81
340.246	235.81
340.474	239.81
340.702	246.81
340.93	272.81
341.158	264.81
341.386	222.81
341.614	215.81
341.842	229.81
342.07	234.81
342.298	258.81
342.526	268.81
342.754	250.81
342.981	234.81
343.209	240.81
343.437	235.81
343.665	252.81
343.893	269.81
344.12	294.81
344.348	328.81
344.576	307.81
344.804	253.81
345.031	215.81
345.259	212.81
345.487	213.81
345.714	238.81
345.942	233.81
346.17	240.81
346.397	249.81
346.625	225.81
346.853	224.81
347.08	224.81
347.308	242.81
347.535	236.81
347.763	242.81
347.99	230.81
348.218	238.81
348.445	222.81
348.673	220.81
348.9	225.81
349.128	230.81
349.355	240.81
349.583	227.81
349.81	235.81
350.037	211.81
350.265	218.81
350.492	192.81
350.72	180.81
350.947	192.81
351.174	204.81
351.402	209.81
351.629	213.81
351.856	195.81
352.083	204.81
352.311	218.81
352.538	227.81
352.765	248.81
352.992	223.81
353.22	226.81
353.447	223.81
353.674	225.81
353.901	207.81
354.128	208.81
354.355	220.81
354.583	234.81
354.81	215.81
355.037	241.81
355.264	222.81
355.491	238.81
355.718	233.81
355.945	237.81
356.172	229.81
356.399	233.81
356.626	253.81
356.853	320.81
357.08	342.81
357.307	354.81
357.534	280.81
357.761	270.81
357.988	355.81
358.215	370.81
358.441	359.81
358.668	333.81
358.895	315.81
359.122	243.81
359.349	276.81
359.576	293.81
359.802	239.81
360.029	229.81
360.256	240.81
360.483	241.81
360.709	316.81
360.936	357.81
361.163	278.81
361.39	242.81
361.616	229.81
361.843	262.81
362.07	301.81
362.296	268.81
362.523	222.81
362.749	196.81
362.976	220.81
363.203	264.81
363.429	265.81
363.656	241.81
363.882	227.81
364.109	218.81
364.335	226.81
364.562	209.81
364.788	241.81
365.015	273.81
365.241	235.81
365.468	204.81
365.694	215.81
365.92	191.81
366.147	202.81
366.373	171.81
366.599	191.81
366.826	167.81
367.052	192.81
367.278	199.81
367.505	192.81
367.731	214.81
367.957	212.81
368.184	227.81
368.41	232.81
368.636	220.81
368.862	230.81
369.089	221.81
369.315	200.81
369.541	213.81
369.767	187.81
369.993	194.81
370.219	210.81
370.445	199.81
370.672	221.81
370.898	247.81
371.124	219.81
371.35	213.81
371.576	208.81
371.802	224.81
372.028	243.81
372.254	277.81
372.48	264.81
372.706	224.81
372.932	246.81
373.158	252.81
373.384	279.81
373.61	332.81
373.835	355.81
374.061	298.81
374.287	257.81
374.513	278.81
374.739	329.81
374.965	329.81
375.191	345.81
375.416	263.81
375.642	224.81
375.868	261.81
376.094	287.81
376.319	257.81
376.545	266.81
376.771	269.81
376.997	250.81
377.222	226.81
377.448	193.81
377.674	180.81
377.899	172.81
378.125	198.81
378.35	193.81
378.576	200.81
378.802	218.81
379.027	206.81
379.253	221.81
379.478	225.81
379.704	220.81
379.929	232.81
380.155	236.81
380.38	206.81
380.606	215.81
380.831	222.81
381.057	252.81
381.282	229.81
381.507	236.81
381.733	272.81
381.958	292.81
382.184	325.81
382.409	340.81
382.634	346.81
382.86	345.81
383.085	290.81
383.31	266.81
383.535	273.81
383.761	278.81
383.986	254.81
384.211	273.81
384.436	289.81
384.662	247.81
384.887	230.81
385.112	244.81
385.337	225.81
385.562	243.81
385.787	253.81
386.013	278.81
386.238	275.81
386.463	237.81
386.688	231.81
386.913	233.81
387.138	204.81
387.363	227.81
387.588	211.81
387.813	228.81
388.038	243.81
388.263	245.81
388.488	240.81
388.713	267.81
388.938	261.81
389.163	224.81
389.387	236.81
389.612	216.81
389.837	226.81
390.062	230.81
390.287	240.81
390.512	223.81
390.736	234.81
390.961	239.81
391.186	204.81
391.411	215.81
391.636	212.81
391.86	202.81
392.085	269.81
392.31	253.81
392.534	229.81
392.759	224.81
392.984	240.81
393.208	245.81
393.433	212.81
393.658	224.81
393.882	192.81
394.107	205.81
394.331	204.81
394.556	197.81
394.78	215.81
395.005	213.81
395.229	210.81
395.454	211.81
395.678	223.81
395.903	211.81
396.127	206.81
396.352	204.81
396.576	233.81
396.801	222.81
397.025	249.81
397.249	248.81
397.474	232.81
397.698	219.81
397.922	218.81
398.147	228.81
398.371	219.81
398.595	243.81
398.82	240.81
399.044	231.81
399.268	249.81
399.492	261.81
399.717	281.81
399.941	291.81
400.165	258.81
400.389	252.81
400.613	256.81
400.837	257.81
401.062	219.81
401.286	216.81
401.51	242.81
401.734	230.81
401.958	239.81
402.182	223.81
402.406	233.81
402.63	239.81
402.854	241.81
403.078	270.81
403.302	369.81
403.526	356.81
403.75	323.81
403.974	276.81
404.198	299.81
404.422	291.81
404.645	308.81
404.869	331.81
405.093	284.81
405.317	243.81
405.541	256.81
405.765	263.81
405.988	257.81
406.212	255.81
406.436	293.81
406.66	327.81
406.883	269.81
407.107	279.81
407.331	321.81
407.555	327.81
407.778	268.81
408.002	280.81
408.226	279.81
408.449	262.81
408.673	263.81
408.896	247.81
409.12	234.81
409.344	233.81
409.567	245.81
409.791	243.81
410.014	231.81
410.238	230.81
410.461	257.81
410.685	247.81
410.908	223.81
411.132	241.81
411.355	233.81
411.578	261.81
411.802	249.81
412.025	243.81
412.249	261.81
412.472	242.81
412.695	255.81
412.919	229.81
413.142	234.81
413.365	250.81
413.589	258.81
413.812	235.81
414.035	223.81
414.258	230.81
414.482	242.81
414.705	250.81
414.928	233.81
415.151	230.81
415.374	245.81
415.597	244.81
415.821	227.81
416.044	236.81
416.267	223.81
416.49	206.81
416.713	231.81
416.936	216.81
417.159	224.81
417.382	232.81
417.605	224.81
417.828	230.81
418.051	223.81
418.274	226.81
418.497	226.81
418.72	242.81
418.943	240.81
419.166	269.81
419.389	244.81
419.611	234.81
419.834	243.81
420.057	245.81
420.28	253.81
420.503	248.81
420.726	240.81
420.948	217.81
421.171	231.81
421.394	227.81
421.617	226.81
421.839	216.81
422.062	232.81
422.285	236.81
422.507	212.81
422.73	246.81
422.953	260.81
423.175	237.81
423.398	240.81
423.621	259.81
423.843	269.81
424.066	236.81
424.288	242.81
424.511	235.81
424.733	245.81
424.956	245.81
425.178	255.81
425.401	297.81
425.623	343.81
425.846	295.81
426.068	258.81
426.291	251.81
426.513	259.81
426.735	230.81
426.958	246.81
427.18	274.81
427.402	325.81
427.625	348.81
427.847	296.81
428.069	223.81
428.292	239.81
428.514	228.81
428.736	219.81
428.958	249.81
429.181	289.81
429.403	277.81
429.625	233.81
429.847	232.81
430.069	207.81
430.292	211.81
430.514	195.81
430.736	229.81
430.958	241.81
431.18	251.81
431.402	224.81
431.624	215.81
431.846	193.81
432.068	221.81
432.29	223.81
432.512	224.81
432.734	262.81
432.956	264.81
433.178	235.81
433.4	212.81
433.622	223.81
433.844	228.81
434.066	239.81
434.287	235.81
434.509	224.81
434.731	243.81
434.953	228.81
435.175	232.81
435.397	264.81
435.618	226.81
435.84	224.81
436.062	214.81
436.284	218.81
436.505	216.81
436.727	227.81
436.949	217.81
437.17	220.81
437.392	231.81
437.614	216.81
437.835	219.81
438.057	208.81
438.278	232.81
438.5	289.81
438.721	309.81
438.943	237.81
439.165	220.81
439.386	208.81
439.608	213.81
439.829	216.81
440.05	223.81
440.272	236.81
440.493	256.81
440.715	275.81
440.936	245.81
441.158	233.81
441.379	235.81
441.6	260.81
441.822	240.81
442.043	236.81
442.264	225.81
442.486	207.81
442.707	235.81
442.928	229.81
443.149	242.81
443.371	241.81
443.592	239.81
443.813	235.81
444.034	217.81
444.255	246.81
444.476	243.81
444.698	261.81
444.919	272.81
445.14	336.81
445.361	300.81
445.582	247.81
445.803	235.81
446.024	223.81
446.245	245.81
446.466	234.81
446.687	215.81
446.908	231.81
447.129	210.81
447.35	211.81
447.571	203.81
447.792	193.81
448.013	198.81
448.234	203.81
448.455	212.81
448.675	196.81
448.896	221.81
449.117	208.81
449.338	196.81
449.559	208.81
449.779	214.81
450	228.81
450.221	208.81
450.442	213.81
450.662	199.81
450.883	213.81
451.104	216.81
451.324	204.81
451.545	225.81
451.766	217.81
451.986	233.81
452.207	222.81
452.428	214.81
452.648	191.81
452.869	215.81
453.089	236.81
453.31	233.81
453.53	200.81
453.751	204.81
453.971	206.81
454.192	216.81
454.412	210.81
454.633	196.81
454.853	203.81
455.073	195.81
455.294	200.81
455.514	202.81
455.734	203.81
455.955	208.81
456.175	195.81
456.395	184.81
456.616	188.81
456.836	186.81
457.056	191.81
457.276	179.81
457.497	197.81
457.717	213.81
457.937	192.81
458.157	197.81
458.377	192.81
458.598	205.81
458.818	209.81
459.038	219.81
459.258	218.81
459.478	231.81
459.698	230.81
459.918	201.81
460.138	232.81
460.358	255.81
460.578	233.81
460.798	244.81
461.018	243.81
461.238	221.81
461.458	240.81
461.678	240.81
461.898	256.81
462.118	240.81
462.338	231.81
462.558	243.81
462.777	257.81
462.997	286.81
463.217	269.81
463.437	281.81
463.657	279.81
463.876	266.81
464.096	253.81
464.316	261.81
464.536	256.81
464.755	268.81
464.975	277.81
465.195	260.81
465.414	278.81
465.634	255.81
465.854	222.81
466.073	227.81
466.293	212.81
466.512	207.81
466.732	253.81
466.951	228.81
467.171	233.81
467.391	211.81
467.61	224.81
467.829	223.81
468.049	246.81
468.268	220.81
468.488	219.81
468.707	211.81
468.927	249.81
469.146	281.81
469.365	260.81
469.585	234.81
469.804	233.81
470.023	270.81
470.243	245.81
470.462	249.81
470.681	234.81
470.901	211.81
471.12	238.81
471.339	228.81
471.558	221.81
471.777	245.81
471.997	259.81
472.216	275.81
472.435	267.81
472.654	237.81
472.873	225.81
473.092	238.81
473.311	254.81
473.53	224.81
473.749	218.81
473.968	228.81
474.187	231.81
474.406	222.81
474.625	231.81
474.844	227.81
475.063	235.81
475.282	234.81
475.501	239.81
475.72	259.81
475.939	253.81
476.158	261.81
476.377	296.81
476.596	311.81
476.814	321.81
477.033	295.81
477.252	250.81
477.471	241.81
477.69	234.81
477.908	263.81
478.127	273.81
478.346	251.81
478.564	274.81
478.783	279.81
479.002	275.81
479.22	288.81
479.439	314.81
479.658	275.81
479.876	271.81
480.095	289.81
480.313	281.81
480.532	275.81
480.751	271.81
480.969	261.81
481.188	276.81
481.406	303.81
481.624	290.81
481.843	245.81
482.061	257.81
482.28	273.81
482.498	319.81
482.717	302.81
482.935	270.81
483.153	265.81
483.372	244.81
483.59	261.81
483.808	241.81
484.027	248.81
484.245	261.81
484.463	241.81
484.681	241.81
484.9	259.81
485.118	272.81
485.336	275.81
485.554	240.81
485.772	253.81
485.99	269.81
486.209	289.81
486.427	296.81
486.645	281.81
486.863	286.81
487.081	289.81
487.299	321.81
487.517	291.81
487.735	274.81
487.953	271.81
488.171	272.81
488.389	284.81
488.607	267.81
488.825	292.81
489.043	266.81
489.261	295.81
489.479	314.81
489.696	291.81
489.914	239.81
490.132	263.81
490.35	269.81
490.568	274.81
490.786	275.81
491.003	243.81
491.221	263.81
491.439	259.81
491.657	263.81
491.874	277.81
492.092	321.81
492.31	353.81
492.527	358.81
492.745	312.81
492.963	293.81
493.18	269.81
493.398	276.81
493.615	288.81
493.833	292.81
494.05	284.81
494.268	285.81
494.485	284.81
494.703	259.81
494.92	276.81
495.138	256.81
495.355	263.81
495.573	261.81
495.79	281.81
496.008	373.81
496.225	315.81
496.442	303.81
496.66	303.81
496.877	302.81
497.094	319.81
497.312	284.81
497.529	294.81
497.746	298.81
497.963	295.81
498.181	328.81
498.398	330.81
498.615	352.81
498.832	373.81
499.049	378.81
499.267	352.81
499.484	352.81
499.701	397.81
499.918	443.81
500.135	484.81
500.352	497.81
500.569	565.81
500.786	531.81
501.003	525.81
501.22	475.81
501.437	420.81
501.654	394.81
501.871	368.81
502.088	362.81
502.305	343.81
502.522	335.81
