Data from NickelSpatula.Lamp.E5.5.P2_HRD10591_11-54-02-546.txt Node
Date: Tue Jul 23 11:54:02 EDT 2019
User: cochatt
Spectrometer: HR+D1059
Trigger mode: 1
Integration Time (sec): 1.000000E-1
Scans to average: 1
Electric dark correction enabled: true
Nonlinearity correction enabled: false
Boxcar width: 0
XAxis mode: Wavelengths
Number of Pixels in Spectrum: 2048
>>>>>Begin Spectral Data<<<<<
223.165	-28.75
223.4	-28.75
223.635	-28.75
223.869	-18.75
224.104	-18.75
224.338	-17.75
224.573	-16.75
224.808	-14.75
225.042	-3.75
225.277	-6.75
225.511	-4.75
225.746	-1.75
225.98	12.25
226.215	7.25
226.449	14.25
226.683	32.25
226.918	32.25
227.152	34.25
227.387	21.25
227.621	16.25
227.856	24.25
228.09	29.25
228.324	45.25
228.559	56.25
228.793	49.25
229.027	70.25
229.262	77.25
229.496	66.25
229.73	75.25
229.964	93.25
230.199	94.25
230.433	93.25
230.667	82.25
230.901	98.25
231.136	93.25
231.37	91.25
231.604	112.25
231.838	87.25
232.072	102.25
232.306	104.25
232.541	116.25
232.775	101.25
233.009	84.25
233.243	108.25
233.477	109.25
233.711	117.25
233.945	117.25
234.179	115.25
234.413	125.25
234.647	126.25
234.881	142.25
235.115	140.25
235.349	129.25
235.583	129.25
235.817	119.25
236.051	118.25
236.285	126.25
236.519	136.25
236.753	135.25
236.987	148.25
237.221	138.25
237.455	137.25
237.689	122.25
237.922	148.25
238.156	142.25
238.39	157.25
238.624	176.25
238.858	173.25
239.091	142.25
239.325	145.25
239.559	136.25
239.793	144.25
240.027	176.25
240.26	175.25
240.494	154.25
240.728	159.25
240.961	184.25
241.195	179.25
241.429	164.25
241.662	173.25
241.896	143.25
242.13	136.25
242.363	135.25
242.597	135.25
242.83	136.25
243.064	148.25
243.298	154.25
243.531	175.25
243.765	168.25
243.998	166.25
244.232	171.25
244.465	148.25
244.699	147.25
244.932	177.25
245.166	172.25
245.399	166.25
245.633	158.25
245.866	157.25
246.099	155.25
246.333	188.25
246.566	211.25
246.8	199.25
247.033	204.25
247.266	178.25
247.5	165.25
247.733	159.25
247.966	165.25
248.2	177.25
248.433	195.25
248.666	204.25
248.899	193.25
249.133	197.25
249.366	233.25
249.599	250.25
249.832	216.25
250.066	190.25
250.299	202.25
250.532	202.25
250.765	188.25
250.998	183.25
251.231	178.25
251.465	200.25
251.698	204.25
251.931	208.25
252.164	206.25
252.397	208.25
252.63	241.25
252.863	259.25
253.096	263.25
253.329	251.25
253.562	253.25
253.795	282.25
254.028	299.25
254.261	323.25
254.494	289.25
254.727	263.25
254.96	268.25
255.193	276.25
255.426	257.25
255.659	204.25
255.892	191.25
256.124	198.25
256.357	227.25
256.59	261.25
256.823	259.25
257.056	233.25
257.289	213.25
257.521	217.25
257.754	270.25
257.987	284.25
258.22	257.25
258.452	243.25
258.685	261.25
258.918	280.25
259.151	270.25
259.383	303.25
259.616	344.25
259.849	352.25
260.081	380.25
260.314	402.25
260.547	324.25
260.779	350.25
261.012	389.25
261.244	355.25
261.477	367.25
261.71	328.25
261.942	293.25
262.175	295.25
262.407	279.25
262.64	264.25
262.872	312.25
263.105	346.25
263.337	378.25
263.57	344.25
263.802	240.25
264.035	204.25
264.267	204.25
264.499	195.25
264.732	179.25
264.964	165.25
265.197	170.25
265.429	191.25
265.661	199.25
265.894	202.25
266.126	213.25
266.358	240.25
266.591	284.25
266.823	322.25
267.055	319.25
267.287	267.25
267.52	282.25
267.752	292.25
267.984	305.25
268.216	313.25
268.448	263.25
268.681	253.25
268.913	283.25
269.145	294.25
269.377	269.25
269.609	283.25
269.841	270.25
270.073	278.25
270.306	308.25
270.538	335.25
270.77	303.25
271.002	289.25
271.234	328.25
271.466	327.25
271.698	313.25
271.93	300.25
272.162	302.25
272.394	311.25
272.626	312.25
272.858	308.25
273.09	309.25
273.322	274.25
273.553	270.25
273.785	300.25
274.017	390.25
274.249	462.25
274.481	479.25
274.713	536.25
274.945	605.25
275.176	668.25
275.408	547.25
275.64	527.25
275.872	529.25
276.104	461.25
276.335	409.25
276.567	399.25
276.799	430.25
277.031	437.25
277.262	347.25
277.494	270.25
277.726	258.25
277.957	279.25
278.189	307.25
278.421	316.25
278.652	313.25
278.884	295.25
279.115	277.25
279.347	260.25
279.579	256.25
279.81	278.25
280.042	274.25
280.273	280.25
280.505	254.25
280.736	234.25
280.968	243.25
281.199	238.25
281.431	268.25
281.662	300.25
281.894	242.25
282.125	268.25
282.356	280.25
282.588	294.25
282.819	273.25
283.051	283.25
283.282	348.25
283.513	379.25
283.745	422.25
283.976	451.25
284.207	392.25
284.439	390.25
284.67	423.25
284.901	369.25
285.132	393.25
285.364	390.25
285.595	378.25
285.826	398.25
286.057	416.25
286.288	395.25
286.52	382.25
286.751	389.25
286.982	424.25
287.213	388.25
287.444	378.25
287.675	369.25
287.906	370.25
288.138	341.25
288.369	296.25
288.6	296.25
288.831	313.25
289.062	323.25
289.293	384.25
289.524	341.25
289.755	327.25
289.986	349.25
290.217	326.25
290.448	248.25
290.679	217.25
290.91	195.25
291.141	206.25
291.371	233.25
291.602	210.25
291.833	226.25
292.064	255.25
292.295	267.25
292.526	287.25
292.757	289.25
292.987	337.25
293.218	321.25
293.449	374.25
293.68	359.25
293.91	355.25
294.141	370.25
294.372	336.25
294.603	311.25
294.833	330.25
295.064	400.25
295.295	390.25
295.525	292.25
295.756	244.25
295.987	216.25
296.217	229.25
296.448	234.25
296.679	215.25
296.909	271.25
297.14	261.25
297.37	288.25
297.601	287.25
297.831	254.25
298.062	273.25
298.292	311.25
298.523	310.25
298.753	339.25
298.984	339.25
299.214	261.25
299.445	238.25
299.675	234.25
299.905	235.25
300.136	229.25
300.366	256.25
300.597	252.25
300.827	214.25
301.057	236.25
301.288	211.25
301.518	232.25
301.748	268.25
301.979	281.25
302.209	294.25
302.439	307.25
302.669	284.25
302.9	274.25
303.13	251.25
303.36	250.25
303.59	252.25
303.82	264.25
304.051	275.25
304.281	280.25
304.511	275.25
304.741	245.25
304.971	248.25
305.201	283.25
305.431	263.25
305.661	251.25
305.891	227.25
306.121	248.25
306.352	208.25
306.582	205.25
306.812	184.25
307.042	199.25
307.272	187.25
307.502	206.25
307.731	216.25
307.961	209.25
308.191	215.25
308.421	200.25
308.651	204.25
308.881	180.25
309.111	174.25
309.341	195.25
309.571	208.25
309.8	216.25
310.03	213.25
310.26	210.25
310.49	212.25
310.72	201.25
310.949	208.25
311.179	198.25
311.409	210.25
311.639	239.25
311.868	274.25
312.098	365.25
312.328	398.25
312.557	374.25
312.787	397.25
313.017	333.25
313.246	368.25
313.476	388.25
313.706	335.25
313.935	283.25
314.165	211.25
314.394	225.25
314.624	219.25
314.853	209.25
315.083	224.25
315.312	211.25
315.542	235.25
315.771	199.25
316.001	193.25
316.23	185.25
316.46	187.25
316.689	194.25
316.919	202.25
317.148	215.25
317.377	203.25
317.607	195.25
317.836	182.25
318.065	247.25
318.295	261.25
318.524	259.25
318.753	213.25
318.983	195.25
319.212	191.25
319.441	214.25
319.67	246.25
319.9	255.25
320.129	262.25
320.358	218.25
320.587	205.25
320.816	219.25
321.046	247.25
321.275	258.25
321.504	262.25
321.733	267.25
321.962	254.25
322.191	223.25
322.42	199.25
322.649	222.25
322.878	226.25
323.108	247.25
323.337	231.25
323.566	228.25
323.795	239.25
324.024	220.25
324.253	205.25
324.482	215.25
324.71	229.25
324.939	257.25
325.168	243.25
325.397	222.25
325.626	209.25
325.855	214.25
326.084	197.25
326.313	204.25
326.542	204.25
326.77	205.25
326.999	215.25
327.228	217.25
327.457	224.25
327.686	226.25
327.914	206.25
328.143	192.25
328.372	185.25
328.6	175.25
328.829	204.25
329.058	198.25
329.287	200.25
329.515	212.25
329.744	200.25
329.972	204.25
330.201	164.25
330.43	198.25
330.658	191.25
330.887	217.25
331.115	230.25
331.344	240.25
331.572	226.25
331.801	214.25
332.03	205.25
332.258	197.25
332.486	216.25
332.715	220.25
332.943	223.25
333.172	206.25
333.4	219.25
333.629	240.25
333.857	264.25
334.085	251.25
334.314	262.25
334.542	239.25
334.771	222.25
334.999	222.25
335.227	232.25
335.455	223.25
335.684	236.25
335.912	252.25
336.14	285.25
336.369	264.25
336.597	269.25
336.825	302.25
337.053	318.25
337.281	272.25
337.51	223.25
337.738	211.25
337.966	224.25
338.194	258.25
338.422	238.25
338.65	207.25
338.878	190.25
339.106	205.25
339.334	228.25
339.562	218.25
339.79	223.25
340.018	209.25
340.246	212.25
340.474	251.25
340.702	260.25
340.93	274.25
341.158	275.25
341.386	211.25
341.614	228.25
341.842	247.25
342.07	255.25
342.298	271.25
342.526	282.25
342.754	244.25
342.981	208.25
343.209	224.25
343.437	254.25
343.665	269.25
343.893	278.25
344.12	303.25
344.348	342.25
344.576	320.25
344.804	268.25
345.031	214.25
345.259	215.25
345.487	217.25
345.714	214.25
345.942	221.25
346.17	265.25
346.397	264.25
346.625	221.25
346.853	236.25
347.08	222.25
347.308	213.25
347.535	240.25
347.763	280.25
347.99	230.25
348.218	216.25
348.445	214.25
348.673	214.25
348.9	200.25
349.128	225.25
349.355	226.25
349.583	229.25
349.81	207.25
350.037	220.25
350.265	188.25
350.492	184.25
350.72	192.25
350.947	192.25
351.174	213.25
351.402	215.25
351.629	222.25
351.856	218.25
352.083	206.25
352.311	217.25
352.538	227.25
352.765	221.25
352.992	211.25
353.22	196.25
353.447	206.25
353.674	218.25
353.901	219.25
354.128	202.25
354.355	220.25
354.583	234.25
354.81	212.25
355.037	221.25
355.264	218.25
355.491	224.25
355.718	234.25
355.945	224.25
356.172	232.25
356.399	244.25
356.626	274.25
356.853	318.25
357.08	339.25
357.307	322.25
357.534	280.25
357.761	285.25
357.988	370.25
358.215	400.25
358.441	356.25
358.668	324.25
358.895	288.25
359.122	242.25
359.349	280.25
359.576	286.25
359.802	246.25
360.029	200.25
360.256	223.25
360.483	268.25
360.709	335.25
360.936	325.25
361.163	304.25
361.39	224.25
361.616	231.25
361.843	255.25
362.07	304.25
362.296	273.25
362.523	239.25
362.749	214.25
362.976	205.25
363.203	253.25
363.429	264.25
363.656	231.25
363.882	227.25
364.109	228.25
364.335	218.25
364.562	214.25
364.788	223.25
365.015	254.25
365.241	249.25
365.468	229.25
365.694	184.25
365.92	188.25
366.147	178.25
366.373	194.25
366.599	194.25
366.826	186.25
367.052	184.25
367.278	180.25
367.505	184.25
367.731	207.25
367.957	218.25
368.184	222.25
368.41	212.25
368.636	232.25
368.862	225.25
369.089	223.25
369.315	213.25
369.541	218.25
369.767	218.25
369.993	199.25
370.219	198.25
370.445	197.25
370.672	221.25
370.898	250.25
371.124	231.25
371.35	213.25
371.576	231.25
371.802	199.25
372.028	254.25
372.254	291.25
372.48	270.25
372.706	230.25
372.932	231.25
373.158	255.25
373.384	280.25
373.61	369.25
373.835	368.25
374.061	279.25
374.287	254.25
374.513	285.25
374.739	334.25
374.965	340.25
375.191	336.25
375.416	265.25
375.642	233.25
375.868	270.25
376.094	293.25
376.319	247.25
376.545	274.25
376.771	266.25
376.997	240.25
377.222	203.25
377.448	204.25
377.674	194.25
377.899	194.25
378.125	187.25
378.35	188.25
378.576	193.25
378.802	186.25
379.027	210.25
379.253	196.25
379.478	210.25
379.704	234.25
379.929	231.25
380.155	247.25
380.38	230.25
380.606	221.25
380.831	241.25
381.057	231.25
381.282	220.25
381.507	255.25
381.733	295.25
381.958	293.25
382.184	316.25
382.409	338.25
382.634	314.25
382.86	337.25
383.085	283.25
383.31	253.25
383.535	257.25
383.761	266.25
383.986	242.25
384.211	277.25
384.436	280.25
384.662	249.25
384.887	225.25
385.112	250.25
385.337	246.25
385.562	242.25
385.787	247.25
386.013	264.25
386.238	281.25
386.463	233.25
386.688	245.25
386.913	228.25
387.138	212.25
387.363	213.25
387.588	231.25
387.813	236.25
388.038	256.25
388.263	223.25
388.488	217.25
388.713	245.25
388.938	246.25
389.163	222.25
389.387	205.25
389.612	201.25
389.837	206.25
390.062	221.25
390.287	236.25
390.512	227.25
390.736	205.25
390.961	196.25
391.186	215.25
391.411	205.25
391.636	208.25
391.86	219.25
392.085	236.25
392.31	242.25
392.534	225.25
392.759	243.25
392.984	222.25
393.208	221.25
393.433	208.25
393.658	219.25
393.882	194.25
394.107	192.25
394.331	181.25
394.556	177.25
394.78	198.25
395.005	188.25
395.229	188.25
395.454	210.25
395.678	211.25
395.903	201.25
396.127	209.25
396.352	208.25
396.576	212.25
396.801	218.25
397.025	256.25
397.249	252.25
397.474	232.25
397.698	212.25
397.922	216.25
398.147	221.25
398.371	227.25
398.595	215.25
398.82	223.25
399.044	222.25
399.268	231.25
399.492	270.25
399.717	270.25
399.941	292.25
400.165	246.25
400.389	234.25
400.613	253.25
400.837	244.25
401.062	199.25
401.286	227.25
401.51	214.25
401.734	204.25
401.958	232.25
402.182	240.25
402.406	234.25
402.63	245.25
402.854	263.25
403.078	283.25
403.302	354.25
403.526	360.25
403.75	314.25
403.974	258.25
404.198	268.25
404.422	284.25
404.645	318.25
404.869	334.25
405.093	271.25
405.317	250.25
405.541	246.25
405.765	243.25
405.988	256.25
406.212	256.25
406.436	288.25
406.66	293.25
406.883	265.25
407.107	271.25
407.331	307.25
407.555	302.25
407.778	263.25
408.002	270.25
408.226	243.25
408.449	269.25
408.673	265.25
408.896	254.25
409.12	236.25
409.344	217.25
409.567	234.25
409.791	246.25
410.014	222.25
410.238	231.25
410.461	231.25
410.685	226.25
410.908	224.25
411.132	236.25
411.355	235.25
411.578	229.25
411.802	228.25
412.025	242.25
412.249	248.25
412.472	231.25
412.695	213.25
412.919	215.25
413.142	230.25
413.365	244.25
413.589	234.25
413.812	238.25
414.035	223.25
414.258	222.25
414.482	251.25
414.705	224.25
414.928	226.25
415.151	215.25
415.374	214.25
415.597	223.25
415.821	211.25
416.044	232.25
416.267	231.25
416.49	224.25
416.713	218.25
416.936	216.25
417.159	214.25
417.382	227.25
417.605	222.25
417.828	228.25
418.051	234.25
418.274	226.25
418.497	228.25
418.72	227.25
418.943	233.25
419.166	224.25
419.389	250.25
419.611	241.25
419.834	240.25
420.057	241.25
420.28	242.25
420.503	228.25
420.726	220.25
420.948	227.25
421.171	222.25
421.394	207.25
421.617	210.25
421.839	232.25
422.062	229.25
422.285	206.25
422.507	232.25
422.73	231.25
422.953	237.25
423.175	238.25
423.398	228.25
423.621	244.25
423.843	269.25
424.066	225.25
424.288	225.25
424.511	235.25
424.733	220.25
424.956	245.25
425.178	260.25
425.401	281.25
425.623	359.25
425.846	285.25
426.068	247.25
426.291	259.25
426.513	235.25
426.735	231.25
426.958	242.25
427.18	250.25
427.402	332.25
427.625	348.25
427.847	295.25
428.069	240.25
428.292	221.25
428.514	212.25
428.736	218.25
428.958	250.25
429.181	277.25
429.403	239.25
429.625	221.25
429.847	231.25
430.069	213.25
430.292	220.25
430.514	222.25
430.736	234.25
430.958	280.25
431.18	248.25
431.402	216.25
431.624	208.25
431.846	207.25
432.068	209.25
432.29	226.25
432.512	214.25
432.734	259.25
432.956	248.25
433.178	241.25
433.4	208.25
433.622	209.25
433.844	220.25
434.066	236.25
434.287	231.25
434.509	250.25
434.731	236.25
434.953	222.25
435.175	224.25
435.397	254.25
435.618	231.25
435.84	216.25
436.062	227.25
436.284	219.25
436.505	196.25
436.727	204.25
436.949	223.25
437.17	212.25
437.392	213.25
437.614	206.25
437.835	209.25
438.057	198.25
438.278	212.25
438.5	302.25
438.721	296.25
438.943	222.25
439.165	214.25
439.386	207.25
439.608	209.25
439.829	189.25
440.05	218.25
440.272	215.25
440.493	230.25
440.715	292.25
440.936	244.25
441.158	214.25
441.379	218.25
441.6	244.25
441.822	236.25
442.043	239.25
442.264	216.25
442.486	219.25
442.707	227.25
442.928	228.25
443.149	221.25
443.371	234.25
443.592	229.25
443.813	236.25
444.034	234.25
444.255	210.25
444.476	228.25
444.698	242.25
444.919	241.25
445.14	337.25
445.361	305.25
445.582	246.25
445.803	243.25
446.024	231.25
446.245	240.25
446.466	225.25
446.687	223.25
446.908	209.25
447.129	215.25
447.35	215.25
447.571	212.25
447.792	199.25
448.013	199.25
448.234	186.25
448.455	202.25
448.675	199.25
448.896	206.25
449.117	189.25
449.338	199.25
449.559	217.25
449.779	221.25
450	206.25
450.221	211.25
450.442	209.25
450.662	209.25
450.883	205.25
451.104	197.25
451.324	199.25
451.545	202.25
451.766	210.25
451.986	221.25
452.207	200.25
452.428	198.25
452.648	211.25
452.869	219.25
453.089	208.25
453.31	209.25
453.53	190.25
453.751	204.25
453.971	190.25
454.192	210.25
454.412	200.25
454.633	195.25
454.853	204.25
455.073	195.25
455.294	203.25
455.514	176.25
455.734	207.25
455.955	206.25
456.175	191.25
456.395	207.25
456.616	200.25
456.836	184.25
457.056	205.25
457.276	190.25
457.497	191.25
457.717	184.25
457.937	195.25
458.157	194.25
458.377	199.25
458.598	199.25
458.818	194.25
459.038	211.25
459.258	206.25
459.478	215.25
459.698	242.25
459.918	238.25
460.138	227.25
460.358	250.25
460.578	227.25
460.798	220.25
461.018	229.25
461.238	227.25
461.458	215.25
461.678	234.25
461.898	246.25
462.118	227.25
462.338	234.25
462.558	266.25
462.777	267.25
462.997	257.25
463.217	282.25
463.437	274.25
463.657	264.25
463.876	270.25
464.096	252.25
464.316	256.25
464.536	272.25
464.755	268.25
464.975	256.25
465.195	270.25
465.414	244.25
465.634	240.25
465.854	228.25
466.073	218.25
466.293	211.25
466.512	222.25
466.732	234.25
466.951	269.25
467.171	232.25
467.391	203.25
467.61	229.25
467.829	240.25
468.049	238.25
468.268	221.25
468.488	226.25
468.707	219.25
468.927	252.25
469.146	279.25
469.365	274.25
469.585	226.25
469.804	246.25
470.023	250.25
470.243	253.25
470.462	213.25
470.681	223.25
470.901	230.25
471.12	237.25
471.339	239.25
471.558	200.25
471.777	235.25
471.997	248.25
472.216	252.25
472.435	235.25
472.654	222.25
472.873	223.25
473.092	239.25
473.311	256.25
473.53	215.25
473.749	225.25
473.968	227.25
474.187	261.25
474.406	233.25
474.625	223.25
474.844	232.25
475.063	240.25
475.282	248.25
475.501	257.25
475.72	270.25
475.939	250.25
476.158	243.25
476.377	273.25
476.596	335.25
476.814	339.25
477.033	270.25
477.252	244.25
477.471	232.25
477.69	230.25
477.908	259.25
478.127	272.25
478.346	244.25
478.564	284.25
478.783	271.25
479.002	260.25
479.22	291.25
479.439	335.25
479.658	287.25
479.876	265.25
480.095	279.25
480.313	270.25
480.532	284.25
480.751	276.25
480.969	266.25
481.188	293.25
481.406	311.25
481.624	284.25
481.843	258.25
482.061	257.25
482.28	293.25
482.498	334.25
482.717	325.25
482.935	290.25
483.153	262.25
483.372	238.25
483.59	235.25
483.808	248.25
484.027	228.25
484.245	234.25
484.463	242.25
484.681	257.25
484.9	255.25
485.118	276.25
485.336	258.25
485.554	236.25
485.772	260.25
485.99	282.25
486.209	300.25
486.427	308.25
486.645	263.25
486.863	278.25
487.081	273.25
487.299	301.25
487.517	300.25
487.735	259.25
487.953	282.25
488.171	270.25
488.389	270.25
488.607	252.25
488.825	262.25
489.043	302.25
489.261	318.25
489.479	328.25
489.696	284.25
489.914	282.25
490.132	252.25
490.35	229.25
490.568	237.25
490.786	267.25
491.003	250.25
491.221	274.25
491.439	264.25
491.657	260.25
491.874	253.25
492.092	300.25
492.31	352.25
492.527	357.25
492.745	308.25
492.963	278.25
493.18	291.25
493.398	295.25
493.615	289.25
493.833	284.25
494.05	284.25
494.268	287.25
494.485	279.25
494.703	244.25
494.92	269.25
495.138	288.25
495.355	272.25
495.573	299.25
495.79	285.25
496.008	339.25
496.225	320.25
496.442	291.25
496.66	298.25
496.877	306.25
497.094	324.25
497.312	279.25
497.529	297.25
497.746	306.25
497.963	295.25
498.181	312.25
498.398	339.25
498.615	343.25
498.832	363.25
499.049	384.25
499.267	366.25
499.484	350.25
499.701	399.25
499.918	423.25
500.135	484.25
500.352	487.25
500.569	505.25
500.786	533.25
501.003	499.25
501.22	466.25
501.437	436.25
501.654	373.25
501.871	362.25
502.088	352.25
502.305	332.25
502.522	325.25
