Data from NickelSpatula_HRD10591_16-36-16-126.txt Node
Date: Mon Jul 22 16:36:16 EDT 2019
User: cochatt
Spectrometer: HR+D1059
Trigger mode: 1
Integration Time (sec): 1.000000E-1
Scans to average: 1
Electric dark correction enabled: true
Nonlinearity correction enabled: false
Boxcar width: 0
XAxis mode: Wavelengths
Number of Pixels in Spectrum: 2048
>>>>>Begin Spectral Data<<<<<
223.165	-19.88
223.4	-19.88
223.635	-19.88
223.869	-16.88
224.104	-27.88
224.338	-3.88
224.573	-15.88
224.808	-14.88
225.042	-1.88
225.277	2.12
225.511	5.12
225.746	-0.88
225.98	7.12
226.215	13.12
226.449	-0.88
226.683	23.12
226.918	37.12
227.152	15.12
227.387	38.12
227.621	46.12
227.856	36.12
228.09	42.12
228.324	52.12
228.559	44.12
228.793	64.12
229.027	56.12
229.262	59.12
229.496	65.12
229.73	62.12
229.964	80.12
230.199	77.12
230.433	96.12
230.667	88.12
230.901	77.12
231.136	83.12
231.37	94.12
231.604	92.12
231.838	91.12
232.072	100.12
232.306	92.12
232.541	89.12
232.775	99.12
233.009	95.12
233.243	89.12
233.477	94.12
233.711	106.12
233.945	113.12
234.179	103.12
234.413	113.12
234.647	105.12
234.881	116.12
235.115	108.12
235.349	103.12
235.583	106.12
235.817	90.12
236.051	104.12
236.285	98.12
236.519	120.12
236.753	108.12
236.987	108.12
237.221	100.12
237.455	114.12
237.689	120.12
237.922	123.12
238.156	119.12
238.39	126.12
238.624	125.12
238.858	127.12
239.091	127.12
239.325	117.12
239.559	110.12
239.793	115.12
240.027	121.12
240.26	124.12
240.494	129.12
240.728	110.12
240.961	132.12
241.195	124.12
241.429	120.12
241.662	121.12
241.896	126.12
242.13	103.12
242.363	117.12
242.597	110.12
242.83	113.12
243.064	120.12
243.298	130.12
243.531	135.12
243.765	134.12
243.998	124.12
244.232	124.12
244.465	133.12
244.699	124.12
244.932	126.12
245.166	125.12
245.399	118.12
245.633	127.12
245.866	114.12
246.099	141.12
246.333	134.12
246.566	139.12
246.8	143.12
247.033	139.12
247.266	142.12
247.5	140.12
247.733	126.12
247.966	112.12
248.2	138.12
248.433	134.12
248.666	142.12
248.899	148.12
249.133	145.12
249.366	169.12
249.599	163.12
249.832	150.12
250.066	150.12
250.299	151.12
250.532	144.12
250.765	137.12
250.998	134.12
251.231	141.12
251.465	138.12
251.698	127.12
251.931	148.12
252.164	146.12
252.397	169.12
252.63	162.12
252.863	184.12
253.096	197.12
253.329	187.12
253.562	162.12
253.795	177.12
254.028	196.12
254.261	208.12
254.494	183.12
254.727	194.12
254.96	180.12
255.193	162.12
255.426	166.12
255.659	160.12
255.892	155.12
256.124	138.12
256.357	167.12
256.59	192.12
256.823	172.12
257.056	165.12
257.289	156.12
257.521	184.12
257.754	170.12
257.987	200.12
258.22	197.12
258.452	160.12
258.685	180.12
258.918	209.12
259.151	179.12
259.383	211.12
259.616	209.12
259.849	213.12
260.081	218.12
260.314	235.12
260.547	188.12
260.779	209.12
261.012	233.12
261.244	220.12
261.477	202.12
261.71	208.12
261.942	188.12
262.175	188.12
262.407	199.12
262.64	203.12
262.872	212.12
263.105	222.12
263.337	228.12
263.57	216.12
263.802	161.12
264.035	158.12
264.267	162.12
264.499	145.12
264.732	150.12
264.964	135.12
265.197	118.12
265.429	145.12
265.661	153.12
265.894	153.12
266.126	162.12
266.358	170.12
266.591	195.12
266.823	205.12
267.055	210.12
267.287	203.12
267.52	180.12
267.752	214.12
267.984	223.12
268.216	206.12
268.448	184.12
268.681	170.12
268.913	180.12
269.145	188.12
269.377	209.12
269.609	208.12
269.841	186.12
270.073	194.12
270.306	215.12
270.538	205.12
270.77	219.12
271.002	215.12
271.234	217.12
271.466	222.12
271.698	220.12
271.93	201.12
272.162	205.12
272.394	206.12
272.626	199.12
272.858	217.12
273.09	222.12
273.322	181.12
273.553	173.12
273.785	198.12
274.017	249.12
274.249	291.12
274.481	300.12
274.713	324.12
274.945	349.12
275.176	359.12
275.408	347.12
275.64	314.12
275.872	313.12
276.104	280.12
276.335	254.12
276.567	266.12
276.799	264.12
277.031	272.12
277.262	232.12
277.494	192.12
277.726	194.12
277.957	194.12
278.189	217.12
278.421	212.12
278.652	225.12
278.884	188.12
279.115	191.12
279.347	192.12
279.579	195.12
279.81	208.12
280.042	195.12
280.273	196.12
280.505	202.12
280.736	166.12
280.968	161.12
281.199	184.12
281.431	196.12
281.662	201.12
281.894	199.12
282.125	195.12
282.356	192.12
282.588	210.12
282.819	185.12
283.051	201.12
283.282	244.12
283.513	256.12
283.745	289.12
283.976	281.12
284.207	250.12
284.439	263.12
284.67	266.12
284.901	244.12
285.132	252.12
285.364	258.12
285.595	261.12
285.826	275.12
286.057	288.12
286.288	276.12
286.52	272.12
286.751	266.12
286.982	292.12
287.213	234.12
287.444	253.12
287.675	226.12
287.906	251.12
288.138	226.12
288.369	200.12
288.6	200.12
288.831	198.12
289.062	235.12
289.293	240.12
289.524	231.12
289.755	236.12
289.986	240.12
290.217	215.12
290.448	181.12
290.679	169.12
290.91	136.12
291.141	154.12
291.371	141.12
291.602	152.12
291.833	162.12
292.064	172.12
292.295	175.12
292.526	216.12
292.757	220.12
292.987	230.12
293.218	245.12
293.449	244.12
293.68	249.12
293.91	226.12
294.141	257.12
294.372	231.12
294.603	201.12
294.833	239.12
295.064	255.12
295.295	242.12
295.525	200.12
295.756	176.12
295.987	181.12
296.217	166.12
296.448	148.12
296.679	168.12
296.909	181.12
297.14	198.12
297.37	205.12
297.601	196.12
297.831	180.12
298.062	187.12
298.292	204.12
298.523	219.12
298.753	247.12
298.984	202.12
299.214	194.12
299.445	170.12
299.675	162.12
299.905	148.12
300.136	160.12
300.366	184.12
300.597	167.12
300.827	176.12
301.057	151.12
301.288	160.12
301.518	184.12
301.748	193.12
301.979	207.12
302.209	208.12
302.439	210.12
302.669	186.12
302.9	202.12
303.13	193.12
303.36	170.12
303.59	177.12
303.82	180.12
304.051	186.12
304.281	208.12
304.511	182.12
304.741	174.12
304.971	177.12
305.201	198.12
305.431	188.12
305.661	173.12
305.891	174.12
306.121	155.12
306.352	149.12
306.582	156.12
306.812	140.12
307.042	148.12
307.272	141.12
307.502	144.12
307.731	140.12
307.961	141.12
308.191	129.12
308.421	139.12
308.651	153.12
308.881	128.12
309.111	142.12
309.341	127.12
309.571	141.12
309.8	142.12
310.03	151.12
310.26	152.12
310.49	158.12
310.72	146.12
310.949	136.12
311.179	157.12
311.409	146.12
311.639	170.12
311.868	212.12
312.098	258.12
312.328	250.12
312.557	257.12
312.787	243.12
313.017	233.12
313.246	250.12
313.476	246.12
313.706	218.12
313.935	200.12
314.165	170.12
314.394	159.12
314.624	159.12
314.853	176.12
315.083	162.12
315.312	148.12
315.542	146.12
315.771	143.12
316.001	129.12
316.23	138.12
316.46	116.12
316.689	140.12
316.919	131.12
317.148	137.12
317.377	149.12
317.607	152.12
317.836	151.12
318.065	182.12
318.295	180.12
318.524	171.12
318.753	148.12
318.983	162.12
319.212	149.12
319.441	159.12
319.67	172.12
319.9	187.12
320.129	167.12
320.358	180.12
320.587	150.12
320.816	157.12
321.046	170.12
321.275	192.12
321.504	190.12
321.733	191.12
321.962	171.12
322.191	181.12
322.42	157.12
322.649	167.12
322.878	176.12
323.108	174.12
323.337	166.12
323.566	173.12
323.795	172.12
324.024	146.12
324.253	159.12
324.482	150.12
324.71	152.12
324.939	170.12
325.168	182.12
325.397	158.12
325.626	142.12
325.855	150.12
326.084	124.12
326.313	143.12
326.542	145.12
326.77	158.12
326.999	150.12
327.228	144.12
327.457	141.12
327.686	150.12
327.914	134.12
328.143	139.12
328.372	139.12
328.6	139.12
328.829	139.12
329.058	143.12
329.287	150.12
329.515	146.12
329.744	129.12
329.972	140.12
330.201	135.12
330.43	135.12
330.658	147.12
330.887	168.12
331.115	161.12
331.344	174.12
331.572	152.12
331.801	153.12
332.03	131.12
332.258	140.12
332.486	148.12
332.715	140.12
332.943	154.12
333.172	137.12
333.4	147.12
333.629	185.12
333.857	169.12
334.085	162.12
334.314	160.12
334.542	162.12
334.771	152.12
334.999	146.12
335.227	143.12
335.455	158.12
335.684	168.12
335.912	184.12
336.14	178.12
336.369	184.12
336.597	171.12
336.825	211.12
337.053	208.12
337.281	183.12
337.51	158.12
337.738	149.12
337.966	160.12
338.194	177.12
338.422	164.12
338.65	138.12
338.878	130.12
339.106	128.12
339.334	164.12
339.562	156.12
339.79	143.12
340.018	159.12
340.246	154.12
340.474	174.12
340.702	178.12
340.93	182.12
341.158	197.12
341.386	153.12
341.614	166.12
341.842	167.12
342.07	169.12
342.298	195.12
342.526	193.12
342.754	175.12
342.981	154.12
343.209	148.12
343.437	178.12
343.665	185.12
343.893	186.12
344.12	206.12
344.348	248.12
344.576	212.12
344.804	176.12
345.031	163.12
345.259	139.12
345.487	140.12
345.714	168.12
345.942	179.12
346.17	180.12
346.397	177.12
346.625	155.12
346.853	152.12
347.08	167.12
347.308	167.12
347.535	179.12
347.763	171.12
347.99	162.12
348.218	160.12
348.445	165.12
348.673	159.12
348.9	171.12
349.128	161.12
349.355	162.12
349.583	149.12
349.81	179.12
350.037	161.12
350.265	136.12
350.492	136.12
350.72	122.12
350.947	139.12
351.174	135.12
351.402	159.12
351.629	147.12
351.856	164.12
352.083	141.12
352.311	153.12
352.538	162.12
352.765	175.12
352.992	167.12
353.22	171.12
353.447	183.12
353.674	153.12
353.901	139.12
354.128	146.12
354.355	144.12
354.583	175.12
354.81	189.12
355.037	184.12
355.264	168.12
355.491	178.12
355.718	177.12
355.945	175.12
356.172	170.12
356.399	161.12
356.626	200.12
356.853	224.12
357.08	263.12
357.307	246.12
357.534	204.12
357.761	220.12
357.988	260.12
358.215	296.12
358.441	243.12
358.668	243.12
358.895	233.12
359.122	196.12
359.349	194.12
359.576	210.12
359.802	167.12
360.029	155.12
360.256	167.12
360.483	192.12
360.709	238.12
360.936	229.12
361.163	201.12
361.39	175.12
361.616	174.12
361.843	176.12
362.07	209.12
362.296	185.12
362.523	163.12
362.749	163.12
362.976	163.12
363.203	177.12
363.429	193.12
363.656	177.12
363.882	160.12
364.109	162.12
364.335	158.12
364.562	159.12
364.788	170.12
365.015	197.12
365.241	171.12
365.468	149.12
365.694	134.12
365.92	138.12
366.147	137.12
366.373	140.12
366.599	134.12
366.826	139.12
367.052	119.12
367.278	132.12
367.505	119.12
367.731	139.12
367.957	161.12
368.184	158.12
368.41	161.12
368.636	155.12
368.862	134.12
369.089	178.12
369.315	128.12
369.541	143.12
369.767	151.12
369.993	141.12
370.219	153.12
370.445	136.12
370.672	169.12
370.898	156.12
371.124	169.12
371.35	156.12
371.576	141.12
371.802	158.12
372.028	183.12
372.254	186.12
372.48	174.12
372.706	157.12
372.932	174.12
373.158	160.12
373.384	196.12
373.61	236.12
373.835	239.12
374.061	204.12
374.287	182.12
374.513	202.12
374.739	249.12
374.965	234.12
375.191	228.12
375.416	154.12
375.642	159.12
375.868	174.12
376.094	197.12
376.319	166.12
376.545	197.12
376.771	205.12
376.997	189.12
377.222	138.12
377.448	132.12
377.674	132.12
377.899	139.12
378.125	128.12
378.35	128.12
378.576	135.12
378.802	146.12
379.027	179.12
379.253	147.12
379.478	177.12
379.704	184.12
379.929	168.12
380.155	163.12
380.38	154.12
380.606	153.12
380.831	177.12
381.057	188.12
381.282	171.12
381.507	180.12
381.733	219.12
381.958	227.12
382.184	223.12
382.409	234.12
382.634	224.12
382.86	254.12
383.085	211.12
383.31	183.12
383.535	210.12
383.761	202.12
383.986	178.12
384.211	203.12
384.436	204.12
384.662	182.12
384.887	163.12
385.112	157.12
385.337	177.12
385.562	158.12
385.787	164.12
386.013	194.12
386.238	174.12
386.463	160.12
386.688	150.12
386.913	145.12
387.138	160.12
387.363	162.12
387.588	154.12
387.813	161.12
388.038	151.12
388.263	151.12
388.488	155.12
388.713	179.12
388.938	177.12
389.163	160.12
389.387	146.12
389.612	158.12
389.837	158.12
390.062	164.12
390.287	171.12
390.512	159.12
390.736	159.12
390.961	146.12
391.186	148.12
391.411	139.12
391.636	136.12
391.86	166.12
392.085	146.12
392.31	160.12
392.534	157.12
392.759	171.12
392.984	160.12
393.208	138.12
393.433	136.12
393.658	147.12
393.882	140.12
394.107	137.12
394.331	142.12
394.556	128.12
394.78	140.12
395.005	134.12
395.229	136.12
395.454	153.12
395.678	145.12
395.903	159.12
396.127	146.12
396.352	160.12
396.576	150.12
396.801	152.12
397.025	183.12
397.249	164.12
397.474	159.12
397.698	156.12
397.922	175.12
398.147	158.12
398.371	149.12
398.595	152.12
398.82	159.12
399.044	140.12
399.268	144.12
399.492	154.12
399.717	162.12
399.941	147.12
400.165	136.12
400.389	156.12
400.613	146.12
400.837	169.12
401.062	136.12
401.286	143.12
401.51	133.12
401.734	147.12
401.958	164.12
402.182	144.12
402.406	138.12
402.63	153.12
402.854	157.12
403.078	185.12
403.302	215.12
403.526	231.12
403.75	201.12
403.974	171.12
404.198	185.12
404.422	198.12
404.645	220.12
404.869	227.12
405.093	186.12
405.317	158.12
405.541	159.12
405.765	168.12
405.988	155.12
406.212	184.12
406.436	196.12
406.66	195.12
406.883	162.12
407.107	186.12
407.331	194.12
407.555	184.12
407.778	182.12
408.002	177.12
408.226	154.12
408.449	160.12
408.673	159.12
408.896	139.12
409.12	147.12
409.344	137.12
409.567	141.12
409.791	142.12
410.014	140.12
410.238	130.12
410.461	141.12
410.685	145.12
410.908	138.12
411.132	155.12
411.355	160.12
411.578	145.12
411.802	142.12
412.025	155.12
412.249	149.12
412.472	140.12
412.695	146.12
412.919	152.12
413.142	158.12
413.365	152.12
413.589	168.12
413.812	146.12
414.035	133.12
414.258	131.12
414.482	147.12
414.705	153.12
414.928	137.12
415.151	127.12
415.374	143.12
415.597	149.12
415.821	145.12
416.044	133.12
416.267	142.12
416.49	150.12
416.713	146.12
416.936	132.12
417.159	143.12
417.382	140.12
417.605	150.12
417.828	137.12
418.051	159.12
418.274	155.12
418.497	142.12
418.72	148.12
418.943	154.12
419.166	165.12
419.389	175.12
419.611	157.12
419.834	171.12
420.057	163.12
420.28	163.12
420.503	148.12
420.726	141.12
420.948	138.12
421.171	142.12
421.394	128.12
421.617	127.12
421.839	162.12
422.062	164.12
422.285	152.12
422.507	152.12
422.73	163.12
422.953	136.12
423.175	161.12
423.398	154.12
423.621	169.12
423.843	171.12
424.066	162.12
424.288	158.12
424.511	148.12
424.733	151.12
424.956	154.12
425.178	175.12
425.401	178.12
425.623	214.12
425.846	200.12
426.068	152.12
426.291	180.12
426.513	165.12
426.735	141.12
426.958	164.12
427.18	191.12
427.402	241.12
427.625	223.12
427.847	184.12
428.069	150.12
428.292	158.12
428.514	143.12
428.736	138.12
428.958	172.12
429.181	181.12
429.403	177.12
429.625	146.12
429.847	151.12
430.069	136.12
430.292	150.12
430.514	154.12
430.736	168.12
430.958	183.12
431.18	162.12
431.402	138.12
431.624	136.12
431.846	151.12
432.068	140.12
432.29	146.12
432.512	166.12
432.734	170.12
432.956	180.12
433.178	140.12
433.4	130.12
433.622	144.12
433.844	132.12
434.066	160.12
434.287	151.12
434.509	178.12
434.731	172.12
434.953	152.12
435.175	158.12
435.397	167.12
435.618	151.12
435.84	132.12
436.062	148.12
436.284	128.12
436.505	137.12
436.727	125.12
436.949	135.12
437.17	130.12
437.392	150.12
437.614	135.12
437.835	134.12
438.057	147.12
438.278	159.12
438.5	212.12
438.721	214.12
438.943	149.12
439.165	134.12
439.386	127.12
439.608	131.12
439.829	130.12
440.05	145.12
440.272	141.12
440.493	165.12
440.715	184.12
440.936	176.12
441.158	150.12
441.379	156.12
441.6	174.12
441.822	169.12
442.043	136.12
442.264	142.12
442.486	154.12
442.707	148.12
442.928	155.12
443.149	142.12
443.371	158.12
443.592	150.12
443.813	144.12
444.034	156.12
444.255	153.12
444.476	132.12
444.698	150.12
444.919	154.12
445.14	278.12
445.361	232.12
445.582	157.12
445.803	150.12
446.024	164.12
446.245	174.12
446.466	157.12
446.687	156.12
446.908	161.12
447.129	144.12
447.35	149.12
447.571	135.12
447.792	137.12
448.013	129.12
448.234	138.12
448.455	135.12
448.675	130.12
448.896	140.12
449.117	135.12
449.338	130.12
449.559	128.12
449.779	136.12
450	162.12
450.221	148.12
450.442	131.12
450.662	133.12
450.883	148.12
451.104	130.12
451.324	116.12
451.545	139.12
451.766	138.12
451.986	120.12
452.207	120.12
452.428	126.12
452.648	148.12
452.869	159.12
453.089	155.12
453.31	149.12
453.53	128.12
453.751	121.12
453.971	140.12
454.192	139.12
454.412	154.12
454.633	138.12
454.853	132.12
455.073	136.12
455.294	135.12
455.514	134.12
455.734	142.12
455.955	134.12
456.175	140.12
456.395	120.12
456.616	136.12
456.836	137.12
457.056	130.12
457.276	120.12
457.497	113.12
457.717	130.12
457.937	130.12
458.157	130.12
458.377	128.12
458.598	120.12
458.818	126.12
459.038	136.12
459.258	134.12
459.478	150.12
459.698	139.12
459.918	142.12
460.138	148.12
460.358	149.12
460.578	143.12
460.798	147.12
461.018	153.12
461.238	133.12
461.458	144.12
461.678	142.12
461.898	154.12
462.118	155.12
462.338	151.12
462.558	147.12
462.777	161.12
462.997	149.12
463.217	177.12
463.437	138.12
463.657	145.12
463.876	141.12
464.096	144.12
464.316	156.12
464.536	155.12
464.755	160.12
464.975	170.12
465.195	158.12
465.414	164.12
465.634	160.12
465.854	130.12
466.073	143.12
466.293	123.12
466.512	153.12
466.732	159.12
466.951	158.12
467.171	140.12
467.391	146.12
467.61	150.12
467.829	150.12
468.049	142.12
468.268	147.12
468.488	136.12
468.707	147.12
468.927	175.12
469.146	178.12
469.365	174.12
469.585	140.12
469.804	156.12
470.023	166.12
470.243	148.12
470.462	153.12
470.681	158.12
470.901	139.12
471.12	164.12
471.339	155.12
471.558	148.12
471.777	154.12
471.997	161.12
472.216	182.12
472.435	165.12
472.654	164.12
472.873	154.12
473.092	165.12
473.311	169.12
473.53	154.12
473.749	146.12
473.968	156.12
474.187	155.12
474.406	153.12
474.625	158.12
474.844	148.12
475.063	165.12
475.282	164.12
475.501	174.12
475.72	208.12
475.939	195.12
476.158	175.12
476.377	205.12
476.596	234.12
476.814	233.12
477.033	184.12
477.252	170.12
477.471	150.12
477.69	150.12
477.908	164.12
478.127	160.12
478.346	157.12
478.564	189.12
478.783	173.12
479.002	152.12
479.22	187.12
479.439	198.12
479.658	175.12
479.876	171.12
480.095	177.12
480.313	165.12
480.532	167.12
480.751	162.12
480.969	181.12
481.188	185.12
481.406	187.12
481.624	181.12
481.843	157.12
482.061	166.12
482.28	176.12
482.498	240.12
482.717	238.12
482.935	176.12
483.153	192.12
483.372	175.12
483.59	162.12
483.808	160.12
484.027	151.12
484.245	153.12
484.463	142.12
484.681	164.12
484.9	158.12
485.118	181.12
485.336	161.12
485.554	159.12
485.772	143.12
485.99	164.12
486.209	177.12
486.427	168.12
486.645	182.12
486.863	159.12
487.081	171.12
487.299	184.12
487.517	192.12
487.735	167.12
487.953	182.12
488.171	174.12
488.389	175.12
488.607	165.12
488.825	178.12
489.043	180.12
489.261	208.12
489.479	211.12
489.696	171.12
489.914	167.12
490.132	160.12
490.35	155.12
490.568	171.12
490.786	167.12
491.003	155.12
491.221	166.12
491.439	168.12
491.657	167.12
491.874	174.12
492.092	209.12
492.31	260.12
492.527	249.12
492.745	207.12
492.963	188.12
493.18	181.12
493.398	194.12
493.615	178.12
493.833	178.12
494.05	181.12
494.268	176.12
494.485	168.12
494.703	168.12
494.92	179.12
495.138	164.12
495.355	191.12
495.573	189.12
495.79	196.12
496.008	258.12
496.225	198.12
496.442	180.12
496.66	169.12
496.877	207.12
497.094	199.12
497.312	177.12
497.529	183.12
497.746	195.12
497.963	177.12
498.181	178.12
498.398	220.12
498.615	221.12
498.832	226.12
499.049	224.12
499.267	182.12
499.484	204.12
499.701	201.12
499.918	224.12
500.135	224.12
500.352	235.12
500.569	244.12
500.786	258.12
501.003	242.12
501.22	217.12
501.437	196.12
501.654	200.12
501.871	198.12
502.088	196.12
502.305	203.12
502.522	208.12
502.739	200.12
