Data from NickelSpatula_HRD10591_16-36-08-126.txt Node
Date: Mon Jul 22 16:36:08 EDT 2019
User: cochatt
Spectrometer: HR+D1059
Trigger mode: 1
Integration Time (sec): 1.000000E-1
Scans to average: 1
Electric dark correction enabled: true
Nonlinearity correction enabled: false
Boxcar width: 0
XAxis mode: Wavelengths
Number of Pixels in Spectrum: 2048
>>>>>Begin Spectral Data<<<<<
223.165	-12.31
223.4	-12.31
223.635	-12.31
223.869	-23.31
224.104	-18.31
224.338	-11.31
224.573	-2.31
224.808	-7.31
225.042	0.69
225.277	-16.31
225.511	-2.31
225.746	-16.31
225.98	-0.31
226.215	19.69
226.449	22.69
226.683	27.69
226.918	20.69
227.152	18.69
227.387	40.69
227.621	40.69
227.856	47.69
228.09	52.69
228.324	57.69
228.559	53.69
228.793	75.69
229.027	77.69
229.262	65.69
229.496	66.69
229.73	68.69
229.964	80.69
230.199	75.69
230.433	69.69
230.667	98.69
230.901	87.69
231.136	90.69
231.37	75.69
231.604	98.69
231.838	75.69
232.072	89.69
232.306	96.69
232.541	104.69
232.775	94.69
233.009	104.69
233.243	93.69
233.477	106.69
233.711	94.69
233.945	96.69
234.179	109.69
234.413	102.69
234.647	110.69
234.881	110.69
235.115	110.69
235.349	97.69
235.583	99.69
235.817	96.69
236.051	95.69
236.285	111.69
236.519	110.69
236.753	99.69
236.987	102.69
237.221	107.69
237.455	105.69
237.689	95.69
237.922	110.69
238.156	113.69
238.39	109.69
238.624	118.69
238.858	109.69
239.091	99.69
239.325	94.69
239.559	84.69
239.793	97.69
240.027	121.69
240.26	124.69
240.494	120.69
240.728	104.69
240.961	103.69
241.195	114.69
241.429	118.69
241.662	99.69
241.896	108.69
242.13	95.69
242.363	95.69
242.597	111.69
242.83	108.69
243.064	95.69
243.298	106.69
243.531	112.69
243.765	104.69
243.998	104.69
244.232	112.69
244.465	128.69
244.699	120.69
244.932	131.69
245.166	115.69
245.399	109.69
245.633	95.69
245.866	111.69
246.099	126.69
246.333	122.69
246.566	146.69
246.8	128.69
247.033	114.69
247.266	113.69
247.5	106.69
247.733	135.69
247.966	110.69
248.2	122.69
248.433	125.69
248.666	135.69
248.899	134.69
249.133	142.69
249.366	136.69
249.599	140.69
249.832	135.69
250.066	136.69
250.299	130.69
250.532	135.69
250.765	120.69
250.998	129.69
251.231	122.69
251.465	139.69
251.698	125.69
251.931	128.69
252.164	121.69
252.397	136.69
252.63	145.69
252.863	140.69
253.096	154.69
253.329	142.69
253.562	148.69
253.795	147.69
254.028	156.69
254.261	149.69
254.494	152.69
254.727	157.69
254.96	166.69
255.193	149.69
255.426	147.69
255.659	150.69
255.892	131.69
256.124	132.69
256.357	143.69
256.59	152.69
256.823	159.69
257.056	143.69
257.289	113.69
257.521	131.69
257.754	160.69
257.987	152.69
258.22	154.69
258.452	142.69
258.685	153.69
258.918	156.69
259.151	156.69
259.383	152.69
259.616	166.69
259.849	162.69
260.081	162.69
260.314	169.69
260.547	162.69
260.779	145.69
261.012	169.69
261.244	173.69
261.477	161.69
261.71	170.69
261.942	156.69
262.175	149.69
262.407	155.69
262.64	157.69
262.872	162.69
263.105	173.69
263.337	187.69
263.57	168.69
263.802	145.69
264.035	135.69
264.267	136.69
264.499	131.69
264.732	130.69
264.964	113.69
265.197	126.69
265.429	119.69
265.661	147.69
265.894	125.69
266.126	137.69
266.358	139.69
266.591	142.69
266.823	156.69
267.055	156.69
267.287	157.69
267.52	167.69
267.752	166.69
267.984	168.69
268.216	145.69
268.448	152.69
268.681	150.69
268.913	171.69
269.145	149.69
269.377	165.69
269.609	161.69
269.841	162.69
270.073	164.69
270.306	170.69
270.538	168.69
270.77	175.69
271.002	169.69
271.234	187.69
271.466	180.69
271.698	154.69
271.93	178.69
272.162	159.69
272.394	174.69
272.626	174.69
272.858	165.69
273.09	162.69
273.322	176.69
273.553	176.69
273.785	179.69
274.017	207.69
274.249	242.69
274.481	216.69
274.713	229.69
274.945	241.69
275.176	249.69
275.408	233.69
275.64	227.69
275.872	224.69
276.104	210.69
276.335	200.69
276.567	192.69
276.799	207.69
277.031	192.69
277.262	188.69
277.494	164.69
277.726	159.69
277.957	164.69
278.189	177.69
278.421	176.69
278.652	185.69
278.884	167.69
279.115	166.69
279.347	161.69
279.579	170.69
279.81	157.69
280.042	175.69
280.273	169.69
280.505	157.69
280.736	134.69
280.968	163.69
281.199	149.69
281.431	169.69
281.662	150.69
281.894	168.69
282.125	171.69
282.356	154.69
282.588	163.69
282.819	163.69
283.051	158.69
283.282	181.69
283.513	194.69
283.745	209.69
283.976	214.69
284.207	205.69
284.439	209.69
284.67	195.69
284.901	202.69
285.132	193.69
285.364	209.69
285.595	186.69
285.826	185.69
286.057	205.69
286.288	207.69
286.52	216.69
286.751	207.69
286.982	207.69
287.213	185.69
287.444	210.69
287.675	204.69
287.906	181.69
288.138	175.69
288.369	157.69
288.6	179.69
288.831	151.69
289.062	200.69
289.293	199.69
289.524	197.69
289.755	194.69
289.986	190.69
290.217	168.69
290.448	148.69
290.679	149.69
290.91	141.69
291.141	148.69
291.371	147.69
291.602	131.69
291.833	143.69
292.064	155.69
292.295	155.69
292.526	173.69
292.757	184.69
292.987	189.69
293.218	166.69
293.449	175.69
293.68	192.69
293.91	193.69
294.141	192.69
294.372	178.69
294.603	179.69
294.833	197.69
295.064	205.69
295.295	168.69
295.525	168.69
295.756	147.69
295.987	148.69
296.217	149.69
296.448	133.69
296.679	159.69
296.909	189.69
297.14	169.69
297.37	186.69
297.601	159.69
297.831	156.69
298.062	148.69
298.292	199.69
298.523	190.69
298.753	205.69
298.984	191.69
299.214	162.69
299.445	154.69
299.675	144.69
299.905	132.69
300.136	152.69
300.366	170.69
300.597	164.69
300.827	152.69
301.057	150.69
301.288	160.69
301.518	165.69
301.748	174.69
301.979	180.69
302.209	176.69
302.439	182.69
302.669	176.69
302.9	177.69
303.13	177.69
303.36	148.69
303.59	158.69
303.82	147.69
304.051	162.69
304.281	176.69
304.511	167.69
304.741	159.69
304.971	163.69
305.201	160.69
305.431	164.69
305.661	150.69
305.891	153.69
306.121	153.69
306.352	118.69
306.582	147.69
306.812	129.69
307.042	133.69
307.272	136.69
307.502	119.69
307.731	130.69
307.961	153.69
308.191	149.69
308.421	145.69
308.651	138.69
308.881	119.69
309.111	118.69
309.341	122.69
309.571	129.69
309.8	131.69
310.03	148.69
310.26	142.69
310.49	150.69
310.72	122.69
310.949	124.69
311.179	139.69
311.409	130.69
311.639	142.69
311.868	160.69
312.098	204.69
312.328	202.69
312.557	207.69
312.787	206.69
313.017	212.69
313.246	189.69
313.476	198.69
313.706	179.69
313.935	165.69
314.165	157.69
314.394	134.69
314.624	137.69
314.853	138.69
315.083	136.69
315.312	130.69
315.542	142.69
315.771	140.69
316.001	130.69
316.23	135.69
316.46	121.69
316.689	132.69
316.919	118.69
317.148	121.69
317.377	133.69
317.607	137.69
317.836	153.69
318.065	146.69
318.295	146.69
318.524	146.69
318.753	138.69
318.983	146.69
319.212	142.69
319.441	152.69
319.67	177.69
319.9	167.69
320.129	147.69
320.358	141.69
320.587	131.69
320.816	145.69
321.046	154.69
321.275	203.69
321.504	187.69
321.733	193.69
321.962	188.69
322.191	169.69
322.42	176.69
322.649	163.69
322.878	189.69
323.108	173.69
323.337	181.69
323.566	173.69
323.795	154.69
324.024	149.69
324.253	135.69
324.482	140.69
324.71	170.69
324.939	177.69
325.168	145.69
325.397	147.69
325.626	130.69
325.855	123.69
326.084	144.69
326.313	137.69
326.542	135.69
326.77	140.69
326.999	143.69
327.228	145.69
327.457	134.69
327.686	125.69
327.914	137.69
328.143	136.69
328.372	120.69
328.6	134.69
328.829	125.69
329.058	134.69
329.287	139.69
329.515	126.69
329.744	121.69
329.972	131.69
330.201	114.69
330.43	121.69
330.658	147.69
330.887	162.69
331.115	136.69
331.344	143.69
331.572	129.69
331.801	132.69
332.03	127.69
332.258	121.69
332.486	128.69
332.715	125.69
332.943	139.69
333.172	126.69
333.4	139.69
333.629	129.69
333.857	141.69
334.085	143.69
334.314	134.69
334.542	132.69
334.771	123.69
334.999	109.69
335.227	127.69
335.455	142.69
335.684	134.69
335.912	143.69
336.14	159.69
336.369	175.69
336.597	159.69
336.825	153.69
337.053	182.69
337.281	161.69
337.51	138.69
337.738	141.69
337.966	135.69
338.194	146.69
338.422	140.69
338.65	138.69
338.878	127.69
339.106	143.69
339.334	136.69
339.562	136.69
339.79	133.69
340.018	129.69
340.246	153.69
340.474	155.69
340.702	164.69
340.93	176.69
341.158	175.69
341.386	145.69
341.614	150.69
341.842	150.69
342.07	155.69
342.298	164.69
342.526	175.69
342.754	187.69
342.981	157.69
343.209	154.69
343.437	161.69
343.665	155.69
343.893	155.69
344.12	187.69
344.348	182.69
344.576	182.69
344.804	165.69
345.031	150.69
345.259	146.69
345.487	149.69
345.714	137.69
345.942	159.69
346.17	147.69
346.397	154.69
346.625	150.69
346.853	146.69
347.08	135.69
347.308	153.69
347.535	160.69
347.763	151.69
347.99	141.69
348.218	127.69
348.445	126.69
348.673	143.69
348.9	150.69
349.128	145.69
349.355	157.69
349.583	137.69
349.81	146.69
350.037	143.69
350.265	135.69
350.492	138.69
350.72	131.69
350.947	136.69
351.174	143.69
351.402	135.69
351.629	140.69
351.856	139.69
352.083	143.69
352.311	163.69
352.538	175.69
352.765	185.69
352.992	168.69
353.22	160.69
353.447	164.69
353.674	153.69
353.901	165.69
354.128	154.69
354.355	171.69
354.583	169.69
354.81	165.69
355.037	182.69
355.264	162.69
355.491	169.69
355.718	187.69
355.945	189.69
356.172	166.69
356.399	166.69
356.626	191.69
356.853	234.69
357.08	235.69
357.307	233.69
357.534	214.69
357.761	223.69
357.988	261.69
358.215	271.69
358.441	262.69
358.668	230.69
358.895	221.69
359.122	180.69
359.349	195.69
359.576	211.69
359.802	171.69
360.029	159.69
360.256	169.69
360.483	202.69
360.709	231.69
360.936	251.69
361.163	216.69
361.39	174.69
361.616	170.69
361.843	185.69
362.07	197.69
362.296	187.69
362.523	169.69
362.749	143.69
362.976	157.69
363.203	168.69
363.429	195.69
363.656	174.69
363.882	165.69
364.109	163.69
364.335	182.69
364.562	173.69
364.788	179.69
365.015	189.69
365.241	175.69
365.468	163.69
365.694	145.69
365.92	126.69
366.147	139.69
366.373	122.69
366.599	127.69
366.826	137.69
367.052	140.69
367.278	166.69
367.505	143.69
367.731	151.69
367.957	151.69
368.184	152.69
368.41	162.69
368.636	167.69
368.862	191.69
369.089	177.69
369.315	152.69
369.541	148.69
369.767	131.69
369.993	125.69
370.219	134.69
370.445	143.69
370.672	159.69
370.898	159.69
371.124	160.69
371.35	150.69
371.576	140.69
371.802	148.69
372.028	163.69
372.254	186.69
372.48	152.69
372.706	153.69
372.932	149.69
373.158	177.69
373.384	202.69
373.61	258.69
373.835	241.69
374.061	181.69
374.287	183.69
374.513	204.69
374.739	215.69
374.965	258.69
375.191	222.69
375.416	182.69
375.642	154.69
375.868	160.69
376.094	181.69
376.319	161.69
376.545	186.69
376.771	194.69
376.997	158.69
377.222	127.69
377.448	131.69
377.674	125.69
377.899	120.69
378.125	131.69
378.35	126.69
378.576	120.69
378.802	153.69
379.027	151.69
379.253	148.69
379.478	152.69
379.704	158.69
379.929	171.69
380.155	162.69
380.38	157.69
380.606	151.69
380.831	192.69
381.057	165.69
381.282	154.69
381.507	197.69
381.733	228.69
381.958	222.69
382.184	251.69
382.409	236.69
382.634	236.69
382.86	228.69
383.085	211.69
383.31	165.69
383.535	175.69
383.761	173.69
383.986	182.69
384.211	208.69
384.436	183.69
384.662	160.69
384.887	151.69
385.112	163.69
385.337	183.69
385.562	162.69
385.787	175.69
386.013	169.69
386.238	186.69
386.463	159.69
386.688	158.69
386.913	127.69
387.138	137.69
387.363	148.69
387.588	145.69
387.813	138.69
388.038	171.69
388.263	150.69
388.488	148.69
388.713	165.69
388.938	192.69
389.163	149.69
389.387	129.69
389.612	158.69
389.837	153.69
390.062	155.69
390.287	145.69
390.512	136.69
390.736	143.69
390.961	149.69
391.186	132.69
391.411	124.69
391.636	127.69
391.86	164.69
392.085	165.69
392.31	160.69
392.534	151.69
392.759	138.69
392.984	144.69
393.208	145.69
393.433	133.69
393.658	121.69
393.882	120.69
394.107	112.69
394.331	125.69
394.556	145.69
394.78	128.69
395.005	130.69
395.229	138.69
395.454	145.69
395.678	128.69
395.903	144.69
396.127	141.69
396.352	140.69
396.576	153.69
396.801	145.69
397.025	158.69
397.249	177.69
397.474	145.69
397.698	148.69
397.922	152.69
398.147	138.69
398.371	127.69
398.595	131.69
398.82	121.69
399.044	139.69
399.268	135.69
399.492	143.69
399.717	145.69
399.941	144.69
400.165	137.69
400.389	126.69
400.613	153.69
400.837	137.69
401.062	123.69
401.286	140.69
401.51	130.69
401.734	132.69
401.958	123.69
402.182	119.69
402.406	114.69
402.63	122.69
402.854	141.69
403.078	151.69
403.302	199.69
403.526	194.69
403.75	181.69
403.974	152.69
404.198	161.69
404.422	168.69
404.645	202.69
404.869	192.69
405.093	180.69
405.317	142.69
405.541	136.69
405.765	149.69
405.988	143.69
406.212	169.69
406.436	157.69
406.66	190.69
406.883	147.69
407.107	152.69
407.331	181.69
407.555	169.69
407.778	144.69
408.002	143.69
408.226	134.69
408.449	143.69
408.673	145.69
408.896	125.69
409.12	109.69
409.344	135.69
409.567	122.69
409.791	106.69
410.014	115.69
410.238	117.69
410.461	109.69
410.685	130.69
410.908	137.69
411.132	131.69
411.355	121.69
411.578	149.69
411.802	125.69
412.025	129.69
412.249	136.69
412.472	145.69
412.695	120.69
412.919	133.69
413.142	140.69
413.365	143.69
413.589	159.69
413.812	142.69
414.035	128.69
414.258	139.69
414.482	149.69
414.705	163.69
414.928	131.69
415.151	144.69
415.374	122.69
415.597	130.69
415.821	140.69
416.044	123.69
416.267	120.69
416.49	133.69
416.713	142.69
416.936	128.69
417.159	120.69
417.382	139.69
417.605	145.69
417.828	145.69
418.051	132.69
418.274	142.69
418.497	130.69
418.72	140.69
418.943	158.69
419.166	139.69
419.389	158.69
419.611	146.69
419.834	146.69
420.057	177.69
420.28	174.69
420.503	147.69
420.726	144.69
420.948	125.69
421.171	127.69
421.394	129.69
421.617	131.69
421.839	126.69
422.062	140.69
422.285	136.69
422.507	142.69
422.73	129.69
422.953	136.69
423.175	143.69
423.398	136.69
423.621	162.69
423.843	160.69
424.066	155.69
424.288	127.69
424.511	133.69
424.733	132.69
424.956	154.69
425.178	175.69
425.401	191.69
425.623	205.69
425.846	179.69
426.068	152.69
426.291	179.69
426.513	153.69
426.735	146.69
426.958	139.69
427.18	189.69
427.402	218.69
427.625	221.69
427.847	179.69
428.069	126.69
428.292	137.69
428.514	135.69
428.736	134.69
428.958	133.69
429.181	166.69
429.403	162.69
429.625	137.69
429.847	134.69
430.069	148.69
430.292	143.69
430.514	126.69
430.736	165.69
430.958	171.69
431.18	152.69
431.402	133.69
431.624	127.69
431.846	128.69
432.068	119.69
432.29	121.69
432.512	136.69
432.734	179.69
432.956	163.69
433.178	129.69
433.4	114.69
433.622	138.69
433.844	146.69
434.066	170.69
434.287	152.69
434.509	129.69
434.731	135.69
434.953	133.69
435.175	134.69
435.397	164.69
435.618	128.69
435.84	107.69
436.062	119.69
436.284	121.69
436.505	117.69
436.727	123.69
436.949	121.69
437.17	133.69
437.392	132.69
437.614	140.69
437.835	125.69
438.057	127.69
438.278	151.69
438.5	193.69
438.721	185.69
438.943	143.69
439.165	129.69
439.386	116.69
439.608	127.69
439.829	126.69
440.05	120.69
440.272	136.69
440.493	152.69
440.715	177.69
440.936	152.69
441.158	133.69
441.379	118.69
441.6	143.69
441.822	153.69
442.043	148.69
442.264	122.69
442.486	130.69
442.707	117.69
442.928	122.69
443.149	131.69
443.371	134.69
443.592	130.69
443.813	130.69
444.034	126.69
444.255	128.69
444.476	114.69
444.698	128.69
444.919	130.69
445.14	239.69
445.361	203.69
445.582	145.69
445.803	134.69
446.024	147.69
446.245	163.69
446.466	173.69
446.687	148.69
446.908	140.69
447.129	126.69
447.35	130.69
447.571	136.69
447.792	123.69
448.013	127.69
448.234	119.69
448.455	136.69
448.675	107.69
448.896	113.69
449.117	121.69
449.338	117.69
449.559	130.69
449.779	129.69
450	135.69
450.221	134.69
450.442	117.69
450.662	117.69
450.883	125.69
451.104	122.69
451.324	116.69
451.545	121.69
451.766	122.69
451.986	130.69
452.207	119.69
452.428	110.69
452.648	120.69
452.869	139.69
453.089	153.69
453.31	131.69
453.53	124.69
453.751	148.69
453.971	125.69
454.192	131.69
454.412	147.69
454.633	129.69
454.853	113.69
455.073	126.69
455.294	128.69
455.514	126.69
455.734	124.69
455.955	138.69
456.175	126.69
456.395	107.69
456.616	123.69
456.836	130.69
457.056	121.69
457.276	121.69
457.497	109.69
457.717	120.69
457.937	107.69
458.157	111.69
458.377	123.69
458.598	98.69
458.818	116.69
459.038	125.69
459.258	125.69
459.478	131.69
459.698	134.69
459.918	127.69
460.138	125.69
460.358	145.69
460.578	129.69
460.798	134.69
461.018	152.69
461.238	120.69
461.458	129.69
461.678	125.69
461.898	132.69
462.118	119.69
462.338	124.69
462.558	129.69
462.777	130.69
462.997	132.69
463.217	117.69
463.437	119.69
463.657	125.69
463.876	117.69
464.096	122.69
464.316	119.69
464.536	136.69
464.755	138.69
464.975	146.69
465.195	141.69
465.414	138.69
465.634	151.69
465.854	135.69
466.073	142.69
466.293	122.69
466.512	143.69
466.732	137.69
466.951	145.69
467.171	127.69
467.391	119.69
467.61	137.69
467.829	133.69
468.049	133.69
468.268	122.69
468.488	123.69
468.707	137.69
468.927	130.69
469.146	138.69
469.365	129.69
469.585	143.69
469.804	125.69
470.023	148.69
470.243	136.69
470.462	136.69
470.681	130.69
470.901	130.69
471.12	148.69
471.339	137.69
471.558	125.69
471.777	137.69
471.997	144.69
472.216	135.69
472.435	150.69
472.654	146.69
472.873	126.69
473.092	134.69
473.311	127.69
473.53	127.69
473.749	122.69
473.968	139.69
474.187	145.69
474.406	144.69
474.625	125.69
474.844	123.69
475.063	129.69
475.282	147.69
475.501	171.69
475.72	186.69
475.939	159.69
476.158	152.69
476.377	193.69
476.596	188.69
476.814	190.69
477.033	167.69
477.252	141.69
477.471	126.69
477.69	134.69
477.908	133.69
478.127	140.69
478.346	138.69
478.564	178.69
478.783	163.69
479.002	159.69
479.22	159.69
479.439	153.69
479.658	159.69
479.876	133.69
480.095	148.69
480.313	130.69
480.532	138.69
480.751	134.69
480.969	127.69
481.188	132.69
481.406	159.69
481.624	141.69
481.843	135.69
482.061	137.69
482.28	158.69
482.498	186.69
482.717	195.69
482.935	154.69
483.153	140.69
483.372	129.69
483.59	144.69
483.808	143.69
484.027	141.69
484.245	137.69
484.463	129.69
484.681	146.69
484.9	147.69
485.118	151.69
485.336	139.69
485.554	139.69
485.772	135.69
485.99	150.69
486.209	178.69
486.427	175.69
486.645	149.69
486.863	151.69
487.081	167.69
487.299	198.69
487.517	187.69
487.735	154.69
487.953	161.69
488.171	143.69
488.389	149.69
488.607	138.69
488.825	145.69
489.043	179.69
489.261	202.69
489.479	223.69
489.696	181.69
489.914	150.69
490.132	141.69
490.35	142.69
490.568	146.69
490.786	155.69
491.003	137.69
491.221	155.69
491.439	149.69
491.657	153.69
491.874	162.69
492.092	208.69
492.31	263.69
492.527	249.69
492.745	174.69
492.963	173.69
493.18	154.69
493.398	157.69
493.615	153.69
493.833	165.69
494.05	169.69
494.268	160.69
494.485	162.69
494.703	147.69
494.92	144.69
495.138	147.69
495.355	160.69
495.573	159.69
495.79	182.69
496.008	275.69
496.225	201.69
496.442	177.69
496.66	148.69
496.877	165.69
497.094	161.69
497.312	151.69
497.529	161.69
497.746	163.69
497.963	152.69
498.181	160.69
498.398	151.69
498.615	193.69
498.832	173.69
499.049	151.69
499.267	148.69
499.484	161.69
499.701	160.69
499.918	155.69
500.135	175.69
500.352	161.69
500.569	188.69
500.786	188.69
501.003	203.69
501.22	174.69
501.437	170.69
501.654	180.69
501.871	179.69
502.088	181.69
502.305	157.69
502.522	168.69
502.739	162.69
502.956	157.69
