Data from NickelSpatula_HRD10591_16-36-02-126.txt Node
Date: Mon Jul 22 16:36:02 EDT 2019
User: cochatt
Spectrometer: HR+D1059
Trigger mode: 1
Integration Time (sec): 1.000000E-1
Scans to average: 1
Electric dark correction enabled: true
Nonlinearity correction enabled: false
Boxcar width: 0
XAxis mode: Wavelengths
Number of Pixels in Spectrum: 2048
>>>>>Begin Spectral Data<<<<<
223.165	-4.06
223.4	-4.06
223.635	-4.06
223.869	-16.06
224.104	-25.06
224.338	-19.06
224.573	-20.06
224.808	-18.06
225.042	-9.06
225.277	-6.06
225.511	-0.06
225.746	1.94
225.98	5.94
226.215	6.94
226.449	8.94
226.683	7.94
226.918	44.94
227.152	40.94
227.387	24.94
227.621	29.94
227.856	40.94
228.09	47.94
228.324	53.94
228.559	56.94
228.793	60.94
229.027	60.94
229.262	64.94
229.496	70.94
229.73	71.94
229.964	81.94
230.199	81.94
230.433	81.94
230.667	86.94
230.901	97.94
231.136	87.94
231.37	112.94
231.604	90.94
231.838	97.94
232.072	75.94
232.306	87.94
232.541	95.94
232.775	105.94
233.009	103.94
233.243	103.94
233.477	114.94
233.711	113.94
233.945	98.94
234.179	113.94
234.413	114.94
234.647	113.94
234.881	123.94
235.115	99.94
235.349	109.94
235.583	104.94
235.817	99.94
236.051	102.94
236.285	121.94
236.519	112.94
236.753	107.94
236.987	117.94
237.221	108.94
237.455	96.94
237.689	90.94
237.922	105.94
238.156	109.94
238.39	124.94
238.624	129.94
238.858	130.94
239.091	133.94
239.325	118.94
239.559	119.94
239.793	120.94
240.027	126.94
240.26	114.94
240.494	135.94
240.728	109.94
240.961	137.94
241.195	135.94
241.429	132.94
241.662	123.94
241.896	119.94
242.13	107.94
242.363	105.94
242.597	106.94
242.83	111.94
243.064	131.94
243.298	122.94
243.531	133.94
243.765	135.94
243.998	136.94
244.232	131.94
244.465	119.94
244.699	113.94
244.932	135.94
245.166	130.94
245.399	122.94
245.633	108.94
245.866	121.94
246.099	131.94
246.333	141.94
246.566	160.94
246.8	138.94
247.033	149.94
247.266	146.94
247.5	120.94
247.733	134.94
247.966	122.94
248.2	157.94
248.433	125.94
248.666	163.94
248.899	151.94
249.133	136.94
249.366	155.94
249.599	164.94
249.832	157.94
250.066	129.94
250.299	164.94
250.532	135.94
250.765	130.94
250.998	122.94
251.231	133.94
251.465	121.94
251.698	152.94
251.931	140.94
252.164	143.94
252.397	145.94
252.63	171.94
252.863	181.94
253.096	173.94
253.329	186.94
253.562	165.94
253.795	190.94
254.028	206.94
254.261	188.94
254.494	188.94
254.727	165.94
254.96	159.94
255.193	177.94
255.426	171.94
255.659	147.94
255.892	138.94
256.124	135.94
256.357	156.94
256.59	172.94
256.823	171.94
257.056	132.94
257.289	140.94
257.521	165.94
257.754	172.94
257.987	180.94
258.22	161.94
258.452	170.94
258.685	162.94
258.918	193.94
259.151	181.94
259.383	189.94
259.616	206.94
259.849	214.94
260.081	203.94
260.314	235.94
260.547	209.94
260.779	194.94
261.012	206.94
261.244	204.94
261.477	224.94
261.71	193.94
261.942	187.94
262.175	191.94
262.407	163.94
262.64	177.94
262.872	194.94
263.105	207.94
263.337	223.94
263.57	196.94
263.802	145.94
264.035	150.94
264.267	139.94
264.499	127.94
264.732	126.94
264.964	140.94
265.197	151.94
265.429	129.94
265.661	138.94
265.894	130.94
266.126	145.94
266.358	169.94
266.591	194.94
266.823	206.94
267.055	192.94
267.287	180.94
267.52	166.94
267.752	197.94
267.984	172.94
268.216	179.94
268.448	168.94
268.681	172.94
268.913	168.94
269.145	184.94
269.377	177.94
269.609	177.94
269.841	190.94
270.073	184.94
270.306	202.94
270.538	183.94
270.77	192.94
271.002	195.94
271.234	194.94
271.466	197.94
271.698	206.94
271.93	183.94
272.162	191.94
272.394	197.94
272.626	186.94
272.858	213.94
273.09	193.94
273.322	184.94
273.553	185.94
273.785	213.94
274.017	245.94
274.249	290.94
274.481	287.94
274.713	295.94
274.945	346.94
275.176	360.94
275.408	319.94
275.64	314.94
275.872	285.94
276.104	272.94
276.335	262.94
276.567	231.94
276.799	240.94
277.031	239.94
277.262	193.94
277.494	164.94
277.726	172.94
277.957	194.94
278.189	183.94
278.421	191.94
278.652	193.94
278.884	184.94
279.115	181.94
279.347	175.94
279.579	165.94
279.81	171.94
280.042	177.94
280.273	180.94
280.505	168.94
280.736	152.94
280.968	167.94
281.199	175.94
281.431	172.94
281.662	172.94
281.894	159.94
282.125	177.94
282.356	177.94
282.588	190.94
282.819	168.94
283.051	192.94
283.282	211.94
283.513	233.94
283.745	235.94
283.976	257.94
284.207	243.94
284.439	231.94
284.67	256.94
284.901	216.94
285.132	230.94
285.364	229.94
285.595	231.94
285.826	251.94
286.057	236.94
286.288	241.94
286.52	241.94
286.751	253.94
286.982	251.94
287.213	224.94
287.444	200.94
287.675	235.94
287.906	212.94
288.138	197.94
288.369	184.94
288.6	177.94
288.831	183.94
289.062	210.94
289.293	212.94
289.524	202.94
289.755	211.94
289.986	204.94
290.217	193.94
290.448	157.94
290.679	153.94
290.91	154.94
291.141	139.94
291.371	146.94
291.602	137.94
291.833	145.94
292.064	152.94
292.295	163.94
292.526	183.94
292.757	187.94
292.987	195.94
293.218	194.94
293.449	214.94
293.68	210.94
293.91	205.94
294.141	194.94
294.372	188.94
294.603	194.94
294.833	190.94
295.064	237.94
295.295	231.94
295.525	183.94
295.756	163.94
295.987	145.94
296.217	145.94
296.448	147.94
296.679	167.94
296.909	175.94
297.14	169.94
297.37	191.94
297.601	179.94
297.831	161.94
298.062	175.94
298.292	179.94
298.523	216.94
298.753	213.94
298.984	212.94
299.214	156.94
299.445	154.94
299.675	154.94
299.905	167.94
300.136	145.94
300.366	158.94
300.597	151.94
300.827	150.94
301.057	149.94
301.288	159.94
301.518	138.94
301.748	162.94
301.979	181.94
302.209	187.94
302.439	176.94
302.669	153.94
302.9	165.94
303.13	156.94
303.36	162.94
303.59	151.94
303.82	152.94
304.051	164.94
304.281	183.94
304.511	177.94
304.741	165.94
304.971	158.94
305.201	171.94
305.431	160.94
305.661	172.94
305.891	157.94
306.121	139.94
306.352	135.94
306.582	144.94
306.812	127.94
307.042	127.94
307.272	129.94
307.502	148.94
307.731	128.94
307.961	141.94
308.191	146.94
308.421	135.94
308.651	142.94
308.881	141.94
309.111	124.94
309.341	134.94
309.571	142.94
309.8	141.94
310.03	139.94
310.26	163.94
310.49	136.94
310.72	130.94
310.949	127.94
311.179	131.94
311.409	146.94
311.639	167.94
311.868	182.94
312.098	217.94
312.328	234.94
312.557	226.94
312.787	207.94
313.017	216.94
313.246	224.94
313.476	241.94
313.706	205.94
313.935	176.94
314.165	156.94
314.394	155.94
314.624	150.94
314.853	144.94
315.083	134.94
315.312	145.94
315.542	137.94
315.771	128.94
316.001	145.94
316.23	133.94
316.46	137.94
316.689	121.94
316.919	142.94
317.148	129.94
317.377	140.94
317.607	139.94
317.836	143.94
318.065	162.94
318.295	157.94
318.524	143.94
318.753	136.94
318.983	143.94
319.212	148.94
319.441	145.94
319.67	151.94
319.9	158.94
320.129	159.94
320.358	150.94
320.587	148.94
320.816	160.94
321.046	157.94
321.275	170.94
321.504	172.94
321.733	177.94
321.962	168.94
322.191	177.94
322.42	144.94
322.649	149.94
322.878	163.94
323.108	159.94
323.337	161.94
323.566	157.94
323.795	148.94
324.024	153.94
324.253	136.94
324.482	141.94
324.71	143.94
324.939	165.94
325.168	159.94
325.397	132.94
325.626	135.94
325.855	142.94
326.084	143.94
326.313	141.94
326.542	135.94
326.77	131.94
326.999	138.94
327.228	129.94
327.457	151.94
327.686	161.94
327.914	141.94
328.143	141.94
328.372	123.94
328.6	130.94
328.829	131.94
329.058	120.94
329.287	134.94
329.515	126.94
329.744	135.94
329.972	134.94
330.201	127.94
330.43	129.94
330.658	135.94
330.887	149.94
331.115	143.94
331.344	145.94
331.572	142.94
331.801	125.94
332.03	125.94
332.258	121.94
332.486	144.94
332.715	145.94
332.943	129.94
333.172	123.94
333.4	141.94
333.629	144.94
333.857	154.94
334.085	146.94
334.314	145.94
334.542	151.94
334.771	130.94
334.999	151.94
335.227	129.94
335.455	140.94
335.684	149.94
335.912	158.94
336.14	175.94
336.369	180.94
336.597	161.94
336.825	176.94
337.053	192.94
337.281	175.94
337.51	147.94
337.738	151.94
337.966	149.94
338.194	162.94
338.422	150.94
338.65	158.94
338.878	156.94
339.106	123.94
339.334	148.94
339.562	152.94
339.79	137.94
340.018	136.94
340.246	144.94
340.474	159.94
340.702	156.94
340.93	154.94
341.158	175.94
341.386	145.94
341.614	160.94
341.842	145.94
342.07	149.94
342.298	164.94
342.526	184.94
342.754	157.94
342.981	152.94
343.209	147.94
343.437	160.94
343.665	170.94
343.893	174.94
344.12	188.94
344.348	210.94
344.576	193.94
344.804	167.94
345.031	164.94
345.259	143.94
345.487	148.94
345.714	139.94
345.942	151.94
346.17	152.94
346.397	156.94
346.625	134.94
346.853	135.94
347.08	142.94
347.308	135.94
347.535	143.94
347.763	168.94
347.99	154.94
348.218	137.94
348.445	150.94
348.673	155.94
348.9	146.94
349.128	153.94
349.355	159.94
349.583	148.94
349.81	139.94
350.037	130.94
350.265	139.94
350.492	121.94
350.72	120.94
350.947	143.94
351.174	147.94
351.402	144.94
351.629	147.94
351.856	150.94
352.083	147.94
352.311	147.94
352.538	148.94
352.765	149.94
352.992	157.94
353.22	150.94
353.447	148.94
353.674	145.94
353.901	141.94
354.128	155.94
354.355	149.94
354.583	137.94
354.81	152.94
355.037	162.94
355.264	159.94
355.491	145.94
355.718	158.94
355.945	147.94
356.172	159.94
356.399	156.94
356.626	176.94
356.853	207.94
357.08	204.94
357.307	212.94
357.534	186.94
357.761	188.94
357.988	218.94
358.215	240.94
358.441	223.94
358.668	209.94
358.895	194.94
359.122	167.94
359.349	174.94
359.576	177.94
359.802	164.94
360.029	129.94
360.256	168.94
360.483	161.94
360.709	199.94
360.936	211.94
361.163	188.94
361.39	145.94
361.616	153.94
361.843	175.94
362.07	195.94
362.296	196.94
362.523	147.94
362.749	137.94
362.976	144.94
363.203	153.94
363.429	167.94
363.656	157.94
363.882	131.94
364.109	146.94
364.335	157.94
364.562	145.94
364.788	156.94
365.015	176.94
365.241	180.94
365.468	135.94
365.694	142.94
365.92	123.94
366.147	128.94
366.373	140.94
366.599	122.94
366.826	119.94
367.052	145.94
367.278	129.94
367.505	131.94
367.731	146.94
367.957	146.94
368.184	140.94
368.41	152.94
368.636	151.94
368.862	150.94
369.089	143.94
369.315	141.94
369.541	143.94
369.767	130.94
369.993	139.94
370.219	137.94
370.445	147.94
370.672	143.94
370.898	138.94
371.124	164.94
371.35	128.94
371.576	135.94
371.802	138.94
372.028	160.94
372.254	188.94
372.48	157.94
372.706	149.94
372.932	153.94
373.158	144.94
373.384	180.94
373.61	212.94
373.835	198.94
374.061	159.94
374.287	153.94
374.513	179.94
374.739	194.94
374.965	207.94
375.191	201.94
375.416	163.94
375.642	160.94
375.868	169.94
376.094	177.94
376.319	169.94
376.545	164.94
376.771	180.94
376.997	154.94
377.222	127.94
377.448	125.94
377.674	139.94
377.899	134.94
378.125	131.94
378.35	123.94
378.576	124.94
378.802	137.94
379.027	149.94
379.253	151.94
379.478	160.94
379.704	147.94
379.929	155.94
380.155	160.94
380.38	149.94
380.606	145.94
380.831	162.94
381.057	155.94
381.282	159.94
381.507	167.94
381.733	195.94
381.958	209.94
382.184	211.94
382.409	217.94
382.634	204.94
382.86	211.94
383.085	176.94
383.31	152.94
383.535	177.94
383.761	165.94
383.986	160.94
384.211	194.94
384.436	178.94
384.662	161.94
384.887	156.94
385.112	136.94
385.337	163.94
385.562	141.94
385.787	156.94
386.013	193.94
386.238	172.94
386.463	154.94
386.688	157.94
386.913	156.94
387.138	127.94
387.363	134.94
387.588	160.94
387.813	167.94
388.038	166.94
388.263	146.94
388.488	144.94
388.713	179.94
388.938	180.94
389.163	152.94
389.387	140.94
389.612	148.94
389.837	153.94
390.062	135.94
390.287	149.94
390.512	146.94
390.736	149.94
390.961	130.94
391.186	136.94
391.411	131.94
391.636	141.94
391.86	125.94
392.085	157.94
392.31	161.94
392.534	149.94
392.759	152.94
392.984	155.94
393.208	138.94
393.433	143.94
393.658	127.94
393.882	119.94
394.107	141.94
394.331	127.94
394.556	131.94
394.78	128.94
395.005	137.94
395.229	138.94
395.454	138.94
395.678	142.94
395.903	144.94
396.127	138.94
396.352	137.94
396.576	157.94
396.801	153.94
397.025	160.94
397.249	168.94
397.474	151.94
397.698	129.94
397.922	149.94
398.147	148.94
398.371	118.94
398.595	146.94
398.82	159.94
399.044	139.94
399.268	139.94
399.492	160.94
399.717	145.94
399.941	157.94
400.165	146.94
400.389	156.94
400.613	161.94
400.837	150.94
401.062	139.94
401.286	145.94
401.51	142.94
401.734	134.94
401.958	139.94
402.182	136.94
402.406	129.94
402.63	134.94
402.854	150.94
403.078	158.94
403.302	194.94
403.526	191.94
403.75	159.94
403.974	158.94
404.198	154.94
404.422	192.94
404.645	175.94
404.869	186.94
405.093	157.94
405.317	155.94
405.541	156.94
405.765	164.94
405.988	160.94
406.212	156.94
406.436	180.94
406.66	200.94
406.883	168.94
407.107	143.94
407.331	184.94
407.555	171.94
407.778	156.94
408.002	166.94
408.226	142.94
408.449	155.94
408.673	153.94
408.896	135.94
409.12	150.94
409.344	139.94
409.567	137.94
409.791	131.94
410.014	138.94
410.238	136.94
410.461	140.94
410.685	143.94
410.908	135.94
411.132	147.94
411.355	136.94
411.578	142.94
411.802	151.94
412.025	149.94
412.249	139.94
412.472	143.94
412.695	132.94
412.919	144.94
413.142	142.94
413.365	156.94
413.589	170.94
413.812	151.94
414.035	158.94
414.258	143.94
414.482	160.94
414.705	179.94
414.928	142.94
415.151	143.94
415.374	129.94
415.597	152.94
415.821	169.94
416.044	163.94
416.267	145.94
416.49	149.94
416.713	146.94
416.936	144.94
417.159	142.94
417.382	131.94
417.605	139.94
417.828	150.94
418.051	139.94
418.274	142.94
418.497	149.94
418.72	149.94
418.943	150.94
419.166	152.94
419.389	167.94
419.611	147.94
419.834	140.94
420.057	179.94
420.28	161.94
420.503	165.94
420.726	147.94
420.948	139.94
421.171	137.94
421.394	123.94
421.617	136.94
421.839	131.94
422.062	170.94
422.285	130.94
422.507	154.94
422.73	148.94
422.953	154.94
423.175	151.94
423.398	138.94
423.621	165.94
423.843	145.94
424.066	145.94
424.288	160.94
424.511	138.94
424.733	149.94
424.956	157.94
425.178	149.94
425.401	175.94
425.623	192.94
425.846	177.94
426.068	158.94
426.291	161.94
426.513	150.94
426.735	151.94
426.958	148.94
427.18	171.94
427.402	200.94
427.625	203.94
427.847	161.94
428.069	156.94
428.292	141.94
428.514	134.94
428.736	138.94
428.958	152.94
429.181	171.94
429.403	156.94
429.625	142.94
429.847	142.94
430.069	151.94
430.292	145.94
430.514	135.94
430.736	152.94
430.958	179.94
431.18	161.94
431.402	140.94
431.624	131.94
431.846	139.94
432.068	147.94
432.29	135.94
432.512	155.94
432.734	189.94
432.956	181.94
433.178	137.94
433.4	123.94
433.622	128.94
433.844	145.94
434.066	153.94
434.287	160.94
434.509	153.94
434.731	140.94
434.953	129.94
435.175	154.94
435.397	185.94
435.618	151.94
435.84	146.94
436.062	146.94
436.284	160.94
436.505	140.94
436.727	130.94
436.949	127.94
437.17	160.94
437.392	159.94
437.614	131.94
437.835	139.94
438.057	133.94
438.278	155.94
438.5	187.94
438.721	200.94
438.943	154.94
439.165	138.94
439.386	142.94
439.608	132.94
439.829	133.94
440.05	137.94
440.272	132.94
440.493	161.94
440.715	187.94
440.936	140.94
441.158	151.94
441.379	141.94
441.6	167.94
441.822	154.94
442.043	149.94
442.264	151.94
442.486	135.94
442.707	140.94
442.928	152.94
443.149	149.94
443.371	138.94
443.592	145.94
443.813	143.94
444.034	153.94
444.255	149.94
444.476	146.94
444.698	131.94
444.919	146.94
445.14	299.94
445.361	217.94
445.582	157.94
445.803	155.94
446.024	167.94
446.245	167.94
446.466	147.94
446.687	128.94
446.908	135.94
447.129	141.94
447.35	139.94
447.571	146.94
447.792	141.94
448.013	128.94
448.234	139.94
448.455	122.94
448.675	147.94
448.896	145.94
449.117	151.94
449.338	149.94
449.559	150.94
449.779	138.94
450	154.94
450.221	147.94
450.442	126.94
450.662	143.94
450.883	130.94
451.104	133.94
451.324	120.94
451.545	132.94
451.766	131.94
451.986	137.94
452.207	138.94
452.428	125.94
452.648	129.94
452.869	147.94
453.089	154.94
453.31	140.94
453.53	137.94
453.751	129.94
453.971	127.94
454.192	121.94
454.412	121.94
454.633	153.94
454.853	123.94
455.073	122.94
455.294	113.94
455.514	122.94
455.734	130.94
455.955	133.94
456.175	132.94
456.395	141.94
456.616	129.94
456.836	132.94
457.056	139.94
457.276	134.94
457.497	123.94
457.717	132.94
457.937	125.94
458.157	127.94
458.377	115.94
458.598	127.94
458.818	145.94
459.038	134.94
459.258	137.94
459.478	151.94
459.698	145.94
459.918	140.94
460.138	164.94
460.358	142.94
460.578	149.94
460.798	159.94
461.018	145.94
461.238	140.94
461.458	141.94
461.678	148.94
461.898	158.94
462.118	156.94
462.338	153.94
462.558	142.94
462.777	148.94
462.997	156.94
463.217	162.94
463.437	152.94
463.657	141.94
463.876	155.94
464.096	172.94
464.316	147.94
464.536	149.94
464.755	159.94
464.975	178.94
465.195	171.94
465.414	163.94
465.634	145.94
465.854	146.94
466.073	145.94
466.293	140.94
466.512	151.94
466.732	152.94
466.951	170.94
467.171	153.94
467.391	135.94
467.61	145.94
467.829	163.94
468.049	159.94
468.268	138.94
468.488	151.94
468.707	149.94
468.927	164.94
469.146	160.94
469.365	172.94
469.585	148.94
469.804	147.94
470.023	164.94
470.243	167.94
470.462	142.94
470.681	156.94
470.901	161.94
471.12	167.94
471.339	160.94
471.558	155.94
471.777	133.94
471.997	160.94
472.216	163.94
472.435	155.94
472.654	156.94
472.873	168.94
473.092	153.94
473.311	148.94
473.53	139.94
473.749	152.94
473.968	157.94
474.187	142.94
474.406	148.94
474.625	155.94
474.844	145.94
475.063	163.94
475.282	160.94
475.501	170.94
475.72	193.94
475.939	172.94
476.158	167.94
476.377	196.94
476.596	210.94
476.814	204.94
477.033	188.94
477.252	161.94
477.471	162.94
477.69	146.94
477.908	154.94
478.127	178.94
478.346	161.94
478.564	163.94
478.783	166.94
479.002	153.94
479.22	195.94
479.439	189.94
479.658	151.94
479.876	177.94
480.095	177.94
480.313	184.94
480.532	177.94
480.751	152.94
480.969	155.94
481.188	183.94
481.406	187.94
481.624	180.94
481.843	164.94
482.061	160.94
482.28	168.94
482.498	206.94
482.717	199.94
482.935	185.94
483.153	155.94
483.372	144.94
483.59	154.94
483.808	166.94
484.027	151.94
484.245	165.94
484.463	167.94
484.681	162.94
484.9	157.94
485.118	157.94
485.336	153.94
485.554	153.94
485.772	163.94
485.99	158.94
486.209	179.94
486.427	175.94
486.645	187.94
486.863	180.94
487.081	179.94
487.299	192.94
487.517	202.94
487.735	170.94
487.953	170.94
488.171	183.94
488.389	169.94
488.607	162.94
488.825	177.94
489.043	185.94
489.261	197.94
489.479	214.94
489.696	187.94
489.914	160.94
490.132	161.94
490.35	167.94
490.568	166.94
490.786	176.94
491.003	161.94
491.221	170.94
491.439	161.94
491.657	173.94
491.874	167.94
492.092	208.94
492.31	255.94
492.527	250.94
492.745	198.94
492.963	173.94
493.18	172.94
493.398	173.94
493.615	192.94
493.833	186.94
494.05	186.94
494.268	183.94
494.485	178.94
494.703	157.94
494.92	167.94
495.138	168.94
495.355	177.94
495.573	175.94
495.79	200.94
496.008	254.94
496.225	195.94
496.442	182.94
496.66	188.94
496.877	181.94
497.094	196.94
497.312	185.94
497.529	185.94
497.746	188.94
497.963	181.94
498.181	184.94
498.398	193.94
498.615	212.94
498.832	226.94
499.049	214.94
499.267	199.94
499.484	219.94
499.701	229.94
499.918	223.94
500.135	231.94
500.352	238.94
500.569	239.94
500.786	264.94
501.003	247.94
501.22	232.94
501.437	224.94
501.654	192.94
501.871	196.94
502.088	205.94
502.305	204.94
502.522	203.94
502.739	189.94
