Data from NickelSpatula.Lamp.E5.5.P2_HRD10591_11-52-47-552.txt Node
Date: Tue Jul 23 11:52:47 EDT 2019
User: cochatt
Spectrometer: HR+D1059
Trigger mode: 1
Integration Time (sec): 1.000000E-1
Scans to average: 1
Electric dark correction enabled: true
Nonlinearity correction enabled: false
Boxcar width: 0
XAxis mode: Wavelengths
Number of Pixels in Spectrum: 2048
>>>>>Begin Spectral Data<<<<<
223.165	-17.06
223.4	-17.06
223.635	-17.06
223.869	-17.06
224.104	-19.06
224.338	-29.06
224.573	-20.06
224.808	-21.06
225.042	0.94
225.277	-10.06
225.511	-3.06
225.746	5.94
225.98	6.94
226.215	8.94
226.449	16.94
226.683	30.94
226.918	28.94
227.152	36.94
227.387	33.94
227.621	23.94
227.856	48.94
228.09	36.94
228.324	38.94
228.559	39.94
228.793	42.94
229.027	64.94
229.262	79.94
229.496	75.94
229.73	85.94
229.964	80.94
230.199	100.94
230.433	89.94
230.667	97.94
230.901	90.94
231.136	81.94
231.37	112.94
231.604	104.94
231.838	96.94
232.072	103.94
232.306	101.94
232.541	112.94
232.775	95.94
233.009	96.94
233.243	122.94
233.477	119.94
233.711	125.94
233.945	114.94
234.179	135.94
234.413	111.94
234.647	122.94
234.881	151.94
235.115	130.94
235.349	134.94
235.583	119.94
235.817	123.94
236.051	133.94
236.285	130.94
236.519	162.94
236.753	143.94
236.987	142.94
237.221	132.94
237.455	134.94
237.689	139.94
237.922	135.94
238.156	152.94
238.39	174.94
238.624	174.94
238.858	164.94
239.091	152.94
239.325	152.94
239.559	148.94
239.793	163.94
240.027	182.94
240.26	178.94
240.494	159.94
240.728	159.94
240.961	185.94
241.195	192.94
241.429	161.94
241.662	164.94
241.896	157.94
242.13	157.94
242.363	138.94
242.597	163.94
242.83	174.94
243.064	165.94
243.298	163.94
243.531	181.94
243.765	184.94
243.998	166.94
244.232	170.94
244.465	167.94
244.699	160.94
244.932	208.94
245.166	190.94
245.399	166.94
245.633	149.94
245.866	152.94
246.099	175.94
246.333	192.94
246.566	198.94
246.8	206.94
247.033	224.94
247.266	205.94
247.5	195.94
247.733	184.94
247.966	186.94
248.2	180.94
248.433	190.94
248.666	212.94
248.899	209.94
249.133	200.94
249.366	222.94
249.599	252.94
249.832	228.94
250.066	216.94
250.299	223.94
250.532	211.94
250.765	199.94
250.998	194.94
251.231	178.94
251.465	197.94
251.698	203.94
251.931	203.94
252.164	228.94
252.397	225.94
252.63	262.94
252.863	290.94
253.096	282.94
253.329	267.94
253.562	246.94
253.795	275.94
254.028	307.94
254.261	315.94
254.494	282.94
254.727	257.94
254.96	272.94
255.193	268.94
255.426	279.94
255.659	202.94
255.892	206.94
256.124	231.94
256.357	246.94
256.59	282.94
256.823	279.94
257.056	237.94
257.289	229.94
257.521	247.94
257.754	284.94
257.987	320.94
258.22	278.94
258.452	229.94
258.685	285.94
258.918	303.94
259.151	308.94
259.383	341.94
259.616	356.94
259.849	372.94
260.081	392.94
260.314	413.94
260.547	326.94
260.779	338.94
261.012	402.94
261.244	378.94
261.477	382.94
261.71	347.94
261.942	294.94
262.175	296.94
262.407	300.94
262.64	293.94
262.872	342.94
263.105	367.94
263.337	365.94
263.57	338.94
263.802	250.94
264.035	234.94
264.267	211.94
264.499	198.94
264.732	202.94
264.964	179.94
265.197	187.94
265.429	205.94
265.661	198.94
265.894	218.94
266.126	240.94
266.358	242.94
266.591	291.94
266.823	352.94
267.055	327.94
267.287	299.94
267.52	313.94
267.752	318.94
267.984	336.94
268.216	324.94
268.448	288.94
268.681	270.94
268.913	289.94
269.145	293.94
269.377	299.94
269.609	317.94
269.841	294.94
270.073	321.94
270.306	323.94
270.538	330.94
270.77	341.94
271.002	358.94
271.234	339.94
271.466	340.94
271.698	336.94
271.93	314.94
272.162	328.94
272.394	306.94
272.626	303.94
272.858	315.94
273.09	340.94
273.322	286.94
273.553	290.94
273.785	326.94
274.017	419.94
274.249	513.94
274.481	516.94
274.713	570.94
274.945	648.94
275.176	660.94
275.408	611.94
275.64	579.94
275.872	559.94
276.104	487.94
276.335	437.94
276.567	414.94
276.799	448.94
277.031	453.94
277.262	371.94
277.494	298.94
277.726	263.94
277.957	305.94
278.189	333.94
278.421	323.94
278.652	346.94
278.884	314.94
279.115	285.94
279.347	285.94
279.579	276.94
279.81	289.94
280.042	289.94
280.273	307.94
280.505	287.94
280.736	255.94
280.968	237.94
281.199	275.94
281.431	292.94
281.662	294.94
281.894	270.94
282.125	292.94
282.356	319.94
282.588	304.94
282.819	287.94
283.051	318.94
283.282	372.94
283.513	418.94
283.745	457.94
283.976	461.94
284.207	416.94
284.439	452.94
284.67	441.94
284.901	396.94
285.132	432.94
285.364	423.94
285.595	401.94
285.826	440.94
286.057	436.94
286.288	420.94
286.52	442.94
286.751	439.94
286.982	464.94
287.213	404.94
287.444	415.94
287.675	414.94
287.906	423.94
288.138	356.94
288.369	307.94
288.6	326.94
288.831	328.94
289.062	342.94
289.293	381.94
289.524	371.94
289.755	358.94
289.986	385.94
290.217	354.94
290.448	265.94
290.679	236.94
290.91	223.94
291.141	221.94
291.371	236.94
291.602	238.94
291.833	240.94
292.064	239.94
292.295	275.94
292.526	353.94
292.757	329.94
292.987	352.94
293.218	355.94
293.449	372.94
293.68	405.94
293.91	388.94
294.141	373.94
294.372	370.94
294.603	337.94
294.833	376.94
295.064	419.94
295.295	426.94
295.525	314.94
295.756	250.94
295.987	253.94
296.217	236.94
296.448	240.94
296.679	253.94
296.909	278.94
297.14	309.94
297.37	312.94
297.601	313.94
297.831	275.94
298.062	283.94
298.292	339.94
298.523	343.94
298.753	404.94
298.984	358.94
299.214	303.94
299.445	263.94
299.675	250.94
299.905	250.94
300.136	220.94
300.366	272.94
300.597	263.94
300.827	244.94
301.057	239.94
301.288	230.94
301.518	260.94
301.748	286.94
301.979	309.94
302.209	311.94
302.439	337.94
302.669	281.94
302.9	279.94
303.13	260.94
303.36	246.94
303.59	259.94
303.82	264.94
304.051	291.94
304.281	301.94
304.511	303.94
304.741	265.94
304.971	282.94
305.201	291.94
305.431	282.94
305.661	238.94
305.891	244.94
306.121	260.94
306.352	229.94
306.582	214.94
306.812	214.94
307.042	220.94
307.272	203.94
307.502	200.94
307.731	219.94
307.961	216.94
308.191	204.94
308.421	190.94
308.651	209.94
308.881	207.94
309.111	205.94
309.341	192.94
309.571	225.94
309.8	210.94
310.03	221.94
310.26	236.94
310.49	218.94
310.72	218.94
310.949	214.94
311.179	203.94
311.409	222.94
311.639	274.94
311.868	300.94
312.098	381.94
312.328	435.94
312.557	412.94
312.787	406.94
313.017	366.94
313.246	381.94
313.476	401.94
313.706	354.94
313.935	284.94
314.165	239.94
314.394	228.94
314.624	243.94
314.853	255.94
315.083	261.94
315.312	210.94
315.542	229.94
315.771	219.94
316.001	183.94
316.23	200.94
316.46	199.94
316.689	206.94
316.919	201.94
317.148	227.94
317.377	212.94
317.607	196.94
317.836	219.94
318.065	242.94
318.295	278.94
318.524	257.94
318.753	230.94
318.983	225.94
319.212	228.94
319.441	220.94
319.67	247.94
319.9	265.94
320.129	266.94
320.358	223.94
320.587	228.94
320.816	229.94
321.046	246.94
321.275	280.94
321.504	275.94
321.733	272.94
321.962	267.94
322.191	234.94
322.42	231.94
322.649	256.94
322.878	263.94
323.108	257.94
323.337	258.94
323.566	253.94
323.795	254.94
324.024	219.94
324.253	228.94
324.482	222.94
324.71	239.94
324.939	271.94
325.168	239.94
325.397	227.94
325.626	210.94
325.855	218.94
326.084	222.94
326.313	213.94
326.542	187.94
326.77	223.94
326.999	202.94
327.228	217.94
327.457	225.94
327.686	227.94
327.914	206.94
328.143	207.94
328.372	194.94
328.6	196.94
328.829	209.94
329.058	206.94
329.287	202.94
329.515	196.94
329.744	218.94
329.972	208.94
330.201	194.94
330.43	199.94
330.658	232.94
330.887	245.94
331.115	241.94
331.344	233.94
331.572	231.94
331.801	202.94
332.03	210.94
332.258	213.94
332.486	236.94
332.715	250.94
332.943	238.94
333.172	214.94
333.4	235.94
333.629	244.94
333.857	260.94
334.085	270.94
334.314	262.94
334.542	252.94
334.771	213.94
334.999	227.94
335.227	216.94
335.455	219.94
335.684	258.94
335.912	280.94
336.14	294.94
336.369	284.94
336.597	275.94
336.825	310.94
337.053	332.94
337.281	294.94
337.51	237.94
337.738	228.94
337.966	238.94
338.194	258.94
338.422	255.94
338.65	221.94
338.878	223.94
339.106	205.94
339.334	247.94
339.562	263.94
339.79	213.94
340.018	214.94
340.246	234.94
340.474	264.94
340.702	278.94
340.93	285.94
341.158	294.94
341.386	259.94
341.614	242.94
341.842	258.94
342.07	267.94
342.298	267.94
342.526	303.94
342.754	267.94
342.981	229.94
343.209	238.94
343.437	258.94
343.665	268.94
343.893	282.94
344.12	326.94
344.348	352.94
344.576	318.94
344.804	262.94
345.031	239.94
345.259	222.94
345.487	227.94
345.714	229.94
345.942	244.94
346.17	277.94
346.397	270.94
346.625	242.94
346.853	221.94
347.08	218.94
347.308	239.94
347.535	252.94
347.763	278.94
347.99	250.94
348.218	226.94
348.445	220.94
348.673	237.94
348.9	253.94
349.128	247.94
349.355	270.94
349.583	248.94
349.81	229.94
350.037	231.94
350.265	213.94
350.492	204.94
350.72	197.94
350.947	194.94
351.174	200.94
351.402	214.94
351.629	223.94
351.856	229.94
352.083	200.94
352.311	219.94
352.538	253.94
352.765	255.94
352.992	251.94
353.22	254.94
353.447	244.94
353.674	204.94
353.901	215.94
354.128	215.94
354.355	218.94
354.583	226.94
354.81	240.94
355.037	236.94
355.264	223.94
355.491	230.94
355.718	262.94
355.945	242.94
356.172	229.94
356.399	243.94
356.626	295.94
356.853	316.94
357.08	372.94
357.307	368.94
357.534	295.94
357.761	309.94
357.988	382.94
358.215	407.94
358.441	384.94
358.668	327.94
358.895	332.94
359.122	300.94
359.349	275.94
359.576	308.94
359.802	263.94
360.029	226.94
360.256	234.94
360.483	291.94
360.709	347.94
360.936	337.94
361.163	306.94
361.39	255.94
361.616	233.94
361.843	272.94
362.07	318.94
362.296	270.94
362.523	242.94
362.749	200.94
362.976	216.94
363.203	260.94
363.429	290.94
363.656	218.94
363.882	218.94
364.109	229.94
364.335	237.94
364.562	253.94
364.788	263.94
365.015	283.94
365.241	241.94
365.468	217.94
365.694	203.94
365.92	207.94
366.147	189.94
366.373	199.94
366.599	189.94
366.826	195.94
367.052	188.94
367.278	198.94
367.505	201.94
367.731	217.94
367.957	231.94
368.184	229.94
368.41	241.94
368.636	218.94
368.862	232.94
369.089	252.94
369.315	218.94
369.541	201.94
369.767	213.94
369.993	213.94
370.219	205.94
370.445	206.94
370.672	224.94
370.898	241.94
371.124	242.94
371.35	214.94
371.576	218.94
371.802	221.94
372.028	267.94
372.254	292.94
372.48	282.94
372.706	228.94
372.932	265.94
373.158	262.94
373.384	293.94
373.61	376.94
373.835	374.94
374.061	303.94
374.287	259.94
374.513	287.94
374.739	367.94
374.965	381.94
375.191	359.94
375.416	268.94
375.642	231.94
375.868	259.94
376.094	305.94
376.319	273.94
376.545	264.94
376.771	287.94
376.997	264.94
377.222	214.94
377.448	201.94
377.674	170.94
377.899	190.94
378.125	189.94
378.35	190.94
378.576	200.94
378.802	209.94
379.027	222.94
379.253	220.94
379.478	207.94
379.704	239.94
379.929	247.94
380.155	266.94
380.38	218.94
380.606	234.94
380.831	260.94
381.057	245.94
381.282	211.94
381.507	250.94
381.733	319.94
381.958	328.94
382.184	331.94
382.409	363.94
382.634	370.94
382.86	388.94
383.085	308.94
383.31	252.94
383.535	277.94
383.761	278.94
383.986	276.94
384.211	305.94
384.436	293.94
384.662	252.94
384.887	242.94
385.112	246.94
385.337	252.94
385.562	251.94
385.787	251.94
386.013	285.94
386.238	285.94
386.463	250.94
386.688	238.94
386.913	235.94
387.138	223.94
387.363	231.94
387.588	248.94
387.813	258.94
388.038	258.94
388.263	227.94
388.488	238.94
388.713	266.94
388.938	273.94
389.163	243.94
389.387	215.94
389.612	204.94
389.837	219.94
390.062	220.94
390.287	227.94
390.512	239.94
390.736	227.94
390.961	211.94
391.186	214.94
391.411	207.94
391.636	213.94
391.86	216.94
392.085	257.94
392.31	254.94
392.534	223.94
392.759	218.94
392.984	223.94
393.208	248.94
393.433	222.94
393.658	195.94
393.882	198.94
394.107	202.94
394.331	193.94
394.556	204.94
394.78	213.94
395.005	208.94
395.229	220.94
395.454	230.94
395.678	213.94
395.903	219.94
396.127	215.94
396.352	220.94
396.576	221.94
396.801	217.94
397.025	254.94
397.249	256.94
397.474	244.94
397.698	221.94
397.922	241.94
398.147	222.94
398.371	230.94
398.595	230.94
398.82	225.94
399.044	224.94
399.268	247.94
399.492	274.94
399.717	273.94
399.941	259.94
400.165	257.94
400.389	247.94
400.613	221.94
400.837	227.94
401.062	235.94
401.286	224.94
401.51	211.94
401.734	213.94
401.958	223.94
402.182	226.94
402.406	246.94
402.63	232.94
402.854	243.94
403.078	272.94
403.302	364.94
403.526	391.94
403.75	323.94
403.974	262.94
404.198	270.94
404.422	303.94
404.645	327.94
404.869	367.94
405.093	293.94
405.317	252.94
405.541	238.94
405.765	259.94
405.988	254.94
406.212	264.94
406.436	295.94
406.66	332.94
406.883	275.94
407.107	274.94
407.331	321.94
407.555	310.94
407.778	286.94
408.002	283.94
408.226	260.94
408.449	259.94
408.673	268.94
408.896	237.94
409.12	234.94
409.344	243.94
409.567	234.94
409.791	229.94
410.014	237.94
410.238	230.94
410.461	218.94
410.685	226.94
410.908	221.94
411.132	239.94
411.355	227.94
411.578	246.94
411.802	220.94
412.025	230.94
412.249	259.94
412.472	227.94
412.695	231.94
412.919	223.94
413.142	220.94
413.365	240.94
413.589	247.94
413.812	235.94
414.035	210.94
414.258	220.94
414.482	235.94
414.705	272.94
414.928	214.94
415.151	217.94
415.374	228.94
415.597	227.94
415.821	226.94
416.044	219.94
416.267	240.94
416.49	215.94
416.713	204.94
416.936	198.94
417.159	217.94
417.382	223.94
417.605	232.94
417.828	220.94
418.051	222.94
418.274	220.94
418.497	242.94
418.72	240.94
418.943	235.94
419.166	247.94
419.389	241.94
419.611	270.94
419.834	243.94
420.057	268.94
420.28	256.94
420.503	247.94
420.726	210.94
420.948	229.94
421.171	235.94
421.394	229.94
421.617	202.94
421.839	235.94
422.062	226.94
422.285	243.94
422.507	219.94
422.73	224.94
422.953	237.94
423.175	236.94
423.398	235.94
423.621	254.94
423.843	261.94
424.066	242.94
424.288	231.94
424.511	227.94
424.733	230.94
424.956	252.94
425.178	284.94
425.401	286.94
425.623	348.94
425.846	284.94
426.068	251.94
426.291	275.94
426.513	243.94
426.735	216.94
426.958	252.94
427.18	260.94
427.402	344.94
427.625	370.94
427.847	309.94
428.069	235.94
428.292	244.94
428.514	220.94
428.736	220.94
428.958	263.94
429.181	305.94
429.403	254.94
429.625	218.94
429.847	208.94
430.069	229.94
430.292	206.94
430.514	206.94
430.736	228.94
430.958	271.94
431.18	257.94
431.402	214.94
431.624	219.94
431.846	225.94
432.068	209.94
432.29	218.94
432.512	237.94
432.734	271.94
432.956	272.94
433.178	229.94
433.4	210.94
433.622	224.94
433.844	234.94
434.066	236.94
434.287	229.94
434.509	234.94
434.731	260.94
434.953	240.94
435.175	229.94
435.397	278.94
435.618	246.94
435.84	219.94
436.062	198.94
436.284	209.94
436.505	208.94
436.727	192.94
436.949	224.94
437.17	213.94
437.392	215.94
437.614	216.94
437.835	208.94
438.057	206.94
438.278	244.94
438.5	309.94
438.721	295.94
438.943	246.94
439.165	211.94
439.386	208.94
439.608	198.94
439.829	209.94
440.05	200.94
440.272	212.94
440.493	228.94
440.715	296.94
440.936	250.94
441.158	216.94
441.379	209.94
441.6	246.94
441.822	274.94
442.043	229.94
442.264	219.94
442.486	216.94
442.707	223.94
442.928	236.94
443.149	223.94
443.371	226.94
443.592	218.94
443.813	244.94
444.034	207.94
444.255	227.94
444.476	253.94
444.698	262.94
444.919	263.94
445.14	362.94
445.361	291.94
445.582	247.94
445.803	250.94
446.024	231.94
446.245	245.94
446.466	245.94
446.687	228.94
446.908	219.94
447.129	209.94
447.35	223.94
447.571	214.94
447.792	211.94
448.013	203.94
448.234	206.94
448.455	212.94
448.675	197.94
448.896	211.94
449.117	236.94
449.338	208.94
449.559	209.94
449.779	230.94
450	239.94
450.221	207.94
450.442	212.94
450.662	212.94
450.883	212.94
451.104	224.94
451.324	210.94
451.545	218.94
451.766	215.94
451.986	212.94
452.207	199.94
452.428	204.94
452.648	210.94
452.869	210.94
453.089	219.94
453.31	211.94
453.53	191.94
453.751	206.94
453.971	194.94
454.192	194.94
454.412	220.94
454.633	229.94
454.853	195.94
455.073	191.94
455.294	194.94
455.514	204.94
455.734	201.94
455.955	222.94
456.175	208.94
456.395	192.94
456.616	172.94
456.836	184.94
457.056	193.94
457.276	183.94
457.497	187.94
457.717	189.94
457.937	183.94
458.157	191.94
458.377	187.94
458.598	194.94
458.818	200.94
459.038	213.94
459.258	214.94
459.478	221.94
459.698	230.94
459.918	239.94
460.138	226.94
460.358	252.94
460.578	236.94
460.798	234.94
461.018	237.94
461.238	220.94
461.458	223.94
461.678	238.94
461.898	240.94
462.118	217.94
462.338	247.94
462.558	248.94
462.777	261.94
462.997	269.94
463.217	292.94
463.437	282.94
463.657	269.94
463.876	268.94
464.096	271.94
464.316	254.94
464.536	238.94
464.755	276.94
464.975	256.94
465.195	256.94
465.414	275.94
465.634	260.94
465.854	222.94
466.073	215.94
466.293	228.94
466.512	230.94
466.732	260.94
466.951	256.94
467.171	237.94
467.391	220.94
467.61	210.94
467.829	235.94
468.049	225.94
468.268	215.94
468.488	228.94
468.707	214.94
468.927	250.94
469.146	284.94
469.365	269.94
469.585	235.94
469.804	244.94
470.023	268.94
470.243	232.94
470.462	242.94
470.681	210.94
470.901	234.94
471.12	239.94
471.339	223.94
471.558	228.94
471.777	220.94
471.997	251.94
472.216	264.94
472.435	267.94
472.654	239.94
472.873	244.94
473.092	257.94
473.311	263.94
473.53	225.94
473.749	239.94
473.968	241.94
474.187	251.94
474.406	252.94
474.625	229.94
474.844	254.94
475.063	257.94
475.282	241.94
475.501	263.94
475.72	263.94
475.939	268.94
476.158	274.94
476.377	292.94
476.596	357.94
476.814	360.94
477.033	289.94
477.252	245.94
477.471	246.94
477.69	231.94
477.908	268.94
478.127	284.94
478.346	252.94
478.564	279.94
478.783	265.94
479.002	272.94
479.22	303.94
479.439	336.94
479.658	290.94
479.876	262.94
480.095	283.94
480.313	305.94
480.532	298.94
480.751	280.94
480.969	274.94
481.188	299.94
481.406	320.94
481.624	284.94
481.843	267.94
482.061	237.94
482.28	284.94
482.498	326.94
482.717	336.94
482.935	269.94
483.153	264.94
483.372	250.94
483.59	264.94
483.808	234.94
484.027	267.94
484.245	264.94
484.463	249.94
484.681	242.94
484.9	257.94
485.118	263.94
485.336	280.94
485.554	269.94
485.772	259.94
485.99	276.94
486.209	297.94
486.427	310.94
486.645	267.94
486.863	291.94
487.081	287.94
487.299	314.94
487.517	293.94
487.735	268.94
487.953	308.94
488.171	293.94
488.389	289.94
488.607	254.94
488.825	268.94
489.043	305.94
489.261	326.94
489.479	325.94
489.696	296.94
489.914	282.94
490.132	267.94
490.35	270.94
490.568	278.94
490.786	268.94
491.003	284.94
491.221	265.94
491.439	253.94
491.657	270.94
491.874	264.94
492.092	327.94
492.31	366.94
492.527	352.94
492.745	323.94
492.963	287.94
493.18	293.94
493.398	302.94
493.615	301.94
493.833	278.94
494.05	286.94
494.268	286.94
494.485	292.94
494.703	269.94
494.92	292.94
495.138	272.94
495.355	268.94
495.573	294.94
495.79	272.94
496.008	374.94
496.225	323.94
496.442	272.94
496.66	300.94
496.877	298.94
497.094	299.94
497.312	286.94
497.529	290.94
497.746	285.94
497.963	298.94
498.181	341.94
498.398	354.94
498.615	360.94
498.832	381.94
499.049	372.94
499.267	372.94
499.484	387.94
499.701	401.94
499.918	447.94
500.135	488.94
500.352	513.94
500.569	534.94
500.786	542.94
501.003	492.94
501.22	449.94
501.437	414.94
501.654	401.94
501.871	386.94
502.088	374.94
502.305	336.94
502.522	348.94
