Data from NickelSpatula.Lamp.E10.P2_HRD10591_11-57-35-532.txt Node
Date: Tue Jul 23 11:57:35 EDT 2019
User: cochatt
Spectrometer: HR+D1059
Trigger mode: 1
Integration Time (sec): 1.000000E-1
Scans to average: 1
Electric dark correction enabled: true
Nonlinearity correction enabled: false
Boxcar width: 0
XAxis mode: Wavelengths
Number of Pixels in Spectrum: 2048
>>>>>Begin Spectral Data<<<<<
223.165	-20.56
223.4	-20.56
223.635	-20.56
223.869	-30.56
224.104	-11.56
224.338	-4.56
224.573	-11.56
224.808	-14.56
225.042	-26.56
225.277	3.44
225.511	1.44
225.746	3.44
225.98	0.44
226.215	11.44
226.449	19.44
226.683	23.44
226.918	27.44
227.152	29.44
227.387	21.44
227.621	28.44
227.856	53.44
228.09	51.44
228.324	62.44
228.559	61.44
228.793	93.44
229.027	147.44
229.262	162.44
229.496	166.44
229.73	168.44
229.964	183.44
230.199	208.44
230.433	217.44
230.667	219.44
230.901	219.44
231.136	204.44
231.37	202.44
231.604	224.44
231.838	247.44
232.072	239.44
232.306	245.44
232.541	250.44
232.775	241.44
233.009	239.44
233.243	285.44
233.477	313.44
233.711	351.44
233.945	328.44
234.179	327.44
234.413	358.44
234.647	386.44
234.881	469.44
235.115	418.44
235.349	389.44
235.583	345.44
235.817	341.44
236.051	365.44
236.285	400.44
236.519	467.44
236.753	413.44
236.987	396.44
237.221	387.44
237.455	410.44
237.689	424.44
237.922	461.44
238.156	473.44
238.39	557.44
238.624	645.44
238.858	602.44
239.091	479.44
239.325	501.44
239.559	451.44
239.793	531.44
240.027	649.44
240.26	591.44
240.494	567.44
240.728	585.44
240.961	675.44
241.195	629.44
241.429	639.44
241.662	597.44
241.896	503.44
242.13	465.44
242.363	446.44
242.597	461.44
242.83	542.44
243.064	523.44
243.298	577.44
243.531	640.44
243.765	644.44
243.998	628.44
244.232	587.44
244.465	588.44
244.699	562.44
244.932	633.44
245.166	629.44
245.399	528.44
245.633	535.44
245.866	555.44
246.099	593.44
246.333	697.44
246.566	746.44
246.8	752.44
247.033	681.44
247.266	691.44
247.5	672.44
247.733	663.44
247.966	624.44
248.2	661.44
248.433	727.44
248.666	854.44
248.899	851.44
249.133	837.44
249.366	987.44
249.599	1049.44
249.832	921.44
250.066	823.44
250.299	815.44
250.532	800.44
250.765	795.44
250.998	722.44
251.231	725.44
251.465	778.44
251.698	827.44
251.931	787.44
252.164	812.44
252.397	903.44
252.63	1019.44
252.863	1144.44
253.096	1145.44
253.329	1093.44
253.562	1073.44
253.795	1193.44
254.028	1344.44
254.261	1379.44
254.494	1229.44
254.727	1100.44
254.96	1085.44
255.193	1135.44
255.426	1111.44
255.659	852.44
255.892	798.44
256.124	844.44
256.357	1011.44
256.59	1212.44
256.823	1127.44
257.056	972.44
257.289	915.44
257.521	955.44
257.754	1118.44
257.987	1281.44
258.22	1082.44
258.452	987.44
258.685	1121.44
258.918	1255.44
259.151	1228.44
259.383	1281.44
259.616	1473.44
259.849	1516.44
260.081	1706.44
260.314	1854.44
260.547	1426.44
260.779	1465.44
261.012	1686.44
261.244	1563.44
261.477	1606.44
261.71	1489.44
261.942	1254.44
262.175	1262.44
262.407	1192.44
262.64	1251.44
262.872	1458.44
263.105	1625.44
263.337	1692.44
263.57	1484.44
263.802	1010.44
264.035	897.44
264.267	851.44
264.499	741.44
264.732	700.44
264.964	704.44
265.197	708.44
265.429	768.44
265.661	795.44
265.894	845.44
266.126	896.44
266.358	1014.44
266.591	1257.44
266.823	1468.44
267.055	1389.44
267.287	1210.44
267.52	1228.44
267.752	1268.44
267.984	1376.44
268.216	1373.44
268.448	1085.44
268.681	1105.44
268.913	1219.44
269.145	1265.44
269.377	1294.44
269.609	1293.44
269.841	1210.44
270.073	1307.44
270.306	1366.44
270.538	1394.44
270.77	1399.44
271.002	1391.44
271.234	1476.44
271.466	1445.44
271.698	1395.44
271.93	1404.44
272.162	1409.44
272.394	1415.44
272.626	1345.44
272.858	1417.44
273.09	1463.44
273.322	1270.44
273.553	1257.44
273.785	1485.44
274.017	1919.44
274.249	2386.44
274.481	2500.44
274.713	2689.44
274.945	3085.44
275.176	3175.44
275.408	2737.44
275.64	2580.44
275.872	2588.44
276.104	2209.44
276.335	1861.44
276.567	1876.44
276.799	1905.44
277.031	2005.44
277.262	1560.44
277.494	1226.44
277.726	1173.44
277.957	1287.44
278.189	1435.44
278.421	1415.44
278.652	1417.44
278.884	1329.44
279.115	1259.44
279.347	1166.44
279.579	1175.44
279.81	1167.44
280.042	1215.44
280.273	1210.44
280.505	1125.44
280.736	996.44
280.968	1011.44
281.199	1077.44
281.431	1201.44
281.662	1228.44
281.894	1162.44
282.125	1254.44
282.356	1316.44
282.588	1387.44
282.819	1232.44
283.051	1350.44
283.282	1632.44
283.513	1883.44
283.745	2140.44
283.976	2134.44
284.207	1988.44
284.439	2072.44
284.67	1963.44
284.901	1728.44
285.132	1900.44
285.364	2015.44
285.595	1843.44
285.826	1960.44
286.057	1983.44
286.288	1942.44
286.52	1940.44
286.751	2113.44
286.982	2036.44
287.213	1772.44
287.444	1733.44
287.675	1792.44
287.906	1783.44
288.138	1539.44
288.369	1349.44
288.6	1281.44
288.831	1296.44
289.062	1538.44
289.293	1667.44
289.524	1591.44
289.755	1581.44
289.986	1615.44
290.217	1424.44
290.448	1097.44
290.679	951.44
290.91	890.44
291.141	916.44
291.371	960.44
291.602	968.44
291.833	980.44
292.064	1044.44
292.295	1189.44
292.526	1383.44
292.757	1437.44
292.987	1507.44
293.218	1557.44
293.449	1583.44
293.68	1676.44
293.91	1597.44
294.141	1621.44
294.372	1509.44
294.603	1391.44
294.833	1542.44
295.064	1845.44
295.295	1739.44
295.525	1297.44
295.756	1103.44
295.987	1012.44
296.217	1004.44
296.448	1035.44
296.679	1065.44
296.909	1204.44
297.14	1275.44
297.37	1389.44
297.601	1301.44
297.831	1167.44
298.062	1223.44
298.292	1408.44
298.523	1557.44
298.753	1718.44
298.984	1537.44
299.214	1231.44
299.445	1041.44
299.675	997.44
299.905	1017.44
300.136	1035.44
300.366	1147.44
300.597	1117.44
300.827	985.44
301.057	949.44
301.288	1024.44
301.518	1043.44
301.748	1169.44
301.979	1267.44
302.209	1363.44
302.439	1380.44
302.669	1203.44
302.9	1205.44
303.13	1094.44
303.36	1076.44
303.59	1031.44
303.82	1073.44
304.051	1196.44
304.281	1289.44
304.511	1264.44
304.741	1118.44
304.971	1177.44
305.201	1267.44
305.431	1203.44
305.661	1025.44
305.891	1005.44
306.121	1025.44
306.352	937.44
306.582	835.44
306.812	839.44
307.042	829.44
307.272	799.44
307.502	782.44
307.731	875.44
307.961	898.44
308.191	817.44
308.421	779.44
308.651	766.44
308.881	739.44
309.111	736.44
309.341	781.44
309.571	869.44
309.8	901.44
310.03	912.44
310.26	931.44
310.49	955.44
310.72	852.44
310.949	841.44
311.179	861.44
311.409	895.44
311.639	1045.44
311.868	1370.44
312.098	1740.44
312.328	1898.44
312.557	1817.44
312.787	1845.44
313.017	1611.44
313.246	1777.44
313.476	1933.44
313.706	1556.44
313.935	1258.44
314.165	1047.44
314.394	939.44
314.624	969.44
314.853	988.44
315.083	1037.44
315.312	973.44
315.542	967.44
315.771	908.44
316.001	842.44
316.23	829.44
316.46	821.44
316.689	842.44
316.919	864.44
317.148	857.44
317.377	853.44
317.607	863.44
317.836	929.44
318.065	1073.44
318.295	1197.44
318.524	1112.44
318.753	955.44
318.983	900.44
319.212	894.44
319.441	1026.44
319.67	1100.44
319.9	1166.44
320.129	1119.44
320.358	963.44
320.587	935.44
320.816	997.44
321.046	1131.44
321.275	1285.44
321.504	1289.44
321.733	1235.44
321.962	1187.44
322.191	1106.44
322.42	1061.44
322.649	1078.44
322.878	1179.44
323.108	1144.44
323.337	1080.44
323.566	1077.44
323.795	1029.44
324.024	962.44
324.253	951.44
324.482	929.44
324.71	1001.44
324.939	1157.44
325.168	1084.44
325.397	899.44
325.626	890.44
325.855	900.44
326.084	887.44
326.313	863.44
326.542	819.44
326.77	831.44
326.999	876.44
327.228	924.44
327.457	976.44
327.686	991.44
327.914	873.44
328.143	791.44
328.372	824.44
328.6	803.44
328.829	833.44
329.058	864.44
329.287	853.44
329.515	905.44
329.744	860.44
329.972	816.44
330.201	799.44
330.43	820.44
330.658	948.44
330.887	1046.44
331.115	993.44
331.344	987.44
331.572	927.44
331.801	893.44
332.03	859.44
332.258	864.44
332.486	953.44
332.715	943.44
332.943	896.44
333.172	866.44
333.4	934.44
333.629	1024.44
333.857	1095.44
334.085	1082.44
334.314	1095.44
334.542	1043.44
334.771	935.44
334.999	919.44
335.227	929.44
335.455	943.44
335.684	1021.44
335.912	1175.44
336.14	1280.44
336.369	1203.44
336.597	1188.44
336.825	1390.44
337.053	1504.44
337.281	1228.44
337.51	974.44
337.738	950.44
337.966	1016.44
338.194	1135.44
338.422	1076.44
338.65	928.44
338.878	872.44
339.106	900.44
339.334	991.44
339.562	1054.44
339.79	955.44
340.018	971.44
340.246	1015.44
340.474	1132.44
340.702	1240.44
340.93	1318.44
341.158	1307.44
341.386	1062.44
341.614	1074.44
341.842	1081.44
342.07	1109.44
342.298	1302.44
342.526	1340.44
342.754	1137.44
342.981	1067.44
343.209	1029.44
343.437	1101.44
343.665	1166.44
343.893	1153.44
344.12	1337.44
344.348	1514.44
344.576	1385.44
344.804	1155.44
345.031	1007.44
345.259	963.44
345.487	961.44
345.714	1003.44
345.942	1062.44
346.17	1114.44
346.397	1095.44
346.625	979.44
346.853	913.44
347.08	895.44
347.308	956.44
347.535	1031.44
347.763	1109.44
347.99	958.44
348.218	872.44
348.445	959.44
348.673	931.44
348.9	928.44
349.128	1011.44
349.355	1074.44
349.583	1027.44
349.81	971.44
350.037	889.44
350.265	839.44
350.492	800.44
350.72	769.44
350.947	822.44
351.174	839.44
351.402	919.44
351.629	947.44
351.856	929.44
352.083	849.44
352.311	895.44
352.538	1033.44
352.765	1107.44
352.992	980.44
353.22	947.44
353.447	956.44
353.674	907.44
353.901	937.44
354.128	932.44
354.355	973.44
354.583	926.44
354.81	933.44
355.037	970.44
355.264	962.44
355.491	1043.44
355.718	1114.44
355.945	1090.44
356.172	1040.44
356.399	1064.44
356.626	1283.44
356.853	1526.44
357.08	1627.44
357.307	1655.44
357.534	1289.44
357.761	1331.44
357.988	1681.44
358.215	1914.44
358.441	1812.44
358.668	1557.44
358.895	1439.44
359.122	1151.44
359.349	1154.44
359.576	1263.44
359.802	1041.44
360.029	915.44
360.256	1012.44
360.483	1209.44
360.709	1537.44
360.936	1543.44
361.163	1370.44
361.39	1076.44
361.616	1028.44
361.843	1164.44
362.07	1404.44
362.296	1295.44
362.523	1033.44
362.749	889.44
362.976	977.44
363.203	1149.44
363.429	1305.44
363.656	1010.44
363.882	938.44
364.109	955.44
364.335	962.44
364.562	937.44
364.788	1060.44
365.015	1242.44
365.241	1119.44
365.468	937.44
365.694	835.44
365.92	813.44
366.147	793.44
366.373	763.44
366.599	781.44
366.826	792.44
367.052	813.44
367.278	817.44
367.505	792.44
367.731	870.44
367.957	971.44
368.184	978.44
368.41	972.44
368.636	986.44
368.862	1002.44
369.089	991.44
369.315	891.44
369.541	879.44
369.767	844.44
369.993	840.44
370.219	832.44
370.445	877.44
370.672	973.44
370.898	1058.44
371.124	1022.44
371.35	905.44
371.576	869.44
371.802	961.44
372.028	1136.44
372.254	1285.44
372.48	1100.44
372.706	972.44
372.932	1029.44
373.158	1077.44
373.384	1273.44
373.61	1705.44
373.835	1785.44
374.061	1314.44
374.287	1109.44
374.513	1308.44
374.739	1548.44
374.965	1629.44
375.191	1564.44
375.416	1125.44
375.642	987.44
375.868	1146.44
376.094	1255.44
376.319	1084.44
376.545	1220.44
376.771	1283.44
376.997	1128.44
377.222	843.44
377.448	732.44
377.674	758.44
377.899	736.44
378.125	743.44
378.35	743.44
378.576	748.44
378.802	835.44
379.027	885.44
379.253	862.44
379.478	897.44
379.704	985.44
379.929	1031.44
380.155	1037.44
380.38	904.44
380.606	973.44
380.831	1083.44
381.057	993.44
381.282	949.44
381.507	1135.44
381.733	1375.44
381.958	1435.44
382.184	1545.44
382.409	1617.44
382.634	1590.44
382.86	1653.44
383.085	1343.44
383.31	1077.44
383.535	1151.44
383.761	1182.44
383.986	1103.44
384.211	1312.44
384.436	1263.44
384.662	1003.44
384.887	971.44
385.112	971.44
385.337	997.44
385.562	925.44
385.787	1051.44
386.013	1155.44
386.238	1156.44
386.463	947.44
386.688	959.44
386.913	902.44
387.138	849.44
387.363	933.44
387.588	949.44
387.813	946.44
388.038	1052.44
388.263	961.44
388.488	940.44
388.713	1083.44
388.938	1173.44
389.163	984.44
389.387	877.44
389.612	904.44
389.837	917.44
390.062	924.44
390.287	967.44
390.512	997.44
390.736	895.44
390.961	878.44
391.186	824.44
391.411	812.44
391.636	841.44
391.86	904.44
392.085	980.44
392.31	973.44
392.534	941.44
392.759	953.44
392.984	960.44
393.208	944.44
393.433	849.44
393.658	808.44
393.882	776.44
394.107	789.44
394.331	792.44
394.556	744.44
394.78	799.44
395.005	801.44
395.229	845.44
395.454	855.44
395.678	860.44
395.903	907.44
396.127	875.44
396.352	885.44
396.576	945.44
396.801	971.44
397.025	1065.44
397.249	1102.44
397.474	891.44
397.698	899.44
397.922	952.44
398.147	899.44
398.371	905.44
398.595	937.44
398.82	904.44
399.044	923.44
399.268	980.44
399.492	1018.44
399.717	1025.44
399.941	1079.44
400.165	1036.44
400.389	1017.44
400.613	1024.44
400.837	995.44
401.062	892.44
401.286	881.44
401.51	895.44
401.734	900.44
401.958	912.44
402.182	879.44
402.406	891.44
402.63	906.44
402.854	925.44
403.078	1070.44
403.302	1249.44
403.526	1299.44
403.75	1171.44
403.974	1060.44
404.198	1068.44
404.422	1187.44
404.645	1358.44
404.869	1489.44
405.093	1147.44
405.317	982.44
405.541	984.44
405.765	983.44
405.988	984.44
406.212	1081.44
406.436	1263.44
406.66	1375.44
406.883	1102.44
407.107	1137.44
407.331	1288.44
407.555	1245.44
407.778	1066.44
408.002	1059.44
408.226	1016.44
408.449	1034.44
408.673	996.44
408.896	907.44
409.12	890.44
409.344	909.44
409.567	911.44
409.791	880.44
410.014	859.44
410.238	886.44
410.461	892.44
410.685	890.44
410.908	901.44
411.132	917.44
411.355	919.44
411.578	933.44
411.802	924.44
412.025	961.44
412.249	977.44
412.472	927.44
412.695	929.44
412.919	937.44
413.142	961.44
413.365	1010.44
413.589	1040.44
413.812	910.44
414.035	912.44
414.258	943.44
414.482	1011.44
414.705	1012.44
414.928	898.44
415.151	842.44
415.374	885.44
415.597	872.44
415.821	914.44
416.044	889.44
416.267	888.44
416.49	889.44
416.713	847.44
416.936	846.44
417.159	878.44
417.382	905.44
417.605	861.44
417.828	903.44
418.051	917.44
418.274	916.44
418.497	921.44
418.72	899.44
418.943	923.44
419.166	963.44
419.389	1029.44
419.611	975.44
419.834	977.44
420.057	1112.44
420.28	1097.44
420.503	1014.44
420.726	888.44
420.948	847.44
421.171	873.44
421.394	883.44
421.617	869.44
421.839	875.44
422.062	916.44
422.285	889.44
422.507	918.44
422.73	952.44
422.953	961.44
423.175	931.44
423.398	963.44
423.621	1006.44
423.843	1020.44
424.066	983.44
424.288	892.44
424.511	871.44
424.733	891.44
424.956	929.44
425.178	1050.44
425.401	1180.44
425.623	1320.44
425.846	1105.44
426.068	972.44
426.291	1066.44
426.513	987.44
426.735	904.44
426.958	963.44
427.18	1121.44
427.402	1424.44
427.625	1399.44
427.847	1163.44
428.069	915.44
428.292	873.44
428.514	871.44
428.736	844.44
428.958	920.44
429.181	1128.44
429.403	969.44
429.625	867.44
429.847	867.44
430.069	867.44
430.292	892.44
430.514	877.44
430.736	961.44
430.958	1142.44
431.18	1049.44
431.402	829.44
431.624	836.44
431.846	811.44
432.068	770.44
432.29	807.44
432.512	891.44
432.734	1199.44
432.956	1111.44
433.178	864.44
433.4	836.44
433.622	850.44
433.844	845.44
434.066	899.44
434.287	876.44
434.509	864.44
434.731	905.44
434.953	863.44
435.175	917.44
435.397	1016.44
435.618	872.44
435.84	811.44
436.062	823.44
436.284	797.44
436.505	795.44
436.727	788.44
436.949	791.44
437.17	811.44
437.392	857.44
437.614	812.44
437.835	820.44
438.057	832.44
438.278	967.44
438.5	1348.44
438.721	1297.44
438.943	918.44
439.165	793.44
439.386	783.44
439.608	802.44
439.829	775.44
440.05	807.44
440.272	850.44
440.493	975.44
440.715	1193.44
440.936	970.44
441.158	851.44
441.379	847.44
441.6	965.44
441.822	984.44
442.043	880.44
442.264	874.44
442.486	872.44
442.707	872.44
442.928	835.44
443.149	876.44
443.371	887.44
443.592	936.44
443.813	928.44
444.034	913.44
444.255	872.44
444.476	948.44
444.698	936.44
444.919	921.44
445.14	1028.44
445.361	1000.44
445.582	935.44
445.803	938.44
446.024	947.44
446.245	933.44
446.466	902.44
446.687	871.44
446.908	875.44
447.129	826.44
447.35	801.44
447.571	797.44
447.792	777.44
448.013	775.44
448.234	772.44
448.455	795.44
448.675	762.44
448.896	800.44
449.117	805.44
449.338	810.44
449.559	813.44
449.779	859.44
450	853.44
450.221	806.44
450.442	788.44
450.662	780.44
450.883	781.44
451.104	786.44
451.324	789.44
451.545	795.44
451.766	803.44
451.986	746.44
452.207	759.44
452.428	771.44
452.648	758.44
452.869	799.44
453.089	826.44
453.31	819.44
453.53	734.44
453.751	743.44
453.971	744.44
454.192	753.44
454.412	789.44
454.633	776.44
454.853	731.44
455.073	724.44
455.294	704.44
455.514	721.44
455.734	741.44
455.955	811.44
456.175	823.44
456.395	738.44
456.616	722.44
456.836	702.44
457.056	697.44
457.276	700.44
457.497	725.44
457.717	726.44
457.937	725.44
458.157	697.44
458.377	726.44
458.598	738.44
458.818	771.44
459.038	793.44
459.258	829.44
459.478	852.44
459.698	907.44
459.918	891.44
460.138	871.44
460.358	873.44
460.578	885.44
460.798	883.44
461.018	868.44
461.238	862.44
461.458	857.44
461.678	882.44
461.898	919.44
462.118	928.44
462.338	918.44
462.558	931.44
462.777	966.44
462.997	1002.44
463.217	993.44
463.437	1021.44
463.657	1017.44
463.876	952.44
464.096	947.44
464.316	948.44
464.536	973.44
464.755	985.44
464.975	1025.44
465.195	945.44
465.414	977.44
465.634	923.44
465.854	904.44
466.073	879.44
466.293	865.44
466.512	900.44
466.732	1007.44
466.951	1015.44
467.171	921.44
467.391	880.44
467.61	857.44
467.829	924.44
468.049	932.44
468.268	878.44
468.488	863.44
468.707	903.44
468.927	1078.44
469.146	1109.44
469.365	1012.44
469.585	963.44
469.804	994.44
470.023	1118.44
470.243	937.44
470.462	902.44
470.681	899.44
470.901	907.44
471.12	961.44
471.339	943.44
471.558	904.44
471.777	914.44
471.997	973.44
472.216	1084.44
472.435	1053.44
472.654	951.44
472.873	943.44
473.092	972.44
473.311	1040.44
473.53	946.44
473.749	945.44
473.968	975.44
474.187	961.44
474.406	939.44
474.625	899.44
474.844	915.44
475.063	1026.44
475.282	1002.44
475.501	1059.44
475.72	1115.44
475.939	1092.44
476.158	1098.44
476.377	1251.44
476.596	1437.44
476.814	1484.44
477.033	1228.44
477.252	1055.44
477.471	992.44
477.69	1010.44
477.908	1103.44
478.127	1113.44
478.346	1024.44
478.564	1107.44
478.783	1059.44
479.002	1072.44
479.22	1269.44
479.439	1407.44
479.658	1220.44
479.876	1096.44
480.095	1184.44
480.313	1197.44
480.532	1127.44
480.751	1079.44
480.969	1099.44
481.188	1248.44
481.406	1342.44
481.624	1226.44
481.843	1120.44
482.061	1049.44
482.28	1172.44
482.498	1443.44
482.717	1369.44
482.935	1188.44
483.153	1075.44
483.372	1065.44
483.59	1065.44
483.808	1045.44
484.027	1034.44
484.245	1003.44
484.463	951.44
484.681	997.44
484.9	1084.44
485.118	1164.44
485.336	1082.44
485.554	1026.44
485.772	1073.44
485.99	1155.44
486.209	1213.44
486.427	1193.44
486.645	1165.44
486.863	1224.44
487.081	1181.44
487.299	1308.44
487.517	1303.44
487.735	1191.44
487.953	1224.44
488.171	1286.44
488.389	1181.44
488.607	1097.44
488.825	1149.44
489.043	1267.44
489.261	1402.44
489.479	1487.44
489.696	1264.44
489.914	1177.44
490.132	1080.44
490.35	1122.44
490.568	1105.44
490.786	1109.44
491.003	1120.44
491.221	1157.44
491.439	1130.44
491.657	1119.44
491.874	1230.44
492.092	1444.44
492.31	1707.44
492.527	1673.44
492.745	1466.44
492.963	1320.44
493.18	1275.44
493.398	1294.44
493.615	1260.44
493.833	1228.44
494.05	1218.44
494.268	1210.44
494.485	1211.44
494.703	1213.44
494.92	1226.44
