Data from NickelSpatula.Lamp.E5.5.P2_HRD10591_11-52-20-564.txt Node
Date: Tue Jul 23 11:52:20 EDT 2019
User: cochatt
Spectrometer: HR+D1059
Trigger mode: 1
Integration Time (sec): 1.000000E-1
Scans to average: 1
Electric dark correction enabled: true
Nonlinearity correction enabled: false
Boxcar width: 0
XAxis mode: Wavelengths
Number of Pixels in Spectrum: 2048
>>>>>Begin Spectral Data<<<<<
223.165	-21.94
223.4	-21.94
223.635	-21.94
223.869	-19.94
224.104	-13.94
224.338	-24.94
224.573	-6.94
224.808	-9.94
225.042	-9.94
225.277	-17.94
225.511	16.06
225.746	-3.94
225.98	-1.94
226.215	17.06
226.449	20.06
226.683	19.06
226.918	24.06
227.152	35.06
227.387	46.06
227.621	31.06
227.856	39.06
228.09	47.06
228.324	61.06
228.559	54.06
228.793	52.06
229.027	89.06
229.262	76.06
229.496	66.06
229.73	80.06
229.964	91.06
230.199	100.06
230.433	105.06
230.667	94.06
230.901	99.06
231.136	102.06
231.37	82.06
231.604	97.06
231.838	97.06
232.072	108.06
232.306	108.06
232.541	110.06
232.775	91.06
233.009	108.06
233.243	115.06
233.477	101.06
233.711	124.06
233.945	122.06
234.179	118.06
234.413	123.06
234.647	136.06
234.881	148.06
235.115	158.06
235.349	142.06
235.583	125.06
235.817	124.06
236.051	124.06
236.285	130.06
236.519	147.06
236.753	133.06
236.987	137.06
237.221	141.06
237.455	133.06
237.689	142.06
237.922	134.06
238.156	133.06
238.39	133.06
238.624	181.06
238.858	171.06
239.091	138.06
239.325	144.06
239.559	127.06
239.793	164.06
240.027	170.06
240.26	165.06
240.494	146.06
240.728	163.06
240.961	185.06
241.195	171.06
241.429	161.06
241.662	172.06
241.896	166.06
242.13	142.06
242.363	148.06
242.597	143.06
242.83	160.06
243.064	163.06
243.298	158.06
243.531	149.06
243.765	156.06
243.998	179.06
244.232	167.06
244.465	170.06
244.699	163.06
244.932	167.06
245.166	181.06
245.399	163.06
245.633	155.06
245.866	150.06
246.099	159.06
246.333	176.06
246.566	195.06
246.8	204.06
247.033	183.06
247.266	157.06
247.5	183.06
247.733	176.06
247.966	159.06
248.2	171.06
248.433	190.06
248.666	197.06
248.899	195.06
249.133	205.06
249.366	241.06
249.599	245.06
249.832	219.06
250.066	220.06
250.299	210.06
250.532	191.06
250.765	207.06
250.998	187.06
251.231	177.06
251.465	207.06
251.698	208.06
251.931	201.06
252.164	197.06
252.397	227.06
252.63	230.06
252.863	259.06
253.096	260.06
253.329	264.06
253.562	235.06
253.795	285.06
254.028	291.06
254.261	304.06
254.494	264.06
254.727	261.06
254.96	267.06
255.193	271.06
255.426	263.06
255.659	207.06
255.892	208.06
256.124	212.06
256.357	226.06
256.59	279.06
256.823	265.06
257.056	240.06
257.289	212.06
257.521	229.06
257.754	272.06
257.987	304.06
258.22	250.06
258.452	221.06
258.685	270.06
258.918	303.06
259.151	277.06
259.383	292.06
259.616	332.06
259.849	342.06
260.081	353.06
260.314	394.06
260.547	331.06
260.779	344.06
261.012	378.06
261.244	358.06
261.477	379.06
261.71	331.06
261.942	274.06
262.175	307.06
262.407	266.06
262.64	283.06
262.872	328.06
263.105	351.06
263.337	393.06
263.57	344.06
263.802	254.06
264.035	231.06
264.267	229.06
264.499	192.06
264.732	182.06
264.964	172.06
265.197	183.06
265.429	183.06
265.661	205.06
265.894	212.06
266.126	215.06
266.358	236.06
266.591	286.06
266.823	335.06
267.055	336.06
267.287	287.06
267.52	288.06
267.752	311.06
267.984	324.06
268.216	328.06
268.448	264.06
268.681	256.06
268.913	269.06
269.145	300.06
269.377	298.06
269.609	287.06
269.841	278.06
270.073	304.06
270.306	309.06
270.538	324.06
270.77	328.06
271.002	317.06
271.234	328.06
271.466	323.06
271.698	315.06
271.93	312.06
272.162	304.06
272.394	307.06
272.626	290.06
272.858	304.06
273.09	319.06
273.322	288.06
273.553	304.06
273.785	320.06
274.017	383.06
274.249	472.06
274.481	504.06
274.713	540.06
274.945	590.06
275.176	627.06
275.408	566.06
275.64	540.06
275.872	522.06
276.104	454.06
276.335	386.06
276.567	390.06
276.799	428.06
277.031	428.06
277.262	340.06
277.494	275.06
277.726	263.06
277.957	282.06
278.189	316.06
278.421	324.06
278.652	301.06
278.884	298.06
279.115	270.06
279.347	275.06
279.579	283.06
279.81	291.06
280.042	263.06
280.273	278.06
280.505	268.06
280.736	235.06
280.968	242.06
281.199	260.06
281.431	292.06
281.662	282.06
281.894	265.06
282.125	276.06
282.356	304.06
282.588	302.06
282.819	262.06
283.051	298.06
283.282	346.06
283.513	385.06
283.745	460.06
283.976	467.06
284.207	424.06
284.439	420.06
284.67	425.06
284.901	357.06
285.132	385.06
285.364	431.06
285.595	403.06
285.826	398.06
286.057	405.06
286.288	394.06
286.52	429.06
286.751	439.06
286.982	432.06
287.213	374.06
287.444	378.06
287.675	391.06
287.906	400.06
288.138	342.06
288.369	315.06
288.6	279.06
288.831	289.06
289.062	370.06
289.293	388.06
289.524	368.06
289.755	339.06
289.986	336.06
290.217	338.06
290.448	268.06
290.679	221.06
290.91	218.06
291.141	233.06
291.371	236.06
291.602	228.06
291.833	223.06
292.064	246.06
292.295	276.06
292.526	288.06
292.757	334.06
292.987	319.06
293.218	343.06
293.449	349.06
293.68	385.06
293.91	345.06
294.141	380.06
294.372	342.06
294.603	326.06
294.833	343.06
295.064	416.06
295.295	396.06
295.525	282.06
295.756	258.06
295.987	211.06
296.217	241.06
296.448	225.06
296.679	240.06
296.909	288.06
297.14	300.06
297.37	317.06
297.601	300.06
297.831	256.06
298.062	265.06
298.292	291.06
298.523	333.06
298.753	369.06
298.984	338.06
299.214	294.06
299.445	240.06
299.675	250.06
299.905	231.06
300.136	247.06
300.366	258.06
300.597	268.06
300.827	230.06
301.057	227.06
301.288	219.06
301.518	243.06
301.748	273.06
301.979	290.06
302.209	335.06
302.439	314.06
302.669	276.06
302.9	287.06
303.13	284.06
303.36	271.06
303.59	262.06
303.82	263.06
304.051	302.06
304.281	291.06
304.511	295.06
304.741	277.06
304.971	276.06
305.201	285.06
305.431	262.06
305.661	261.06
305.891	246.06
306.121	244.06
306.352	242.06
306.582	211.06
306.812	199.06
307.042	216.06
307.272	187.06
307.502	200.06
307.731	201.06
307.961	210.06
308.191	200.06
308.421	203.06
308.651	199.06
308.881	181.06
309.111	204.06
309.341	194.06
309.571	204.06
309.8	220.06
310.03	213.06
310.26	219.06
310.49	226.06
310.72	197.06
310.949	190.06
311.179	207.06
311.409	223.06
311.639	241.06
311.868	294.06
312.098	369.06
312.328	418.06
312.557	395.06
312.787	397.06
313.017	346.06
313.246	382.06
313.476	403.06
313.706	313.06
313.935	279.06
314.165	252.06
314.394	220.06
314.624	222.06
314.853	230.06
315.083	228.06
315.312	236.06
315.542	244.06
315.771	203.06
316.001	180.06
316.23	200.06
316.46	202.06
316.689	203.06
316.919	219.06
317.148	203.06
317.377	195.06
317.607	207.06
317.836	208.06
318.065	242.06
318.295	264.06
318.524	254.06
318.753	222.06
318.983	211.06
319.212	210.06
319.441	237.06
319.67	244.06
319.9	262.06
320.129	266.06
320.358	227.06
320.587	219.06
320.816	216.06
321.046	247.06
321.275	272.06
321.504	269.06
321.733	281.06
321.962	241.06
322.191	246.06
322.42	226.06
322.649	253.06
322.878	270.06
323.108	248.06
323.337	248.06
323.566	247.06
323.795	238.06
324.024	228.06
324.253	217.06
324.482	211.06
324.71	227.06
324.939	263.06
325.168	263.06
325.397	212.06
325.626	207.06
325.855	217.06
326.084	216.06
326.313	202.06
326.542	203.06
326.77	215.06
326.999	220.06
327.228	228.06
327.457	216.06
327.686	226.06
327.914	207.06
328.143	199.06
328.372	188.06
328.6	208.06
328.829	203.06
329.058	182.06
329.287	205.06
329.515	205.06
329.744	199.06
329.972	219.06
330.201	190.06
330.43	187.06
330.658	205.06
330.887	235.06
331.115	223.06
331.344	226.06
331.572	227.06
331.801	203.06
332.03	216.06
332.258	211.06
332.486	226.06
332.715	234.06
332.943	214.06
333.172	246.06
333.4	243.06
333.629	236.06
333.857	270.06
334.085	270.06
334.314	242.06
334.542	251.06
334.771	226.06
334.999	221.06
335.227	224.06
335.455	206.06
335.684	237.06
335.912	284.06
336.14	287.06
336.369	282.06
336.597	278.06
336.825	289.06
337.053	327.06
337.281	285.06
337.51	234.06
337.738	207.06
337.966	239.06
338.194	260.06
338.422	247.06
338.65	207.06
338.878	195.06
339.106	203.06
339.334	231.06
339.562	247.06
339.79	244.06
340.018	205.06
340.246	231.06
340.474	277.06
340.702	269.06
340.93	274.06
341.158	295.06
341.386	253.06
341.614	241.06
341.842	231.06
342.07	242.06
342.298	270.06
342.526	279.06
342.754	262.06
342.981	235.06
343.209	244.06
343.437	238.06
343.665	284.06
343.893	268.06
344.12	317.06
344.348	364.06
344.576	319.06
344.804	250.06
345.031	239.06
345.259	233.06
345.487	231.06
345.714	222.06
345.942	234.06
346.17	253.06
346.397	270.06
346.625	223.06
346.853	214.06
347.08	213.06
347.308	246.06
347.535	262.06
347.763	277.06
347.99	232.06
348.218	208.06
348.445	227.06
348.673	219.06
348.9	219.06
349.128	252.06
349.355	256.06
349.583	238.06
349.81	229.06
350.037	220.06
350.265	195.06
350.492	197.06
350.72	198.06
350.947	200.06
351.174	202.06
351.402	214.06
351.629	243.06
351.856	220.06
352.083	202.06
352.311	204.06
352.538	242.06
352.765	239.06
352.992	228.06
353.22	242.06
353.447	239.06
353.674	229.06
353.901	219.06
354.128	217.06
354.355	214.06
354.583	209.06
354.81	228.06
355.037	228.06
355.264	210.06
355.491	248.06
355.718	254.06
355.945	246.06
356.172	252.06
356.399	222.06
356.626	279.06
356.853	322.06
357.08	327.06
357.307	344.06
357.534	290.06
357.761	308.06
357.988	359.06
358.215	424.06
358.441	370.06
358.668	334.06
358.895	305.06
359.122	287.06
359.349	264.06
359.576	298.06
359.802	272.06
360.029	229.06
360.256	246.06
360.483	271.06
360.709	348.06
360.936	346.06
361.163	327.06
361.39	241.06
361.616	220.06
361.843	261.06
362.07	314.06
362.296	278.06
362.523	233.06
362.749	212.06
362.976	224.06
363.203	246.06
363.429	283.06
363.656	224.06
363.882	209.06
364.109	224.06
364.335	222.06
364.562	228.06
364.788	248.06
365.015	289.06
365.241	250.06
365.468	204.06
365.694	200.06
365.92	208.06
366.147	172.06
366.373	200.06
366.599	188.06
366.826	202.06
367.052	186.06
367.278	196.06
367.505	185.06
367.731	219.06
367.957	226.06
368.184	223.06
368.41	234.06
368.636	225.06
368.862	234.06
369.089	214.06
369.315	215.06
369.541	212.06
369.767	199.06
369.993	200.06
370.219	216.06
370.445	220.06
370.672	234.06
370.898	250.06
371.124	235.06
371.35	232.06
371.576	206.06
371.802	215.06
372.028	255.06
372.254	307.06
372.48	264.06
372.706	254.06
372.932	243.06
373.158	272.06
373.384	282.06
373.61	350.06
373.835	380.06
374.061	289.06
374.287	262.06
374.513	302.06
374.739	348.06
374.965	363.06
375.191	358.06
375.416	272.06
375.642	242.06
375.868	268.06
376.094	293.06
376.319	264.06
376.545	289.06
376.771	285.06
376.997	261.06
377.222	209.06
377.448	206.06
377.674	206.06
377.899	187.06
378.125	174.06
378.35	198.06
378.576	192.06
378.802	208.06
379.027	217.06
379.253	227.06
379.478	216.06
379.704	241.06
379.929	268.06
380.155	231.06
380.38	209.06
380.606	229.06
380.831	239.06
381.057	243.06
381.282	244.06
381.507	259.06
381.733	307.06
381.958	305.06
382.184	346.06
382.409	355.06
382.634	338.06
382.86	359.06
383.085	302.06
383.31	259.06
383.535	280.06
383.761	277.06
383.986	255.06
384.211	302.06
384.436	296.06
384.662	251.06
384.887	239.06
385.112	236.06
385.337	259.06
385.562	260.06
385.787	247.06
386.013	281.06
386.238	282.06
386.463	242.06
386.688	218.06
386.913	250.06
387.138	208.06
387.363	224.06
387.588	250.06
387.813	224.06
388.038	250.06
388.263	233.06
388.488	251.06
388.713	263.06
388.938	276.06
389.163	234.06
389.387	211.06
389.612	242.06
389.837	219.06
390.062	219.06
390.287	229.06
390.512	240.06
390.736	214.06
390.961	234.06
391.186	200.06
391.411	196.06
391.636	199.06
391.86	217.06
392.085	245.06
392.31	240.06
392.534	236.06
392.759	228.06
392.984	229.06
393.208	240.06
393.433	208.06
393.658	215.06
393.882	204.06
394.107	202.06
394.331	189.06
394.556	218.06
394.78	198.06
395.005	223.06
395.229	216.06
395.454	212.06
395.678	226.06
395.903	230.06
396.127	226.06
396.352	215.06
396.576	246.06
396.801	236.06
397.025	239.06
397.249	242.06
397.474	228.06
397.698	225.06
397.922	230.06
398.147	214.06
398.371	227.06
398.595	242.06
398.82	236.06
399.044	240.06
399.268	256.06
399.492	271.06
399.717	288.06
399.941	301.06
400.165	271.06
400.389	237.06
400.613	253.06
400.837	240.06
401.062	203.06
401.286	224.06
401.51	209.06
401.734	218.06
401.958	226.06
402.182	223.06
402.406	238.06
402.63	230.06
402.854	243.06
403.078	291.06
403.302	365.06
403.526	368.06
403.75	319.06
403.974	282.06
404.198	257.06
404.422	296.06
404.645	334.06
404.869	355.06
405.093	290.06
405.317	252.06
405.541	248.06
405.765	275.06
405.988	263.06
406.212	261.06
406.436	308.06
406.66	316.06
406.883	278.06
407.107	272.06
407.331	318.06
407.555	311.06
407.778	275.06
408.002	277.06
408.226	262.06
408.449	259.06
408.673	271.06
408.896	251.06
409.12	236.06
409.344	232.06
409.567	234.06
409.791	237.06
410.014	223.06
410.238	213.06
410.461	244.06
410.685	230.06
410.908	231.06
411.132	235.06
411.355	239.06
411.578	254.06
411.802	238.06
412.025	239.06
412.249	244.06
412.472	230.06
412.695	235.06
412.919	236.06
413.142	244.06
413.365	256.06
413.589	264.06
413.812	231.06
414.035	224.06
414.258	242.06
414.482	254.06
414.705	264.06
414.928	219.06
415.151	235.06
415.374	219.06
415.597	231.06
415.821	236.06
416.044	222.06
416.267	233.06
416.49	224.06
416.713	227.06
416.936	230.06
417.159	229.06
417.382	229.06
417.605	203.06
417.828	231.06
418.051	219.06
418.274	227.06
418.497	231.06
418.72	246.06
418.943	238.06
419.166	218.06
419.389	268.06
419.611	265.06
419.834	256.06
420.057	245.06
420.28	250.06
420.503	262.06
420.726	225.06
420.948	217.06
421.171	234.06
421.394	217.06
421.617	240.06
421.839	227.06
422.062	234.06
422.285	225.06
422.507	234.06
422.73	227.06
422.953	243.06
423.175	223.06
423.398	240.06
423.621	253.06
423.843	271.06
424.066	240.06
424.288	219.06
424.511	252.06
424.733	247.06
424.956	267.06
425.178	267.06
425.401	301.06
425.623	340.06
425.846	289.06
426.068	242.06
426.291	264.06
426.513	245.06
426.735	219.06
426.958	258.06
427.18	260.06
427.402	336.06
427.625	338.06
427.847	321.06
428.069	247.06
428.292	241.06
428.514	235.06
428.736	230.06
428.958	260.06
429.181	300.06
429.403	243.06
429.625	219.06
429.847	234.06
430.069	226.06
430.292	221.06
430.514	205.06
430.736	230.06
430.958	275.06
431.18	268.06
431.402	239.06
431.624	223.06
431.846	218.06
432.068	228.06
432.29	219.06
432.512	242.06
432.734	282.06
432.956	276.06
433.178	225.06
433.4	204.06
433.622	222.06
433.844	235.06
434.066	250.06
434.287	240.06
434.509	227.06
434.731	249.06
434.953	238.06
435.175	269.06
435.397	263.06
435.618	236.06
435.84	224.06
436.062	236.06
436.284	231.06
436.505	219.06
436.727	215.06
436.949	196.06
437.17	210.06
437.392	235.06
437.614	219.06
437.835	211.06
438.057	210.06
438.278	236.06
438.5	306.06
438.721	325.06
438.943	224.06
439.165	208.06
439.386	207.06
439.608	213.06
439.829	216.06
440.05	189.06
440.272	220.06
440.493	239.06
440.715	274.06
440.936	246.06
441.158	225.06
441.379	242.06
441.6	274.06
441.822	268.06
442.043	245.06
442.264	239.06
442.486	204.06
442.707	217.06
442.928	234.06
443.149	231.06
443.371	236.06
443.592	248.06
443.813	239.06
444.034	228.06
444.255	244.06
444.476	263.06
444.698	260.06
444.919	262.06
445.14	361.06
445.361	288.06
445.582	244.06
445.803	219.06
446.024	226.06
446.245	230.06
446.466	232.06
446.687	218.06
446.908	224.06
447.129	218.06
447.35	209.06
447.571	219.06
447.792	210.06
448.013	217.06
448.234	196.06
448.455	206.06
448.675	199.06
448.896	206.06
449.117	205.06
449.338	198.06
449.559	218.06
449.779	212.06
450	226.06
450.221	216.06
450.442	213.06
450.662	218.06
450.883	218.06
451.104	229.06
451.324	200.06
451.545	219.06
451.766	220.06
451.986	222.06
452.207	197.06
452.428	192.06
452.648	197.06
452.869	233.06
453.089	212.06
453.31	228.06
453.53	202.06
453.751	203.06
453.971	207.06
454.192	199.06
454.412	219.06
454.633	210.06
454.853	204.06
455.073	190.06
455.294	204.06
455.514	206.06
455.734	206.06
455.955	196.06
456.175	211.06
456.395	208.06
456.616	200.06
456.836	204.06
457.056	195.06
457.276	183.06
457.497	184.06
457.717	193.06
457.937	195.06
458.157	203.06
458.377	196.06
458.598	213.06
458.818	197.06
459.038	216.06
459.258	221.06
459.478	218.06
459.698	225.06
459.918	226.06
460.138	236.06
460.358	240.06
460.578	236.06
460.798	239.06
461.018	243.06
461.238	221.06
461.458	216.06
461.678	237.06
461.898	240.06
462.118	246.06
462.338	247.06
462.558	244.06
462.777	261.06
462.997	269.06
463.217	271.06
463.437	281.06
463.657	282.06
463.876	251.06
464.096	262.06
464.316	254.06
464.536	262.06
464.755	271.06
464.975	270.06
465.195	247.06
465.414	275.06
465.634	269.06
465.854	250.06
466.073	226.06
466.293	206.06
466.512	229.06
466.732	239.06
466.951	254.06
467.171	238.06
467.391	226.06
467.61	211.06
467.829	233.06
468.049	214.06
468.268	209.06
468.488	208.06
468.707	224.06
468.927	235.06
469.146	268.06
469.365	256.06
469.585	249.06
469.804	252.06
470.023	258.06
470.243	248.06
470.462	225.06
470.681	236.06
470.901	234.06
471.12	245.06
471.339	244.06
471.558	210.06
471.777	226.06
471.997	242.06
472.216	263.06
472.435	256.06
472.654	223.06
472.873	227.06
473.092	251.06
473.311	259.06
473.53	245.06
473.749	226.06
473.968	226.06
474.187	214.06
474.406	224.06
474.625	239.06
474.844	236.06
475.063	268.06
475.282	241.06
475.501	257.06
475.72	275.06
475.939	266.06
476.158	248.06
476.377	281.06
476.596	323.06
476.814	331.06
477.033	294.06
477.252	257.06
477.471	240.06
477.69	246.06
477.908	266.06
478.127	284.06
478.346	268.06
478.564	275.06
478.783	273.06
479.002	260.06
479.22	300.06
479.439	318.06
479.658	306.06
479.876	284.06
480.095	280.06
480.313	328.06
480.532	278.06
480.751	283.06
480.969	289.06
481.188	290.06
481.406	299.06
481.624	294.06
481.843	264.06
482.061	269.06
482.28	298.06
482.498	354.06
482.717	325.06
482.935	301.06
483.153	263.06
483.372	242.06
483.59	253.06
483.808	256.06
484.027	257.06
484.245	250.06
484.463	239.06
484.681	244.06
484.9	270.06
485.118	274.06
485.336	253.06
485.554	250.06
485.772	252.06
485.99	293.06
486.209	294.06
486.427	298.06
486.645	273.06
486.863	304.06
487.081	295.06
487.299	325.06
487.517	295.06
487.735	269.06
487.953	289.06
488.171	292.06
488.389	284.06
488.607	259.06
488.825	269.06
489.043	295.06
489.261	324.06
489.479	340.06
489.696	299.06
489.914	283.06
490.132	254.06
490.35	260.06
490.568	283.06
490.786	269.06
491.003	277.06
491.221	276.06
491.439	270.06
491.657	266.06
491.874	284.06
492.092	300.06
492.31	339.06
492.527	381.06
492.745	339.06
492.963	286.06
493.18	299.06
493.398	276.06
493.615	298.06
493.833	290.06
494.05	297.06
494.268	274.06
494.485	295.06
494.703	292.06
494.92	281.06
495.138	281.06
495.355	275.06
495.573	287.06
495.79	292.06
496.008	352.06
496.225	316.06
496.442	293.06
496.66	292.06
496.877	307.06
497.094	326.06
497.312	282.06
497.529	298.06
497.746	316.06
497.963	299.06
498.181	336.06
498.398	337.06
498.615	356.06
498.832	389.06
499.049	400.06
499.267	360.06
499.484	388.06
499.701	393.06
499.918	444.06
500.135	488.06
500.352	519.06
500.569	531.06
500.786	554.06
501.003	526.06
501.22	480.06
501.437	437.06
501.654	407.06
501.871	384.06
502.088	398.06
502.305	348.06
502.522	355.06
