Data from NickelSpatula.Lamp.E5.5.P2_HRD10591_11-53-11-550.txt Node
Date: Tue Jul 23 11:53:11 EDT 2019
User: cochatt
Spectrometer: HR+D1059
Trigger mode: 1
Integration Time (sec): 1.000000E-1
Scans to average: 1
Electric dark correction enabled: true
Nonlinearity correction enabled: false
Boxcar width: 0
XAxis mode: Wavelengths
Number of Pixels in Spectrum: 2048
>>>>>Begin Spectral Data<<<<<
223.165	-4.5
223.4	-4.5
223.635	-4.5
223.869	-21.5
224.104	-21.5
224.338	-20.5
224.573	-7.5
224.808	-16.5
225.042	-12.5
225.277	2.5
225.511	-8.5
225.746	5.5
225.98	0.5
226.215	20.5
226.449	18.5
226.683	21.5
226.918	32.5
227.152	11.5
227.387	41.5
227.621	32.5
227.856	43.5
228.09	50.5
228.324	53.5
228.559	54.5
228.793	67.5
229.027	71.5
229.262	71.5
229.496	78.5
229.73	80.5
229.964	94.5
230.199	97.5
230.433	90.5
230.667	104.5
230.901	92.5
231.136	102.5
231.37	92.5
231.604	121.5
231.838	119.5
232.072	117.5
232.306	119.5
232.541	119.5
232.775	93.5
233.009	121.5
233.243	114.5
233.477	124.5
233.711	128.5
233.945	123.5
234.179	121.5
234.413	117.5
234.647	135.5
234.881	139.5
235.115	140.5
235.349	142.5
235.583	120.5
235.817	119.5
236.051	136.5
236.285	138.5
236.519	158.5
236.753	140.5
236.987	133.5
237.221	141.5
237.455	121.5
237.689	136.5
237.922	138.5
238.156	153.5
238.39	154.5
238.624	180.5
238.858	156.5
239.091	150.5
239.325	141.5
239.559	137.5
239.793	150.5
240.027	177.5
240.26	175.5
240.494	146.5
240.728	157.5
240.961	175.5
241.195	171.5
241.429	156.5
241.662	160.5
241.896	153.5
242.13	141.5
242.363	133.5
242.597	128.5
242.83	150.5
243.064	159.5
243.298	170.5
243.531	181.5
243.765	169.5
243.998	186.5
244.232	170.5
244.465	161.5
244.699	171.5
244.932	166.5
245.166	187.5
245.399	157.5
245.633	154.5
245.866	154.5
246.099	165.5
246.333	172.5
246.566	196.5
246.8	204.5
247.033	179.5
247.266	182.5
247.5	191.5
247.733	177.5
247.966	174.5
248.2	162.5
248.433	180.5
248.666	211.5
248.899	199.5
249.133	188.5
249.366	223.5
249.599	234.5
249.832	234.5
250.066	214.5
250.299	204.5
250.532	200.5
250.765	199.5
250.998	172.5
251.231	182.5
251.465	191.5
251.698	196.5
251.931	206.5
252.164	188.5
252.397	221.5
252.63	246.5
252.863	266.5
253.096	266.5
253.329	263.5
253.562	265.5
253.795	292.5
254.028	313.5
254.261	294.5
254.494	283.5
254.727	256.5
254.96	266.5
255.193	265.5
255.426	248.5
255.659	203.5
255.892	205.5
256.124	208.5
256.357	236.5
256.59	267.5
256.823	256.5
257.056	231.5
257.289	212.5
257.521	223.5
257.754	265.5
257.987	305.5
258.22	259.5
258.452	233.5
258.685	262.5
258.918	291.5
259.151	283.5
259.383	289.5
259.616	322.5
259.849	348.5
260.081	370.5
260.314	419.5
260.547	341.5
260.779	343.5
261.012	379.5
261.244	337.5
261.477	351.5
261.71	344.5
261.942	286.5
262.175	292.5
262.407	292.5
262.64	266.5
262.872	326.5
263.105	352.5
263.337	370.5
263.57	329.5
263.802	239.5
264.035	216.5
264.267	230.5
264.499	197.5
264.732	175.5
264.964	184.5
265.197	201.5
265.429	201.5
265.661	196.5
265.894	206.5
266.126	223.5
266.358	234.5
266.591	287.5
266.823	343.5
267.055	311.5
267.287	289.5
267.52	267.5
267.752	274.5
267.984	327.5
268.216	313.5
268.448	268.5
268.681	246.5
268.913	266.5
269.145	287.5
269.377	297.5
269.609	305.5
269.841	275.5
270.073	280.5
270.306	316.5
270.538	307.5
270.77	320.5
271.002	315.5
271.234	332.5
271.466	337.5
271.698	324.5
271.93	313.5
272.162	283.5
272.394	298.5
272.626	305.5
272.858	297.5
273.09	294.5
273.322	275.5
273.553	269.5
273.785	298.5
274.017	402.5
274.249	473.5
274.481	484.5
274.713	524.5
274.945	617.5
275.176	649.5
275.408	545.5
275.64	518.5
275.872	521.5
276.104	456.5
276.335	390.5
276.567	393.5
276.799	397.5
277.031	432.5
277.262	344.5
277.494	275.5
277.726	252.5
277.957	276.5
278.189	296.5
278.421	322.5
278.652	308.5
278.884	314.5
279.115	269.5
279.347	257.5
279.579	259.5
279.81	277.5
280.042	277.5
280.273	292.5
280.505	260.5
280.736	221.5
280.968	232.5
281.199	258.5
281.431	259.5
281.662	273.5
281.894	267.5
282.125	273.5
282.356	284.5
282.588	295.5
282.819	291.5
283.051	306.5
283.282	356.5
283.513	401.5
283.745	443.5
283.976	457.5
284.207	430.5
284.439	423.5
284.67	404.5
284.901	362.5
285.132	380.5
285.364	405.5
285.595	380.5
285.826	412.5
286.057	401.5
286.288	394.5
286.52	409.5
286.751	430.5
286.982	420.5
287.213	362.5
287.444	357.5
287.675	371.5
287.906	368.5
288.138	319.5
288.369	304.5
288.6	279.5
288.831	307.5
289.062	338.5
289.293	368.5
289.524	345.5
289.755	339.5
289.986	352.5
290.217	311.5
290.448	230.5
290.679	219.5
290.91	206.5
291.141	196.5
291.371	233.5
291.602	225.5
291.833	235.5
292.064	247.5
292.295	261.5
292.526	298.5
292.757	301.5
292.987	324.5
293.218	327.5
293.449	359.5
293.68	369.5
293.91	343.5
294.141	403.5
294.372	354.5
294.603	318.5
294.833	338.5
295.064	404.5
295.295	401.5
295.525	306.5
295.756	265.5
295.987	221.5
296.217	226.5
296.448	225.5
296.679	240.5
296.909	269.5
297.14	266.5
297.37	298.5
297.601	297.5
297.831	259.5
298.062	263.5
298.292	304.5
298.523	341.5
298.753	357.5
298.984	340.5
299.214	280.5
299.445	244.5
299.675	216.5
299.905	237.5
300.136	235.5
300.366	256.5
300.597	247.5
300.827	223.5
301.057	228.5
301.288	224.5
301.518	227.5
301.748	258.5
301.979	301.5
302.209	283.5
302.439	303.5
302.669	278.5
302.9	258.5
303.13	265.5
303.36	261.5
303.59	230.5
303.82	249.5
304.051	272.5
304.281	296.5
304.511	280.5
304.741	260.5
304.971	266.5
305.201	283.5
305.431	255.5
305.661	223.5
305.891	243.5
306.121	243.5
306.352	224.5
306.582	210.5
306.812	211.5
307.042	201.5
307.272	191.5
307.502	215.5
307.731	211.5
307.961	214.5
308.191	199.5
308.421	205.5
308.651	189.5
308.881	184.5
309.111	195.5
309.341	212.5
309.571	198.5
309.8	196.5
310.03	206.5
310.26	209.5
310.49	222.5
310.72	202.5
310.949	204.5
311.179	185.5
311.409	204.5
311.639	241.5
311.868	291.5
312.098	353.5
312.328	395.5
312.557	368.5
312.787	384.5
313.017	348.5
313.246	362.5
313.476	397.5
313.706	339.5
313.935	259.5
314.165	240.5
314.394	212.5
314.624	218.5
314.853	214.5
315.083	226.5
315.312	229.5
315.542	223.5
315.771	196.5
316.001	193.5
316.23	191.5
316.46	205.5
316.689	185.5
316.919	207.5
317.148	202.5
317.377	219.5
317.607	201.5
317.836	212.5
318.065	228.5
318.295	256.5
318.524	254.5
318.753	236.5
318.983	223.5
319.212	204.5
319.441	230.5
319.67	243.5
319.9	259.5
320.129	241.5
320.358	214.5
320.587	213.5
320.816	223.5
321.046	242.5
321.275	267.5
321.504	243.5
321.733	265.5
321.962	248.5
322.191	235.5
322.42	227.5
322.649	220.5
322.878	236.5
323.108	271.5
323.337	236.5
323.566	237.5
323.795	235.5
324.024	228.5
324.253	214.5
324.482	210.5
324.71	225.5
324.939	259.5
325.168	230.5
325.397	212.5
325.626	218.5
325.855	188.5
326.084	209.5
326.313	213.5
326.542	187.5
326.77	180.5
326.999	207.5
327.228	204.5
327.457	221.5
327.686	222.5
327.914	207.5
328.143	210.5
328.372	180.5
328.6	197.5
328.829	203.5
329.058	204.5
329.287	178.5
329.515	208.5
329.744	220.5
329.972	214.5
330.201	198.5
330.43	201.5
330.658	179.5
330.887	235.5
331.115	225.5
331.344	223.5
331.572	211.5
331.801	220.5
332.03	195.5
332.258	213.5
332.486	213.5
332.715	223.5
332.943	231.5
333.172	232.5
333.4	224.5
333.629	227.5
333.857	255.5
334.085	261.5
334.314	262.5
334.542	226.5
334.771	227.5
334.999	226.5
335.227	238.5
335.455	215.5
335.684	233.5
335.912	269.5
336.14	293.5
336.369	258.5
336.597	273.5
336.825	296.5
337.053	312.5
337.281	273.5
337.51	215.5
337.738	204.5
337.966	248.5
338.194	267.5
338.422	237.5
338.65	205.5
338.878	196.5
339.106	203.5
339.334	217.5
339.562	245.5
339.79	231.5
340.018	211.5
340.246	200.5
340.474	251.5
340.702	253.5
340.93	290.5
341.158	280.5
341.386	228.5
341.614	239.5
341.842	242.5
342.07	235.5
342.298	281.5
342.526	279.5
342.754	257.5
342.981	214.5
343.209	226.5
343.437	239.5
343.665	266.5
343.893	265.5
344.12	315.5
344.348	331.5
344.576	330.5
344.804	252.5
345.031	222.5
345.259	217.5
345.487	230.5
345.714	235.5
345.942	240.5
346.17	251.5
346.397	230.5
346.625	216.5
346.853	223.5
347.08	208.5
347.308	219.5
347.535	251.5
347.763	266.5
347.99	229.5
348.218	224.5
348.445	228.5
348.673	220.5
348.9	221.5
349.128	227.5
349.355	263.5
349.583	235.5
349.81	223.5
350.037	209.5
350.265	208.5
350.492	207.5
350.72	183.5
350.947	201.5
351.174	198.5
351.402	210.5
351.629	235.5
351.856	201.5
352.083	217.5
352.311	232.5
352.538	227.5
352.765	240.5
352.992	216.5
353.22	221.5
353.447	224.5
353.674	225.5
353.901	216.5
354.128	212.5
354.355	205.5
354.583	217.5
354.81	229.5
355.037	229.5
355.264	227.5
355.491	221.5
355.718	248.5
355.945	228.5
356.172	236.5
356.399	228.5
356.626	275.5
356.853	305.5
357.08	311.5
357.307	345.5
357.534	271.5
357.761	297.5
357.988	345.5
358.215	399.5
358.441	359.5
358.668	290.5
358.895	288.5
359.122	267.5
359.349	265.5
359.576	299.5
359.802	253.5
360.029	206.5
360.256	220.5
360.483	263.5
360.709	326.5
360.936	331.5
361.163	296.5
361.39	245.5
361.616	231.5
361.843	255.5
362.07	293.5
362.296	263.5
362.523	222.5
362.749	215.5
362.976	229.5
363.203	248.5
363.429	279.5
363.656	223.5
363.882	208.5
364.109	210.5
364.335	235.5
364.562	210.5
364.788	247.5
365.015	263.5
365.241	245.5
365.468	220.5
365.694	205.5
365.92	187.5
366.147	181.5
366.373	181.5
366.599	201.5
366.826	198.5
367.052	193.5
367.278	194.5
367.505	187.5
367.731	196.5
367.957	224.5
368.184	232.5
368.41	199.5
368.636	241.5
368.862	229.5
369.089	228.5
369.315	212.5
369.541	198.5
369.767	212.5
369.993	190.5
370.219	211.5
370.445	204.5
370.672	231.5
370.898	232.5
371.124	229.5
371.35	216.5
371.576	209.5
371.802	227.5
372.028	231.5
372.254	277.5
372.48	261.5
372.706	250.5
372.932	243.5
373.158	247.5
373.384	284.5
373.61	357.5
373.835	363.5
374.061	291.5
374.287	265.5
374.513	283.5
374.739	333.5
374.965	342.5
375.191	328.5
375.416	276.5
375.642	227.5
375.868	255.5
376.094	271.5
376.319	244.5
376.545	246.5
376.771	268.5
376.997	267.5
377.222	205.5
377.448	193.5
377.674	170.5
377.899	188.5
378.125	193.5
378.35	195.5
378.576	195.5
378.802	204.5
379.027	237.5
379.253	221.5
379.478	222.5
379.704	226.5
379.929	216.5
380.155	230.5
380.38	233.5
380.606	230.5
380.831	250.5
381.057	236.5
381.282	209.5
381.507	252.5
381.733	287.5
381.958	309.5
382.184	330.5
382.409	344.5
382.634	338.5
382.86	330.5
383.085	283.5
383.31	234.5
383.535	266.5
383.761	259.5
383.986	249.5
384.211	287.5
384.436	293.5
384.662	248.5
384.887	229.5
385.112	239.5
385.337	252.5
385.562	230.5
385.787	244.5
386.013	275.5
386.238	285.5
386.463	229.5
386.688	231.5
386.913	222.5
387.138	215.5
387.363	218.5
387.588	217.5
387.813	236.5
388.038	239.5
388.263	222.5
388.488	233.5
388.713	246.5
388.938	255.5
389.163	233.5
389.387	214.5
389.612	194.5
389.837	221.5
390.062	220.5
390.287	214.5
390.512	215.5
390.736	212.5
390.961	191.5
391.186	207.5
391.411	206.5
391.636	213.5
391.86	226.5
392.085	246.5
392.31	246.5
392.534	230.5
392.759	226.5
392.984	239.5
393.208	216.5
393.433	226.5
393.658	188.5
393.882	201.5
394.107	212.5
394.331	203.5
394.556	187.5
394.78	192.5
395.005	192.5
395.229	204.5
395.454	205.5
395.678	226.5
395.903	215.5
396.127	215.5
396.352	213.5
396.576	230.5
396.801	233.5
397.025	251.5
397.249	236.5
397.474	229.5
397.698	220.5
397.922	210.5
398.147	232.5
398.371	230.5
398.595	227.5
398.82	229.5
399.044	220.5
399.268	235.5
399.492	261.5
399.717	279.5
399.941	284.5
400.165	274.5
400.389	233.5
400.613	259.5
400.837	233.5
401.062	229.5
401.286	222.5
401.51	215.5
401.734	214.5
401.958	236.5
402.182	228.5
402.406	255.5
402.63	234.5
402.854	257.5
403.078	279.5
403.302	348.5
403.526	363.5
403.75	310.5
403.974	271.5
404.198	265.5
404.422	299.5
404.645	321.5
404.869	337.5
405.093	277.5
405.317	241.5
405.541	260.5
405.765	258.5
405.988	244.5
406.212	256.5
406.436	279.5
406.66	303.5
406.883	260.5
407.107	266.5
407.331	320.5
407.555	299.5
407.778	264.5
408.002	285.5
408.226	255.5
408.449	257.5
408.673	251.5
408.896	230.5
409.12	241.5
409.344	243.5
409.567	237.5
409.791	238.5
410.014	243.5
410.238	220.5
410.461	231.5
410.685	243.5
410.908	235.5
411.132	220.5
411.355	227.5
411.578	236.5
411.802	231.5
412.025	233.5
412.249	242.5
412.472	249.5
412.695	238.5
412.919	241.5
413.142	237.5
413.365	256.5
413.589	247.5
413.812	234.5
414.035	231.5
414.258	234.5
414.482	243.5
414.705	257.5
414.928	228.5
415.151	213.5
415.374	228.5
415.597	219.5
415.821	218.5
416.044	221.5
416.267	202.5
416.49	219.5
416.713	225.5
416.936	239.5
417.159	212.5
417.382	201.5
417.605	223.5
417.828	206.5
418.051	222.5
418.274	240.5
418.497	236.5
418.72	239.5
418.943	242.5
419.166	248.5
419.389	253.5
419.611	252.5
419.834	249.5
420.057	273.5
420.28	246.5
420.503	253.5
420.726	224.5
420.948	225.5
421.171	238.5
421.394	234.5
421.617	230.5
421.839	221.5
422.062	213.5
422.285	228.5
422.507	213.5
422.73	213.5
422.953	244.5
423.175	229.5
423.398	252.5
423.621	232.5
423.843	260.5
424.066	234.5
424.288	250.5
424.511	246.5
424.733	220.5
424.956	252.5
425.178	244.5
425.401	300.5
425.623	350.5
425.846	274.5
426.068	239.5
426.291	260.5
426.513	256.5
426.735	234.5
426.958	237.5
427.18	267.5
427.402	319.5
427.625	338.5
427.847	284.5
428.069	223.5
428.292	217.5
428.514	205.5
428.736	221.5
428.958	252.5
429.181	282.5
429.403	233.5
429.625	224.5
429.847	221.5
430.069	225.5
430.292	208.5
430.514	226.5
430.736	241.5
430.958	268.5
431.18	252.5
431.402	216.5
431.624	215.5
431.846	207.5
432.068	200.5
432.29	224.5
432.512	225.5
432.734	277.5
432.956	270.5
433.178	221.5
433.4	199.5
433.622	218.5
433.844	245.5
434.066	254.5
434.287	243.5
434.509	227.5
434.731	259.5
434.953	216.5
435.175	243.5
435.397	269.5
435.618	223.5
435.84	238.5
436.062	213.5
436.284	197.5
436.505	205.5
436.727	201.5
436.949	210.5
437.17	226.5
437.392	208.5
437.614	218.5
437.835	213.5
438.057	210.5
438.278	213.5
438.5	296.5
438.721	307.5
438.943	224.5
439.165	207.5
439.386	197.5
439.608	211.5
439.829	216.5
440.05	211.5
440.272	218.5
440.493	246.5
440.715	275.5
440.936	241.5
441.158	235.5
441.379	232.5
441.6	243.5
441.822	260.5
442.043	244.5
442.264	247.5
442.486	218.5
442.707	223.5
442.928	247.5
443.149	224.5
443.371	225.5
443.592	236.5
443.813	236.5
444.034	237.5
444.255	233.5
444.476	247.5
444.698	228.5
444.919	255.5
445.14	373.5
445.361	301.5
445.582	238.5
445.803	230.5
446.024	230.5
446.245	245.5
446.466	230.5
446.687	240.5
446.908	231.5
447.129	223.5
447.35	198.5
447.571	192.5
447.792	197.5
448.013	205.5
448.234	198.5
448.455	190.5
448.675	213.5
448.896	213.5
449.117	219.5
449.338	199.5
449.559	224.5
449.779	246.5
450	219.5
450.221	198.5
450.442	217.5
450.662	200.5
450.883	214.5
451.104	195.5
451.324	214.5
451.545	199.5
451.766	234.5
451.986	213.5
452.207	218.5
452.428	200.5
452.648	216.5
452.869	202.5
453.089	219.5
453.31	210.5
453.53	206.5
453.751	190.5
453.971	193.5
454.192	203.5
454.412	207.5
454.633	192.5
454.853	215.5
455.073	217.5
455.294	198.5
455.514	207.5
455.734	202.5
455.955	215.5
456.175	219.5
456.395	199.5
456.616	196.5
456.836	196.5
457.056	185.5
457.276	191.5
457.497	187.5
457.717	204.5
457.937	191.5
458.157	203.5
458.377	198.5
458.598	208.5
458.818	193.5
459.038	220.5
459.258	220.5
459.478	213.5
459.698	224.5
459.918	218.5
460.138	220.5
460.358	232.5
460.578	226.5
460.798	240.5
461.018	236.5
461.238	219.5
461.458	236.5
461.678	221.5
461.898	229.5
462.118	229.5
462.338	247.5
462.558	247.5
462.777	247.5
462.997	278.5
463.217	291.5
463.437	284.5
463.657	252.5
463.876	276.5
464.096	265.5
464.316	246.5
464.536	275.5
464.755	258.5
464.975	280.5
465.195	251.5
465.414	255.5
465.634	240.5
465.854	246.5
466.073	227.5
466.293	216.5
466.512	231.5
466.732	259.5
466.951	254.5
467.171	219.5
467.391	217.5
467.61	211.5
467.829	217.5
468.049	216.5
468.268	216.5
468.488	223.5
468.707	229.5
468.927	243.5
469.146	261.5
469.365	242.5
469.585	215.5
469.804	237.5
470.023	266.5
470.243	248.5
470.462	227.5
470.681	216.5
470.901	223.5
471.12	242.5
471.339	230.5
471.558	220.5
471.777	229.5
471.997	243.5
472.216	274.5
472.435	268.5
472.654	239.5
472.873	220.5
473.092	234.5
473.311	259.5
473.53	227.5
473.749	211.5
473.968	233.5
474.187	230.5
474.406	232.5
474.625	230.5
474.844	231.5
475.063	235.5
475.282	259.5
475.501	268.5
475.72	277.5
475.939	256.5
476.158	272.5
476.377	288.5
476.596	307.5
476.814	343.5
477.033	295.5
477.252	262.5
477.471	234.5
477.69	241.5
477.908	259.5
478.127	285.5
478.346	281.5
478.564	276.5
478.783	283.5
479.002	268.5
479.22	293.5
479.439	326.5
479.658	303.5
479.876	267.5
480.095	304.5
480.313	299.5
480.532	267.5
480.751	281.5
480.969	255.5
481.188	296.5
481.406	297.5
481.624	296.5
481.843	272.5
482.061	245.5
482.28	278.5
482.498	336.5
482.717	324.5
482.935	307.5
483.153	251.5
483.372	244.5
483.59	248.5
483.808	241.5
484.027	262.5
484.245	234.5
484.463	232.5
484.681	256.5
484.9	253.5
485.118	283.5
485.336	272.5
485.554	260.5
485.772	276.5
485.99	273.5
486.209	295.5
486.427	292.5
486.645	298.5
486.863	293.5
487.081	293.5
487.299	293.5
487.517	289.5
487.735	291.5
487.953	274.5
488.171	293.5
488.389	269.5
488.607	256.5
488.825	272.5
489.043	281.5
489.261	330.5
489.479	307.5
489.696	288.5
489.914	265.5
490.132	267.5
490.35	276.5
490.568	265.5
490.786	249.5
491.003	256.5
491.221	269.5
491.439	253.5
491.657	243.5
491.874	262.5
492.092	304.5
492.31	352.5
492.527	352.5
492.745	323.5
492.963	295.5
493.18	274.5
493.398	300.5
493.615	295.5
493.833	287.5
494.05	272.5
494.268	291.5
494.485	290.5
494.703	269.5
494.92	279.5
495.138	275.5
495.355	270.5
495.573	288.5
495.79	298.5
496.008	350.5
496.225	320.5
496.442	303.5
496.66	306.5
496.877	300.5
497.094	296.5
497.312	269.5
497.529	291.5
497.746	305.5
497.963	275.5
498.181	314.5
498.398	349.5
498.615	334.5
498.832	359.5
499.049	379.5
499.267	361.5
499.484	369.5
499.701	385.5
499.918	436.5
500.135	469.5
500.352	495.5
500.569	527.5
500.786	527.5
501.003	505.5
501.22	445.5
501.437	405.5
501.654	379.5
501.871	371.5
502.088	373.5
502.305	332.5
502.522	342.5
502.739	334.5
502.956	318.5
503.172	307.5
503.389	291.5
503.606	279.5
503.823	291.5
504.04	305.5
504.256	289.5
504.473	312.5
504.69	300.5
504.907	323.5
505.123	318.5
505.34	330.5
505.557	311.5
505.773	290.5
505.99	283.5
506.207	295.5
506.423	287.5
506.64	261.5
506.856	277.5
507.073	298.5
507.289	298.5
507.506	282.5
507.722	290.5
507.939	308.5
508.155	317.5
508.372	293.5
508.588	282.5
508.805	282.5
509.021	284.5
509.238	278.5
509.454	264.5
509.67	271.5
509.887	285.5
510.103	305.5
510.319	274.5
510.536	271.5
510.752	255.5
510.968	262.5
511.184	248.5
511.401	240.5
511.617	244.5
511.833	242.5
512.049	256.5
512.265	246.5
512.481	242.5
512.698	276.5
512.914	304.5
513.13	283.5
513.346	250.5
513.562	274.5
513.778	264.5
513.994	263.5
514.21	269.5
514.426	259.5
514.642	269.5
514.858	256.5
515.074	288.5
515.29	291.5
515.506	347.5
515.721	292.5
515.937	283.5
516.153	255.5
516.369	267.5
516.585	271.5
516.801	294.5
517.016	348.5
517.232	346.5
517.448	364.5
517.664	337.5
517.879	325.5
518.095	309.5
518.311	321.5
518.527	322.5
518.742	328.5
518.958	341.5
519.173	321.5
519.389	313.5
519.605	314.5
519.82	322.5
520.036	372.5
520.251	352.5
520.467	362.5
