Data from NickelSpatula_HRD10591_16-36-34-126.txt Node
Date: Mon Jul 22 16:36:34 EDT 2019
User: cochatt
Spectrometer: HR+D1059
Trigger mode: 1
Integration Time (sec): 1.000000E-1
Scans to average: 1
Electric dark correction enabled: true
Nonlinearity correction enabled: false
Boxcar width: 0
XAxis mode: Wavelengths
Number of Pixels in Spectrum: 2048
>>>>>Begin Spectral Data<<<<<
223.165	-14.12
223.4	-14.12
223.635	-14.12
223.869	-2.12
224.104	-24.12
224.338	-29.12
224.573	-28.12
224.808	-11.12
225.042	0.88
225.277	7.88
225.511	2.88
225.746	2.88
225.98	8.88
226.215	10.88
226.449	2.88
226.683	16.88
226.918	34.88
227.152	19.88
227.387	29.88
227.621	25.88
227.856	43.88
228.09	43.88
228.324	32.88
228.559	50.88
228.793	48.88
229.027	58.88
229.262	59.88
229.496	85.88
229.73	79.88
229.964	64.88
230.199	85.88
230.433	72.88
230.667	79.88
230.901	80.88
231.136	78.88
231.37	93.88
231.604	86.88
231.838	92.88
232.072	84.88
232.306	96.88
232.541	99.88
232.775	85.88
233.009	70.88
233.243	89.88
233.477	92.88
233.711	87.88
233.945	77.88
234.179	98.88
234.413	91.88
234.647	100.88
234.881	108.88
235.115	100.88
235.349	88.88
235.583	80.88
235.817	87.88
236.051	87.88
236.285	84.88
236.519	95.88
236.753	108.88
236.987	101.88
237.221	101.88
237.455	90.88
237.689	80.88
237.922	94.88
238.156	82.88
238.39	103.88
238.624	91.88
238.858	103.88
239.091	98.88
239.325	105.88
239.559	83.88
239.793	101.88
240.027	104.88
240.26	99.88
240.494	103.88
240.728	93.88
240.961	88.88
241.195	106.88
241.429	106.88
241.662	96.88
241.896	100.88
242.13	101.88
242.363	94.88
242.597	100.88
242.83	93.88
243.064	97.88
243.298	114.88
243.531	91.88
243.765	116.88
243.998	95.88
244.232	100.88
244.465	88.88
244.699	97.88
244.932	92.88
245.166	105.88
245.399	100.88
245.633	96.88
245.866	91.88
246.099	114.88
246.333	102.88
246.566	109.88
246.8	124.88
247.033	103.88
247.266	110.88
247.5	112.88
247.733	99.88
247.966	118.88
248.2	113.88
248.433	107.88
248.666	115.88
248.899	107.88
249.133	114.88
249.366	119.88
249.599	113.88
249.832	112.88
250.066	105.88
250.299	121.88
250.532	110.88
250.765	101.88
250.998	112.88
251.231	118.88
251.465	91.88
251.698	114.88
251.931	98.88
252.164	114.88
252.397	122.88
252.63	124.88
252.863	131.88
253.096	131.88
253.329	131.88
253.562	124.88
253.795	133.88
254.028	144.88
254.261	145.88
254.494	143.88
254.727	138.88
254.96	126.88
255.193	126.88
255.426	115.88
255.659	124.88
255.892	116.88
256.124	117.88
256.357	132.88
256.59	133.88
256.823	133.88
257.056	109.88
257.289	113.88
257.521	114.88
257.754	113.88
257.987	135.88
258.22	134.88
258.452	121.88
258.685	130.88
258.918	154.88
259.151	142.88
259.383	140.88
259.616	144.88
259.849	156.88
260.081	145.88
260.314	157.88
260.547	129.88
260.779	131.88
261.012	165.88
261.244	140.88
261.477	151.88
261.71	151.88
261.942	141.88
262.175	144.88
262.407	138.88
262.64	130.88
262.872	131.88
263.105	151.88
263.337	154.88
263.57	145.88
263.802	124.88
264.035	116.88
264.267	123.88
264.499	111.88
264.732	104.88
264.964	107.88
265.197	119.88
265.429	114.88
265.661	114.88
265.894	119.88
266.126	117.88
266.358	127.88
266.591	131.88
266.823	147.88
267.055	130.88
267.287	126.88
267.52	136.88
267.752	129.88
267.984	141.88
268.216	142.88
268.448	130.88
268.681	132.88
268.913	149.88
269.145	148.88
269.377	138.88
269.609	137.88
269.841	153.88
270.073	136.88
270.306	142.88
270.538	138.88
270.77	133.88
271.002	158.88
271.234	137.88
271.466	138.88
271.698	143.88
271.93	138.88
272.162	136.88
272.394	138.88
272.626	130.88
272.858	141.88
273.09	148.88
273.322	134.88
273.553	138.88
273.785	141.88
274.017	160.88
274.249	169.88
274.481	181.88
274.713	203.88
274.945	213.88
275.176	225.88
275.408	204.88
275.64	210.88
275.872	203.88
276.104	171.88
276.335	164.88
276.567	166.88
276.799	159.88
277.031	173.88
277.262	142.88
277.494	140.88
277.726	146.88
277.957	122.88
278.189	129.88
278.421	138.88
278.652	142.88
278.884	124.88
279.115	130.88
279.347	121.88
279.579	135.88
279.81	132.88
280.042	131.88
280.273	126.88
280.505	115.88
280.736	118.88
280.968	120.88
281.199	134.88
281.431	131.88
281.662	124.88
281.894	126.88
282.125	126.88
282.356	134.88
282.588	130.88
282.819	120.88
283.051	140.88
283.282	166.88
283.513	165.88
283.745	164.88
283.976	180.88
284.207	170.88
284.439	171.88
284.67	159.88
284.901	135.88
285.132	158.88
285.364	166.88
285.595	149.88
285.826	155.88
286.057	175.88
286.288	166.88
286.52	176.88
286.751	162.88
286.982	154.88
287.213	148.88
287.444	151.88
287.675	158.88
287.906	149.88
288.138	140.88
288.369	130.88
288.6	138.88
288.831	139.88
289.062	138.88
289.293	154.88
289.524	145.88
289.755	155.88
289.986	133.88
290.217	149.88
290.448	130.88
290.679	119.88
290.91	118.88
291.141	123.88
291.371	122.88
291.602	125.88
291.833	117.88
292.064	120.88
292.295	147.88
292.526	131.88
292.757	136.88
292.987	141.88
293.218	145.88
293.449	147.88
293.68	158.88
293.91	154.88
294.141	168.88
294.372	139.88
294.603	134.88
294.833	154.88
295.064	146.88
295.295	144.88
295.525	145.88
295.756	124.88
295.987	125.88
296.217	110.88
296.448	110.88
296.679	107.88
296.909	134.88
297.14	127.88
297.37	150.88
297.601	126.88
297.831	107.88
298.062	128.88
298.292	128.88
298.523	150.88
298.753	147.88
298.984	128.88
299.214	118.88
299.445	123.88
299.675	114.88
299.905	112.88
300.136	121.88
300.366	121.88
300.597	142.88
300.827	106.88
301.057	106.88
301.288	115.88
301.518	122.88
301.748	119.88
301.979	133.88
302.209	122.88
302.439	122.88
302.669	126.88
302.9	122.88
303.13	130.88
303.36	117.88
303.59	125.88
303.82	122.88
304.051	124.88
304.281	136.88
304.511	133.88
304.741	128.88
304.971	124.88
305.201	118.88
305.431	118.88
305.661	107.88
305.891	120.88
306.121	117.88
306.352	110.88
306.582	96.88
306.812	125.88
307.042	120.88
307.272	105.88
307.502	106.88
307.731	121.88
307.961	125.88
308.191	110.88
308.421	118.88
308.651	108.88
308.881	112.88
309.111	102.88
309.341	104.88
309.571	126.88
309.8	120.88
310.03	113.88
310.26	107.88
310.49	117.88
310.72	112.88
310.949	116.88
311.179	121.88
311.409	119.88
311.639	129.88
311.868	129.88
312.098	158.88
312.328	153.88
312.557	144.88
312.787	153.88
313.017	143.88
313.246	150.88
313.476	147.88
313.706	138.88
313.935	125.88
314.165	111.88
314.394	123.88
314.624	121.88
314.853	114.88
315.083	130.88
315.312	127.88
315.542	119.88
315.771	101.88
316.001	123.88
316.23	112.88
316.46	109.88
316.689	126.88
316.919	112.88
317.148	99.88
317.377	116.88
317.607	123.88
317.836	114.88
318.065	111.88
318.295	122.88
318.524	122.88
318.753	123.88
318.983	115.88
319.212	117.88
319.441	121.88
319.67	135.88
319.9	125.88
320.129	119.88
320.358	134.88
320.587	100.88
320.816	116.88
321.046	134.88
321.275	119.88
321.504	128.88
321.733	124.88
321.962	131.88
322.191	129.88
322.42	131.88
322.649	117.88
322.878	132.88
323.108	122.88
323.337	122.88
323.566	123.88
323.795	128.88
324.024	132.88
324.253	116.88
324.482	107.88
324.71	132.88
324.939	115.88
325.168	111.88
325.397	117.88
325.626	117.88
325.855	123.88
326.084	112.88
326.313	114.88
326.542	104.88
326.77	108.88
326.999	110.88
327.228	126.88
327.457	96.88
327.686	120.88
327.914	97.88
328.143	117.88
328.372	107.88
328.6	109.88
328.829	122.88
329.058	129.88
329.287	110.88
329.515	115.88
329.744	118.88
329.972	113.88
330.201	120.88
330.43	120.88
330.658	107.88
330.887	124.88
331.115	123.88
331.344	110.88
331.572	122.88
331.801	123.88
332.03	121.88
332.258	108.88
332.486	115.88
332.715	124.88
332.943	120.88
333.172	114.88
333.4	123.88
333.629	108.88
333.857	114.88
334.085	122.88
334.314	122.88
334.542	124.88
334.771	120.88
334.999	109.88
335.227	102.88
335.455	113.88
335.684	118.88
335.912	121.88
336.14	116.88
336.369	125.88
336.597	124.88
336.825	122.88
337.053	126.88
337.281	131.88
337.51	105.88
337.738	121.88
337.966	121.88
338.194	128.88
338.422	104.88
338.65	110.88
338.878	116.88
339.106	114.88
339.334	113.88
339.562	104.88
339.79	102.88
340.018	111.88
340.246	138.88
340.474	137.88
340.702	125.88
340.93	128.88
341.158	130.88
341.386	118.88
341.614	100.88
341.842	113.88
342.07	128.88
342.298	125.88
342.526	123.88
342.754	118.88
342.981	124.88
343.209	116.88
343.437	114.88
343.665	124.88
343.893	129.88
344.12	119.88
344.348	138.88
344.576	130.88
344.804	132.88
345.031	129.88
345.259	120.88
345.487	123.88
345.714	126.88
345.942	129.88
346.17	107.88
346.397	126.88
346.625	125.88
346.853	115.88
347.08	97.88
347.308	114.88
347.535	124.88
347.763	117.88
347.99	121.88
348.218	124.88
348.445	116.88
348.673	122.88
348.9	119.88
349.128	110.88
349.355	123.88
349.583	98.88
349.81	118.88
350.037	118.88
350.265	113.88
350.492	106.88
350.72	110.88
350.947	110.88
351.174	108.88
351.402	107.88
351.629	98.88
351.856	111.88
352.083	104.88
352.311	114.88
352.538	120.88
352.765	115.88
352.992	120.88
353.22	130.88
353.447	113.88
353.674	106.88
353.901	104.88
354.128	99.88
354.355	107.88
354.583	121.88
354.81	122.88
355.037	95.88
355.264	128.88
355.491	128.88
355.718	119.88
355.945	111.88
356.172	122.88
356.399	114.88
356.626	124.88
356.853	130.88
357.08	148.88
357.307	138.88
357.534	117.88
357.761	125.88
357.988	139.88
358.215	147.88
358.441	151.88
358.668	136.88
358.895	127.88
359.122	124.88
359.349	133.88
359.576	116.88
359.802	115.88
360.029	125.88
360.256	119.88
360.483	121.88
360.709	132.88
360.936	132.88
361.163	127.88
361.39	128.88
361.616	122.88
361.843	122.88
362.07	128.88
362.296	118.88
362.523	112.88
362.749	119.88
362.976	114.88
363.203	122.88
363.429	135.88
363.656	113.88
363.882	94.88
364.109	118.88
364.335	123.88
364.562	129.88
364.788	130.88
365.015	123.88
365.241	121.88
365.468	110.88
365.694	118.88
365.92	116.88
366.147	108.88
366.373	107.88
366.599	114.88
366.826	114.88
367.052	114.88
367.278	119.88
367.505	93.88
367.731	115.88
367.957	128.88
368.184	117.88
368.41	119.88
368.636	115.88
368.862	111.88
369.089	112.88
369.315	104.88
369.541	108.88
369.767	102.88
369.993	107.88
370.219	115.88
370.445	114.88
370.672	117.88
370.898	124.88
371.124	126.88
371.35	122.88
371.576	100.88
371.802	110.88
372.028	118.88
372.254	134.88
372.48	113.88
372.706	115.88
372.932	104.88
373.158	123.88
373.384	127.88
373.61	132.88
373.835	140.88
374.061	124.88
374.287	123.88
374.513	130.88
374.739	143.88
374.965	140.88
375.191	130.88
375.416	123.88
375.642	121.88
375.868	119.88
376.094	138.88
376.319	118.88
376.545	118.88
376.771	121.88
376.997	112.88
377.222	129.88
377.448	106.88
377.674	120.88
377.899	107.88
378.125	102.88
378.35	103.88
378.576	114.88
378.802	118.88
379.027	119.88
379.253	114.88
379.478	115.88
379.704	103.88
379.929	126.88
380.155	126.88
380.38	125.88
380.606	140.88
380.831	124.88
381.057	125.88
381.282	118.88
381.507	117.88
381.733	125.88
381.958	125.88
382.184	140.88
382.409	146.88
382.634	143.88
382.86	135.88
383.085	128.88
383.31	135.88
383.535	133.88
383.761	120.88
383.986	120.88
384.211	122.88
384.436	111.88
384.662	122.88
384.887	121.88
385.112	119.88
385.337	113.88
385.562	112.88
385.787	125.88
386.013	124.88
386.238	131.88
386.463	116.88
386.688	115.88
386.913	110.88
387.138	109.88
387.363	103.88
387.588	108.88
387.813	124.88
388.038	146.88
388.263	131.88
388.488	115.88
388.713	124.88
388.938	135.88
389.163	123.88
389.387	104.88
389.612	117.88
389.837	109.88
390.062	112.88
390.287	102.88
390.512	115.88
390.736	114.88
390.961	117.88
391.186	118.88
391.411	106.88
391.636	112.88
391.86	114.88
392.085	112.88
392.31	122.88
392.534	119.88
392.759	119.88
392.984	123.88
393.208	130.88
393.433	130.88
393.658	144.88
393.882	115.88
394.107	108.88
394.331	113.88
394.556	114.88
394.78	118.88
395.005	122.88
395.229	122.88
395.454	127.88
395.678	115.88
395.903	119.88
396.127	124.88
396.352	128.88
396.576	127.88
396.801	123.88
397.025	134.88
397.249	130.88
397.474	124.88
397.698	127.88
397.922	105.88
398.147	99.88
398.371	117.88
398.595	120.88
398.82	122.88
399.044	123.88
399.268	131.88
399.492	122.88
399.717	134.88
399.941	138.88
400.165	127.88
400.389	128.88
400.613	120.88
400.837	116.88
401.062	118.88
401.286	112.88
401.51	110.88
401.734	116.88
401.958	116.88
402.182	116.88
402.406	124.88
402.63	111.88
402.854	108.88
403.078	138.88
403.302	138.88
403.526	136.88
403.75	132.88
403.974	118.88
404.198	136.88
404.422	132.88
404.645	130.88
404.869	128.88
405.093	125.88
405.317	126.88
405.541	122.88
405.765	111.88
405.988	118.88
406.212	123.88
406.436	136.88
406.66	142.88
406.883	120.88
407.107	131.88
407.331	118.88
407.555	130.88
407.778	122.88
408.002	128.88
408.226	124.88
408.449	135.88
408.673	117.88
408.896	125.88
409.12	140.88
409.344	122.88
409.567	134.88
409.791	119.88
410.014	122.88
410.238	112.88
410.461	113.88
410.685	124.88
410.908	105.88
411.132	119.88
411.355	134.88
411.578	113.88
411.802	118.88
412.025	118.88
412.249	113.88
412.472	125.88
412.695	109.88
412.919	107.88
413.142	132.88
413.365	116.88
413.589	125.88
413.812	130.88
414.035	127.88
414.258	119.88
414.482	134.88
414.705	116.88
414.928	130.88
415.151	123.88
415.374	114.88
415.597	108.88
415.821	118.88
416.044	120.88
416.267	105.88
416.49	115.88
416.713	117.88
416.936	116.88
417.159	114.88
417.382	123.88
417.605	101.88
417.828	114.88
418.051	114.88
418.274	117.88
418.497	107.88
418.72	122.88
418.943	121.88
419.166	126.88
419.389	126.88
419.611	129.88
419.834	124.88
420.057	119.88
420.28	119.88
420.503	118.88
420.726	120.88
420.948	118.88
421.171	112.88
421.394	125.88
421.617	110.88
421.839	116.88
422.062	113.88
422.285	114.88
422.507	134.88
422.73	112.88
422.953	126.88
423.175	135.88
423.398	142.88
423.621	132.88
423.843	137.88
424.066	131.88
424.288	116.88
424.511	127.88
424.733	126.88
424.956	117.88
425.178	126.88
425.401	130.88
425.623	126.88
425.846	116.88
426.068	123.88
426.291	125.88
426.513	128.88
426.735	130.88
426.958	119.88
427.18	134.88
427.402	134.88
427.625	146.88
427.847	134.88
428.069	124.88
428.292	128.88
428.514	115.88
428.736	122.88
428.958	122.88
429.181	137.88
429.403	116.88
429.625	112.88
429.847	120.88
430.069	121.88
430.292	131.88
430.514	111.88
430.736	118.88
430.958	130.88
431.18	125.88
431.402	123.88
431.624	117.88
431.846	116.88
432.068	121.88
432.29	110.88
432.512	112.88
432.734	126.88
432.956	118.88
433.178	119.88
433.4	108.88
433.622	124.88
433.844	136.88
434.066	120.88
434.287	129.88
434.509	114.88
434.731	120.88
434.953	123.88
435.175	114.88
435.397	117.88
435.618	113.88
435.84	112.88
436.062	123.88
436.284	118.88
436.505	122.88
436.727	116.88
436.949	108.88
437.17	97.88
437.392	106.88
437.614	104.88
437.835	121.88
438.057	107.88
438.278	117.88
438.5	144.88
438.721	126.88
438.943	137.88
439.165	108.88
439.386	102.88
439.608	118.88
439.829	120.88
440.05	119.88
440.272	114.88
440.493	110.88
440.715	132.88
440.936	95.88
441.158	97.88
441.379	116.88
441.6	124.88
441.822	123.88
442.043	104.88
442.264	121.88
442.486	114.88
442.707	132.88
442.928	122.88
443.149	117.88
443.371	125.88
443.592	105.88
443.813	132.88
444.034	119.88
444.255	118.88
444.476	118.88
444.698	116.88
444.919	120.88
445.14	254.88
445.361	186.88
445.582	136.88
445.803	124.88
446.024	121.88
446.245	121.88
446.466	126.88
446.687	128.88
446.908	116.88
447.129	109.88
447.35	101.88
447.571	120.88
447.792	116.88
448.013	99.88
448.234	123.88
448.455	94.88
448.675	112.88
448.896	116.88
449.117	115.88
449.338	115.88
449.559	117.88
449.779	120.88
450	112.88
450.221	128.88
450.442	121.88
450.662	117.88
450.883	117.88
451.104	123.88
451.324	106.88
451.545	107.88
451.766	98.88
451.986	99.88
452.207	110.88
452.428	110.88
452.648	105.88
452.869	126.88
453.089	114.88
453.31	117.88
453.53	112.88
453.751	84.88
453.971	100.88
454.192	113.88
454.412	102.88
454.633	103.88
454.853	106.88
455.073	111.88
455.294	116.88
455.514	118.88
455.734	103.88
455.955	112.88
456.175	110.88
456.395	114.88
456.616	101.88
456.836	103.88
457.056	96.88
457.276	103.88
457.497	102.88
457.717	108.88
457.937	106.88
458.157	120.88
458.377	107.88
458.598	96.88
458.818	106.88
459.038	96.88
459.258	115.88
459.478	120.88
459.698	122.88
459.918	106.88
460.138	119.88
460.358	114.88
460.578	111.88
460.798	115.88
461.018	119.88
461.238	107.88
461.458	120.88
461.678	116.88
461.898	132.88
462.118	116.88
462.338	124.88
462.558	119.88
462.777	123.88
462.997	120.88
463.217	124.88
463.437	137.88
463.657	115.88
463.876	110.88
464.096	118.88
464.316	129.88
464.536	131.88
464.755	124.88
464.975	122.88
465.195	119.88
465.414	131.88
465.634	133.88
465.854	125.88
466.073	112.88
466.293	131.88
466.512	126.88
466.732	112.88
466.951	128.88
467.171	112.88
467.391	123.88
467.61	129.88
467.829	120.88
468.049	122.88
468.268	123.88
468.488	124.88
468.707	123.88
468.927	116.88
469.146	125.88
469.365	130.88
469.585	124.88
469.804	130.88
470.023	129.88
470.243	122.88
470.462	105.88
470.681	121.88
470.901	107.88
471.12	128.88
471.339	111.88
471.558	117.88
471.777	115.88
471.997	121.88
472.216	136.88
472.435	138.88
472.654	125.88
472.873	133.88
473.092	124.88
473.311	118.88
473.53	128.88
473.749	121.88
473.968	110.88
474.187	120.88
474.406	114.88
474.625	110.88
474.844	124.88
475.063	115.88
475.282	134.88
475.501	134.88
475.72	137.88
475.939	112.88
476.158	126.88
476.377	134.88
476.596	147.88
476.814	160.88
477.033	137.88
477.252	122.88
477.471	124.88
477.69	131.88
477.908	126.88
478.127	138.88
478.346	110.88
478.564	138.88
478.783	126.88
479.002	131.88
479.22	138.88
479.439	163.88
479.658	145.88
479.876	142.88
480.095	145.88
480.313	136.88
480.532	154.88
480.751	119.88
480.969	136.88
481.188	127.88
481.406	136.88
481.624	130.88
481.843	122.88
482.061	118.88
482.28	142.88
482.498	154.88
482.717	146.88
482.935	123.88
483.153	124.88
483.372	129.88
483.59	132.88
483.808	120.88
484.027	122.88
484.245	128.88
484.463	133.88
484.681	136.88
484.9	133.88
485.118	135.88
485.336	134.88
485.554	115.88
485.772	136.88
485.99	128.88
486.209	145.88
486.427	129.88
486.645	135.88
486.863	134.88
487.081	132.88
487.299	146.88
487.517	131.88
487.735	146.88
487.953	130.88
488.171	122.88
488.389	136.88
488.607	110.88
488.825	130.88
489.043	140.88
489.261	139.88
489.479	149.88
489.696	124.88
489.914	124.88
490.132	112.88
490.35	126.88
490.568	131.88
490.786	132.88
491.003	138.88
491.221	117.88
491.439	124.88
491.657	132.88
491.874	131.88
492.092	137.88
492.31	159.88
492.527	145.88
492.745	126.88
492.963	138.88
493.18	124.88
493.398	146.88
493.615	141.88
493.833	138.88
494.05	123.88
494.268	130.88
494.485	134.88
494.703	129.88
494.92	120.88
495.138	123.88
495.355	130.88
495.573	130.88
495.79	135.88
496.008	145.88
496.225	144.88
496.442	150.88
496.66	148.88
496.877	138.88
497.094	145.88
497.312	138.88
497.529	138.88
497.746	130.88
497.963	142.88
498.181	148.88
498.398	150.88
498.615	164.88
498.832	161.88
499.049	160.88
499.267	143.88
499.484	123.88
499.701	156.88
499.918	169.88
500.135	162.88
500.352	178.88
500.569	192.88
500.786	181.88
501.003	178.88
501.22	156.88
501.437	155.88
501.654	170.88
501.871	156.88
502.088	150.88
502.305	160.88
502.522	134.88
502.739	161.88
502.956	141.88
503.172	134.88
503.389	130.88
503.606	128.88
