Data from NickelSpatula_HRD10591_16-34-17-126.txt Node
Date: Mon Jul 22 16:34:17 EDT 2019
User: cochatt
Spectrometer: HR+D1059
Trigger mode: 1
Integration Time (sec): 1.000000E-1
Scans to average: 1
Electric dark correction enabled: true
Nonlinearity correction enabled: false
Boxcar width: 0
XAxis mode: Wavelengths
Number of Pixels in Spectrum: 2048
>>>>>Begin Spectral Data<<<<<
223.165	-5.56
223.4	-5.56
223.635	-5.56
223.869	-4.56
224.104	-26.56
224.338	-17.56
224.573	-11.56
224.808	-23.56
225.042	-4.56
225.277	-6.56
225.511	-1.56
225.746	18.44
225.98	9.44
226.215	13.44
226.449	4.44
226.683	10.44
226.918	33.44
227.152	12.44
227.387	47.44
227.621	33.44
227.856	48.44
228.09	46.44
228.324	69.44
228.559	53.44
228.793	64.44
229.027	48.44
229.262	77.44
229.496	80.44
229.73	82.44
229.964	87.44
230.199	96.44
230.433	83.44
230.667	97.44
230.901	90.44
231.136	96.44
231.37	93.44
231.604	99.44
231.838	108.44
232.072	114.44
232.306	109.44
232.541	119.44
232.775	108.44
233.009	124.44
233.243	113.44
233.477	106.44
233.711	123.44
233.945	129.44
234.179	130.44
234.413	116.44
234.647	134.44
234.881	132.44
235.115	135.44
235.349	122.44
235.583	128.44
235.817	121.44
236.051	123.44
236.285	128.44
236.519	131.44
236.753	130.44
236.987	129.44
237.221	128.44
237.455	129.44
237.689	126.44
237.922	150.44
238.156	140.44
238.39	146.44
238.624	178.44
238.858	152.44
239.091	142.44
239.325	134.44
239.559	112.44
239.793	128.44
240.027	170.44
240.26	147.44
240.494	148.44
240.728	162.44
240.961	178.44
241.195	162.44
241.429	164.44
241.662	154.44
241.896	143.44
242.13	150.44
242.363	131.44
242.597	138.44
242.83	154.44
243.064	150.44
243.298	148.44
243.531	159.44
243.765	165.44
243.998	168.44
244.232	173.44
244.465	160.44
244.699	150.44
244.932	181.44
245.166	156.44
245.399	135.44
245.633	147.44
245.866	158.44
246.099	167.44
246.333	168.44
246.566	184.44
246.8	180.44
247.033	165.44
247.266	174.44
247.5	164.44
247.733	171.44
247.966	140.44
248.2	171.44
248.433	181.44
248.666	194.44
248.899	185.44
249.133	209.44
249.366	204.44
249.599	213.44
249.832	219.44
250.066	216.44
250.299	213.44
250.532	188.44
250.765	190.44
250.998	180.44
251.231	182.44
251.465	192.44
251.698	201.44
251.931	193.44
252.164	196.44
252.397	217.44
252.63	217.44
252.863	238.44
253.096	233.44
253.329	247.44
253.562	240.44
253.795	276.44
254.028	292.44
254.261	295.44
254.494	263.44
254.727	244.44
254.96	241.44
255.193	238.44
255.426	245.44
255.659	191.44
255.892	194.44
256.124	200.44
256.357	235.44
256.59	248.44
256.823	267.44
257.056	222.44
257.289	210.44
257.521	214.44
257.754	242.44
257.987	296.44
258.22	273.44
258.452	220.44
258.685	246.44
258.918	277.44
259.151	294.44
259.383	284.44
259.616	334.44
259.849	329.44
260.081	315.44
260.314	360.44
260.547	308.44
260.779	322.44
261.012	352.44
261.244	333.44
261.477	329.44
261.71	311.44
261.942	282.44
262.175	283.44
262.407	259.44
262.64	269.44
262.872	297.44
263.105	315.44
263.337	348.44
263.57	316.44
263.802	244.44
264.035	226.44
264.267	221.44
264.499	194.44
264.732	185.44
264.964	195.44
265.197	182.44
265.429	195.44
265.661	194.44
265.894	210.44
266.126	223.44
266.358	237.44
266.591	296.44
266.823	333.44
267.055	312.44
267.287	283.44
267.52	286.44
267.752	299.44
267.984	320.44
268.216	296.44
268.448	263.44
268.681	255.44
268.913	270.44
269.145	269.44
269.377	295.44
269.609	296.44
269.841	286.44
270.073	278.44
270.306	297.44
270.538	324.44
270.77	322.44
271.002	313.44
271.234	316.44
271.466	337.44
271.698	307.44
271.93	307.44
272.162	299.44
272.394	299.44
272.626	293.44
272.858	305.44
273.09	293.44
273.322	284.44
273.553	249.44
273.785	282.44
274.017	351.44
274.249	428.44
274.481	450.44
274.713	478.44
274.945	557.44
275.176	574.44
275.408	525.44
275.64	472.44
275.872	477.44
276.104	425.44
276.335	390.44
276.567	373.44
276.799	381.44
277.031	418.44
277.262	344.44
277.494	275.44
277.726	274.44
277.957	285.44
278.189	310.44
278.421	300.44
278.652	290.44
278.884	278.44
279.115	275.44
279.347	256.44
279.579	269.44
279.81	248.44
280.042	269.44
280.273	273.44
280.505	249.44
280.736	244.44
280.968	245.44
281.199	249.44
281.431	282.44
281.662	284.44
281.894	260.44
282.125	279.44
282.356	290.44
282.588	281.44
282.819	269.44
283.051	282.44
283.282	346.44
283.513	376.44
283.745	418.44
283.976	427.44
284.207	398.44
284.439	406.44
284.67	405.44
284.901	363.44
285.132	377.44
285.364	380.44
285.595	380.44
285.826	389.44
286.057	400.44
286.288	392.44
286.52	397.44
286.751	395.44
286.982	442.44
287.213	377.44
287.444	361.44
287.675	363.44
287.906	377.44
288.138	314.44
288.369	300.44
288.6	292.44
288.831	284.44
289.062	348.44
289.293	380.44
289.524	345.44
289.755	352.44
289.986	336.44
290.217	308.44
290.448	253.44
290.679	230.44
290.91	208.44
291.141	210.44
291.371	221.44
291.602	227.44
291.833	258.44
292.064	232.44
292.295	265.44
292.526	297.44
292.757	304.44
292.987	335.44
293.218	324.44
293.449	341.44
293.68	370.44
293.91	349.44
294.141	341.44
294.372	320.44
294.603	310.44
294.833	331.44
295.064	374.44
295.295	395.44
295.525	289.44
295.756	268.44
295.987	236.44
296.217	229.44
296.448	205.44
296.679	233.44
296.909	257.44
297.14	270.44
297.37	291.44
297.601	281.44
297.831	251.44
298.062	286.44
298.292	304.44
298.523	324.44
298.753	335.44
298.984	317.44
299.214	257.44
299.445	249.44
299.675	230.44
299.905	215.44
300.136	228.44
300.366	241.44
300.597	228.44
300.827	220.44
301.057	204.44
301.288	221.44
301.518	256.44
301.748	246.44
301.979	288.44
302.209	288.44
302.439	281.44
302.669	265.44
302.9	256.44
303.13	244.44
303.36	239.44
303.59	239.44
303.82	238.44
304.051	271.44
304.281	292.44
304.511	284.44
304.741	250.44
304.971	275.44
305.201	283.44
305.431	268.44
305.661	241.44
305.891	225.44
306.121	233.44
306.352	223.44
306.582	204.44
306.812	202.44
307.042	202.44
307.272	194.44
307.502	200.44
307.731	198.44
307.961	191.44
308.191	203.44
308.421	191.44
308.651	185.44
308.881	194.44
309.111	192.44
309.341	197.44
309.571	213.44
309.8	206.44
310.03	192.44
310.26	213.44
310.49	209.44
310.72	202.44
310.949	187.44
311.179	215.44
311.409	208.44
311.639	216.44
311.868	288.44
312.098	357.44
312.328	393.44
312.557	357.44
312.787	386.44
313.017	337.44
313.246	354.44
313.476	373.44
313.706	320.44
313.935	273.44
314.165	225.44
314.394	225.44
314.624	204.44
314.853	206.44
315.083	232.44
315.312	215.44
315.542	216.44
315.771	219.44
316.001	204.44
316.23	196.44
316.46	197.44
316.689	187.44
316.919	180.44
317.148	210.44
317.377	190.44
317.607	194.44
317.836	199.44
318.065	223.44
318.295	247.44
318.524	250.44
318.753	207.44
318.983	208.44
319.212	206.44
319.441	218.44
319.67	231.44
319.9	260.44
320.129	249.44
320.358	231.44
320.587	213.44
320.816	230.44
321.046	238.44
321.275	260.44
321.504	263.44
321.733	251.44
321.962	236.44
322.191	237.44
322.42	213.44
322.649	234.44
322.878	246.44
323.108	240.44
323.337	236.44
323.566	230.44
323.795	218.44
324.024	236.44
324.253	214.44
324.482	194.44
324.71	212.44
324.939	232.44
325.168	232.44
325.397	206.44
325.626	191.44
325.855	207.44
326.084	207.44
326.313	199.44
326.542	176.44
326.77	197.44
326.999	191.44
327.228	201.44
327.457	208.44
327.686	213.44
327.914	194.44
328.143	190.44
328.372	183.44
328.6	198.44
328.829	197.44
329.058	205.44
329.287	198.44
329.515	205.44
329.744	203.44
329.972	209.44
330.201	181.44
330.43	180.44
330.658	199.44
330.887	224.44
331.115	213.44
331.344	220.44
331.572	212.44
331.801	188.44
332.03	186.44
332.258	215.44
332.486	204.44
332.715	220.44
332.943	211.44
333.172	199.44
333.4	216.44
333.629	224.44
333.857	246.44
334.085	238.44
334.314	252.44
334.542	232.44
334.771	222.44
334.999	224.44
335.227	203.44
335.455	209.44
335.684	238.44
335.912	261.44
336.14	264.44
336.369	274.44
336.597	252.44
336.825	258.44
337.053	300.44
337.281	274.44
337.51	209.44
337.738	229.44
337.966	216.44
338.194	248.44
338.422	224.44
338.65	213.44
338.878	186.44
339.106	200.44
339.334	213.44
339.562	219.44
339.79	217.44
340.018	192.44
340.246	209.44
340.474	245.44
340.702	263.44
340.93	268.44
341.158	260.44
341.386	226.44
341.614	236.44
341.842	216.44
342.07	228.44
342.298	269.44
342.526	272.44
342.754	231.44
342.981	224.44
343.209	221.44
343.437	250.44
343.665	244.44
343.893	244.44
344.12	285.44
344.348	315.44
344.576	305.44
344.804	251.44
345.031	209.44
345.259	209.44
345.487	226.44
345.714	224.44
345.942	213.44
346.17	260.44
346.397	254.44
346.625	221.44
346.853	213.44
347.08	209.44
347.308	222.44
347.535	232.44
347.763	231.44
347.99	214.44
348.218	203.44
348.445	220.44
348.673	207.44
348.9	218.44
349.128	223.44
349.355	219.44
349.583	220.44
349.81	217.44
350.037	220.44
350.265	181.44
350.492	164.44
350.72	186.44
350.947	176.44
351.174	190.44
351.402	205.44
351.629	209.44
351.856	188.44
352.083	196.44
352.311	217.44
352.538	211.44
352.765	223.44
352.992	214.44
353.22	201.44
353.447	230.44
353.674	209.44
353.901	199.44
354.128	217.44
354.355	197.44
354.583	220.44
354.81	215.44
355.037	240.44
355.264	216.44
355.491	208.44
355.718	244.44
355.945	229.44
356.172	218.44
356.399	218.44
356.626	246.44
356.853	293.44
357.08	318.44
357.307	322.44
357.534	264.44
357.761	264.44
357.988	318.44
358.215	349.44
358.441	348.44
358.668	292.44
358.895	289.44
359.122	242.44
359.349	260.44
359.576	288.44
359.802	233.44
360.029	201.44
360.256	205.44
360.483	248.44
360.709	295.44
360.936	317.44
361.163	282.44
361.39	229.44
361.616	190.44
361.843	233.44
362.07	265.44
362.296	258.44
362.523	224.44
362.749	196.44
362.976	198.44
363.203	215.44
363.429	260.44
363.656	215.44
363.882	211.44
364.109	210.44
364.335	198.44
364.562	221.44
364.788	230.44
365.015	246.44
365.241	235.44
365.468	180.44
365.694	198.44
365.92	170.44
366.147	174.44
366.373	176.44
366.599	188.44
366.826	183.44
367.052	193.44
367.278	182.44
367.505	168.44
367.731	193.44
367.957	187.44
368.184	214.44
368.41	200.44
368.636	205.44
368.862	191.44
369.089	216.44
369.315	186.44
369.541	188.44
369.767	191.44
369.993	185.44
370.219	209.44
370.445	194.44
370.672	219.44
370.898	214.44
371.124	233.44
371.35	202.44
371.576	186.44
371.802	197.44
372.028	211.44
372.254	250.44
372.48	231.44
372.706	230.44
372.932	216.44
373.158	231.44
373.384	240.44
373.61	308.44
373.835	314.44
374.061	254.44
374.287	220.44
374.513	248.44
374.739	292.44
374.965	300.44
375.191	302.44
375.416	222.44
375.642	198.44
375.868	219.44
376.094	271.44
376.319	220.44
376.545	222.44
376.771	275.44
376.997	226.44
377.222	193.44
377.448	178.44
377.674	164.44
377.899	161.44
378.125	180.44
378.35	184.44
378.576	205.44
378.802	198.44
379.027	202.44
379.253	200.44
379.478	216.44
379.704	214.44
379.929	207.44
380.155	230.44
380.38	196.44
380.606	209.44
380.831	238.44
381.057	222.44
381.282	216.44
381.507	236.44
381.733	245.44
381.958	264.44
382.184	275.44
382.409	317.44
382.634	312.44
382.86	314.44
383.085	271.44
383.31	250.44
383.535	252.44
383.761	240.44
383.986	240.44
384.211	270.44
384.436	280.44
384.662	236.44
384.887	209.44
385.112	218.44
385.337	226.44
385.562	208.44
385.787	236.44
386.013	257.44
386.238	258.44
386.463	216.44
386.688	232.44
386.913	213.44
387.138	212.44
387.363	207.44
387.588	219.44
387.813	225.44
388.038	222.44
388.263	208.44
388.488	213.44
388.713	231.44
388.938	239.44
389.163	221.44
389.387	200.44
389.612	196.44
389.837	213.44
390.062	226.44
390.287	226.44
390.512	219.44
390.736	206.44
390.961	196.44
391.186	235.44
391.411	191.44
391.636	205.44
391.86	214.44
392.085	208.44
392.31	236.44
392.534	224.44
392.759	220.44
392.984	226.44
393.208	225.44
393.433	232.44
393.658	216.44
393.882	190.44
394.107	196.44
394.331	184.44
394.556	199.44
394.78	184.44
395.005	182.44
395.229	189.44
395.454	195.44
395.678	188.44
395.903	226.44
396.127	206.44
396.352	198.44
396.576	230.44
396.801	233.44
397.025	242.44
397.249	236.44
397.474	216.44
397.698	213.44
397.922	229.44
398.147	210.44
398.371	216.44
398.595	230.44
398.82	207.44
399.044	220.44
399.268	238.44
399.492	247.44
399.717	261.44
399.941	248.44
400.165	232.44
400.389	250.44
400.613	253.44
400.837	223.44
401.062	207.44
401.286	221.44
401.51	199.44
401.734	200.44
401.958	216.44
402.182	202.44
402.406	217.44
402.63	207.44
402.854	230.44
403.078	244.44
403.302	318.44
403.526	326.44
403.75	301.44
403.974	256.44
404.198	247.44
404.422	285.44
404.645	276.44
404.869	301.44
405.093	240.44
405.317	229.44
405.541	248.44
405.765	233.44
405.988	224.44
406.212	235.44
406.436	271.44
406.66	301.44
406.883	247.44
407.107	257.44
407.331	270.44
407.555	257.44
407.778	257.44
408.002	232.44
408.226	241.44
408.449	224.44
408.673	263.44
408.896	223.44
409.12	210.44
409.344	222.44
409.567	214.44
409.791	198.44
410.014	224.44
410.238	218.44
410.461	205.44
410.685	191.44
410.908	201.44
411.132	224.44
411.355	222.44
411.578	206.44
411.802	218.44
412.025	207.44
412.249	227.44
412.472	217.44
412.695	216.44
412.919	213.44
413.142	212.44
413.365	236.44
413.589	239.44
413.812	219.44
414.035	217.44
414.258	212.44
414.482	225.44
414.705	245.44
414.928	215.44
415.151	218.44
415.374	201.44
415.597	210.44
415.821	209.44
416.044	202.44
416.267	195.44
416.49	207.44
416.713	202.44
416.936	210.44
417.159	197.44
417.382	208.44
417.605	211.44
417.828	222.44
418.051	214.44
418.274	212.44
418.497	241.44
418.72	234.44
418.943	223.44
419.166	220.44
419.389	236.44
419.611	237.44
419.834	232.44
420.057	236.44
420.28	241.44
420.503	225.44
420.726	210.44
420.948	214.44
421.171	204.44
421.394	209.44
421.617	182.44
421.839	211.44
422.062	208.44
422.285	222.44
422.507	216.44
422.73	220.44
422.953	225.44
423.175	204.44
423.398	214.44
423.621	238.44
423.843	238.44
424.066	222.44
424.288	217.44
424.511	206.44
424.733	222.44
424.956	228.44
425.178	235.44
425.401	241.44
425.623	287.44
425.846	262.44
426.068	229.44
426.291	245.44
426.513	235.44
426.735	202.44
426.958	226.44
427.18	235.44
427.402	275.44
427.625	284.44
427.847	254.44
428.069	212.44
428.292	193.44
428.514	207.44
428.736	215.44
428.958	215.44
429.181	256.44
429.403	227.44
429.625	232.44
429.847	200.44
430.069	202.44
430.292	198.44
430.514	200.44
430.736	216.44
430.958	228.44
431.18	238.44
431.402	191.44
431.624	201.44
431.846	203.44
432.068	180.44
432.29	201.44
432.512	209.44
432.734	230.44
432.956	225.44
433.178	201.44
433.4	187.44
433.622	196.44
433.844	198.44
434.066	223.44
434.287	216.44
434.509	220.44
434.731	234.44
434.953	206.44
435.175	212.44
435.397	237.44
435.618	208.44
435.84	194.44
436.062	192.44
436.284	192.44
436.505	192.44
436.727	189.44
436.949	208.44
437.17	209.44
437.392	200.44
437.614	184.44
437.835	186.44
438.057	188.44
438.278	207.44
438.5	265.44
438.721	278.44
438.943	221.44
439.165	195.44
439.386	181.44
439.608	189.44
439.829	181.44
440.05	186.44
440.272	204.44
440.493	220.44
440.715	284.44
440.936	233.44
441.158	214.44
441.379	191.44
441.6	230.44
441.822	229.44
442.043	192.44
442.264	219.44
442.486	207.44
442.707	197.44
442.928	217.44
443.149	216.44
443.371	210.44
443.592	218.44
443.813	205.44
444.034	193.44
444.255	216.44
444.476	216.44
444.698	216.44
444.919	235.44
445.14	344.44
445.361	287.44
445.582	217.44
445.803	221.44
446.024	224.44
446.245	228.44
446.466	216.44
446.687	208.44
446.908	197.44
447.129	197.44
447.35	192.44
447.571	188.44
447.792	196.44
448.013	177.44
448.234	184.44
448.455	177.44
448.675	191.44
448.896	209.44
449.117	199.44
449.338	198.44
449.559	185.44
449.779	206.44
450	206.44
450.221	188.44
450.442	196.44
450.662	180.44
450.883	190.44
451.104	192.44
451.324	203.44
451.545	194.44
451.766	194.44
451.986	186.44
452.207	193.44
452.428	165.44
452.648	180.44
452.869	181.44
453.089	196.44
453.31	208.44
453.53	182.44
453.751	198.44
453.971	184.44
454.192	197.44
454.412	194.44
454.633	196.44
454.853	187.44
455.073	173.44
455.294	184.44
455.514	190.44
455.734	184.44
455.955	164.44
456.175	177.44
456.395	172.44
456.616	172.44
456.836	176.44
457.056	170.44
457.276	168.44
457.497	186.44
457.717	183.44
457.937	161.44
458.157	188.44
458.377	165.44
458.598	171.44
458.818	171.44
459.038	184.44
459.258	199.44
459.478	196.44
459.698	210.44
459.918	205.44
460.138	213.44
460.358	222.44
460.578	224.44
460.798	206.44
461.018	215.44
461.238	198.44
461.458	222.44
461.678	205.44
461.898	236.44
462.118	225.44
462.338	218.44
462.558	233.44
462.777	212.44
462.997	223.44
463.217	229.44
463.437	240.44
463.657	235.44
463.876	221.44
464.096	229.44
464.316	218.44
464.536	209.44
464.755	246.44
464.975	227.44
465.195	209.44
465.414	225.44
465.634	203.44
465.854	213.44
466.073	201.44
466.293	199.44
466.512	204.44
466.732	218.44
466.951	226.44
467.171	212.44
467.391	196.44
467.61	192.44
467.829	213.44
468.049	201.44
468.268	204.44
468.488	194.44
468.707	196.44
468.927	220.44
469.146	244.44
469.365	207.44
469.585	202.44
469.804	225.44
470.023	233.44
470.243	215.44
470.462	214.44
470.681	208.44
470.901	217.44
471.12	207.44
471.339	218.44
471.558	217.44
471.777	214.44
471.997	210.44
472.216	234.44
472.435	231.44
472.654	220.44
472.873	215.44
473.092	225.44
473.311	231.44
473.53	218.44
473.749	205.44
473.968	232.44
474.187	214.44
474.406	216.44
474.625	203.44
474.844	205.44
475.063	217.44
475.282	225.44
475.501	239.44
475.72	266.44
475.939	236.44
476.158	217.44
476.377	271.44
476.596	317.44
476.814	306.44
477.033	281.44
477.252	236.44
477.471	220.44
477.69	226.44
477.908	225.44
478.127	250.44
478.346	220.44
478.564	257.44
478.783	236.44
479.002	228.44
479.22	265.44
479.439	271.44
479.658	262.44
479.876	237.44
480.095	247.44
480.313	251.44
480.532	241.44
480.751	233.44
480.969	219.44
481.188	245.44
481.406	284.44
481.624	245.44
481.843	210.44
482.061	235.44
482.28	239.44
482.498	300.44
482.717	319.44
482.935	260.44
483.153	224.44
483.372	228.44
483.59	218.44
483.808	220.44
484.027	227.44
484.245	210.44
484.463	228.44
484.681	231.44
484.9	236.44
485.118	252.44
485.336	227.44
485.554	235.44
485.772	229.44
485.99	250.44
486.209	242.44
486.427	229.44
486.645	244.44
486.863	241.44
487.081	252.44
487.299	270.44
487.517	284.44
487.735	258.44
487.953	250.44
488.171	256.44
488.389	233.44
488.607	231.44
488.825	246.44
489.043	271.44
489.261	290.44
489.479	311.44
489.696	250.44
489.914	238.44
490.132	237.44
490.35	245.44
490.568	232.44
490.786	228.44
491.003	224.44
491.221	244.44
491.439	240.44
491.657	240.44
491.874	245.44
492.092	298.44
492.31	352.44
492.527	344.44
492.745	284.44
492.963	267.44
493.18	252.44
493.398	250.44
493.615	278.44
493.833	264.44
494.05	256.44
494.268	266.44
494.485	255.44
494.703	250.44
494.92	248.44
495.138	230.44
495.355	252.44
495.573	255.44
495.79	281.44
496.008	347.44
496.225	293.44
496.442	256.44
496.66	261.44
496.877	271.44
497.094	280.44
497.312	276.44
497.529	254.44
497.746	270.44
497.963	276.44
498.181	295.44
498.398	296.44
498.615	318.44
498.832	341.44
499.049	343.44
499.267	336.44
499.484	336.44
499.701	345.44
499.918	365.44
500.135	415.44
500.352	438.44
500.569	425.44
500.786	464.44
501.003	450.44
501.22	391.44
501.437	377.44
501.654	354.44
501.871	340.44
502.088	351.44
502.305	302.44
502.522	296.44
502.739	302.44
