Data from NickelSpatula.Lamp.E5.5.P2_HRD10591_11-53-19-549.txt Node
Date: Tue Jul 23 11:53:19 EDT 2019
User: cochatt
Spectrometer: HR+D1059
Trigger mode: 1
Integration Time (sec): 1.000000E-1
Scans to average: 1
Electric dark correction enabled: true
Nonlinearity correction enabled: false
Boxcar width: 0
XAxis mode: Wavelengths
Number of Pixels in Spectrum: 2048
>>>>>Begin Spectral Data<<<<<
223.165	-13.44
223.4	-13.44
223.635	-13.44
223.869	-24.44
224.104	-15.44
224.338	-10.44
224.573	-24.44
224.808	0.56
225.042	1.56
225.277	-10.44
225.511	-8.44
225.746	10.56
225.98	7.56
226.215	2.56
226.449	14.56
226.683	20.56
226.918	22.56
227.152	26.56
227.387	28.56
227.621	37.56
227.856	49.56
228.09	45.56
228.324	42.56
228.559	42.56
228.793	48.56
229.027	70.56
229.262	80.56
229.496	85.56
229.73	79.56
229.964	91.56
230.199	100.56
230.433	86.56
230.667	85.56
230.901	99.56
231.136	90.56
231.37	88.56
231.604	110.56
231.838	100.56
232.072	118.56
232.306	108.56
232.541	107.56
232.775	111.56
233.009	117.56
233.243	113.56
233.477	112.56
233.711	128.56
233.945	114.56
234.179	132.56
234.413	125.56
234.647	128.56
234.881	137.56
235.115	150.56
235.349	130.56
235.583	121.56
235.817	136.56
236.051	123.56
236.285	137.56
236.519	146.56
236.753	138.56
236.987	133.56
237.221	138.56
237.455	123.56
237.689	145.56
237.922	146.56
238.156	149.56
238.39	157.56
238.624	180.56
238.858	176.56
239.091	142.56
239.325	149.56
239.559	146.56
239.793	158.56
240.027	189.56
240.26	176.56
240.494	160.56
240.728	162.56
240.961	188.56
241.195	184.56
241.429	177.56
241.662	157.56
241.896	149.56
242.13	145.56
242.363	136.56
242.597	146.56
242.83	165.56
243.064	164.56
243.298	180.56
243.531	172.56
243.765	174.56
243.998	184.56
244.232	176.56
244.465	155.56
244.699	148.56
244.932	192.56
245.166	177.56
245.399	162.56
245.633	149.56
245.866	170.56
246.099	155.56
246.333	180.56
246.566	212.56
246.8	199.56
247.033	209.56
247.266	178.56
247.5	160.56
247.733	178.56
247.966	188.56
248.2	177.56
248.433	196.56
248.666	217.56
248.899	201.56
249.133	212.56
249.366	234.56
249.599	257.56
249.832	233.56
250.066	230.56
250.299	215.56
250.532	206.56
250.765	193.56
250.998	196.56
251.231	195.56
251.465	198.56
251.698	209.56
251.931	197.56
252.164	217.56
252.397	232.56
252.63	262.56
252.863	276.56
253.096	269.56
253.329	265.56
253.562	273.56
253.795	286.56
254.028	315.56
254.261	326.56
254.494	278.56
254.727	267.56
254.96	280.56
255.193	276.56
255.426	273.56
255.659	224.56
255.892	184.56
256.124	226.56
256.357	256.56
256.59	278.56
256.823	277.56
257.056	237.56
257.289	250.56
257.521	240.56
257.754	291.56
257.987	337.56
258.22	295.56
258.452	242.56
258.685	256.56
258.918	285.56
259.151	299.56
259.383	313.56
259.616	351.56
259.849	374.56
260.081	371.56
260.314	417.56
260.547	336.56
260.779	356.56
261.012	394.56
261.244	374.56
261.477	372.56
261.71	357.56
261.942	299.56
262.175	312.56
262.407	281.56
262.64	294.56
262.872	340.56
263.105	366.56
263.337	378.56
263.57	361.56
263.802	266.56
264.035	236.56
264.267	238.56
264.499	201.56
264.732	193.56
264.964	207.56
265.197	180.56
265.429	190.56
265.661	203.56
265.894	228.56
266.126	229.56
266.358	249.56
266.591	284.56
266.823	352.56
267.055	341.56
267.287	284.56
267.52	303.56
267.752	308.56
267.984	342.56
268.216	320.56
268.448	291.56
268.681	278.56
268.913	283.56
269.145	286.56
269.377	312.56
269.609	300.56
269.841	287.56
270.073	311.56
270.306	329.56
270.538	326.56
270.77	329.56
271.002	328.56
271.234	348.56
271.466	357.56
271.698	326.56
271.93	326.56
272.162	332.56
272.394	322.56
272.626	303.56
272.858	324.56
273.09	332.56
273.322	301.56
273.553	281.56
273.785	325.56
274.017	420.56
274.249	511.56
274.481	526.56
274.713	545.56
274.945	631.56
275.176	666.56
275.408	593.56
275.64	538.56
275.872	553.56
276.104	480.56
276.335	432.56
276.567	420.56
276.799	441.56
277.031	460.56
277.262	353.56
277.494	289.56
277.726	263.56
277.957	302.56
278.189	330.56
278.421	330.56
278.652	307.56
278.884	311.56
279.115	307.56
279.347	267.56
279.579	279.56
279.81	300.56
280.042	310.56
280.273	298.56
280.505	289.56
280.736	243.56
280.968	251.56
281.199	258.56
281.431	297.56
281.662	298.56
281.894	296.56
282.125	309.56
282.356	314.56
282.588	321.56
282.819	295.56
283.051	315.56
283.282	374.56
283.513	423.56
283.745	444.56
283.976	472.56
284.207	436.56
284.439	470.56
284.67	428.56
284.901	384.56
285.132	430.56
285.364	453.56
285.595	408.56
285.826	424.56
286.057	458.56
286.288	426.56
286.52	433.56
286.751	456.56
286.982	472.56
287.213	400.56
287.444	399.56
287.675	398.56
287.906	426.56
288.138	360.56
288.369	316.56
288.6	294.56
288.831	319.56
289.062	356.56
289.293	412.56
289.524	380.56
289.755	379.56
289.986	384.56
290.217	344.56
290.448	273.56
290.679	239.56
290.91	237.56
291.141	223.56
291.371	256.56
291.602	236.56
291.833	245.56
292.064	245.56
292.295	273.56
292.526	317.56
292.757	326.56
292.987	368.56
293.218	348.56
293.449	384.56
293.68	410.56
293.91	384.56
294.141	418.56
294.372	348.56
294.603	342.56
294.833	377.56
295.064	434.56
295.295	424.56
295.525	308.56
295.756	274.56
295.987	233.56
296.217	240.56
296.448	260.56
296.679	286.56
296.909	294.56
297.14	293.56
297.37	348.56
297.601	307.56
297.831	270.56
298.062	281.56
298.292	331.56
298.523	336.56
298.753	386.56
298.984	345.56
299.214	294.56
299.445	256.56
299.675	263.56
299.905	240.56
300.136	251.56
300.366	256.56
300.597	255.56
300.827	236.56
301.057	246.56
301.288	236.56
301.518	253.56
301.748	304.56
301.979	304.56
302.209	332.56
302.439	329.56
302.669	284.56
302.9	296.56
303.13	302.56
303.36	269.56
303.59	245.56
303.82	263.56
304.051	297.56
304.281	294.56
304.511	316.56
304.741	276.56
304.971	267.56
305.201	290.56
305.431	270.56
305.661	261.56
305.891	264.56
306.121	254.56
306.352	222.56
306.582	214.56
306.812	209.56
307.042	216.56
307.272	207.56
307.502	194.56
307.731	213.56
307.961	216.56
308.191	213.56
308.421	200.56
308.651	213.56
308.881	203.56
309.111	188.56
309.341	194.56
309.571	226.56
309.8	201.56
310.03	209.56
310.26	227.56
310.49	229.56
310.72	222.56
310.949	226.56
311.179	232.56
311.409	231.56
311.639	261.56
311.868	316.56
312.098	371.56
312.328	432.56
312.557	379.56
312.787	374.56
313.017	376.56
313.246	384.56
313.476	429.56
313.706	357.56
313.935	308.56
314.165	263.56
314.394	229.56
314.624	245.56
314.853	244.56
315.083	236.56
315.312	240.56
315.542	236.56
315.771	220.56
316.001	213.56
316.23	204.56
316.46	206.56
316.689	197.56
316.919	220.56
317.148	224.56
317.377	226.56
317.607	218.56
317.836	234.56
318.065	250.56
318.295	284.56
318.524	268.56
318.753	221.56
318.983	214.56
319.212	217.56
319.441	242.56
319.67	242.56
319.9	282.56
320.129	241.56
320.358	209.56
320.587	217.56
320.816	222.56
321.046	244.56
321.275	289.56
321.504	278.56
321.733	293.56
321.962	269.56
322.191	273.56
322.42	234.56
322.649	256.56
322.878	263.56
323.108	268.56
323.337	260.56
323.566	240.56
323.795	237.56
324.024	245.56
324.253	252.56
324.482	231.56
324.71	250.56
324.939	260.56
325.168	244.56
325.397	232.56
325.626	213.56
325.855	206.56
326.084	213.56
326.313	221.56
326.542	208.56
326.77	222.56
326.999	212.56
327.228	236.56
327.457	244.56
327.686	253.56
327.914	210.56
328.143	217.56
328.372	212.56
328.6	200.56
328.829	216.56
329.058	210.56
329.287	212.56
329.515	207.56
329.744	226.56
329.972	202.56
330.201	191.56
330.43	206.56
330.658	214.56
330.887	256.56
331.115	227.56
331.344	237.56
331.572	244.56
331.801	204.56
332.03	215.56
332.258	210.56
332.486	216.56
332.715	226.56
332.943	240.56
333.172	230.56
333.4	232.56
333.629	271.56
333.857	266.56
334.085	270.56
334.314	240.56
334.542	261.56
334.771	225.56
334.999	233.56
335.227	238.56
335.455	232.56
335.684	225.56
335.912	262.56
336.14	293.56
336.369	284.56
336.597	283.56
336.825	294.56
337.053	357.56
337.281	288.56
337.51	236.56
337.738	241.56
337.966	263.56
338.194	253.56
338.422	248.56
338.65	226.56
338.878	208.56
339.106	226.56
339.334	245.56
339.562	265.56
339.79	249.56
340.018	222.56
340.246	231.56
340.474	262.56
340.702	302.56
340.93	284.56
341.158	298.56
341.386	257.56
341.614	252.56
341.842	244.56
342.07	264.56
342.298	286.56
342.526	308.56
342.754	261.56
342.981	265.56
343.209	263.56
343.437	262.56
343.665	286.56
343.893	256.56
344.12	316.56
344.348	380.56
344.576	343.56
344.804	266.56
345.031	230.56
345.259	247.56
345.487	227.56
345.714	229.56
345.942	242.56
346.17	290.56
346.397	274.56
346.625	240.56
346.853	230.56
347.08	212.56
347.308	240.56
347.535	270.56
347.763	284.56
347.99	238.56
348.218	226.56
348.445	251.56
348.673	246.56
348.9	236.56
349.128	263.56
349.355	270.56
349.583	253.56
349.81	255.56
350.037	230.56
350.265	213.56
350.492	197.56
350.72	192.56
350.947	202.56
351.174	213.56
351.402	234.56
351.629	230.56
351.856	213.56
352.083	202.56
352.311	237.56
352.538	251.56
352.765	242.56
352.992	228.56
353.22	229.56
353.447	246.56
353.674	231.56
353.901	217.56
354.128	238.56
354.355	220.56
354.583	224.56
354.81	243.56
355.037	260.56
355.264	243.56
355.491	245.56
355.718	273.56
355.945	254.56
356.172	233.56
356.399	245.56
356.626	296.56
356.853	358.56
357.08	374.56
357.307	386.56
357.534	315.56
357.761	325.56
357.988	386.56
358.215	440.56
358.441	422.56
358.668	355.56
358.895	328.56
359.122	292.56
359.349	309.56
359.576	320.56
359.802	256.56
360.029	222.56
360.256	241.56
360.483	293.56
360.709	349.56
360.936	357.56
361.163	316.56
361.39	276.56
361.616	238.56
361.843	258.56
362.07	311.56
362.296	288.56
362.523	245.56
362.749	233.56
362.976	228.56
363.203	260.56
363.429	295.56
363.656	242.56
363.882	239.56
364.109	221.56
364.335	238.56
364.562	225.56
364.788	258.56
365.015	274.56
365.241	271.56
365.468	225.56
365.694	200.56
365.92	209.56
366.147	204.56
366.373	190.56
366.599	199.56
366.826	194.56
367.052	214.56
367.278	202.56
367.505	199.56
367.731	211.56
367.957	234.56
368.184	243.56
368.41	231.56
368.636	229.56
368.862	247.56
369.089	242.56
369.315	233.56
369.541	227.56
369.767	227.56
369.993	210.56
370.219	213.56
370.445	236.56
370.672	236.56
370.898	236.56
371.124	238.56
371.35	248.56
371.576	242.56
371.802	241.56
372.028	260.56
372.254	314.56
372.48	287.56
372.706	263.56
372.932	267.56
373.158	245.56
373.384	318.56
373.61	381.56
373.835	399.56
374.061	313.56
374.287	268.56
374.513	309.56
374.739	375.56
374.965	390.56
375.191	377.56
375.416	268.56
375.642	258.56
375.868	280.56
376.094	310.56
376.319	270.56
376.545	294.56
376.771	304.56
376.997	279.56
377.222	204.56
377.448	200.56
377.674	202.56
377.899	203.56
378.125	196.56
378.35	195.56
378.576	199.56
378.802	212.56
379.027	225.56
379.253	232.56
379.478	245.56
379.704	257.56
379.929	255.56
380.155	252.56
380.38	237.56
380.606	238.56
380.831	258.56
381.057	255.56
381.282	227.56
381.507	276.56
381.733	324.56
381.958	354.56
382.184	353.56
382.409	371.56
382.634	388.56
382.86	373.56
383.085	326.56
383.31	285.56
383.535	266.56
383.761	306.56
383.986	260.56
384.211	321.56
384.436	316.56
384.662	252.56
384.887	255.56
385.112	253.56
385.337	255.56
385.562	231.56
385.787	272.56
386.013	306.56
386.238	298.56
386.463	258.56
386.688	249.56
386.913	218.56
387.138	213.56
387.363	230.56
387.588	237.56
387.813	247.56
388.038	271.56
388.263	238.56
388.488	236.56
388.713	261.56
388.938	302.56
389.163	227.56
389.387	228.56
389.612	229.56
389.837	239.56
390.062	236.56
390.287	240.56
390.512	252.56
390.736	222.56
390.961	216.56
391.186	210.56
391.411	201.56
391.636	228.56
391.86	232.56
392.085	248.56
392.31	260.56
392.534	244.56
392.759	232.56
392.984	240.56
393.208	266.56
393.433	223.56
393.658	208.56
393.882	190.56
394.107	214.56
394.331	210.56
394.556	208.56
394.78	222.56
395.005	211.56
395.229	222.56
395.454	221.56
395.678	213.56
395.903	227.56
396.127	206.56
396.352	225.56
396.576	241.56
396.801	240.56
397.025	263.56
397.249	268.56
397.474	241.56
397.698	230.56
397.922	231.56
398.147	224.56
398.371	220.56
398.595	246.56
398.82	240.56
399.044	232.56
399.268	256.56
399.492	284.56
399.717	282.56
399.941	300.56
400.165	277.56
400.389	246.56
400.613	252.56
400.837	262.56
401.062	251.56
401.286	235.56
401.51	220.56
401.734	223.56
401.958	227.56
402.182	245.56
402.406	244.56
402.63	228.56
402.854	275.56
403.078	295.56
403.302	377.56
403.526	403.56
403.75	351.56
403.974	280.56
404.198	286.56
404.422	305.56
404.645	340.56
404.869	384.56
405.093	300.56
405.317	266.56
405.541	255.56
405.765	260.56
405.988	258.56
406.212	290.56
406.436	298.56
406.66	328.56
406.883	292.56
407.107	302.56
407.331	333.56
407.555	321.56
407.778	274.56
408.002	260.56
408.226	281.56
408.449	255.56
408.673	276.56
408.896	240.56
409.12	230.56
409.344	245.56
409.567	230.56
409.791	243.56
410.014	240.56
410.238	248.56
410.461	254.56
410.685	236.56
410.908	229.56
411.132	238.56
411.355	235.56
411.578	243.56
411.802	245.56
412.025	239.56
412.249	239.56
412.472	234.56
412.695	229.56
412.919	246.56
413.142	229.56
413.365	269.56
413.589	262.56
413.812	244.56
414.035	232.56
414.258	229.56
414.482	251.56
414.705	278.56
414.928	231.56
415.151	230.56
415.374	226.56
415.597	241.56
415.821	239.56
416.044	222.56
416.267	224.56
416.49	225.56
416.713	226.56
416.936	236.56
417.159	210.56
417.382	228.56
417.605	252.56
417.828	211.56
418.051	236.56
418.274	233.56
418.497	229.56
418.72	233.56
418.943	255.56
419.166	246.56
419.389	241.56
419.611	261.56
419.834	269.56
420.057	262.56
420.28	278.56
420.503	276.56
420.726	222.56
420.948	232.56
421.171	224.56
421.394	240.56
421.617	228.56
421.839	236.56
422.062	233.56
422.285	218.56
422.507	229.56
422.73	256.56
422.953	260.56
423.175	243.56
423.398	245.56
423.621	255.56
423.843	266.56
424.066	254.56
424.288	250.56
424.511	232.56
424.733	248.56
424.956	249.56
425.178	272.56
425.401	297.56
425.623	387.56
425.846	298.56
426.068	254.56
426.291	278.56
426.513	265.56
426.735	240.56
426.958	240.56
427.18	275.56
427.402	350.56
427.625	365.56
427.847	308.56
428.069	232.56
428.292	226.56
428.514	237.56
428.736	226.56
428.958	258.56
429.181	296.56
429.403	266.56
429.625	232.56
429.847	226.56
430.069	226.56
430.292	238.56
430.514	222.56
430.736	232.56
430.958	271.56
431.18	277.56
431.402	231.56
431.624	222.56
431.846	218.56
432.068	214.56
432.29	218.56
432.512	238.56
432.734	283.56
432.956	280.56
433.178	229.56
433.4	216.56
433.622	222.56
433.844	254.56
434.066	229.56
434.287	243.56
434.509	240.56
434.731	270.56
434.953	237.56
435.175	269.56
435.397	272.56
435.618	238.56
435.84	221.56
436.062	228.56
436.284	226.56
436.505	218.56
436.727	229.56
436.949	210.56
437.17	234.56
437.392	233.56
437.614	214.56
437.835	219.56
438.057	212.56
438.278	265.56
438.5	327.56
438.721	338.56
438.943	250.56
439.165	225.56
439.386	212.56
439.608	210.56
439.829	217.56
440.05	213.56
440.272	228.56
440.493	243.56
440.715	297.56
440.936	236.56
441.158	215.56
441.379	230.56
441.6	264.56
441.822	245.56
442.043	244.56
442.264	237.56
442.486	234.56
442.707	244.56
442.928	232.56
443.149	245.56
443.371	244.56
443.592	253.56
443.813	258.56
444.034	239.56
444.255	233.56
444.476	253.56
444.698	242.56
444.919	251.56
445.14	348.56
445.361	300.56
445.582	238.56
445.803	249.56
446.024	241.56
446.245	241.56
446.466	253.56
446.687	233.56
446.908	240.56
447.129	209.56
447.35	212.56
447.571	198.56
447.792	213.56
448.013	204.56
448.234	222.56
448.455	206.56
448.675	218.56
448.896	221.56
449.117	222.56
449.338	236.56
449.559	208.56
449.779	222.56
450	223.56
450.221	218.56
450.442	216.56
450.662	219.56
450.883	209.56
451.104	220.56
451.324	196.56
451.545	204.56
451.766	217.56
451.986	218.56
452.207	205.56
452.428	201.56
452.648	204.56
452.869	230.56
453.089	242.56
453.31	232.56
453.53	195.56
453.751	205.56
453.971	224.56
454.192	215.56
454.412	233.56
454.633	207.56
454.853	206.56
455.073	186.56
455.294	200.56
455.514	196.56
455.734	204.56
455.955	213.56
456.175	221.56
456.395	199.56
456.616	197.56
456.836	199.56
457.056	201.56
457.276	186.56
457.497	202.56
457.717	204.56
457.937	192.56
458.157	193.56
458.377	211.56
458.598	187.56
458.818	200.56
459.038	209.56
459.258	227.56
459.478	217.56
459.698	245.56
459.918	255.56
460.138	224.56
460.358	230.56
460.578	246.56
460.798	226.56
461.018	228.56
461.238	236.56
461.458	228.56
461.678	249.56
461.898	259.56
462.118	255.56
462.338	268.56
462.558	262.56
462.777	258.56
462.997	285.56
463.217	292.56
463.437	277.56
463.657	271.56
463.876	284.56
464.096	269.56
464.316	266.56
464.536	262.56
464.755	278.56
464.975	276.56
465.195	265.56
465.414	271.56
465.634	252.56
465.854	249.56
466.073	230.56
466.293	212.56
466.512	233.56
466.732	254.56
466.951	284.56
467.171	216.56
467.391	244.56
467.61	212.56
467.829	239.56
468.049	253.56
468.268	201.56
468.488	222.56
468.707	238.56
468.927	254.56
469.146	296.56
469.365	257.56
469.585	254.56
469.804	237.56
470.023	271.56
470.243	240.56
470.462	232.56
470.681	234.56
470.901	228.56
471.12	253.56
471.339	225.56
471.558	230.56
471.777	221.56
471.997	237.56
472.216	272.56
472.435	260.56
472.654	248.56
472.873	240.56
473.092	259.56
473.311	261.56
473.53	237.56
473.749	232.56
473.968	252.56
474.187	228.56
474.406	252.56
474.625	240.56
474.844	225.56
475.063	241.56
475.282	254.56
475.501	263.56
475.72	302.56
475.939	272.56
476.158	262.56
476.377	304.56
476.596	335.56
476.814	356.56
477.033	305.56
477.252	250.56
477.471	266.56
477.69	248.56
477.908	265.56
478.127	277.56
478.346	277.56
478.564	298.56
478.783	276.56
479.002	275.56
479.22	310.56
479.439	340.56
479.658	289.56
479.876	293.56
480.095	302.56
480.313	323.56
480.532	275.56
480.751	282.56
480.969	281.56
481.188	322.56
481.406	317.56
481.624	303.56
481.843	282.56
482.061	260.56
482.28	309.56
482.498	350.56
482.717	343.56
482.935	287.56
483.153	295.56
483.372	272.56
483.59	269.56
483.808	262.56
484.027	262.56
484.245	248.56
484.463	233.56
484.681	250.56
484.9	259.56
485.118	276.56
485.336	267.56
485.554	258.56
485.772	265.56
485.99	281.56
486.209	311.56
486.427	305.56
486.645	277.56
486.863	287.56
487.081	282.56
487.299	319.56
487.517	319.56
487.735	265.56
487.953	277.56
488.171	302.56
488.389	289.56
488.607	256.56
488.825	272.56
489.043	287.56
489.261	324.56
489.479	333.56
489.696	288.56
489.914	293.56
490.132	275.56
490.35	272.56
490.568	265.56
490.786	274.56
491.003	276.56
491.221	277.56
491.439	258.56
491.657	255.56
491.874	288.56
492.092	329.56
492.31	405.56
492.527	377.56
492.745	332.56
492.963	299.56
493.18	299.56
493.398	294.56
493.615	302.56
493.833	292.56
494.05	306.56
494.268	290.56
494.485	300.56
494.703	276.56
494.92	304.56
495.138	282.56
495.355	293.56
495.573	273.56
495.79	322.56
496.008	383.56
496.225	330.56
496.442	300.56
496.66	308.56
496.877	296.56
497.094	306.56
497.312	300.56
497.529	306.56
497.746	317.56
497.963	311.56
498.181	322.56
498.398	372.56
498.615	378.56
498.832	388.56
499.049	393.56
499.267	369.56
499.484	367.56
499.701	398.56
499.918	442.56
500.135	485.56
500.352	502.56
500.569	529.56
500.786	540.56
501.003	512.56
501.22	466.56
501.437	441.56
501.654	408.56
501.871	358.56
502.088	380.56
502.305	364.56
502.522	355.56
