Data from NickelSpatula.Lamp.E5.5.P2_HRD10591_11-51-17-562.txt Node
Date: Tue Jul 23 11:51:17 EDT 2019
User: cochatt
Spectrometer: HR+D1059
Trigger mode: 1
Integration Time (sec): 1.000000E-1
Scans to average: 1
Electric dark correction enabled: true
Nonlinearity correction enabled: false
Boxcar width: 0
XAxis mode: Wavelengths
Number of Pixels in Spectrum: 2048
>>>>>Begin Spectral Data<<<<<
223.165	-14.69
223.4	-14.69
223.635	-14.69
223.869	-13.69
224.104	-14.69
224.338	-28.69
224.573	-15.69
224.808	-3.69
225.042	-18.69
225.277	-14.69
225.511	-4.69
225.746	12.31
225.98	9.31
226.215	2.31
226.449	2.31
226.683	34.31
226.918	26.31
227.152	42.31
227.387	25.31
227.621	44.31
227.856	51.31
228.09	42.31
228.324	49.31
228.559	61.31
228.793	60.31
229.027	73.31
229.262	77.31
229.496	71.31
229.73	79.31
229.964	91.31
230.199	89.31
230.433	87.31
230.667	77.31
230.901	99.31
231.136	104.31
231.37	95.31
231.604	91.31
231.838	97.31
232.072	120.31
232.306	108.31
232.541	115.31
232.775	91.31
233.009	105.31
233.243	96.31
233.477	96.31
233.711	125.31
233.945	120.31
234.179	113.31
234.413	111.31
234.647	120.31
234.881	127.31
235.115	126.31
235.349	133.31
235.583	125.31
235.817	115.31
236.051	117.31
236.285	132.31
236.519	120.31
236.753	127.31
236.987	136.31
237.221	131.31
237.455	127.31
237.689	134.31
237.922	115.31
238.156	111.31
238.39	147.31
238.624	165.31
238.858	147.31
239.091	128.31
239.325	147.31
239.559	133.31
239.793	135.31
240.027	164.31
240.26	145.31
240.494	160.31
240.728	154.31
240.961	165.31
241.195	154.31
241.429	157.31
241.662	135.31
241.896	138.31
242.13	123.31
242.363	140.31
242.597	154.31
242.83	154.31
243.064	150.31
243.298	157.31
243.531	160.31
243.765	169.31
243.998	154.31
244.232	139.31
244.465	155.31
244.699	141.31
244.932	163.31
245.166	139.31
245.399	152.31
245.633	152.31
245.866	145.31
246.099	146.31
246.333	173.31
246.566	162.31
246.8	175.31
247.033	171.31
247.266	151.31
247.5	146.31
247.733	153.31
247.966	161.31
248.2	162.31
248.433	169.31
248.666	183.31
248.899	173.31
249.133	184.31
249.366	191.31
249.599	198.31
249.832	200.31
250.066	181.31
250.299	188.31
250.532	186.31
250.765	194.31
250.998	171.31
251.231	145.31
251.465	160.31
251.698	193.31
251.931	175.31
252.164	196.31
252.397	197.31
252.63	226.31
252.863	234.31
253.096	211.31
253.329	231.31
253.562	226.31
253.795	224.31
254.028	269.31
254.261	251.31
254.494	247.31
254.727	228.31
254.96	217.31
255.193	239.31
255.426	227.31
255.659	182.31
255.892	178.31
256.124	188.31
256.357	223.31
256.59	256.31
256.823	227.31
257.056	204.31
257.289	203.31
257.521	207.31
257.754	234.31
257.987	285.31
258.22	238.31
258.452	215.31
258.685	230.31
258.918	260.31
259.151	246.31
259.383	263.31
259.616	298.31
259.849	310.31
260.081	319.31
260.314	343.31
260.547	285.31
260.779	298.31
261.012	331.31
261.244	305.31
261.477	321.31
261.71	305.31
261.942	240.31
262.175	270.31
262.407	239.31
262.64	257.31
262.872	292.31
263.105	309.31
263.337	306.31
263.57	291.31
263.802	220.31
264.035	208.31
264.267	204.31
264.499	194.31
264.732	173.31
264.964	170.31
265.197	179.31
265.429	191.31
265.661	193.31
265.894	210.31
266.126	200.31
266.358	209.31
266.591	258.31
266.823	300.31
267.055	282.31
267.287	257.31
267.52	251.31
267.752	268.31
267.984	290.31
268.216	277.31
268.448	243.31
268.681	229.31
268.913	257.31
269.145	265.31
269.377	277.31
269.609	263.31
269.841	236.31
270.073	268.31
270.306	285.31
270.538	287.31
270.77	281.31
271.002	275.31
271.234	268.31
271.466	296.31
271.698	279.31
271.93	269.31
272.162	265.31
272.394	274.31
272.626	271.31
272.858	270.31
273.09	268.31
273.322	243.31
273.553	248.31
273.785	263.31
274.017	337.31
274.249	391.31
274.481	399.31
274.713	445.31
274.945	508.31
275.176	543.31
275.408	455.31
275.64	426.31
275.872	437.31
276.104	404.31
276.335	344.31
276.567	354.31
276.799	347.31
277.031	371.31
277.262	320.31
277.494	256.31
277.726	244.31
277.957	266.31
278.189	275.31
278.421	263.31
278.652	273.31
278.884	269.31
279.115	251.31
279.347	255.31
279.579	243.31
279.81	258.31
280.042	254.31
280.273	256.31
280.505	255.31
280.736	212.31
280.968	225.31
281.199	239.31
281.431	250.31
281.662	234.31
281.894	243.31
282.125	273.31
282.356	251.31
282.588	261.31
282.819	240.31
283.051	277.31
283.282	311.31
283.513	330.31
283.745	362.31
283.976	379.31
284.207	364.31
284.439	365.31
284.67	361.31
284.901	313.31
285.132	341.31
285.364	364.31
285.595	344.31
285.826	354.31
286.057	357.31
286.288	351.31
286.52	357.31
286.751	362.31
286.982	371.31
287.213	325.31
287.444	347.31
287.675	329.31
287.906	328.31
288.138	311.31
288.369	281.31
288.6	274.31
288.831	285.31
289.062	311.31
289.293	327.31
289.524	305.31
289.755	316.31
289.986	333.31
290.217	298.31
290.448	236.31
290.679	210.31
290.91	216.31
291.141	204.31
291.371	212.31
291.602	204.31
291.833	200.31
292.064	221.31
292.295	267.31
292.526	281.31
292.757	293.31
292.987	297.31
293.218	297.31
293.449	326.31
293.68	345.31
293.91	315.31
294.141	323.31
294.372	326.31
294.603	284.31
294.833	306.31
295.064	334.31
295.295	357.31
295.525	291.31
295.756	239.31
295.987	221.31
296.217	218.31
296.448	232.31
296.679	234.31
296.909	263.31
297.14	252.31
297.37	276.31
297.601	269.31
297.831	241.31
298.062	242.31
298.292	275.31
298.523	288.31
298.753	336.31
298.984	285.31
299.214	239.31
299.445	229.31
299.675	222.31
299.905	236.31
300.136	225.31
300.366	255.31
300.597	215.31
300.827	229.31
301.057	219.31
301.288	224.31
301.518	234.31
301.748	264.31
301.979	281.31
302.209	299.31
302.439	274.31
302.669	264.31
302.9	275.31
303.13	251.31
303.36	234.31
303.59	242.31
303.82	252.31
304.051	259.31
304.281	278.31
304.511	274.31
304.741	242.31
304.971	260.31
305.201	265.31
305.431	258.31
305.661	232.31
305.891	230.31
306.121	228.31
306.352	222.31
306.582	202.31
306.812	212.31
307.042	193.31
307.272	197.31
307.502	176.31
307.731	216.31
307.961	204.31
308.191	202.31
308.421	194.31
308.651	188.31
308.881	182.31
309.111	188.31
309.341	201.31
309.571	209.31
309.8	208.31
310.03	215.31
310.26	218.31
310.49	198.31
310.72	197.31
310.949	198.31
311.179	205.31
311.409	214.31
311.639	245.31
311.868	265.31
312.098	331.31
312.328	336.31
312.557	341.31
312.787	363.31
313.017	324.31
313.246	333.31
313.476	365.31
313.706	312.31
313.935	267.31
314.165	239.31
314.394	208.31
314.624	227.31
314.853	211.31
315.083	228.31
315.312	220.31
315.542	201.31
315.771	196.31
316.001	196.31
316.23	199.31
316.46	198.31
316.689	172.31
316.919	188.31
317.148	195.31
317.377	198.31
317.607	201.31
317.836	206.31
318.065	209.31
318.295	237.31
318.524	241.31
318.753	215.31
318.983	211.31
319.212	210.31
319.441	208.31
319.67	241.31
319.9	246.31
320.129	243.31
320.358	212.31
320.587	206.31
320.816	206.31
321.046	248.31
321.275	243.31
321.504	263.31
321.733	233.31
321.962	255.31
322.191	249.31
322.42	240.31
322.649	228.31
322.878	229.31
323.108	263.31
323.337	225.31
323.566	239.31
323.795	233.31
324.024	221.31
324.253	222.31
324.482	211.31
324.71	241.31
324.939	229.31
325.168	228.31
325.397	209.31
325.626	204.31
325.855	200.31
326.084	210.31
326.313	217.31
326.542	196.31
326.77	216.31
326.999	215.31
327.228	202.31
327.457	225.31
327.686	223.31
327.914	212.31
328.143	207.31
328.372	199.31
328.6	199.31
328.829	196.31
329.058	193.31
329.287	211.31
329.515	210.31
329.744	209.31
329.972	192.31
330.201	195.31
330.43	200.31
330.658	218.31
330.887	225.31
331.115	217.31
331.344	229.31
331.572	197.31
331.801	212.31
332.03	212.31
332.258	207.31
332.486	207.31
332.715	228.31
332.943	233.31
333.172	218.31
333.4	221.31
333.629	250.31
333.857	250.31
334.085	234.31
334.314	245.31
334.542	241.31
334.771	220.31
334.999	213.31
335.227	215.31
335.455	215.31
335.684	224.31
335.912	252.31
336.14	263.31
336.369	271.31
336.597	243.31
336.825	275.31
337.053	297.31
337.281	257.31
337.51	217.31
337.738	210.31
337.966	204.31
338.194	243.31
338.422	234.31
338.65	227.31
338.878	218.31
339.106	209.31
339.334	220.31
339.562	229.31
339.79	226.31
340.018	226.31
340.246	223.31
340.474	259.31
340.702	253.31
340.93	272.31
341.158	265.31
341.386	252.31
341.614	237.31
341.842	229.31
342.07	244.31
342.298	265.31
342.526	289.31
342.754	252.31
342.981	234.31
343.209	225.31
343.437	234.31
343.665	253.31
343.893	280.31
344.12	294.31
344.348	331.31
344.576	293.31
344.804	254.31
345.031	239.31
345.259	205.31
345.487	218.31
345.714	225.31
345.942	225.31
346.17	254.31
346.397	247.31
346.625	229.31
346.853	226.31
347.08	199.31
347.308	228.31
347.535	244.31
347.763	261.31
347.99	231.31
348.218	231.31
348.445	226.31
348.673	232.31
348.9	215.31
349.128	232.31
349.355	232.31
349.583	221.31
349.81	221.31
350.037	215.31
350.265	227.31
350.492	189.31
350.72	209.31
350.947	212.31
351.174	197.31
351.402	206.31
351.629	228.31
351.856	216.31
352.083	211.31
352.311	228.31
352.538	227.31
352.765	229.31
352.992	234.31
353.22	217.31
353.447	221.31
353.674	223.31
353.901	212.31
354.128	202.31
354.355	207.31
354.583	228.31
354.81	239.31
355.037	230.31
355.264	230.31
355.491	220.31
355.718	245.31
355.945	251.31
356.172	250.31
356.399	229.31
356.626	282.31
356.853	314.31
357.08	344.31
357.307	348.31
357.534	288.31
357.761	287.31
357.988	348.31
358.215	377.31
358.441	333.31
358.668	321.31
358.895	304.31
359.122	270.31
359.349	275.31
359.576	313.31
359.802	258.31
360.029	240.31
360.256	240.31
360.483	276.31
360.709	325.31
360.936	330.31
361.163	287.31
361.39	231.31
361.616	237.31
361.843	247.31
362.07	265.31
362.296	269.31
362.523	220.31
362.749	209.31
362.976	228.31
363.203	239.31
363.429	247.31
363.656	248.31
363.882	235.31
364.109	218.31
364.335	210.31
364.562	220.31
364.788	235.31
365.015	255.31
365.241	242.31
365.468	212.31
365.694	207.31
365.92	201.31
366.147	197.31
366.373	195.31
366.599	215.31
366.826	180.31
367.052	206.31
367.278	209.31
367.505	192.31
367.731	205.31
367.957	220.31
368.184	229.31
368.41	233.31
368.636	228.31
368.862	233.31
369.089	218.31
369.315	209.31
369.541	201.31
369.767	203.31
369.993	199.31
370.219	213.31
370.445	204.31
370.672	237.31
370.898	241.31
371.124	253.31
371.35	219.31
371.576	200.31
371.802	241.31
372.028	257.31
372.254	282.31
372.48	258.31
372.706	241.31
372.932	251.31
373.158	225.31
373.384	285.31
373.61	315.31
373.835	338.31
374.061	292.31
374.287	243.31
374.513	296.31
374.739	320.31
374.965	331.31
375.191	331.31
375.416	249.31
375.642	256.31
375.868	265.31
376.094	292.31
376.319	237.31
376.545	273.31
376.771	278.31
376.997	230.31
377.222	225.31
377.448	204.31
377.674	195.31
377.899	194.31
378.125	187.31
378.35	200.31
378.576	191.31
378.802	206.31
379.027	230.31
379.253	216.31
379.478	213.31
379.704	224.31
379.929	227.31
380.155	242.31
380.38	231.31
380.606	227.31
380.831	257.31
381.057	239.31
381.282	217.31
381.507	248.31
381.733	307.31
381.958	310.31
382.184	317.31
382.409	336.31
382.634	340.31
382.86	339.31
383.085	300.31
383.31	266.31
383.535	290.31
383.761	258.31
383.986	266.31
384.211	304.31
384.436	282.31
384.662	253.31
384.887	238.31
385.112	221.31
385.337	232.31
385.562	221.31
385.787	255.31
386.013	269.31
386.238	301.31
386.463	262.31
386.688	243.31
386.913	231.31
387.138	218.31
387.363	231.31
387.588	227.31
387.813	228.31
388.038	263.31
388.263	243.31
388.488	221.31
388.713	253.31
388.938	284.31
389.163	242.31
389.387	221.31
389.612	225.31
389.837	228.31
390.062	214.31
390.287	242.31
390.512	227.31
390.736	235.31
390.961	206.31
391.186	203.31
391.411	209.31
391.636	224.31
391.86	227.31
392.085	249.31
392.31	247.31
392.534	264.31
392.759	239.31
392.984	254.31
393.208	243.31
393.433	218.31
393.658	211.31
393.882	195.31
394.107	196.31
394.331	237.31
394.556	205.31
394.78	211.31
395.005	213.31
395.229	195.31
395.454	237.31
395.678	219.31
395.903	226.31
396.127	224.31
396.352	221.31
396.576	255.31
396.801	247.31
397.025	253.31
397.249	258.31
397.474	240.31
397.698	239.31
397.922	228.31
398.147	229.31
398.371	229.31
398.595	251.31
398.82	259.31
399.044	250.31
399.268	272.31
399.492	283.31
399.717	306.31
399.941	290.31
400.165	263.31
400.389	263.31
400.613	247.31
400.837	240.31
401.062	228.31
401.286	232.31
401.51	239.31
401.734	232.31
401.958	243.31
402.182	231.31
402.406	235.31
402.63	233.31
402.854	258.31
403.078	297.31
403.302	355.31
403.526	369.31
403.75	334.31
403.974	293.31
404.198	297.31
404.422	317.31
404.645	320.31
404.869	339.31
405.093	307.31
405.317	269.31
405.541	256.31
405.765	264.31
405.988	279.31
406.212	296.31
406.436	297.31
406.66	303.31
406.883	277.31
407.107	281.31
407.331	325.31
407.555	309.31
407.778	282.31
408.002	283.31
408.226	270.31
408.449	265.31
408.673	273.31
408.896	236.31
409.12	255.31
409.344	251.31
409.567	243.31
409.791	268.31
410.014	259.31
410.238	233.31
410.461	233.31
410.685	247.31
410.908	244.31
411.132	228.31
411.355	240.31
411.578	239.31
411.802	241.31
412.025	241.31
412.249	242.31
412.472	263.31
412.695	239.31
412.919	241.31
413.142	258.31
413.365	240.31
413.589	241.31
413.812	226.31
414.035	239.31
414.258	260.31
414.482	243.31
414.705	265.31
414.928	243.31
415.151	231.31
415.374	235.31
415.597	224.31
415.821	240.31
416.044	223.31
416.267	241.31
416.49	216.31
416.713	219.31
416.936	229.31
417.159	240.31
417.382	230.31
417.605	223.31
417.828	249.31
418.051	241.31
418.274	254.31
418.497	225.31
418.72	269.31
418.943	246.31
419.166	243.31
419.389	249.31
419.611	255.31
419.834	268.31
420.057	266.31
420.28	269.31
420.503	267.31
420.726	235.31
420.948	226.31
421.171	228.31
421.394	228.31
421.617	225.31
421.839	238.31
422.062	231.31
422.285	255.31
422.507	260.31
422.73	238.31
422.953	251.31
423.175	250.31
423.398	253.31
423.621	247.31
423.843	263.31
424.066	259.31
424.288	248.31
424.511	231.31
424.733	239.31
424.956	241.31
425.178	257.31
425.401	298.31
425.623	360.31
425.846	314.31
426.068	269.31
426.291	265.31
426.513	234.31
426.735	245.31
426.958	240.31
427.18	262.31
427.402	344.31
427.625	354.31
427.847	313.31
428.069	252.31
428.292	249.31
428.514	218.31
428.736	232.31
428.958	252.31
429.181	290.31
429.403	255.31
429.625	232.31
429.847	223.31
430.069	237.31
430.292	237.31
430.514	222.31
430.736	237.31
430.958	279.31
431.18	262.31
431.402	223.31
431.624	218.31
431.846	216.31
432.068	221.31
432.29	205.31
432.512	225.31
432.734	266.31
432.956	258.31
433.178	241.31
433.4	221.31
433.622	225.31
433.844	230.31
434.066	252.31
434.287	253.31
434.509	233.31
434.731	255.31
434.953	237.31
435.175	253.31
435.397	269.31
435.618	231.31
435.84	211.31
436.062	214.31
436.284	217.31
436.505	209.31
436.727	204.31
436.949	222.31
437.17	223.31
437.392	215.31
437.614	207.31
437.835	225.31
438.057	218.31
438.278	249.31
438.5	298.31
438.721	299.31
438.943	245.31
439.165	206.31
439.386	209.31
439.608	224.31
439.829	219.31
440.05	207.31
440.272	237.31
440.493	247.31
440.715	281.31
440.936	249.31
441.158	225.31
441.379	224.31
441.6	253.31
441.822	268.31
442.043	245.31
442.264	229.31
442.486	226.31
442.707	231.31
442.928	224.31
443.149	214.31
443.371	236.31
443.592	248.31
443.813	253.31
444.034	237.31
444.255	250.31
444.476	262.31
444.698	261.31
444.919	273.31
445.14	327.31
445.361	309.31
445.582	261.31
445.803	251.31
446.024	262.31
446.245	223.31
446.466	244.31
446.687	227.31
446.908	242.31
447.129	204.31
447.35	218.31
447.571	210.31
447.792	208.31
448.013	193.31
448.234	207.31
448.455	202.31
448.675	210.31
448.896	212.31
449.117	199.31
449.338	207.31
449.559	221.31
449.779	228.31
450	230.31
450.221	220.31
450.442	215.31
450.662	224.31
450.883	223.31
451.104	217.31
451.324	224.31
451.545	230.31
451.766	225.31
451.986	191.31
452.207	195.31
452.428	204.31
452.648	193.31
452.869	209.31
453.089	230.31
453.31	215.31
453.53	214.31
453.751	213.31
453.971	240.31
454.192	210.31
454.412	206.31
454.633	199.31
454.853	207.31
455.073	210.31
455.294	186.31
455.514	197.31
455.734	217.31
455.955	205.31
456.175	223.31
456.395	190.31
456.616	195.31
456.836	192.31
457.056	190.31
457.276	193.31
457.497	207.31
457.717	197.31
457.937	186.31
458.157	205.31
458.377	207.31
458.598	190.31
458.818	191.31
459.038	217.31
459.258	225.31
459.478	226.31
459.698	233.31
459.918	229.31
460.138	239.31
460.358	221.31
460.578	226.31
460.798	235.31
461.018	244.31
461.238	239.31
461.458	238.31
461.678	243.31
461.898	243.31
462.118	233.31
462.338	251.31
462.558	243.31
462.777	273.31
462.997	281.31
463.217	309.31
463.437	305.31
463.657	257.31
463.876	273.31
464.096	265.31
464.316	272.31
464.536	289.31
464.755	282.31
464.975	279.31
465.195	274.31
465.414	274.31
465.634	250.31
465.854	234.31
466.073	224.31
466.293	221.31
466.512	237.31
466.732	255.31
466.951	253.31
467.171	240.31
467.391	229.31
467.61	228.31
467.829	224.31
468.049	232.31
468.268	219.31
468.488	208.31
468.707	222.31
468.927	249.31
469.146	273.31
469.365	246.31
469.585	219.31
469.804	247.31
470.023	277.31
470.243	243.31
470.462	238.31
470.681	243.31
470.901	255.31
471.12	246.31
471.339	244.31
471.558	229.31
471.777	241.31
471.997	241.31
472.216	259.31
472.435	252.31
472.654	236.31
472.873	241.31
473.092	250.31
473.311	249.31
473.53	235.31
473.749	221.31
473.968	234.31
474.187	237.31
474.406	226.31
474.625	232.31
474.844	230.31
475.063	248.31
475.282	243.31
475.501	268.31
475.72	277.31
475.939	258.31
476.158	252.31
476.377	313.31
476.596	322.31
476.814	343.31
477.033	291.31
477.252	259.31
477.471	235.31
477.69	238.31
477.908	252.31
478.127	290.31
478.346	270.31
478.564	285.31
478.783	281.31
479.002	275.31
479.22	303.31
479.439	317.31
479.658	274.31
479.876	271.31
480.095	297.31
480.313	283.31
480.532	278.31
480.751	291.31
480.969	264.31
481.188	286.31
481.406	305.31
481.624	269.31
481.843	262.31
482.061	246.31
482.28	282.31
482.498	332.31
482.717	326.31
482.935	284.31
483.153	256.31
483.372	246.31
483.59	250.31
483.808	241.31
484.027	267.31
484.245	252.31
484.463	248.31
484.681	256.31
484.9	255.31
485.118	278.31
485.336	264.31
485.554	257.31
485.772	261.31
485.99	277.31
486.209	282.31
486.427	301.31
486.645	279.31
486.863	296.31
487.081	266.31
487.299	304.31
487.517	289.31
487.735	271.31
487.953	291.31
488.171	275.31
488.389	275.31
488.607	261.31
488.825	272.31
489.043	287.31
489.261	310.31
489.479	316.31
489.696	260.31
489.914	276.31
490.132	275.31
490.35	267.31
490.568	252.31
490.786	262.31
491.003	265.31
491.221	269.31
491.439	277.31
491.657	273.31
491.874	281.31
492.092	313.31
492.31	352.31
492.527	370.31
492.745	319.31
492.963	290.31
493.18	285.31
493.398	284.31
493.615	298.31
493.833	291.31
494.05	284.31
494.268	285.31
494.485	273.31
494.703	277.31
494.92	280.31
495.138	282.31
495.355	277.31
495.573	280.31
495.79	295.31
496.008	361.31
496.225	292.31
496.442	301.31
496.66	292.31
496.877	306.31
497.094	299.31
497.312	279.31
497.529	320.31
497.746	300.31
497.963	309.31
498.181	326.31
498.398	335.31
498.615	332.31
498.832	379.31
499.049	367.31
499.267	350.31
499.484	385.31
499.701	413.31
499.918	454.31
500.135	488.31
500.352	551.31
500.569	567.31
500.786	569.31
501.003	530.31
501.22	482.31
501.437	455.31
501.654	399.31
501.871	384.31
502.088	343.31
502.305	346.31
502.522	354.31
