Data from NickelSpatula.Lamp.E10.P2_HRD10591_11-59-24-525.txt Node
Date: Tue Jul 23 11:59:24 EDT 2019
User: cochatt
Spectrometer: HR+D1059
Trigger mode: 1
Integration Time (sec): 1.000000E-1
Scans to average: 1
Electric dark correction enabled: true
Nonlinearity correction enabled: false
Boxcar width: 0
XAxis mode: Wavelengths
Number of Pixels in Spectrum: 2048
>>>>>Begin Spectral Data<<<<<
223.165	0.06
223.4	0.06
223.635	0.06
223.869	-20.94
224.104	-12.94
224.338	-13.94
224.573	-16.94
224.808	-6.94
225.042	-8.94
225.277	-12.94
225.511	-2.94
225.746	6.06
225.98	14.06
226.215	-5.94
226.449	10.06
226.683	16.06
226.918	26.06
227.152	30.06
227.387	49.06
227.621	27.06
227.856	54.06
228.09	60.06
228.324	67.06
228.559	63.06
228.793	91.06
229.027	142.06
229.262	167.06
229.496	181.06
229.73	180.06
229.964	196.06
230.199	220.06
230.433	213.06
230.667	220.06
230.901	212.06
231.136	213.06
231.37	228.06
231.604	248.06
231.838	252.06
232.072	270.06
232.306	237.06
232.541	262.06
232.775	245.06
233.009	282.06
233.243	303.06
233.477	307.06
233.711	345.06
233.945	333.06
234.179	318.06
234.413	359.06
234.647	393.06
234.881	471.06
235.115	429.06
235.349	402.06
235.583	356.06
235.817	358.06
236.051	379.06
236.285	423.06
236.519	472.06
236.753	440.06
236.987	446.06
237.221	402.06
237.455	436.06
237.689	441.06
237.922	462.06
238.156	486.06
238.39	582.06
238.624	654.06
238.858	602.06
239.091	494.06
239.325	521.06
239.559	469.06
239.793	553.06
240.027	651.06
240.26	616.06
240.494	585.06
240.728	593.06
240.961	697.06
241.195	647.06
241.429	653.06
241.662	605.06
241.896	536.06
242.13	478.06
242.363	462.06
242.597	465.06
242.83	529.06
243.064	540.06
243.298	579.06
243.531	633.06
243.765	657.06
243.998	669.06
244.232	629.06
244.465	621.06
244.699	577.06
244.932	667.06
245.166	651.06
245.399	545.06
245.633	537.06
245.866	590.06
246.099	612.06
246.333	732.06
246.566	773.06
246.8	761.06
247.033	737.06
247.266	693.06
247.5	689.06
247.733	696.06
247.966	649.06
248.2	691.06
248.433	777.06
248.666	838.06
248.899	843.06
249.133	858.06
249.366	1010.06
249.599	1063.06
249.832	953.06
250.066	835.06
250.299	861.06
250.532	850.06
250.765	802.06
250.998	733.06
251.231	741.06
251.465	780.06
251.698	830.06
251.931	805.06
252.164	836.06
252.397	955.06
252.63	1065.06
252.863	1162.06
253.096	1244.06
253.329	1164.06
253.562	1118.06
253.795	1236.06
254.028	1393.06
254.261	1397.06
254.494	1237.06
254.727	1168.06
254.96	1122.06
255.193	1183.06
255.426	1130.06
255.659	841.06
255.892	777.06
256.124	889.06
256.357	1073.06
256.59	1209.06
256.823	1135.06
257.056	957.06
257.289	915.06
257.521	975.06
257.754	1150.06
257.987	1289.06
258.22	1119.06
258.452	1003.06
258.685	1173.06
258.918	1274.06
259.151	1227.06
259.383	1308.06
259.616	1496.06
259.849	1563.06
260.081	1733.06
260.314	1917.06
260.547	1473.06
260.779	1460.06
261.012	1714.06
261.244	1644.06
261.477	1635.06
261.71	1486.06
261.942	1300.06
262.175	1296.06
262.407	1234.06
262.64	1296.06
262.872	1524.06
263.105	1671.06
263.337	1738.06
263.57	1512.06
263.802	1022.06
264.035	921.06
264.267	874.06
264.499	786.06
264.732	722.06
264.964	691.06
265.197	702.06
265.429	775.06
265.661	845.06
265.894	874.06
266.126	931.06
266.358	1043.06
266.591	1246.06
266.823	1502.06
267.055	1406.06
267.287	1229.06
267.52	1238.06
267.752	1319.06
267.984	1445.06
268.216	1392.06
268.448	1118.06
268.681	1128.06
268.913	1173.06
269.145	1303.06
269.377	1285.06
269.609	1296.06
269.841	1236.06
270.073	1307.06
270.306	1336.06
270.538	1371.06
270.77	1422.06
271.002	1393.06
271.234	1472.06
271.466	1507.06
271.698	1468.06
271.93	1389.06
272.162	1461.06
272.394	1443.06
272.626	1414.06
272.858	1441.06
273.09	1475.06
273.322	1329.06
273.553	1295.06
273.785	1535.06
274.017	1985.06
274.249	2458.06
274.481	2502.06
274.713	2749.06
274.945	3158.06
275.176	3267.06
275.408	2892.06
275.64	2608.06
275.872	2631.06
276.104	2192.06
276.335	1923.06
276.567	1907.06
276.799	1961.06
277.031	2059.06
277.262	1619.06
277.494	1266.06
277.726	1198.06
277.957	1306.06
278.189	1507.06
278.421	1477.06
278.652	1442.06
278.884	1382.06
279.115	1282.06
279.347	1221.06
279.579	1213.06
279.81	1219.06
280.042	1225.06
280.273	1254.06
280.505	1154.06
280.736	997.06
280.968	994.06
281.199	1078.06
281.431	1251.06
281.662	1211.06
281.894	1150.06
282.125	1235.06
282.356	1359.06
282.588	1367.06
282.819	1251.06
283.051	1382.06
283.282	1685.06
283.513	1920.06
283.745	2177.06
283.976	2159.06
284.207	1977.06
284.439	2063.06
284.67	2034.06
284.901	1777.06
285.132	1945.06
285.364	2045.06
285.595	1862.06
285.826	2003.06
286.057	2045.06
286.288	1960.06
286.52	1943.06
286.751	2093.06
286.982	2103.06
287.213	1826.06
287.444	1739.06
287.675	1812.06
287.906	1813.06
288.138	1532.06
288.369	1356.06
288.6	1288.06
288.831	1323.06
289.062	1566.06
289.293	1697.06
289.524	1614.06
289.755	1595.06
289.986	1639.06
290.217	1426.06
290.448	1125.06
290.679	949.06
290.91	903.06
291.141	928.06
291.371	988.06
291.602	979.06
291.833	991.06
292.064	1062.06
292.295	1231.06
292.526	1413.06
292.757	1447.06
292.987	1539.06
293.218	1548.06
293.449	1627.06
293.68	1663.06
293.91	1609.06
294.141	1590.06
294.372	1521.06
294.603	1446.06
294.833	1582.06
295.064	1846.06
295.295	1711.06
295.525	1319.06
295.756	1152.06
295.987	1032.06
296.217	998.06
296.448	1083.06
296.679	1107.06
296.909	1253.06
297.14	1322.06
297.37	1411.06
297.601	1358.06
297.831	1128.06
298.062	1276.06
298.292	1447.06
298.523	1567.06
298.753	1821.06
298.984	1590.06
299.214	1245.06
299.445	1089.06
299.675	1048.06
299.905	1050.06
300.136	1082.06
300.366	1184.06
300.597	1158.06
300.827	1039.06
301.057	988.06
301.288	1027.06
301.518	1108.06
301.748	1253.06
301.979	1318.06
302.209	1448.06
302.439	1464.06
302.669	1225.06
302.9	1243.06
303.13	1144.06
303.36	1115.06
303.59	1070.06
303.82	1121.06
304.051	1256.06
304.281	1346.06
304.511	1282.06
304.741	1106.06
304.971	1182.06
305.201	1302.06
305.431	1211.06
305.661	1080.06
305.891	1057.06
306.121	1070.06
306.352	964.06
306.582	895.06
306.812	845.06
307.042	881.06
307.272	815.06
307.502	805.06
307.731	891.06
307.961	926.06
308.191	875.06
308.421	815.06
308.651	810.06
308.881	777.06
309.111	770.06
309.341	822.06
309.571	897.06
309.8	959.06
310.03	956.06
310.26	1025.06
310.49	971.06
310.72	859.06
310.949	869.06
311.179	909.06
311.409	933.06
311.639	1074.06
311.868	1357.06
312.098	1797.06
312.328	1944.06
312.557	1897.06
312.787	1895.06
313.017	1634.06
313.246	1803.06
313.476	1973.06
313.706	1605.06
313.935	1286.06
314.165	1045.06
314.394	949.06
314.624	960.06
314.853	1039.06
315.083	1043.06
315.312	1032.06
315.542	1029.06
315.771	943.06
316.001	873.06
316.23	860.06
316.46	856.06
316.689	893.06
316.919	891.06
317.148	911.06
317.377	846.06
317.607	890.06
317.836	961.06
318.065	1144.06
318.295	1246.06
318.524	1155.06
318.753	992.06
318.983	899.06
319.212	924.06
319.441	1023.06
319.67	1155.06
319.9	1213.06
320.129	1151.06
320.358	990.06
320.587	967.06
320.816	1012.06
321.046	1198.06
321.275	1335.06
321.504	1365.06
321.733	1286.06
321.962	1249.06
322.191	1147.06
322.42	1119.06
322.649	1142.06
322.878	1244.06
323.108	1237.06
323.337	1106.06
323.566	1088.06
323.795	1086.06
324.024	996.06
324.253	1013.06
324.482	993.06
324.71	1084.06
324.939	1246.06
325.168	1169.06
325.397	931.06
325.626	926.06
325.855	956.06
326.084	948.06
326.313	890.06
326.542	837.06
326.77	866.06
326.999	907.06
327.228	954.06
327.457	1036.06
327.686	1045.06
327.914	892.06
328.143	854.06
328.372	829.06
328.6	843.06
328.829	904.06
329.058	905.06
329.287	900.06
329.515	902.06
329.744	890.06
329.972	840.06
330.201	805.06
330.43	866.06
330.658	981.06
330.887	1068.06
331.115	1030.06
331.344	998.06
331.572	964.06
331.801	876.06
332.03	866.06
332.258	912.06
332.486	961.06
332.715	969.06
332.943	906.06
333.172	897.06
333.4	954.06
333.629	1021.06
333.857	1140.06
334.085	1089.06
334.314	1109.06
334.542	1064.06
334.771	989.06
334.999	955.06
335.227	951.06
335.455	925.06
335.684	1045.06
335.912	1185.06
336.14	1304.06
336.369	1274.06
336.597	1224.06
336.825	1374.06
337.053	1543.06
337.281	1244.06
337.51	1002.06
337.738	988.06
337.966	1068.06
338.194	1208.06
338.422	1099.06
338.65	951.06
338.878	852.06
339.106	912.06
339.334	1031.06
339.562	1114.06
339.79	1009.06
340.018	957.06
340.246	1086.06
340.474	1230.06
340.702	1288.06
340.93	1342.06
341.158	1317.06
341.386	1099.06
341.614	1156.06
341.842	1132.06
342.07	1171.06
342.298	1335.06
342.526	1419.06
342.754	1168.06
342.981	1128.06
343.209	1051.06
343.437	1129.06
343.665	1205.06
343.893	1192.06
344.12	1370.06
344.348	1644.06
344.576	1403.06
344.804	1205.06
345.031	1059.06
345.259	1003.06
345.487	1010.06
345.714	1033.06
345.942	1109.06
346.17	1212.06
346.397	1144.06
346.625	991.06
346.853	1012.06
347.08	941.06
347.308	1001.06
347.535	1132.06
347.763	1167.06
347.99	981.06
348.218	923.06
348.445	963.06
348.673	985.06
348.9	968.06
349.128	1064.06
349.355	1097.06
349.583	1068.06
349.81	994.06
350.037	958.06
350.265	864.06
350.492	797.06
350.72	796.06
350.947	853.06
351.174	883.06
351.402	972.06
351.629	1015.06
351.856	941.06
352.083	907.06
352.311	997.06
352.538	1110.06
352.765	1186.06
352.992	1068.06
353.22	966.06
353.447	1019.06
353.674	979.06
353.901	971.06
354.128	1000.06
354.355	1020.06
354.583	996.06
354.81	986.06
355.037	1004.06
355.264	998.06
355.491	1102.06
355.718	1165.06
355.945	1152.06
356.172	1110.06
356.399	1108.06
356.626	1358.06
356.853	1688.06
357.08	1763.06
357.307	1773.06
357.534	1403.06
357.761	1400.06
357.988	1805.06
358.215	2080.06
358.441	1955.06
358.668	1682.06
358.895	1535.06
359.122	1233.06
359.349	1277.06
359.576	1333.06
359.802	1137.06
360.029	970.06
360.256	1035.06
360.483	1296.06
360.709	1660.06
360.936	1705.06
361.163	1482.06
361.39	1133.06
361.616	1049.06
361.843	1239.06
362.07	1543.06
362.296	1415.06
362.523	1084.06
362.749	958.06
362.976	997.06
363.203	1183.06
363.429	1367.06
363.656	1112.06
363.882	999.06
364.109	1030.06
364.335	1003.06
364.562	971.06
364.788	1127.06
365.015	1333.06
365.241	1203.06
365.468	980.06
365.694	862.06
365.92	830.06
366.147	792.06
366.373	782.06
366.599	811.06
366.826	820.06
367.052	838.06
367.278	839.06
367.505	791.06
367.731	939.06
367.957	1024.06
368.184	1055.06
368.41	1013.06
368.636	1031.06
368.862	1056.06
369.089	1034.06
369.315	932.06
369.541	903.06
369.767	874.06
369.993	877.06
370.219	886.06
370.445	945.06
370.672	1036.06
370.898	1122.06
371.124	1089.06
371.35	955.06
371.576	920.06
371.802	1002.06
372.028	1208.06
372.254	1361.06
372.48	1175.06
372.706	1063.06
372.932	1071.06
373.158	1168.06
373.384	1381.06
373.61	1845.06
373.835	1857.06
374.061	1386.06
374.287	1166.06
374.513	1408.06
374.739	1656.06
374.965	1747.06
375.191	1708.06
375.416	1184.06
375.642	1014.06
375.868	1199.06
376.094	1341.06
376.319	1187.06
376.545	1351.06
376.771	1367.06
376.997	1127.06
377.222	873.06
377.448	778.06
377.674	749.06
377.899	765.06
378.125	779.06
378.35	753.06
378.576	793.06
378.802	871.06
379.027	939.06
379.253	907.06
379.478	940.06
379.704	1047.06
379.929	1117.06
380.155	1068.06
380.38	963.06
380.606	1003.06
380.831	1132.06
381.057	992.06
381.282	999.06
381.507	1198.06
381.733	1475.06
381.958	1582.06
382.184	1681.06
382.409	1717.06
382.634	1661.06
382.86	1803.06
383.085	1453.06
383.31	1157.06
383.535	1229.06
383.761	1239.06
383.986	1196.06
384.211	1422.06
384.436	1366.06
384.662	1057.06
384.887	1010.06
385.112	1027.06
385.337	1034.06
385.562	1023.06
385.787	1142.06
386.013	1241.06
386.238	1303.06
386.463	1037.06
386.688	1010.06
386.913	962.06
387.138	909.06
387.363	975.06
387.588	1023.06
387.813	1002.06
388.038	1108.06
388.263	1015.06
388.488	1013.06
388.713	1128.06
388.938	1230.06
389.163	1037.06
389.387	911.06
389.612	950.06
389.837	979.06
390.062	959.06
390.287	1011.06
390.512	1033.06
390.736	972.06
390.961	901.06
391.186	865.06
391.411	843.06
391.636	884.06
391.86	945.06
392.085	1025.06
392.31	1007.06
392.534	981.06
392.759	950.06
392.984	1016.06
393.208	971.06
393.433	917.06
393.658	823.06
393.882	815.06
394.107	753.06
394.331	799.06
394.556	797.06
394.78	824.06
395.005	849.06
395.229	877.06
395.454	884.06
395.678	925.06
395.903	923.06
396.127	901.06
396.352	878.06
396.576	993.06
396.801	999.06
397.025	1109.06
397.249	1142.06
397.474	937.06
397.698	961.06
397.922	992.06
398.147	928.06
398.371	930.06
398.595	989.06
398.82	975.06
399.044	976.06
399.268	1007.06
399.492	1052.06
399.717	1080.06
399.941	1118.06
400.165	1087.06
400.389	1031.06
400.613	1045.06
400.837	1036.06
401.062	961.06
401.286	910.06
401.51	916.06
401.734	911.06
401.958	905.06
402.182	908.06
402.406	915.06
402.63	917.06
402.854	932.06
403.078	1075.06
403.302	1326.06
403.526	1344.06
403.75	1179.06
403.974	1093.06
404.198	1065.06
404.422	1255.06
404.645	1455.06
404.869	1583.06
405.093	1187.06
405.317	1005.06
405.541	977.06
405.765	1026.06
405.988	1039.06
406.212	1106.06
406.436	1331.06
406.66	1430.06
406.883	1140.06
407.107	1185.06
407.331	1382.06
407.555	1326.06
407.778	1090.06
408.002	1035.06
408.226	1080.06
408.449	1067.06
408.673	1040.06
408.896	955.06
409.12	919.06
409.344	918.06
409.567	886.06
409.791	891.06
410.014	899.06
410.238	898.06
410.461	885.06
410.685	906.06
410.908	925.06
411.132	934.06
411.355	939.06
411.578	935.06
411.802	946.06
412.025	981.06
412.249	1000.06
412.472	952.06
412.695	963.06
412.919	956.06
413.142	986.06
413.365	1053.06
413.589	1057.06
413.812	962.06
414.035	914.06
414.258	930.06
414.482	1045.06
414.705	1095.06
414.928	912.06
415.151	889.06
415.374	907.06
415.597	935.06
415.821	956.06
416.044	893.06
416.267	858.06
416.49	871.06
416.713	851.06
416.936	853.06
417.159	881.06
417.382	895.06
417.605	917.06
417.828	906.06
418.051	927.06
418.274	932.06
418.497	941.06
418.72	927.06
418.943	1000.06
419.166	990.06
419.389	1046.06
419.611	1044.06
419.834	1054.06
420.057	1154.06
420.28	1140.06
420.503	1025.06
420.726	924.06
420.948	891.06
421.171	909.06
421.394	890.06
421.617	897.06
421.839	923.06
422.062	924.06
422.285	937.06
422.507	975.06
422.73	940.06
422.953	994.06
423.175	965.06
423.398	986.06
423.621	1038.06
423.843	1073.06
424.066	983.06
424.288	930.06
424.511	936.06
424.733	941.06
424.956	951.06
425.178	1101.06
425.401	1244.06
425.623	1402.06
425.846	1151.06
426.068	1039.06
426.291	1150.06
426.513	1038.06
426.735	968.06
426.958	1010.06
427.18	1176.06
427.402	1511.06
427.625	1498.06
427.847	1201.06
428.069	919.06
428.292	928.06
428.514	889.06
428.736	859.06
428.958	965.06
429.181	1147.06
429.403	984.06
429.625	912.06
429.847	893.06
430.069	912.06
430.292	897.06
430.514	872.06
430.736	949.06
430.958	1215.06
431.18	1095.06
431.402	877.06
431.624	833.06
431.846	810.06
432.068	801.06
432.29	853.06
432.512	913.06
432.734	1217.06
432.956	1138.06
433.178	879.06
433.4	847.06
433.622	847.06
433.844	888.06
434.066	950.06
434.287	950.06
434.509	895.06
434.731	938.06
434.953	878.06
435.175	895.06
435.397	1057.06
435.618	912.06
435.84	861.06
436.062	840.06
436.284	838.06
436.505	799.06
436.727	798.06
436.949	787.06
437.17	876.06
437.392	847.06
437.614	876.06
437.835	830.06
438.057	854.06
438.278	1001.06
438.5	1437.06
438.721	1393.06
438.943	960.06
439.165	826.06
439.386	789.06
439.608	785.06
439.829	798.06
440.05	842.06
440.272	845.06
440.493	1002.06
440.715	1246.06
440.936	990.06
441.158	858.06
441.379	902.06
441.6	1010.06
441.822	1042.06
442.043	922.06
442.264	887.06
442.486	886.06
442.707	863.06
442.928	855.06
443.149	882.06
443.371	895.06
443.592	970.06
443.813	929.06
444.034	910.06
444.255	923.06
444.476	955.06
444.698	965.06
444.919	966.06
445.14	1096.06
445.361	1015.06
445.582	1004.06
445.803	943.06
446.024	931.06
446.245	937.06
446.466	909.06
446.687	897.06
446.908	881.06
447.129	827.06
447.35	805.06
447.571	804.06
447.792	830.06
448.013	788.06
448.234	786.06
448.455	766.06
448.675	802.06
448.896	789.06
449.117	836.06
449.338	785.06
449.559	848.06
449.779	861.06
450	874.06
450.221	828.06
450.442	834.06
450.662	827.06
450.883	791.06
451.104	823.06
451.324	817.06
451.545	829.06
451.766	828.06
451.986	793.06
452.207	780.06
452.428	806.06
452.648	789.06
452.869	837.06
453.089	864.06
453.31	840.06
453.53	727.06
453.751	754.06
453.971	743.06
454.192	771.06
454.412	811.06
454.633	755.06
454.853	757.06
455.073	739.06
455.294	747.06
455.514	774.06
455.734	803.06
455.955	806.06
456.175	842.06
456.395	754.06
456.616	713.06
456.836	716.06
457.056	707.06
457.276	701.06
457.497	717.06
457.717	727.06
457.937	712.06
458.157	702.06
458.377	732.06
458.598	737.06
458.818	757.06
459.038	814.06
459.258	827.06
459.478	870.06
459.698	931.06
459.918	917.06
460.138	910.06
460.358	902.06
460.578	865.06
460.798	924.06
461.018	891.06
461.238	877.06
461.458	878.06
461.678	943.06
461.898	941.06
462.118	893.06
462.338	935.06
462.558	957.06
462.777	1030.06
462.997	1014.06
463.217	1007.06
463.437	1055.06
463.657	989.06
463.876	966.06
464.096	966.06
464.316	943.06
464.536	961.06
464.755	1033.06
464.975	1025.06
465.195	966.06
465.414	1019.06
465.634	947.06
465.854	917.06
466.073	879.06
466.293	872.06
466.512	936.06
466.732	1009.06
466.951	1078.06
467.171	936.06
467.391	911.06
467.61	901.06
467.829	912.06
468.049	945.06
468.268	897.06
468.488	867.06
468.707	927.06
468.927	1102.06
469.146	1171.06
469.365	1032.06
469.585	951.06
469.804	1027.06
470.023	1103.06
470.243	964.06
470.462	930.06
470.681	932.06
470.901	935.06
471.12	974.06
471.339	987.06
471.558	940.06
471.777	955.06
471.997	1013.06
472.216	1113.06
472.435	1077.06
472.654	1001.06
472.873	927.06
473.092	1013.06
473.311	1069.06
473.53	972.06
473.749	946.06
473.968	1001.06
474.187	1016.06
474.406	955.06
474.625	930.06
474.844	1004.06
475.063	1027.06
475.282	1034.06
475.501	1071.06
475.72	1130.06
475.939	1090.06
476.158	1119.06
476.377	1269.06
476.596	1463.06
476.814	1482.06
477.033	1277.06
477.252	1058.06
477.471	1013.06
477.69	991.06
477.908	1113.06
478.127	1173.06
478.346	1096.06
478.564	1157.06
478.783	1090.06
479.002	1123.06
479.22	1284.06
479.439	1444.06
479.658	1247.06
479.876	1147.06
480.095	1227.06
480.313	1235.06
480.532	1108.06
480.751	1106.06
480.969	1126.06
481.188	1258.06
481.406	1320.06
481.624	1227.06
481.843	1146.06
482.061	1086.06
482.28	1195.06
482.498	1448.06
482.717	1390.06
482.935	1194.06
483.153	1129.06
483.372	1066.06
483.59	1025.06
483.808	1053.06
484.027	1032.06
484.245	1002.06
484.463	1000.06
484.681	1046.06
484.9	1141.06
485.118	1203.06
485.336	1095.06
485.554	1056.06
485.772	1086.06
485.99	1175.06
486.209	1210.06
486.427	1221.06
486.645	1228.06
486.863	1243.06
487.081	1263.06
487.299	1377.06
487.517	1371.06
487.735	1207.06
487.953	1254.06
488.171	1281.06
488.389	1188.06
488.607	1139.06
488.825	1168.06
489.043	1304.06
489.261	1455.06
489.479	1557.06
489.696	1311.06
489.914	1203.06
490.132	1137.06
490.35	1100.06
490.568	1128.06
490.786	1132.06
491.003	1143.06
491.221	1181.06
491.439	1143.06
491.657	1150.06
491.874	1251.06
492.092	1540.06
492.31	1837.06
492.527	1811.06
492.745	1530.06
492.963	1343.06
493.18	1313.06
493.398	1276.06
493.615	1305.06
493.833	1287.06
