Data from NickelSpatula_HRD10591_16-35-49-126.txt Node
Date: Mon Jul 22 16:35:49 EDT 2019
User: cochatt
Spectrometer: HR+D1059
Trigger mode: 1
Integration Time (sec): 1.000000E-1
Scans to average: 1
Electric dark correction enabled: true
Nonlinearity correction enabled: false
Boxcar width: 0
XAxis mode: Wavelengths
Number of Pixels in Spectrum: 2048
>>>>>Begin Spectral Data<<<<<
223.165	-10.5
223.4	-10.5
223.635	-10.5
223.869	-8.5
224.104	-3.5
224.338	-16.5
224.573	-7.5
224.808	-6.5
225.042	-21.5
225.277	-10.5
225.511	12.5
225.746	1.5
225.98	-0.5
226.215	4.5
226.449	12.5
226.683	12.5
226.918	24.5
227.152	17.5
227.387	35.5
227.621	38.5
227.856	44.5
228.09	51.5
228.324	52.5
228.559	68.5
228.793	40.5
229.027	58.5
229.262	70.5
229.496	74.5
229.73	81.5
229.964	82.5
230.199	86.5
230.433	74.5
230.667	95.5
230.901	88.5
231.136	88.5
231.37	94.5
231.604	96.5
231.838	91.5
232.072	102.5
232.306	110.5
232.541	105.5
232.775	95.5
233.009	98.5
233.243	104.5
233.477	114.5
233.711	121.5
233.945	99.5
234.179	103.5
234.413	91.5
234.647	90.5
234.881	116.5
235.115	110.5
235.349	118.5
235.583	98.5
235.817	96.5
236.051	104.5
236.285	117.5
236.519	125.5
236.753	113.5
236.987	111.5
237.221	113.5
237.455	116.5
237.689	123.5
237.922	124.5
238.156	117.5
238.39	140.5
238.624	128.5
238.858	112.5
239.091	116.5
239.325	116.5
239.559	124.5
239.793	116.5
240.027	127.5
240.26	139.5
240.494	126.5
240.728	129.5
240.961	133.5
241.195	134.5
241.429	126.5
241.662	121.5
241.896	128.5
242.13	114.5
242.363	99.5
242.597	123.5
242.83	132.5
243.064	145.5
243.298	125.5
243.531	122.5
243.765	129.5
243.998	137.5
244.232	131.5
244.465	130.5
244.699	144.5
244.932	133.5
245.166	133.5
245.399	125.5
245.633	117.5
245.866	121.5
246.099	143.5
246.333	153.5
246.566	141.5
246.8	142.5
247.033	149.5
247.266	148.5
247.5	140.5
247.733	134.5
247.966	131.5
248.2	139.5
248.433	139.5
248.666	155.5
248.899	162.5
249.133	163.5
249.366	162.5
249.599	170.5
249.832	164.5
250.066	165.5
250.299	166.5
250.532	146.5
250.765	157.5
250.998	145.5
251.231	145.5
251.465	153.5
251.698	159.5
251.931	147.5
252.164	152.5
252.397	165.5
252.63	177.5
252.863	198.5
253.096	202.5
253.329	203.5
253.562	185.5
253.795	212.5
254.028	226.5
254.261	219.5
254.494	191.5
254.727	200.5
254.96	188.5
255.193	185.5
255.426	192.5
255.659	150.5
255.892	150.5
256.124	163.5
256.357	189.5
256.59	193.5
256.823	182.5
257.056	175.5
257.289	159.5
257.521	187.5
257.754	190.5
257.987	213.5
258.22	202.5
258.452	189.5
258.685	188.5
258.918	212.5
259.151	210.5
259.383	222.5
259.616	217.5
259.849	234.5
260.081	264.5
260.314	263.5
260.547	221.5
260.779	239.5
261.012	247.5
261.244	235.5
261.477	249.5
261.71	230.5
261.942	222.5
262.175	200.5
262.407	187.5
262.64	207.5
262.872	224.5
263.105	244.5
263.337	250.5
263.57	241.5
263.802	179.5
264.035	167.5
264.267	169.5
264.499	145.5
264.732	136.5
264.964	137.5
265.197	136.5
265.429	135.5
265.661	157.5
265.894	171.5
266.126	165.5
266.358	173.5
266.591	211.5
266.823	253.5
267.055	220.5
267.287	218.5
267.52	222.5
267.752	223.5
267.984	232.5
268.216	214.5
268.448	189.5
268.681	193.5
268.913	211.5
269.145	193.5
269.377	201.5
269.609	205.5
269.841	210.5
270.073	212.5
270.306	227.5
270.538	221.5
270.77	225.5
271.002	217.5
271.234	234.5
271.466	220.5
271.698	208.5
271.93	212.5
272.162	227.5
272.394	213.5
272.626	213.5
272.858	227.5
273.09	216.5
273.322	213.5
273.553	197.5
273.785	217.5
274.017	251.5
274.249	326.5
274.481	339.5
274.713	356.5
274.945	389.5
275.176	399.5
275.408	378.5
275.64	335.5
275.872	349.5
276.104	312.5
276.335	288.5
276.567	260.5
276.799	260.5
277.031	285.5
277.262	240.5
277.494	203.5
277.726	200.5
277.957	212.5
278.189	218.5
278.421	240.5
278.652	203.5
278.884	228.5
279.115	206.5
279.347	209.5
279.579	211.5
279.81	201.5
280.042	196.5
280.273	200.5
280.505	192.5
280.736	177.5
280.968	153.5
281.199	187.5
281.431	186.5
281.662	183.5
281.894	189.5
282.125	200.5
282.356	213.5
282.588	235.5
282.819	199.5
283.051	213.5
283.282	264.5
283.513	280.5
283.745	303.5
283.976	295.5
284.207	288.5
284.439	311.5
284.67	277.5
284.901	277.5
285.132	272.5
285.364	271.5
285.595	257.5
285.826	286.5
286.057	305.5
286.288	279.5
286.52	291.5
286.751	297.5
286.982	296.5
287.213	278.5
287.444	255.5
287.675	260.5
287.906	263.5
288.138	226.5
288.369	211.5
288.6	191.5
288.831	211.5
289.062	256.5
289.293	251.5
289.524	245.5
289.755	239.5
289.986	261.5
290.217	216.5
290.448	170.5
290.679	151.5
290.91	149.5
291.141	165.5
291.371	155.5
291.602	168.5
291.833	171.5
292.064	183.5
292.295	200.5
292.526	213.5
292.757	215.5
292.987	225.5
293.218	241.5
293.449	245.5
293.68	250.5
293.91	234.5
294.141	257.5
294.372	232.5
294.603	229.5
294.833	224.5
295.064	262.5
295.295	244.5
295.525	197.5
295.756	177.5
295.987	161.5
296.217	161.5
296.448	159.5
296.679	174.5
296.909	170.5
297.14	187.5
297.37	205.5
297.601	218.5
297.831	177.5
298.062	189.5
298.292	225.5
298.523	201.5
298.753	253.5
298.984	228.5
299.214	182.5
299.445	182.5
299.675	163.5
299.905	166.5
300.136	161.5
300.366	180.5
300.597	168.5
300.827	143.5
301.057	152.5
301.288	171.5
301.518	177.5
301.748	178.5
301.979	200.5
302.209	212.5
302.439	193.5
302.669	196.5
302.9	187.5
303.13	192.5
303.36	172.5
303.59	162.5
303.82	175.5
304.051	201.5
304.281	215.5
304.511	202.5
304.741	173.5
304.971	193.5
305.201	187.5
305.431	184.5
305.661	177.5
305.891	169.5
306.121	157.5
306.352	158.5
306.582	147.5
306.812	139.5
307.042	144.5
307.272	125.5
307.502	125.5
307.731	161.5
307.961	140.5
308.191	138.5
308.421	132.5
308.651	155.5
308.881	135.5
309.111	160.5
309.341	136.5
309.571	143.5
309.8	152.5
310.03	157.5
310.26	150.5
310.49	152.5
310.72	143.5
310.949	147.5
311.179	149.5
311.409	156.5
311.639	183.5
311.868	214.5
312.098	242.5
312.328	270.5
312.557	261.5
312.787	248.5
313.017	223.5
313.246	260.5
313.476	281.5
313.706	219.5
313.935	204.5
314.165	177.5
314.394	149.5
314.624	139.5
314.853	149.5
315.083	178.5
315.312	175.5
315.542	142.5
315.771	151.5
316.001	140.5
316.23	124.5
316.46	140.5
316.689	137.5
316.919	156.5
317.148	147.5
317.377	127.5
317.607	136.5
317.836	141.5
318.065	153.5
318.295	174.5
318.524	163.5
318.753	169.5
318.983	149.5
319.212	161.5
319.441	160.5
319.67	177.5
319.9	161.5
320.129	162.5
320.358	148.5
320.587	153.5
320.816	169.5
321.046	176.5
321.275	189.5
321.504	185.5
321.733	184.5
321.962	177.5
322.191	183.5
322.42	166.5
322.649	168.5
322.878	184.5
323.108	175.5
323.337	163.5
323.566	165.5
323.795	180.5
324.024	162.5
324.253	155.5
324.482	152.5
324.71	150.5
324.939	161.5
325.168	170.5
325.397	145.5
325.626	164.5
325.855	138.5
326.084	142.5
326.313	145.5
326.542	131.5
326.77	142.5
326.999	160.5
327.228	161.5
327.457	151.5
327.686	157.5
327.914	133.5
328.143	143.5
328.372	120.5
328.6	139.5
328.829	129.5
329.058	121.5
329.287	134.5
329.515	145.5
329.744	139.5
329.972	131.5
330.201	143.5
330.43	130.5
330.658	145.5
330.887	173.5
331.115	178.5
331.344	157.5
331.572	149.5
331.801	142.5
332.03	135.5
332.258	141.5
332.486	154.5
332.715	148.5
332.943	138.5
333.172	153.5
333.4	133.5
333.629	157.5
333.857	171.5
334.085	154.5
334.314	167.5
334.542	174.5
334.771	143.5
334.999	139.5
335.227	133.5
335.455	131.5
335.684	153.5
335.912	168.5
336.14	184.5
336.369	195.5
336.597	183.5
336.825	203.5
337.053	212.5
337.281	174.5
337.51	161.5
337.738	138.5
337.966	160.5
338.194	175.5
338.422	152.5
338.65	147.5
338.878	149.5
339.106	145.5
339.334	151.5
339.562	145.5
339.79	137.5
340.018	155.5
340.246	159.5
340.474	181.5
340.702	173.5
340.93	196.5
341.158	194.5
341.386	164.5
341.614	168.5
341.842	152.5
342.07	185.5
342.298	194.5
342.526	195.5
342.754	167.5
342.981	179.5
343.209	164.5
343.437	176.5
343.665	191.5
343.893	176.5
344.12	205.5
344.348	222.5
344.576	193.5
344.804	183.5
345.031	164.5
345.259	155.5
345.487	155.5
345.714	150.5
345.942	153.5
346.17	174.5
346.397	178.5
346.625	162.5
346.853	157.5
347.08	151.5
347.308	143.5
347.535	166.5
347.763	171.5
347.99	159.5
348.218	159.5
348.445	143.5
348.673	151.5
348.9	144.5
349.128	168.5
349.355	161.5
349.583	158.5
349.81	158.5
350.037	148.5
350.265	135.5
350.492	125.5
350.72	125.5
350.947	134.5
351.174	131.5
351.402	149.5
351.629	139.5
351.856	143.5
352.083	127.5
352.311	151.5
352.538	153.5
352.765	166.5
352.992	153.5
353.22	160.5
353.447	164.5
353.674	149.5
353.901	149.5
354.128	153.5
354.355	146.5
354.583	154.5
354.81	158.5
355.037	177.5
355.264	161.5
355.491	170.5
355.718	170.5
355.945	170.5
356.172	179.5
356.399	176.5
356.626	190.5
356.853	231.5
357.08	255.5
357.307	245.5
357.534	207.5
357.761	202.5
357.988	245.5
358.215	271.5
358.441	237.5
358.668	235.5
358.895	213.5
359.122	184.5
359.349	182.5
359.576	194.5
359.802	160.5
360.029	161.5
360.256	159.5
360.483	186.5
360.709	222.5
360.936	232.5
361.163	207.5
361.39	179.5
361.616	159.5
361.843	181.5
362.07	214.5
362.296	185.5
362.523	169.5
362.749	160.5
362.976	147.5
363.203	187.5
363.429	192.5
363.656	186.5
363.882	168.5
364.109	166.5
364.335	156.5
364.562	149.5
364.788	178.5
365.015	195.5
365.241	183.5
365.468	153.5
365.694	143.5
365.92	118.5
366.147	135.5
366.373	140.5
366.599	131.5
366.826	132.5
367.052	153.5
367.278	153.5
367.505	139.5
367.731	147.5
367.957	157.5
368.184	174.5
368.41	141.5
368.636	161.5
368.862	177.5
369.089	173.5
369.315	137.5
369.541	153.5
369.767	136.5
369.993	129.5
370.219	146.5
370.445	147.5
370.672	162.5
370.898	167.5
371.124	166.5
371.35	151.5
371.576	138.5
371.802	143.5
372.028	177.5
372.254	181.5
372.48	163.5
372.706	165.5
372.932	169.5
373.158	166.5
373.384	200.5
373.61	240.5
373.835	247.5
374.061	192.5
374.287	186.5
374.513	201.5
374.739	205.5
374.965	216.5
375.191	235.5
375.416	171.5
375.642	157.5
375.868	173.5
376.094	196.5
376.319	186.5
376.545	198.5
376.771	198.5
376.997	173.5
377.222	150.5
377.448	127.5
377.674	120.5
377.899	127.5
378.125	117.5
378.35	118.5
378.576	118.5
378.802	131.5
379.027	150.5
379.253	147.5
379.478	163.5
379.704	183.5
379.929	181.5
380.155	177.5
380.38	143.5
380.606	158.5
380.831	185.5
381.057	154.5
381.282	153.5
381.507	155.5
381.733	191.5
381.958	200.5
382.184	235.5
382.409	249.5
382.634	244.5
382.86	233.5
383.085	190.5
383.31	179.5
383.535	192.5
383.761	184.5
383.986	174.5
384.211	203.5
384.436	185.5
384.662	145.5
384.887	159.5
385.112	161.5
385.337	163.5
385.562	157.5
385.787	189.5
386.013	182.5
386.238	178.5
386.463	164.5
386.688	170.5
386.913	154.5
387.138	139.5
387.363	152.5
387.588	155.5
387.813	166.5
388.038	161.5
388.263	151.5
388.488	137.5
388.713	169.5
388.938	179.5
389.163	171.5
389.387	154.5
389.612	146.5
389.837	140.5
390.062	143.5
390.287	161.5
390.512	159.5
390.736	151.5
390.961	150.5
391.186	140.5
391.411	130.5
391.636	138.5
391.86	150.5
392.085	167.5
392.31	151.5
392.534	150.5
392.759	146.5
392.984	140.5
393.208	149.5
393.433	147.5
393.658	129.5
393.882	129.5
394.107	138.5
394.331	129.5
394.556	123.5
394.78	120.5
395.005	136.5
395.229	142.5
395.454	141.5
395.678	144.5
395.903	141.5
396.127	150.5
396.352	166.5
396.576	159.5
396.801	152.5
397.025	181.5
397.249	177.5
397.474	145.5
397.698	153.5
397.922	155.5
398.147	153.5
398.371	161.5
398.595	173.5
398.82	153.5
399.044	142.5
399.268	163.5
399.492	161.5
399.717	153.5
399.941	146.5
400.165	159.5
400.389	166.5
400.613	159.5
400.837	157.5
401.062	136.5
401.286	145.5
401.51	141.5
401.734	145.5
401.958	142.5
402.182	139.5
402.406	137.5
402.63	142.5
402.854	155.5
403.078	168.5
403.302	208.5
403.526	207.5
403.75	210.5
403.974	174.5
404.198	179.5
404.422	190.5
404.645	203.5
404.869	208.5
405.093	189.5
405.317	154.5
405.541	165.5
405.765	166.5
405.988	177.5
406.212	170.5
406.436	202.5
406.66	205.5
406.883	177.5
407.107	171.5
407.331	192.5
407.555	173.5
407.778	161.5
408.002	164.5
408.226	161.5
408.449	171.5
408.673	157.5
408.896	149.5
409.12	143.5
409.344	143.5
409.567	135.5
409.791	151.5
410.014	129.5
410.238	133.5
410.461	165.5
410.685	149.5
410.908	156.5
411.132	146.5
411.355	154.5
411.578	133.5
411.802	155.5
412.025	149.5
412.249	160.5
412.472	136.5
412.695	154.5
412.919	147.5
413.142	168.5
413.365	168.5
413.589	177.5
413.812	147.5
414.035	155.5
414.258	153.5
414.482	179.5
414.705	154.5
414.928	136.5
415.151	143.5
415.374	156.5
415.597	131.5
415.821	151.5
416.044	136.5
416.267	139.5
416.49	154.5
416.713	145.5
416.936	135.5
417.159	130.5
417.382	155.5
417.605	157.5
417.828	149.5
418.051	164.5
418.274	159.5
418.497	167.5
418.72	162.5
418.943	159.5
419.166	164.5
419.389	163.5
419.611	163.5
419.834	167.5
420.057	174.5
420.28	181.5
420.503	148.5
420.726	151.5
420.948	140.5
421.171	146.5
421.394	160.5
421.617	138.5
421.839	150.5
422.062	159.5
422.285	148.5
422.507	156.5
422.73	154.5
422.953	153.5
423.175	151.5
423.398	149.5
423.621	171.5
423.843	190.5
424.066	141.5
424.288	157.5
424.511	144.5
424.733	147.5
424.956	147.5
425.178	179.5
425.401	195.5
425.623	225.5
425.846	190.5
426.068	145.5
426.291	165.5
426.513	157.5
426.735	143.5
426.958	176.5
427.18	192.5
427.402	244.5
427.625	217.5
427.847	189.5
428.069	152.5
428.292	151.5
428.514	145.5
428.736	144.5
428.958	161.5
429.181	169.5
429.403	175.5
429.625	129.5
429.847	150.5
430.069	155.5
430.292	156.5
430.514	143.5
430.736	161.5
430.958	189.5
431.18	173.5
431.402	132.5
431.624	147.5
431.846	123.5
432.068	124.5
432.29	147.5
432.512	152.5
432.734	190.5
432.956	193.5
433.178	140.5
433.4	145.5
433.622	133.5
433.844	157.5
434.066	161.5
434.287	181.5
434.509	139.5
434.731	165.5
434.953	152.5
435.175	162.5
435.397	183.5
435.618	152.5
435.84	133.5
436.062	145.5
436.284	137.5
436.505	132.5
436.727	143.5
436.949	147.5
437.17	128.5
437.392	139.5
437.614	151.5
437.835	146.5
438.057	135.5
438.278	167.5
438.5	215.5
438.721	225.5
438.943	148.5
439.165	143.5
439.386	132.5
439.608	141.5
439.829	114.5
440.05	127.5
440.272	131.5
440.493	163.5
440.715	191.5
440.936	165.5
441.158	156.5
441.379	133.5
441.6	164.5
441.822	157.5
442.043	130.5
442.264	155.5
442.486	159.5
442.707	168.5
442.928	160.5
443.149	143.5
443.371	146.5
443.592	149.5
443.813	143.5
444.034	159.5
444.255	149.5
444.476	153.5
444.698	154.5
444.919	155.5
445.14	275.5
445.361	214.5
445.582	169.5
445.803	162.5
446.024	173.5
446.245	173.5
446.466	153.5
446.687	150.5
446.908	163.5
447.129	157.5
447.35	154.5
447.571	132.5
447.792	132.5
448.013	142.5
448.234	139.5
448.455	132.5
448.675	127.5
448.896	137.5
449.117	143.5
449.338	136.5
449.559	147.5
449.779	156.5
450	152.5
450.221	156.5
450.442	145.5
450.662	146.5
450.883	132.5
451.104	126.5
451.324	148.5
451.545	153.5
451.766	145.5
451.986	145.5
452.207	140.5
452.428	146.5
452.648	146.5
452.869	144.5
453.089	147.5
453.31	159.5
453.53	134.5
453.751	126.5
453.971	145.5
454.192	154.5
454.412	158.5
454.633	131.5
454.853	144.5
455.073	137.5
455.294	127.5
455.514	139.5
455.734	150.5
455.955	135.5
456.175	144.5
456.395	137.5
456.616	122.5
456.836	121.5
457.056	141.5
457.276	121.5
457.497	120.5
457.717	125.5
457.937	137.5
458.157	149.5
458.377	119.5
458.598	139.5
458.818	128.5
459.038	148.5
459.258	133.5
459.478	149.5
459.698	149.5
459.918	147.5
460.138	157.5
460.358	150.5
460.578	150.5
460.798	144.5
461.018	136.5
461.238	136.5
461.458	142.5
461.678	149.5
461.898	156.5
462.118	153.5
462.338	173.5
462.558	141.5
462.777	157.5
462.997	154.5
463.217	138.5
463.437	161.5
463.657	164.5
463.876	168.5
464.096	157.5
464.316	144.5
464.536	150.5
464.755	173.5
464.975	169.5
465.195	164.5
465.414	177.5
465.634	149.5
465.854	141.5
466.073	139.5
466.293	129.5
466.512	146.5
466.732	150.5
466.951	197.5
467.171	153.5
467.391	143.5
467.61	142.5
467.829	149.5
468.049	158.5
468.268	137.5
468.488	154.5
468.707	154.5
468.927	164.5
469.146	170.5
469.365	173.5
469.585	138.5
469.804	160.5
470.023	179.5
470.243	169.5
470.462	137.5
470.681	148.5
470.901	146.5
471.12	177.5
471.339	165.5
471.558	157.5
471.777	156.5
471.997	177.5
472.216	189.5
472.435	173.5
472.654	176.5
472.873	164.5
473.092	176.5
473.311	167.5
473.53	155.5
473.749	156.5
473.968	159.5
474.187	161.5
474.406	134.5
474.625	155.5
474.844	157.5
475.063	158.5
475.282	164.5
475.501	190.5
475.72	191.5
475.939	204.5
476.158	173.5
476.377	211.5
476.596	222.5
476.814	226.5
477.033	192.5
477.252	181.5
477.471	150.5
477.69	153.5
477.908	173.5
478.127	184.5
478.346	176.5
478.564	207.5
478.783	181.5
479.002	185.5
479.22	198.5
479.439	202.5
479.658	182.5
479.876	182.5
480.095	188.5
480.313	195.5
480.532	189.5
480.751	161.5
480.969	160.5
481.188	193.5
481.406	199.5
481.624	170.5
481.843	173.5
482.061	157.5
482.28	186.5
482.498	231.5
482.717	239.5
482.935	187.5
483.153	192.5
483.372	164.5
483.59	167.5
483.808	170.5
484.027	150.5
484.245	161.5
484.463	149.5
484.681	188.5
484.9	170.5
485.118	193.5
485.336	169.5
485.554	167.5
485.772	161.5
485.99	185.5
486.209	192.5
486.427	199.5
486.645	192.5
486.863	203.5
487.081	200.5
487.299	210.5
487.517	197.5
487.735	183.5
487.953	170.5
488.171	205.5
488.389	162.5
488.607	156.5
488.825	180.5
489.043	193.5
489.261	221.5
489.479	238.5
489.696	195.5
489.914	165.5
490.132	160.5
490.35	169.5
490.568	162.5
490.786	168.5
491.003	173.5
491.221	175.5
491.439	156.5
491.657	171.5
491.874	180.5
492.092	221.5
492.31	258.5
492.527	258.5
492.745	210.5
492.963	190.5
493.18	189.5
493.398	191.5
493.615	187.5
493.833	194.5
494.05	182.5
494.268	170.5
494.485	201.5
494.703	201.5
494.92	176.5
495.138	196.5
495.355	182.5
495.573	187.5
495.79	213.5
496.008	283.5
496.225	219.5
496.442	185.5
496.66	209.5
496.877	204.5
497.094	200.5
497.312	186.5
497.529	185.5
497.746	190.5
497.963	189.5
498.181	209.5
498.398	226.5
498.615	234.5
498.832	230.5
499.049	226.5
499.267	229.5
499.484	216.5
499.701	223.5
499.918	240.5
500.135	241.5
500.352	249.5
500.569	266.5
500.786	282.5
501.003	277.5
501.22	249.5
501.437	232.5
501.654	215.5
501.871	215.5
502.088	217.5
502.305	221.5
502.522	222.5
502.739	205.5
502.956	192.5
503.172	200.5
503.389	194.5
503.606	192.5
503.823	193.5
504.04	174.5
504.256	175.5
504.473	200.5
504.69	202.5
504.907	200.5
505.123	208.5
505.34	212.5
505.557	223.5
505.773	198.5
505.99	196.5
506.207	198.5
506.423	200.5
506.64	186.5
506.856	187.5
507.073	207.5
507.289	203.5
507.506	211.5
507.722	216.5
507.939	218.5
508.155	202.5
508.372	206.5
508.588	197.5
508.805	187.5
509.021	196.5
509.238	179.5
509.454	185.5
509.67	184.5
509.887	176.5
510.103	199.5
510.319	196.5
510.536	188.5
510.752	178.5
510.968	181.5
511.184	156.5
511.401	171.5
511.617	168.5
511.833	160.5
512.049	162.5
512.265	184.5
512.481	186.5
512.698	177.5
512.914	213.5
513.13	189.5
513.346	176.5
513.562	188.5
513.778	171.5
513.994	184.5
514.21	182.5
514.426	192.5
514.642	198.5
514.858	173.5
515.074	185.5
515.29	188.5
515.506	182.5
515.721	210.5
515.937	209.5
516.153	182.5
516.369	165.5
516.585	178.5
516.801	211.5
517.016	235.5
517.232	248.5
517.448	222.5
517.664	196.5
517.879	192.5
518.095	200.5
518.311	196.5
518.527	190.5
518.742	203.5
518.958	214.5
519.173	202.5
519.389	212.5
519.605	209.5
519.82	229.5
520.036	234.5
520.251	237.5
520.467	249.5
520.682	377.5
