Data from NickelSpatula_HRD10591_16-36-15-126.txt Node
Date: Mon Jul 22 16:36:15 EDT 2019
User: cochatt
Spectrometer: HR+D1059
Trigger mode: 1
Integration Time (sec): 1.000000E-1
Scans to average: 1
Electric dark correction enabled: true
Nonlinearity correction enabled: false
Boxcar width: 0
XAxis mode: Wavelengths
Number of Pixels in Spectrum: 2048
>>>>>Begin Spectral Data<<<<<
223.165	-7.5
223.4	-7.5
223.635	-7.5
223.869	-7.5
224.104	-27.5
224.338	-15.5
224.573	-15.5
224.808	-19.5
225.042	-3.5
225.277	2.5
225.511	5.5
225.746	1.5
225.98	0.5
226.215	10.5
226.449	15.5
226.683	26.5
226.918	14.5
227.152	19.5
227.387	40.5
227.621	52.5
227.856	40.5
228.09	45.5
228.324	43.5
228.559	45.5
228.793	57.5
229.027	72.5
229.262	90.5
229.496	83.5
229.73	72.5
229.964	79.5
230.199	83.5
230.433	84.5
230.667	86.5
230.901	89.5
231.136	91.5
231.37	85.5
231.604	108.5
231.838	88.5
232.072	96.5
232.306	85.5
232.541	97.5
232.775	88.5
233.009	95.5
233.243	105.5
233.477	98.5
233.711	101.5
233.945	114.5
234.179	98.5
234.413	96.5
234.647	85.5
234.881	107.5
235.115	102.5
235.349	111.5
235.583	92.5
235.817	97.5
236.051	118.5
236.285	96.5
236.519	121.5
236.753	95.5
236.987	105.5
237.221	106.5
237.455	99.5
237.689	119.5
237.922	120.5
238.156	122.5
238.39	120.5
238.624	123.5
238.858	117.5
239.091	96.5
239.325	112.5
239.559	93.5
239.793	107.5
240.027	122.5
240.26	114.5
240.494	121.5
240.728	115.5
240.961	133.5
241.195	119.5
241.429	115.5
241.662	126.5
241.896	122.5
242.13	117.5
242.363	125.5
242.597	108.5
242.83	115.5
243.064	107.5
243.298	134.5
243.531	116.5
243.765	133.5
243.998	112.5
244.232	107.5
244.465	102.5
244.699	113.5
244.932	129.5
245.166	121.5
245.399	120.5
245.633	126.5
245.866	135.5
246.099	123.5
246.333	141.5
246.566	138.5
246.8	147.5
247.033	123.5
247.266	133.5
247.5	114.5
247.733	133.5
247.966	125.5
248.2	128.5
248.433	127.5
248.666	148.5
248.899	125.5
249.133	142.5
249.366	145.5
249.599	163.5
249.832	152.5
250.066	132.5
250.299	146.5
250.532	154.5
250.765	141.5
250.998	120.5
251.231	127.5
251.465	127.5
251.698	152.5
251.931	142.5
252.164	134.5
252.397	149.5
252.63	163.5
252.863	178.5
253.096	176.5
253.329	156.5
253.562	157.5
253.795	186.5
254.028	179.5
254.261	188.5
254.494	179.5
254.727	173.5
254.96	148.5
255.193	157.5
255.426	167.5
255.659	145.5
255.892	138.5
256.124	148.5
256.357	156.5
256.59	185.5
256.823	165.5
257.056	166.5
257.289	151.5
257.521	163.5
257.754	173.5
257.987	185.5
258.22	172.5
258.452	154.5
258.685	164.5
258.918	192.5
259.151	173.5
259.383	184.5
259.616	205.5
259.849	217.5
260.081	217.5
260.314	221.5
260.547	197.5
260.779	190.5
261.012	196.5
261.244	220.5
261.477	213.5
261.71	188.5
261.942	176.5
262.175	170.5
262.407	189.5
262.64	158.5
262.872	182.5
263.105	202.5
263.337	192.5
263.57	193.5
263.802	161.5
264.035	158.5
264.267	149.5
264.499	126.5
264.732	129.5
264.964	120.5
265.197	124.5
265.429	132.5
265.661	138.5
265.894	139.5
266.126	151.5
266.358	163.5
266.591	181.5
266.823	193.5
267.055	216.5
267.287	173.5
267.52	170.5
267.752	191.5
267.984	195.5
268.216	167.5
268.448	148.5
268.681	160.5
268.913	172.5
269.145	204.5
269.377	180.5
269.609	187.5
269.841	170.5
270.073	188.5
270.306	184.5
270.538	196.5
270.77	196.5
271.002	198.5
271.234	200.5
271.466	214.5
271.698	185.5
271.93	199.5
272.162	200.5
272.394	193.5
272.626	186.5
272.858	198.5
273.09	176.5
273.322	160.5
273.553	161.5
273.785	190.5
274.017	229.5
274.249	268.5
274.481	268.5
274.713	269.5
274.945	322.5
275.176	320.5
275.408	293.5
275.64	281.5
275.872	268.5
276.104	278.5
276.335	237.5
276.567	219.5
276.799	240.5
277.031	230.5
277.262	188.5
277.494	183.5
277.726	158.5
277.957	171.5
278.189	194.5
278.421	187.5
278.652	194.5
278.884	176.5
279.115	158.5
279.347	172.5
279.579	163.5
279.81	165.5
280.042	183.5
280.273	175.5
280.505	170.5
280.736	138.5
280.968	171.5
281.199	164.5
281.431	173.5
281.662	165.5
281.894	174.5
282.125	148.5
282.356	183.5
282.588	194.5
282.819	162.5
283.051	196.5
283.282	217.5
283.513	228.5
283.745	254.5
283.976	270.5
284.207	259.5
284.439	243.5
284.67	230.5
284.901	216.5
285.132	235.5
285.364	240.5
285.595	230.5
285.826	241.5
286.057	252.5
286.288	227.5
286.52	227.5
286.751	236.5
286.982	244.5
287.213	234.5
287.444	209.5
287.675	228.5
287.906	233.5
288.138	192.5
288.369	184.5
288.6	186.5
288.831	186.5
289.062	219.5
289.293	216.5
289.524	225.5
289.755	219.5
289.986	216.5
290.217	186.5
290.448	162.5
290.679	152.5
290.91	149.5
291.141	149.5
291.371	163.5
291.602	160.5
291.833	153.5
292.064	170.5
292.295	182.5
292.526	182.5
292.757	193.5
292.987	206.5
293.218	205.5
293.449	192.5
293.68	231.5
293.91	203.5
294.141	217.5
294.372	201.5
294.603	197.5
294.833	194.5
295.064	242.5
295.295	204.5
295.525	180.5
295.756	157.5
295.987	148.5
296.217	145.5
296.448	148.5
296.679	153.5
296.909	159.5
297.14	160.5
297.37	187.5
297.601	169.5
297.831	150.5
298.062	162.5
298.292	186.5
298.523	197.5
298.753	231.5
298.984	222.5
299.214	161.5
299.445	166.5
299.675	136.5
299.905	160.5
300.136	151.5
300.366	141.5
300.597	144.5
300.827	143.5
301.057	146.5
301.288	143.5
301.518	158.5
301.748	167.5
301.979	180.5
302.209	163.5
302.439	154.5
302.669	174.5
302.9	169.5
303.13	166.5
303.36	165.5
303.59	150.5
303.82	141.5
304.051	160.5
304.281	178.5
304.511	173.5
304.741	148.5
304.971	148.5
305.201	163.5
305.431	163.5
305.661	136.5
305.891	150.5
306.121	146.5
306.352	139.5
306.582	126.5
306.812	136.5
307.042	135.5
307.272	131.5
307.502	131.5
307.731	134.5
307.961	147.5
308.191	136.5
308.421	124.5
308.651	122.5
308.881	125.5
309.111	133.5
309.341	129.5
309.571	121.5
309.8	152.5
310.03	136.5
310.26	141.5
310.49	135.5
310.72	139.5
310.949	148.5
311.179	134.5
311.409	142.5
311.639	162.5
311.868	178.5
312.098	222.5
312.328	234.5
312.557	219.5
312.787	212.5
313.017	226.5
313.246	221.5
313.476	224.5
313.706	200.5
313.935	179.5
314.165	152.5
314.394	136.5
314.624	133.5
314.853	149.5
315.083	140.5
315.312	146.5
315.542	154.5
315.771	143.5
316.001	122.5
316.23	138.5
316.46	140.5
316.689	122.5
316.919	130.5
317.148	141.5
317.377	124.5
317.607	126.5
317.836	135.5
318.065	165.5
318.295	168.5
318.524	152.5
318.753	147.5
318.983	127.5
319.212	129.5
319.441	142.5
319.67	148.5
319.9	152.5
320.129	156.5
320.358	149.5
320.587	128.5
320.816	132.5
321.046	161.5
321.275	165.5
321.504	168.5
321.733	156.5
321.962	168.5
322.191	173.5
322.42	141.5
322.649	136.5
322.878	163.5
323.108	149.5
323.337	152.5
323.566	153.5
323.795	138.5
324.024	140.5
324.253	143.5
324.482	145.5
324.71	145.5
324.939	169.5
325.168	139.5
325.397	127.5
325.626	133.5
325.855	138.5
326.084	140.5
326.313	128.5
326.542	131.5
326.77	125.5
326.999	132.5
327.228	132.5
327.457	133.5
327.686	151.5
327.914	118.5
328.143	125.5
328.372	116.5
328.6	135.5
328.829	133.5
329.058	128.5
329.287	135.5
329.515	135.5
329.744	121.5
329.972	125.5
330.201	123.5
330.43	123.5
330.658	141.5
330.887	140.5
331.115	151.5
331.344	135.5
331.572	148.5
331.801	135.5
332.03	131.5
332.258	122.5
332.486	150.5
332.715	148.5
332.943	122.5
333.172	129.5
333.4	120.5
333.629	146.5
333.857	170.5
334.085	153.5
334.314	163.5
334.542	147.5
334.771	127.5
334.999	130.5
335.227	152.5
335.455	142.5
335.684	148.5
335.912	168.5
336.14	170.5
336.369	177.5
336.597	158.5
336.825	165.5
337.053	193.5
337.281	157.5
337.51	149.5
337.738	150.5
337.966	147.5
338.194	155.5
338.422	161.5
338.65	155.5
338.878	136.5
339.106	132.5
339.334	143.5
339.562	145.5
339.79	127.5
340.018	149.5
340.246	138.5
340.474	156.5
340.702	166.5
340.93	168.5
341.158	169.5
341.386	153.5
341.614	151.5
341.842	131.5
342.07	153.5
342.298	184.5
342.526	169.5
342.754	144.5
342.981	144.5
343.209	131.5
343.437	161.5
343.665	156.5
343.893	152.5
344.12	204.5
344.348	185.5
344.576	186.5
344.804	171.5
345.031	146.5
345.259	148.5
345.487	139.5
345.714	163.5
345.942	137.5
346.17	155.5
346.397	161.5
346.625	153.5
346.853	143.5
347.08	123.5
347.308	138.5
347.535	162.5
347.763	139.5
347.99	141.5
348.218	137.5
348.445	136.5
348.673	138.5
348.9	132.5
349.128	141.5
349.355	149.5
349.583	153.5
349.81	150.5
350.037	146.5
350.265	131.5
350.492	139.5
350.72	112.5
350.947	115.5
351.174	149.5
351.402	123.5
351.629	126.5
351.856	128.5
352.083	145.5
352.311	131.5
352.538	138.5
352.765	148.5
352.992	128.5
353.22	143.5
353.447	155.5
353.674	146.5
353.901	140.5
354.128	143.5
354.355	141.5
354.583	148.5
354.81	136.5
355.037	152.5
355.264	156.5
355.491	155.5
355.718	158.5
355.945	156.5
356.172	156.5
356.399	143.5
356.626	176.5
356.853	177.5
357.08	200.5
357.307	192.5
357.534	180.5
357.761	168.5
357.988	197.5
358.215	205.5
358.441	216.5
358.668	188.5
358.895	182.5
359.122	155.5
359.349	168.5
359.576	178.5
359.802	156.5
360.029	142.5
360.256	140.5
360.483	162.5
360.709	195.5
360.936	188.5
361.163	165.5
361.39	155.5
361.616	142.5
361.843	169.5
362.07	169.5
362.296	178.5
362.523	150.5
362.749	121.5
362.976	136.5
363.203	157.5
363.429	149.5
363.656	154.5
363.882	146.5
364.109	137.5
364.335	132.5
364.562	132.5
364.788	150.5
365.015	161.5
365.241	147.5
365.468	118.5
365.694	126.5
365.92	125.5
366.147	128.5
366.373	121.5
366.599	130.5
366.826	129.5
367.052	115.5
367.278	124.5
367.505	130.5
367.731	128.5
367.957	135.5
368.184	139.5
368.41	143.5
368.636	142.5
368.862	144.5
369.089	138.5
369.315	139.5
369.541	128.5
369.767	126.5
369.993	132.5
370.219	125.5
370.445	123.5
370.672	122.5
370.898	137.5
371.124	171.5
371.35	146.5
371.576	123.5
371.802	142.5
372.028	144.5
372.254	169.5
372.48	152.5
372.706	129.5
372.932	150.5
373.158	166.5
373.384	138.5
373.61	206.5
373.835	196.5
374.061	166.5
374.287	152.5
374.513	176.5
374.739	180.5
374.965	193.5
375.191	188.5
375.416	144.5
375.642	155.5
375.868	143.5
376.094	158.5
376.319	151.5
376.545	154.5
376.771	184.5
376.997	155.5
377.222	118.5
377.448	119.5
377.674	132.5
377.899	114.5
378.125	117.5
378.35	125.5
378.576	120.5
378.802	126.5
379.027	130.5
379.253	132.5
379.478	141.5
379.704	150.5
379.929	141.5
380.155	146.5
380.38	137.5
380.606	158.5
380.831	155.5
381.057	155.5
381.282	141.5
381.507	165.5
381.733	168.5
381.958	180.5
382.184	188.5
382.409	192.5
382.634	199.5
382.86	187.5
383.085	180.5
383.31	152.5
383.535	148.5
383.761	151.5
383.986	142.5
384.211	188.5
384.436	176.5
384.662	145.5
384.887	153.5
385.112	151.5
385.337	163.5
385.562	141.5
385.787	148.5
386.013	169.5
386.238	162.5
386.463	152.5
386.688	150.5
386.913	125.5
387.138	138.5
387.363	128.5
387.588	134.5
387.813	131.5
388.038	164.5
388.263	142.5
388.488	141.5
388.713	147.5
388.938	166.5
389.163	141.5
389.387	133.5
389.612	124.5
389.837	136.5
390.062	138.5
390.287	142.5
390.512	143.5
390.736	149.5
390.961	145.5
391.186	142.5
391.411	140.5
391.636	136.5
391.86	123.5
392.085	146.5
392.31	153.5
392.534	138.5
392.759	149.5
392.984	164.5
393.208	147.5
393.433	133.5
393.658	130.5
393.882	124.5
394.107	123.5
394.331	142.5
394.556	126.5
394.78	135.5
395.005	132.5
395.229	131.5
395.454	137.5
395.678	136.5
395.903	142.5
396.127	126.5
396.352	127.5
396.576	130.5
396.801	141.5
397.025	172.5
397.249	156.5
397.474	159.5
397.698	137.5
397.922	153.5
398.147	160.5
398.371	150.5
398.595	154.5
398.82	150.5
399.044	148.5
399.268	150.5
399.492	147.5
399.717	152.5
399.941	150.5
400.165	143.5
400.389	146.5
400.613	145.5
400.837	142.5
401.062	143.5
401.286	134.5
401.51	145.5
401.734	138.5
401.958	141.5
402.182	144.5
402.406	136.5
402.63	136.5
402.854	149.5
403.078	174.5
403.302	169.5
403.526	200.5
403.75	189.5
403.974	168.5
404.198	152.5
404.422	183.5
404.645	189.5
404.869	178.5
405.093	165.5
405.317	132.5
405.541	143.5
405.765	163.5
405.988	140.5
406.212	166.5
406.436	184.5
406.66	184.5
406.883	164.5
407.107	155.5
407.331	169.5
407.555	160.5
407.778	151.5
408.002	155.5
408.226	141.5
408.449	152.5
408.673	141.5
408.896	147.5
409.12	149.5
409.344	141.5
409.567	134.5
409.791	131.5
410.014	147.5
410.238	140.5
410.461	138.5
410.685	134.5
410.908	155.5
411.132	161.5
411.355	160.5
411.578	155.5
411.802	140.5
412.025	139.5
412.249	142.5
412.472	137.5
412.695	138.5
412.919	151.5
413.142	148.5
413.365	153.5
413.589	157.5
413.812	137.5
414.035	142.5
414.258	157.5
414.482	143.5
414.705	150.5
414.928	136.5
415.151	136.5
415.374	124.5
415.597	155.5
415.821	135.5
416.044	142.5
416.267	139.5
416.49	142.5
416.713	131.5
416.936	139.5
417.159	138.5
417.382	139.5
417.605	144.5
417.828	146.5
418.051	139.5
418.274	133.5
418.497	155.5
418.72	136.5
418.943	152.5
419.166	156.5
419.389	143.5
419.611	143.5
419.834	173.5
420.057	169.5
420.28	166.5
420.503	149.5
420.726	133.5
420.948	144.5
421.171	139.5
421.394	150.5
421.617	152.5
421.839	132.5
422.062	134.5
422.285	124.5
422.507	143.5
422.73	145.5
422.953	147.5
423.175	144.5
423.398	131.5
423.621	150.5
423.843	159.5
424.066	163.5
424.288	154.5
424.511	144.5
424.733	146.5
424.956	147.5
425.178	164.5
425.401	165.5
425.623	184.5
425.846	161.5
426.068	154.5
426.291	147.5
426.513	157.5
426.735	132.5
426.958	152.5
427.18	164.5
427.402	183.5
427.625	188.5
427.847	180.5
428.069	145.5
428.292	144.5
428.514	142.5
428.736	142.5
428.958	143.5
429.181	181.5
429.403	156.5
429.625	148.5
429.847	142.5
430.069	140.5
430.292	136.5
430.514	133.5
430.736	142.5
430.958	178.5
431.18	147.5
431.402	144.5
431.624	130.5
431.846	149.5
432.068	138.5
432.29	136.5
432.512	161.5
432.734	168.5
432.956	176.5
433.178	126.5
433.4	137.5
433.622	145.5
433.844	146.5
434.066	167.5
434.287	146.5
434.509	148.5
434.731	147.5
434.953	132.5
435.175	133.5
435.397	164.5
435.618	133.5
435.84	136.5
436.062	136.5
436.284	133.5
436.505	135.5
436.727	125.5
436.949	122.5
437.17	138.5
437.392	134.5
437.614	124.5
437.835	134.5
438.057	146.5
438.278	156.5
438.5	179.5
438.721	167.5
438.943	140.5
439.165	121.5
439.386	124.5
439.608	117.5
439.829	121.5
440.05	129.5
440.272	124.5
440.493	136.5
440.715	167.5
440.936	162.5
441.158	138.5
441.379	141.5
441.6	163.5
441.822	173.5
442.043	150.5
442.264	144.5
442.486	150.5
442.707	143.5
442.928	132.5
443.149	134.5
443.371	142.5
443.592	133.5
443.813	141.5
444.034	146.5
444.255	148.5
444.476	145.5
444.698	142.5
444.919	142.5
445.14	278.5
445.361	232.5
445.582	164.5
445.803	157.5
446.024	146.5
446.245	163.5
446.466	141.5
446.687	148.5
446.908	147.5
447.129	141.5
447.35	136.5
447.571	121.5
447.792	125.5
448.013	130.5
448.234	137.5
448.455	141.5
448.675	135.5
448.896	136.5
449.117	125.5
449.338	136.5
449.559	151.5
449.779	147.5
450	126.5
450.221	140.5
450.442	129.5
450.662	134.5
450.883	123.5
451.104	133.5
451.324	148.5
451.545	132.5
451.766	135.5
451.986	136.5
452.207	125.5
452.428	136.5
452.648	132.5
452.869	140.5
453.089	141.5
453.31	140.5
453.53	115.5
453.751	132.5
453.971	132.5
454.192	127.5
454.412	131.5
454.633	137.5
454.853	130.5
455.073	126.5
455.294	124.5
455.514	105.5
455.734	112.5
455.955	124.5
456.175	143.5
456.395	133.5
456.616	120.5
456.836	134.5
457.056	130.5
457.276	119.5
457.497	128.5
457.717	127.5
457.937	118.5
458.157	128.5
458.377	126.5
458.598	117.5
458.818	126.5
459.038	143.5
459.258	150.5
459.478	140.5
459.698	145.5
459.918	140.5
460.138	143.5
460.358	146.5
460.578	134.5
460.798	133.5
461.018	125.5
461.238	134.5
461.458	148.5
461.678	146.5
461.898	150.5
462.118	148.5
462.338	145.5
462.558	146.5
462.777	158.5
462.997	147.5
463.217	154.5
463.437	140.5
463.657	153.5
463.876	125.5
464.096	155.5
464.316	134.5
464.536	136.5
464.755	164.5
464.975	148.5
465.195	152.5
465.414	152.5
465.634	139.5
465.854	145.5
466.073	136.5
466.293	124.5
466.512	161.5
466.732	154.5
466.951	141.5
467.171	142.5
467.391	153.5
467.61	138.5
467.829	133.5
468.049	149.5
468.268	140.5
468.488	151.5
468.707	144.5
468.927	151.5
469.146	160.5
469.365	154.5
469.585	143.5
469.804	156.5
470.023	155.5
470.243	133.5
470.462	150.5
470.681	127.5
470.901	146.5
471.12	158.5
471.339	153.5
471.558	129.5
471.777	163.5
471.997	157.5
472.216	154.5
472.435	152.5
472.654	149.5
472.873	141.5
473.092	160.5
473.311	171.5
473.53	146.5
473.749	147.5
473.968	157.5
474.187	150.5
474.406	147.5
474.625	146.5
474.844	149.5
475.063	152.5
475.282	163.5
475.501	163.5
475.72	181.5
475.939	170.5
476.158	151.5
476.377	186.5
476.596	205.5
476.814	192.5
477.033	185.5
477.252	156.5
477.471	139.5
477.69	137.5
477.908	148.5
478.127	163.5
478.346	163.5
478.564	174.5
478.783	165.5
479.002	144.5
479.22	176.5
479.439	173.5
479.658	158.5
479.876	167.5
480.095	160.5
480.313	163.5
480.532	157.5
480.751	157.5
480.969	146.5
481.188	166.5
481.406	189.5
481.624	158.5
481.843	159.5
482.061	150.5
482.28	165.5
482.498	209.5
482.717	213.5
482.935	168.5
483.153	167.5
483.372	162.5
483.59	152.5
483.808	157.5
484.027	156.5
484.245	125.5
484.463	143.5
484.681	146.5
484.9	162.5
485.118	163.5
485.336	164.5
485.554	152.5
485.772	144.5
485.99	162.5
486.209	161.5
486.427	160.5
486.645	155.5
486.863	157.5
487.081	165.5
487.299	192.5
487.517	173.5
487.735	164.5
487.953	166.5
488.171	165.5
488.389	164.5
488.607	150.5
488.825	163.5
489.043	189.5
489.261	200.5
489.479	196.5
489.696	158.5
489.914	157.5
490.132	136.5
490.35	163.5
490.568	158.5
490.786	152.5
491.003	158.5
491.221	149.5
491.439	169.5
491.657	149.5
491.874	162.5
492.092	196.5
492.31	216.5
492.527	221.5
492.745	192.5
492.963	174.5
493.18	166.5
493.398	177.5
493.615	160.5
493.833	166.5
494.05	173.5
494.268	168.5
494.485	177.5
494.703	174.5
494.92	178.5
495.138	160.5
495.355	160.5
495.573	165.5
495.79	194.5
496.008	213.5
496.225	188.5
496.442	170.5
496.66	162.5
496.877	181.5
497.094	173.5
497.312	166.5
497.529	158.5
497.746	162.5
497.963	164.5
498.181	177.5
498.398	187.5
498.615	181.5
498.832	193.5
499.049	187.5
499.267	183.5
499.484	188.5
499.701	191.5
499.918	210.5
500.135	223.5
500.352	240.5
500.569	215.5
500.786	242.5
501.003	241.5
501.22	220.5
501.437	215.5
501.654	189.5
501.871	185.5
502.088	200.5
502.305	178.5
502.522	192.5
502.739	171.5
502.956	192.5
503.172	173.5
503.389	180.5
503.606	162.5
503.823	176.5
504.04	160.5
504.256	165.5
504.473	153.5
504.69	178.5
504.907	164.5
505.123	176.5
505.34	190.5
505.557	180.5
505.773	175.5
505.99	176.5
506.207	171.5
506.423	167.5
506.64	157.5
506.856	169.5
507.073	181.5
507.289	178.5
507.506	166.5
507.722	187.5
507.939	173.5
508.155	194.5
508.372	184.5
508.588	186.5
508.805	165.5
509.021	176.5
509.238	174.5
509.454	181.5
509.67	177.5
509.887	172.5
510.103	186.5
510.319	169.5
510.536	167.5
510.752	144.5
510.968	136.5
511.184	159.5
511.401	155.5
511.617	159.5
511.833	148.5
512.049	146.5
512.265	154.5
512.481	163.5
512.698	182.5
512.914	178.5
513.13	170.5
513.346	163.5
513.562	146.5
513.778	153.5
513.994	177.5
514.21	167.5
514.426	170.5
514.642	166.5
514.858	162.5
515.074	161.5
515.29	173.5
515.506	180.5
515.721	183.5
515.937	182.5
516.153	168.5
516.369	160.5
516.585	164.5
516.801	184.5
517.016	203.5
517.232	203.5
517.448	190.5
517.664	168.5
517.879	181.5
518.095	163.5
518.311	174.5
518.527	192.5
518.742	183.5
518.958	196.5
519.173	195.5
519.389	193.5
519.605	175.5
519.82	192.5
520.036	222.5
520.251	199.5
520.467	219.5
520.682	317.5
520.898	383.5
