Data from NickelSpatula.Lamp.E10.P2_HRD10591_11-57-12-533.txt Node
Date: Tue Jul 23 11:57:12 EDT 2019
User: cochatt
Spectrometer: HR+D1059
Trigger mode: 1
Integration Time (sec): 1.000000E-1
Scans to average: 1
Electric dark correction enabled: true
Nonlinearity correction enabled: false
Boxcar width: 0
XAxis mode: Wavelengths
Number of Pixels in Spectrum: 2048
>>>>>Begin Spectral Data<<<<<
223.165	-15.44
223.4	-15.44
223.635	-15.44
223.869	-17.44
224.104	-12.44
224.338	-8.44
224.573	-20.44
224.808	-8.44
225.042	-9.44
225.277	-14.44
225.511	5.56
225.746	5.56
225.98	2.56
226.215	-0.44
226.449	19.56
226.683	20.56
226.918	27.56
227.152	25.56
227.387	24.56
227.621	29.56
227.856	36.56
228.09	41.56
228.324	39.56
228.559	54.56
228.793	79.56
229.027	147.56
229.262	157.56
229.496	140.56
229.73	157.56
229.964	183.56
230.199	213.56
230.433	208.56
230.667	192.56
230.901	193.56
231.136	196.56
231.37	202.56
231.604	215.56
231.838	233.56
232.072	245.56
232.306	247.56
232.541	246.56
232.775	231.56
233.009	269.56
233.243	281.56
233.477	300.56
233.711	340.56
233.945	321.56
234.179	326.56
234.413	344.56
234.647	383.56
234.881	463.56
235.115	399.56
235.349	391.56
235.583	345.56
235.817	349.56
236.051	368.56
236.285	416.56
236.519	456.56
236.753	428.56
236.987	419.56
237.221	408.56
237.455	415.56
237.689	407.56
237.922	431.56
238.156	453.56
238.39	533.56
238.624	647.56
238.858	568.56
239.091	483.56
239.325	491.56
239.559	473.56
239.793	528.56
240.027	663.56
240.26	601.56
240.494	585.56
240.728	600.56
240.961	669.56
241.195	612.56
241.429	610.56
241.662	592.56
241.896	522.56
242.13	482.56
242.363	440.56
242.597	435.56
242.83	526.56
243.064	552.56
243.298	570.56
243.531	605.56
243.765	631.56
243.998	600.56
244.232	598.56
244.465	568.56
244.699	590.56
244.932	643.56
245.166	624.56
245.399	561.56
245.633	514.56
245.866	549.56
246.099	588.56
246.333	686.56
246.566	773.56
246.8	765.56
247.033	700.56
247.266	656.56
247.5	666.56
247.733	668.56
247.966	649.56
248.2	685.56
248.433	738.56
248.666	837.56
248.899	813.56
249.133	819.56
249.366	945.56
249.599	1019.56
249.832	922.56
250.066	849.56
250.299	814.56
250.532	795.56
250.765	815.56
250.998	691.56
251.231	701.56
251.465	771.56
251.698	828.56
251.931	767.56
252.164	808.56
252.397	896.56
252.63	1043.56
252.863	1107.56
253.096	1165.56
253.329	1153.56
253.562	1095.56
253.795	1212.56
254.028	1311.56
254.261	1346.56
254.494	1201.56
254.727	1111.56
254.96	1107.56
255.193	1176.56
255.426	1097.56
255.659	835.56
255.892	796.56
256.124	855.56
256.357	983.56
256.59	1167.56
256.823	1086.56
257.056	934.56
257.289	903.56
257.521	927.56
257.754	1111.56
257.987	1284.56
258.22	1073.56
258.452	969.56
258.685	1166.56
258.918	1251.56
259.151	1242.56
259.383	1269.56
259.616	1456.56
259.849	1555.56
260.081	1691.56
260.314	1880.56
260.547	1479.56
260.779	1473.56
261.012	1702.56
261.244	1588.56
261.477	1640.56
261.71	1480.56
261.942	1293.56
262.175	1248.56
262.407	1216.56
262.64	1264.56
262.872	1499.56
263.105	1599.56
263.337	1659.56
263.57	1510.56
263.802	1006.56
264.035	891.56
264.267	877.56
264.499	766.56
264.732	717.56
264.964	696.56
265.197	701.56
265.429	742.56
265.661	800.56
265.894	827.56
266.126	876.56
266.358	1009.56
266.591	1203.56
266.823	1433.56
267.055	1385.56
267.287	1243.56
267.52	1236.56
267.752	1291.56
267.984	1435.56
268.216	1376.56
268.448	1125.56
268.681	1081.56
268.913	1188.56
269.145	1261.56
269.377	1320.56
269.609	1286.56
269.841	1193.56
270.073	1257.56
270.306	1347.56
270.538	1379.56
270.77	1408.56
271.002	1397.56
271.234	1451.56
271.466	1494.56
271.698	1391.56
271.93	1410.56
272.162	1395.56
272.394	1392.56
272.626	1347.56
272.858	1431.56
273.09	1410.56
273.322	1273.56
273.553	1223.56
273.785	1476.56
274.017	1921.56
274.249	2334.56
274.481	2423.56
274.713	2646.56
274.945	3088.56
275.176	3149.56
275.408	2817.56
275.64	2564.56
275.872	2533.56
276.104	2205.56
276.335	1863.56
276.567	1858.56
276.799	1947.56
277.031	1983.56
277.262	1620.56
277.494	1237.56
277.726	1166.56
277.957	1277.56
278.189	1451.56
278.421	1447.56
278.652	1399.56
278.884	1348.56
279.115	1195.56
279.347	1195.56
279.579	1204.56
279.81	1205.56
280.042	1181.56
280.273	1224.56
280.505	1094.56
280.736	976.56
280.968	1015.56
281.199	1074.56
281.431	1203.56
281.662	1182.56
281.894	1138.56
282.125	1220.56
282.356	1332.56
282.588	1373.56
282.819	1222.56
283.051	1339.56
283.282	1644.56
283.513	1915.56
283.745	2120.56
283.976	2163.56
284.207	1947.56
284.439	2101.56
284.67	1972.56
284.901	1714.56
285.132	1896.56
285.364	1983.56
285.595	1832.56
285.826	1939.56
286.057	2015.56
286.288	1893.56
286.52	1959.56
286.751	2059.56
286.982	2080.56
287.213	1801.56
287.444	1709.56
287.675	1781.56
287.906	1763.56
288.138	1533.56
288.369	1344.56
288.6	1271.56
288.831	1336.56
289.062	1535.56
289.293	1688.56
289.524	1615.56
289.755	1568.56
289.986	1600.56
290.217	1410.56
290.448	1111.56
290.679	971.56
290.91	903.56
291.141	916.56
291.371	957.56
291.602	945.56
291.833	981.56
292.064	1048.56
292.295	1174.56
292.526	1389.56
292.757	1411.56
292.987	1503.56
293.218	1514.56
293.449	1601.56
293.68	1661.56
293.91	1579.56
294.141	1608.56
294.372	1518.56
294.603	1399.56
294.833	1546.56
295.064	1795.56
295.295	1717.56
295.525	1294.56
295.756	1124.56
295.987	975.56
296.217	1005.56
296.448	1013.56
296.679	1055.56
296.909	1163.56
297.14	1276.56
297.37	1383.56
297.601	1301.56
297.831	1153.56
298.062	1209.56
298.292	1381.56
298.523	1512.56
298.753	1715.56
298.984	1546.56
299.214	1245.56
299.445	1073.56
299.675	1030.56
299.905	955.56
300.136	1020.56
300.366	1128.56
300.597	1117.56
300.827	976.56
301.057	961.56
301.288	998.56
301.518	1053.56
301.748	1199.56
301.979	1281.56
302.209	1381.56
302.439	1355.56
302.669	1208.56
302.9	1199.56
303.13	1105.56
303.36	1059.56
303.59	1027.56
303.82	1078.56
304.051	1181.56
304.281	1289.56
304.511	1255.56
304.741	1160.56
304.971	1165.56
305.201	1250.56
305.431	1167.56
305.661	1040.56
305.891	1031.56
306.121	1055.56
306.352	934.56
306.582	872.56
306.812	841.56
307.042	844.56
307.272	770.56
307.502	814.56
307.731	850.56
307.961	887.56
308.191	847.56
308.421	791.56
308.651	777.56
308.881	760.56
309.111	753.56
309.341	791.56
309.571	903.56
309.8	901.56
310.03	925.56
310.26	965.56
310.49	953.56
310.72	863.56
310.949	860.56
311.179	879.56
311.409	909.56
311.639	1049.56
311.868	1336.56
312.098	1721.56
312.328	1889.56
312.557	1804.56
312.787	1840.56
313.017	1627.56
313.246	1763.56
313.476	1907.56
313.706	1558.56
313.935	1258.56
314.165	1043.56
314.394	952.56
314.624	941.56
314.853	994.56
315.083	1032.56
315.312	977.56
315.542	981.56
315.771	936.56
316.001	863.56
316.23	862.56
316.46	811.56
316.689	825.56
316.919	864.56
317.148	865.56
317.377	876.56
317.607	847.56
317.836	926.56
318.065	1081.56
318.295	1199.56
318.524	1079.56
318.753	960.56
318.983	879.56
319.212	894.56
319.441	969.56
319.67	1075.56
319.9	1183.56
320.129	1097.56
320.358	925.56
320.587	927.56
320.816	974.56
321.046	1145.56
321.275	1238.56
321.504	1249.56
321.733	1201.56
321.962	1197.56
322.191	1089.56
322.42	1055.56
322.649	1079.56
322.878	1157.56
323.108	1137.56
323.337	1092.56
323.566	1049.56
323.795	999.56
324.024	1008.56
324.253	976.56
324.482	940.56
324.71	1005.56
324.939	1149.56
325.168	1103.56
325.397	923.56
325.626	892.56
325.855	889.56
326.084	901.56
326.313	846.56
326.542	819.56
326.77	871.56
326.999	886.56
327.228	956.56
327.457	989.56
327.686	988.56
327.914	855.56
328.143	813.56
328.372	810.56
328.6	817.56
328.829	850.56
329.058	869.56
329.287	861.56
329.515	888.56
329.744	859.56
329.972	819.56
330.201	785.56
330.43	829.56
330.658	916.56
330.887	1043.56
331.115	1056.56
331.344	1001.56
331.572	932.56
331.801	867.56
332.03	843.56
332.258	909.56
332.486	932.56
332.715	971.56
332.943	896.56
333.172	872.56
333.4	925.56
333.629	975.56
333.857	1101.56
334.085	1064.56
334.314	1078.56
334.542	1056.56
334.771	955.56
334.999	922.56
335.227	911.56
335.455	926.56
335.684	1015.56
335.912	1157.56
336.14	1306.56
336.369	1240.56
336.597	1186.56
336.825	1310.56
337.053	1511.56
337.281	1193.56
337.51	981.56
337.738	972.56
337.966	1009.56
338.194	1147.56
338.422	1088.56
338.65	934.56
338.878	868.56
339.106	864.56
339.334	983.56
339.562	1053.56
339.79	984.56
340.018	948.56
340.246	1008.56
340.474	1165.56
340.702	1195.56
340.93	1249.56
341.158	1254.56
341.386	1060.56
341.614	1096.56
341.842	1048.56
342.07	1134.56
342.298	1289.56
342.526	1356.56
342.754	1134.56
342.981	1058.56
343.209	1030.56
343.437	1107.56
343.665	1169.56
343.893	1125.56
344.12	1314.56
344.348	1567.56
344.576	1377.56
344.804	1160.56
345.031	1003.56
345.259	936.56
345.487	959.56
345.714	1000.56
345.942	1068.56
346.17	1151.56
346.397	1110.56
346.625	973.56
346.853	931.56
347.08	909.56
347.308	970.56
347.535	1071.56
347.763	1079.56
347.99	961.56
348.218	905.56
348.445	950.56
348.673	955.56
348.9	984.56
349.128	1013.56
349.355	1042.56
349.583	1025.56
349.81	977.56
350.037	906.56
350.265	803.56
350.492	792.56
350.72	799.56
350.947	813.56
351.174	873.56
351.402	930.56
351.629	936.56
351.856	911.56
352.083	861.56
352.311	925.56
352.538	999.56
352.765	1071.56
352.992	985.56
353.22	936.56
353.447	963.56
353.674	911.56
353.901	901.56
354.128	931.56
354.355	940.56
354.583	971.56
354.81	962.56
355.037	979.56
355.264	953.56
355.491	1023.56
355.718	1120.56
355.945	1061.56
356.172	1065.56
356.399	1053.56
356.626	1260.56
356.853	1509.56
357.08	1589.56
357.307	1667.56
357.534	1309.56
357.761	1306.56
357.988	1675.56
358.215	1906.56
358.441	1791.56
358.668	1512.56
358.895	1418.56
359.122	1159.56
359.349	1142.56
359.576	1262.56
359.802	1063.56
360.029	911.56
360.256	988.56
360.483	1212.56
360.709	1503.56
360.936	1544.56
361.163	1374.56
361.39	1045.56
361.616	1015.56
361.843	1173.56
362.07	1417.56
362.296	1299.56
362.523	1019.56
362.749	913.56
362.976	954.56
363.203	1148.56
363.429	1248.56
363.656	1017.56
363.882	944.56
364.109	965.56
364.335	960.56
364.562	949.56
364.788	1046.56
365.015	1239.56
365.241	1112.56
365.468	919.56
365.694	827.56
365.92	797.56
366.147	752.56
366.373	760.56
366.599	791.56
366.826	795.56
367.052	802.56
367.278	816.56
367.505	783.56
367.731	889.56
367.957	1010.56
368.184	993.56
368.41	963.56
368.636	988.56
368.862	979.56
369.089	951.56
369.315	866.56
369.541	867.56
369.767	857.56
369.993	807.56
370.219	827.56
370.445	867.56
370.672	953.56
370.898	1011.56
371.124	1056.56
371.35	925.56
371.576	866.56
371.802	925.56
372.028	1106.56
372.254	1248.56
372.48	1056.56
372.706	974.56
372.932	1051.56
373.158	1084.56
373.384	1303.56
373.61	1669.56
373.835	1753.56
374.061	1298.56
374.287	1102.56
374.513	1307.56
374.739	1517.56
374.965	1572.56
375.191	1559.56
375.416	1072.56
375.642	987.56
375.868	1157.56
376.094	1270.56
376.319	1145.56
376.545	1221.56
376.771	1270.56
376.997	1126.56
377.222	856.56
377.448	716.56
377.674	747.56
377.899	737.56
378.125	727.56
378.35	736.56
378.576	750.56
378.802	821.56
379.027	886.56
379.253	880.56
379.478	923.56
379.704	1010.56
379.929	1046.56
380.155	1018.56
380.38	911.56
380.606	952.56
380.831	1071.56
381.057	973.56
381.282	927.56
381.507	1104.56
381.733	1359.56
381.958	1417.56
382.184	1494.56
382.409	1572.56
382.634	1558.56
382.86	1629.56
383.085	1336.56
383.31	1111.56
383.535	1141.56
383.761	1151.56
383.986	1108.56
384.211	1326.56
384.436	1299.56
384.662	1003.56
384.887	968.56
385.112	1003.56
385.337	1024.56
385.562	951.56
385.787	1043.56
386.013	1148.56
386.238	1193.56
386.463	992.56
386.688	1004.56
386.913	925.56
387.138	893.56
387.363	943.56
387.588	953.56
387.813	976.56
388.038	1058.56
388.263	938.56
388.488	895.56
388.713	1087.56
388.938	1161.56
389.163	957.56
389.387	893.56
389.612	857.56
389.837	922.56
390.062	917.56
390.287	969.56
390.512	970.56
390.736	930.56
390.961	872.56
391.186	831.56
391.411	853.56
391.636	846.56
391.86	925.56
392.085	1006.56
392.31	978.56
392.534	933.56
392.759	937.56
392.984	954.56
393.208	961.56
393.433	860.56
393.658	807.56
393.882	792.56
394.107	800.56
394.331	784.56
394.556	802.56
394.78	806.56
395.005	824.56
395.229	840.56
395.454	831.56
395.678	856.56
395.903	913.56
396.127	856.56
396.352	886.56
396.576	939.56
396.801	988.56
397.025	1064.56
397.249	1092.56
397.474	891.56
397.698	891.56
397.922	908.56
398.147	895.56
398.371	919.56
398.595	940.56
398.82	925.56
399.044	927.56
399.268	988.56
399.492	1046.56
399.717	1046.56
399.941	1107.56
400.165	1067.56
400.389	1063.56
400.613	1044.56
400.837	1005.56
401.062	923.56
401.286	901.56
401.51	847.56
401.734	907.56
401.958	901.56
402.182	896.56
402.406	891.56
402.63	890.56
402.854	928.56
403.078	1059.56
403.302	1279.56
403.526	1301.56
403.75	1152.56
403.974	1045.56
404.198	1079.56
404.422	1212.56
404.645	1374.56
404.869	1491.56
405.093	1141.56
405.317	990.56
405.541	957.56
405.765	1022.56
405.988	994.56
406.212	1083.56
406.436	1256.56
406.66	1398.56
406.883	1113.56
407.107	1111.56
407.331	1332.56
407.555	1250.56
407.778	1089.56
408.002	1040.56
408.226	1053.56
408.449	1042.56
408.673	996.56
408.896	941.56
409.12	903.56
409.344	945.56
409.567	888.56
409.791	873.56
410.014	884.56
410.238	874.56
410.461	897.56
410.685	884.56
410.908	912.56
411.132	911.56
411.355	918.56
411.578	943.56
411.802	922.56
412.025	977.56
412.249	999.56
412.472	939.56
412.695	961.56
412.919	934.56
413.142	942.56
413.365	1047.56
413.589	1037.56
413.812	948.56
414.035	885.56
414.258	942.56
414.482	1008.56
414.705	1045.56
414.928	906.56
415.151	879.56
415.374	880.56
415.597	888.56
415.821	900.56
416.044	900.56
416.267	868.56
416.49	856.56
416.713	848.56
416.936	832.56
417.159	873.56
417.382	899.56
417.605	915.56
417.828	895.56
418.051	887.56
418.274	919.56
418.497	912.56
418.72	915.56
418.943	917.56
419.166	1005.56
419.389	1025.56
419.611	973.56
419.834	985.56
420.057	1084.56
420.28	1075.56
420.503	999.56
420.726	900.56
420.948	873.56
421.171	873.56
421.394	890.56
421.617	855.56
421.839	886.56
422.062	923.56
422.285	917.56
422.507	934.56
422.73	903.56
422.953	969.56
423.175	913.56
423.398	913.56
423.621	990.56
423.843	1027.56
424.066	983.56
424.288	926.56
424.511	912.56
424.733	892.56
424.956	937.56
425.178	1020.56
425.401	1170.56
425.623	1332.56
425.846	1118.56
426.068	1003.56
426.291	1073.56
426.513	972.56
426.735	942.56
426.958	981.56
427.18	1106.56
427.402	1406.56
427.625	1399.56
427.847	1128.56
428.069	899.56
428.292	923.56
428.514	871.56
428.736	866.56
428.958	880.56
429.181	1057.56
429.403	939.56
429.625	880.56
429.847	833.56
430.069	895.56
430.292	903.56
430.514	845.56
430.736	919.56
430.958	1139.56
431.18	1052.56
431.402	839.56
431.624	797.56
431.846	792.56
432.068	790.56
432.29	849.56
432.512	913.56
432.734	1197.56
432.956	1127.56
433.178	849.56
433.4	820.56
433.622	823.56
433.844	852.56
434.066	884.56
434.287	932.56
434.509	875.56
434.731	896.56
434.953	845.56
435.175	919.56
435.397	1021.56
435.618	872.56
435.84	825.56
436.062	813.56
436.284	822.56
436.505	803.56
436.727	807.56
436.949	796.56
437.17	821.56
437.392	857.56
437.614	838.56
437.835	803.56
438.057	854.56
438.278	967.56
438.5	1312.56
438.721	1335.56
438.943	925.56
439.165	791.56
439.386	784.56
439.608	800.56
439.829	801.56
440.05	813.56
440.272	821.56
440.493	943.56
440.715	1183.56
440.936	963.56
441.158	835.56
441.379	868.56
441.6	959.56
441.822	1009.56
442.043	883.56
442.264	871.56
442.486	888.56
442.707	856.56
442.928	870.56
443.149	875.56
443.371	889.56
443.592	923.56
443.813	924.56
444.034	902.56
444.255	882.56
444.476	942.56
444.698	929.56
444.919	948.56
445.14	985.56
445.361	995.56
445.582	935.56
445.803	947.56
446.024	927.56
446.245	932.56
446.466	907.56
446.687	880.56
446.908	861.56
447.129	827.56
447.35	815.56
447.571	784.56
447.792	791.56
448.013	779.56
448.234	772.56
448.455	813.56
448.675	811.56
448.896	820.56
449.117	782.56
449.338	805.56
449.559	821.56
449.779	863.56
450	833.56
450.221	823.56
450.442	812.56
450.662	767.56
450.883	802.56
451.104	808.56
451.324	814.56
451.545	815.56
451.766	792.56
451.986	781.56
452.207	767.56
452.428	778.56
452.648	789.56
452.869	791.56
453.089	828.56
453.31	806.56
453.53	737.56
453.751	749.56
453.971	729.56
454.192	752.56
454.412	791.56
454.633	730.56
454.853	733.56
455.073	731.56
455.294	728.56
455.514	751.56
455.734	784.56
455.955	802.56
456.175	820.56
456.395	752.56
456.616	717.56
456.836	702.56
457.056	707.56
457.276	675.56
457.497	713.56
457.717	723.56
457.937	709.56
458.157	699.56
458.377	726.56
458.598	735.56
458.818	763.56
459.038	841.56
459.258	828.56
459.478	838.56
459.698	885.56
459.918	881.56
460.138	888.56
460.358	883.56
460.578	872.56
460.798	893.56
461.018	902.56
461.238	835.56
461.458	852.56
461.678	837.56
461.898	923.56
462.118	933.56
462.338	920.56
462.558	963.56
462.777	984.56
462.997	1016.56
463.217	1015.56
463.437	1040.56
463.657	1024.56
463.876	934.56
464.096	935.56
464.316	947.56
464.536	949.56
464.755	973.56
464.975	965.56
465.195	932.56
465.414	993.56
465.634	971.56
465.854	941.56
466.073	856.56
466.293	871.56
466.512	948.56
466.732	999.56
466.951	1005.56
467.171	901.56
467.391	876.56
467.61	848.56
467.829	938.56
468.049	941.56
468.268	876.56
468.488	871.56
468.707	923.56
468.927	1051.56
469.146	1124.56
469.365	1025.56
469.585	939.56
469.804	1012.56
470.023	1091.56
470.243	972.56
470.462	905.56
470.681	885.56
470.901	930.56
471.12	970.56
471.339	989.56
471.558	920.56
471.777	925.56
471.997	997.56
472.216	1103.56
472.435	1068.56
472.654	965.56
472.873	919.56
473.092	1016.56
473.311	1053.56
473.53	974.56
473.749	923.56
473.968	949.56
474.187	949.56
474.406	918.56
474.625	903.56
474.844	941.56
475.063	1028.56
475.282	998.56
475.501	1069.56
475.72	1098.56
475.939	1060.56
476.158	1052.56
476.377	1227.56
476.596	1445.56
476.814	1501.56
477.033	1252.56
477.252	1078.56
477.471	988.56
477.69	988.56
477.908	1094.56
478.127	1162.56
478.346	1057.56
478.564	1147.56
478.783	1069.56
479.002	1103.56
479.22	1275.56
479.439	1393.56
479.658	1215.56
479.876	1108.56
480.095	1203.56
480.313	1231.56
480.532	1134.56
480.751	1106.56
480.969	1134.56
481.188	1264.56
481.406	1303.56
481.624	1233.56
481.843	1064.56
482.061	1034.56
482.28	1219.56
482.498	1435.56
482.717	1356.56
482.935	1188.56
483.153	1116.56
483.372	1043.56
483.59	1045.56
483.808	1035.56
484.027	1012.56
484.245	1003.56
484.463	931.56
484.681	1033.56
484.9	1116.56
485.118	1187.56
485.336	1110.56
485.554	1023.56
485.772	1056.56
485.99	1177.56
486.209	1216.56
486.427	1179.56
486.645	1153.56
486.863	1208.56
487.081	1227.56
487.299	1337.56
487.517	1307.56
487.735	1209.56
487.953	1260.56
488.171	1229.56
488.389	1195.56
488.607	1095.56
488.825	1167.56
489.043	1254.56
489.261	1401.56
489.479	1518.56
489.696	1243.56
489.914	1180.56
490.132	1096.56
490.35	1111.56
490.568	1155.56
490.786	1108.56
491.003	1124.56
491.221	1132.56
491.439	1111.56
491.657	1134.56
491.874	1222.56
492.092	1453.56
492.31	1696.56
492.527	1676.56
492.745	1499.56
492.963	1301.56
493.18	1279.56
493.398	1334.56
493.615	1271.56
493.833	1239.56
494.05	1204.56
494.268	1241.56
494.485	1275.56
494.703	1200.56
494.92	1213.56
