Data from NickelSpatula.Lamp.E10.P2_HRD10591_11-59-15-526.txt Node
Date: Tue Jul 23 11:59:15 EDT 2019
User: cochatt
Spectrometer: HR+D1059
Trigger mode: 1
Integration Time (sec): 1.000000E-1
Scans to average: 1
Electric dark correction enabled: true
Nonlinearity correction enabled: false
Boxcar width: 0
XAxis mode: Wavelengths
Number of Pixels in Spectrum: 2048
>>>>>Begin Spectral Data<<<<<
223.165	-2.19
223.4	-2.19
223.635	-2.19
223.869	-10.19
224.104	-6.19
224.338	-13.19
224.573	-5.19
224.808	-9.19
225.042	-8.19
225.277	4.81
225.511	-11.19
225.746	-15.19
225.98	4.81
226.215	10.81
226.449	8.81
226.683	3.81
226.918	19.81
227.152	27.81
227.387	36.81
227.621	31.81
227.856	19.81
228.09	35.81
228.324	42.81
228.559	49.81
228.793	63.81
229.027	139.81
229.262	169.81
229.496	159.81
229.73	160.81
229.964	189.81
230.199	216.81
230.433	228.81
230.667	214.81
230.901	197.81
231.136	210.81
231.37	217.81
231.604	216.81
231.838	259.81
232.072	269.81
232.306	262.81
232.541	254.81
232.775	233.81
233.009	242.81
233.243	269.81
233.477	293.81
233.711	347.81
233.945	344.81
234.179	345.81
234.413	351.81
234.647	406.81
234.881	462.81
235.115	408.81
235.349	389.81
235.583	373.81
235.817	357.81
236.051	367.81
236.285	429.81
236.519	467.81
236.753	429.81
236.987	426.81
237.221	398.81
237.455	423.81
237.689	420.81
237.922	454.81
238.156	482.81
238.39	574.81
238.624	684.81
238.858	600.81
239.091	503.81
239.325	529.81
239.559	484.81
239.793	550.81
240.027	668.81
240.26	603.81
240.494	564.81
240.728	608.81
240.961	695.81
241.195	656.81
241.429	657.81
241.662	602.81
241.896	523.81
242.13	463.81
242.363	450.81
242.597	486.81
242.83	552.81
243.064	548.81
243.298	612.81
243.531	632.81
243.765	622.81
243.998	646.81
244.232	603.81
244.465	626.81
244.699	601.81
244.932	663.81
245.166	614.81
245.399	552.81
245.633	560.81
245.866	581.81
246.099	619.81
246.333	720.81
246.566	750.81
246.8	748.81
247.033	754.81
247.266	690.81
247.5	672.81
247.733	686.81
247.966	657.81
248.2	691.81
248.433	778.81
248.666	834.81
248.899	841.81
249.133	849.81
249.366	989.81
249.599	1046.81
249.832	962.81
250.066	840.81
250.299	831.81
250.532	802.81
250.765	830.81
250.998	734.81
251.231	700.81
251.465	771.81
251.698	832.81
251.931	791.81
252.164	804.81
252.397	950.81
252.63	1063.81
252.863	1152.81
253.096	1172.81
253.329	1143.81
253.562	1102.81
253.795	1220.81
254.028	1342.81
254.261	1385.81
254.494	1251.81
254.727	1166.81
254.96	1061.81
255.193	1179.81
255.426	1123.81
255.659	855.81
255.892	799.81
256.124	858.81
256.357	1026.81
256.59	1189.81
256.823	1124.81
257.056	958.81
257.289	892.81
257.521	980.81
257.754	1129.81
257.987	1273.81
258.22	1115.81
258.452	1051.81
258.685	1146.81
258.918	1296.81
259.151	1232.81
259.383	1337.81
259.616	1512.81
259.849	1526.81
260.081	1693.81
260.314	1904.81
260.547	1434.81
260.779	1510.81
261.012	1715.81
261.244	1606.81
261.477	1639.81
261.71	1560.81
261.942	1308.81
262.175	1300.81
262.407	1244.81
262.64	1278.81
262.872	1499.81
263.105	1636.81
263.337	1728.81
263.57	1527.81
263.802	1039.81
264.035	920.81
264.267	878.81
264.499	758.81
264.732	720.81
264.964	695.81
265.197	731.81
265.429	745.81
265.661	805.81
265.894	849.81
266.126	922.81
266.358	1014.81
266.591	1244.81
266.823	1506.81
267.055	1431.81
267.287	1252.81
267.52	1253.81
267.752	1298.81
267.984	1408.81
268.216	1378.81
268.448	1129.81
268.681	1117.81
268.913	1199.81
269.145	1282.81
269.377	1294.81
269.609	1275.81
269.841	1196.81
270.073	1314.81
270.306	1369.81
270.538	1356.81
270.77	1410.81
271.002	1402.81
271.234	1461.81
271.466	1492.81
271.698	1450.81
271.93	1436.81
272.162	1441.81
272.394	1396.81
272.626	1384.81
272.858	1440.81
273.09	1470.81
273.322	1345.81
273.553	1268.81
273.785	1528.81
274.017	1982.81
274.249	2458.81
274.481	2517.81
274.713	2792.81
274.945	3153.81
275.176	3268.81
275.408	2872.81
275.64	2587.81
275.872	2629.81
276.104	2192.81
276.335	1883.81
276.567	1930.81
276.799	1990.81
277.031	2079.81
277.262	1621.81
277.494	1265.81
277.726	1225.81
277.957	1315.81
278.189	1463.81
278.421	1473.81
278.652	1449.81
278.884	1400.81
279.115	1263.81
279.347	1223.81
279.579	1209.81
279.81	1234.81
280.042	1196.81
280.273	1246.81
280.505	1144.81
280.736	1031.81
280.968	1032.81
281.199	1092.81
281.431	1246.81
281.662	1216.81
281.894	1169.81
282.125	1287.81
282.356	1371.81
282.588	1406.81
282.819	1272.81
283.051	1383.81
283.282	1680.81
283.513	1966.81
283.745	2164.81
283.976	2150.81
284.207	2004.81
284.439	2062.81
284.67	2028.81
284.901	1840.81
285.132	1938.81
285.364	1986.81
285.595	1866.81
285.826	1954.81
286.057	2035.81
286.288	1972.81
286.52	1975.81
286.751	2073.81
286.982	2063.81
287.213	1801.81
287.444	1735.81
287.675	1820.81
287.906	1815.81
288.138	1567.81
288.369	1365.81
288.6	1266.81
288.831	1350.81
289.062	1523.81
289.293	1702.81
289.524	1630.81
289.755	1574.81
289.986	1658.81
290.217	1431.81
290.448	1114.81
290.679	982.81
290.91	937.81
291.141	934.81
291.371	976.81
291.602	983.81
291.833	976.81
292.064	1072.81
292.295	1187.81
292.526	1382.81
292.757	1476.81
292.987	1547.81
293.218	1549.81
293.449	1586.81
293.68	1702.81
293.91	1586.81
294.141	1630.81
294.372	1521.81
294.603	1433.81
294.833	1584.81
295.064	1876.81
295.295	1688.81
295.525	1294.81
295.756	1141.81
295.987	1010.81
296.217	1008.81
296.448	1084.81
296.679	1107.81
296.909	1208.81
297.14	1319.81
297.37	1480.81
297.601	1360.81
297.831	1147.81
298.062	1256.81
298.292	1440.81
298.523	1524.81
298.753	1788.81
298.984	1616.81
299.214	1235.81
299.445	1062.81
299.675	1046.81
299.905	1042.81
300.136	1079.81
300.366	1194.81
300.597	1184.81
300.827	1045.81
301.057	976.81
301.288	1030.81
301.518	1097.81
301.748	1284.81
301.979	1345.81
302.209	1478.81
302.439	1458.81
302.669	1238.81
302.9	1254.81
303.13	1152.81
303.36	1102.81
303.59	1068.81
303.82	1106.81
304.051	1235.81
304.281	1336.81
304.511	1296.81
304.741	1140.81
304.971	1186.81
305.201	1266.81
305.431	1224.81
305.661	1086.81
305.891	1088.81
306.121	1086.81
306.352	972.81
306.582	875.81
306.812	884.81
307.042	851.81
307.272	808.81
307.502	819.81
307.731	888.81
307.961	912.81
308.191	846.81
308.421	822.81
308.651	801.81
308.881	766.81
309.111	764.81
309.341	809.81
309.571	886.81
309.8	908.81
310.03	928.81
310.26	1003.81
310.49	960.81
310.72	842.81
310.949	841.81
311.179	891.81
311.409	955.81
311.639	1122.81
311.868	1411.81
312.098	1792.81
312.328	1928.81
312.557	1872.81
312.787	1855.81
313.017	1661.81
313.246	1823.81
313.476	1973.81
313.706	1625.81
313.935	1283.81
314.165	1072.81
314.394	964.81
314.624	969.81
314.853	1006.81
315.083	1034.81
315.312	1007.81
315.542	1000.81
315.771	942.81
316.001	850.81
316.23	832.81
316.46	844.81
316.689	865.81
316.919	868.81
317.148	890.81
317.377	885.81
317.607	889.81
317.836	947.81
318.065	1114.81
318.295	1254.81
318.524	1137.81
318.753	974.81
318.983	953.81
319.212	946.81
319.441	1007.81
319.67	1135.81
319.9	1213.81
320.129	1150.81
320.358	948.81
320.587	948.81
320.816	1038.81
321.046	1168.81
321.275	1328.81
321.504	1311.81
321.733	1317.81
321.962	1246.81
322.191	1182.81
322.42	1128.81
322.649	1108.81
322.878	1230.81
323.108	1216.81
323.337	1134.81
323.566	1097.81
323.795	1044.81
324.024	1022.81
324.253	957.81
324.482	946.81
324.71	1079.81
324.939	1241.81
325.168	1129.81
325.397	941.81
325.626	908.81
325.855	904.81
326.084	918.81
326.313	880.81
326.542	846.81
326.77	899.81
326.999	918.81
327.228	949.81
327.457	993.81
327.686	1028.81
327.914	885.81
328.143	852.81
328.372	822.81
328.6	845.81
328.829	884.81
329.058	912.81
329.287	892.81
329.515	887.81
329.744	865.81
329.972	836.81
330.201	784.81
330.43	843.81
330.658	943.81
330.887	1054.81
331.115	1059.81
331.344	999.81
331.572	966.81
331.801	896.81
332.03	836.81
332.258	871.81
332.486	936.81
332.715	970.81
332.943	896.81
333.172	917.81
333.4	944.81
333.629	1009.81
333.857	1104.81
334.085	1150.81
334.314	1101.81
334.542	1049.81
334.771	977.81
334.999	926.81
335.227	892.81
335.455	937.81
335.684	1024.81
335.912	1203.81
336.14	1328.81
336.369	1240.81
336.597	1229.81
336.825	1396.81
337.053	1525.81
337.281	1238.81
337.51	998.81
337.738	965.81
337.966	1072.81
338.194	1200.81
338.422	1093.81
338.65	956.81
338.878	873.81
339.106	900.81
339.334	1012.81
339.562	1090.81
339.79	1011.81
340.018	970.81
340.246	1050.81
340.474	1211.81
340.702	1271.81
340.93	1325.81
341.158	1337.81
341.386	1151.81
341.614	1125.81
341.842	1112.81
342.07	1123.81
342.298	1337.81
342.526	1365.81
342.754	1193.81
342.981	1097.81
343.209	1058.81
343.437	1145.81
343.665	1190.81
343.893	1220.81
344.12	1403.81
344.348	1629.81
344.576	1405.81
344.804	1199.81
345.031	1026.81
345.259	966.81
345.487	1017.81
345.714	1031.81
345.942	1078.81
346.17	1187.81
346.397	1135.81
346.625	1001.81
346.853	996.81
347.08	942.81
347.308	1000.81
347.535	1099.81
347.763	1146.81
347.99	961.81
348.218	924.81
348.445	979.81
348.673	968.81
348.9	968.81
349.128	1072.81
349.355	1109.81
349.583	1056.81
349.81	1004.81
350.037	959.81
350.265	846.81
350.492	779.81
350.72	773.81
350.947	811.81
351.174	888.81
351.402	948.81
351.629	953.81
351.856	969.81
352.083	872.81
352.311	993.81
352.538	1102.81
352.765	1140.81
352.992	1038.81
353.22	999.81
353.447	982.81
353.674	956.81
353.901	954.81
354.128	959.81
354.355	1033.81
354.583	988.81
354.81	990.81
355.037	1020.81
355.264	987.81
355.491	1096.81
355.718	1178.81
355.945	1148.81
356.172	1102.81
356.399	1116.81
356.626	1368.81
356.853	1613.81
357.08	1721.81
357.307	1788.81
357.534	1380.81
357.761	1432.81
357.988	1793.81
358.215	2118.81
358.441	1972.81
358.668	1627.81
358.895	1491.81
359.122	1233.81
359.349	1195.81
359.576	1346.81
359.802	1100.81
360.029	949.81
360.256	1052.81
360.483	1278.81
360.709	1609.81
360.936	1682.81
361.163	1477.81
361.39	1126.81
361.616	1084.81
361.843	1229.81
362.07	1548.81
362.296	1358.81
362.523	1087.81
362.749	936.81
362.976	1010.81
363.203	1215.81
363.429	1377.81
363.656	1088.81
363.882	1024.81
364.109	1015.81
364.335	987.81
364.562	986.81
364.788	1113.81
365.015	1302.81
365.241	1174.81
365.468	957.81
365.694	828.81
365.92	828.81
366.147	797.81
366.373	784.81
366.599	776.81
366.826	830.81
367.052	824.81
367.278	872.81
367.505	827.81
367.731	901.81
367.957	1036.81
368.184	1028.81
368.41	1029.81
368.636	1025.81
368.862	1051.81
369.089	1040.81
369.315	903.81
369.541	897.81
369.767	893.81
369.993	845.81
370.219	838.81
370.445	911.81
370.672	1023.81
370.898	1095.81
371.124	1104.81
371.35	950.81
371.576	914.81
371.802	988.81
372.028	1160.81
372.254	1340.81
372.48	1108.81
372.706	1012.81
372.932	1118.81
373.158	1150.81
373.384	1397.81
373.61	1842.81
373.835	1904.81
374.061	1378.81
374.287	1168.81
374.513	1422.81
374.739	1653.81
374.965	1708.81
375.191	1690.81
375.416	1157.81
375.642	1022.81
375.868	1193.81
376.094	1365.81
376.319	1202.81
376.545	1272.81
376.771	1357.81
376.997	1169.81
377.222	864.81
377.448	753.81
377.674	776.81
377.899	740.81
378.125	751.81
378.35	744.81
378.576	796.81
378.802	866.81
379.027	946.81
379.253	911.81
379.478	924.81
379.704	1034.81
379.929	1119.81
380.155	1088.81
380.38	935.81
380.606	1009.81
380.831	1121.81
381.057	1006.81
381.282	980.81
381.507	1161.81
381.733	1473.81
381.958	1586.81
382.184	1664.81
382.409	1729.81
382.634	1676.81
382.86	1816.81
383.085	1428.81
383.31	1129.81
383.535	1236.81
383.761	1250.81
383.986	1139.81
384.211	1435.81
384.436	1360.81
384.662	1038.81
384.887	1011.81
385.112	1040.81
385.337	1035.81
385.562	985.81
385.787	1101.81
386.013	1252.81
386.238	1264.81
386.463	1032.81
386.688	966.81
386.913	952.81
387.138	889.81
387.363	969.81
387.588	983.81
387.813	988.81
388.038	1103.81
388.263	981.81
388.488	969.81
388.713	1112.81
388.938	1233.81
389.163	1035.81
389.387	924.81
389.612	912.81
389.837	961.81
390.062	941.81
390.287	1005.81
390.512	1015.81
390.736	925.81
390.961	911.81
391.186	886.81
391.411	865.81
391.636	860.81
391.86	948.81
392.085	993.81
392.31	1020.81
392.534	917.81
392.759	954.81
392.984	995.81
393.208	974.81
393.433	860.81
393.658	833.81
393.882	802.81
394.107	799.81
394.331	794.81
394.556	805.81
394.78	804.81
395.005	847.81
395.229	873.81
395.454	872.81
395.678	881.81
395.903	927.81
396.127	870.81
396.352	880.81
396.576	968.81
396.801	985.81
397.025	1106.81
397.249	1135.81
397.474	934.81
397.698	928.81
397.922	996.81
398.147	954.81
398.371	924.81
398.595	958.81
398.82	959.81
399.044	958.81
399.268	1018.81
399.492	1057.81
399.717	1072.81
399.941	1074.81
400.165	1065.81
400.389	1030.81
400.613	1021.81
400.837	1056.81
401.062	951.81
401.286	890.81
401.51	904.81
401.734	914.81
401.958	899.81
402.182	892.81
402.406	923.81
402.63	898.81
402.854	953.81
403.078	1064.81
403.302	1311.81
403.526	1384.81
403.75	1176.81
403.974	1075.81
404.198	1084.81
404.422	1249.81
404.645	1467.81
404.869	1567.81
405.093	1201.81
405.317	1004.81
405.541	975.81
405.765	1009.81
405.988	1023.81
406.212	1092.81
406.436	1297.81
406.66	1420.81
406.883	1143.81
407.107	1173.81
407.331	1362.81
407.555	1326.81
407.778	1121.81
408.002	1047.81
408.226	1068.81
408.449	1037.81
408.673	1036.81
408.896	929.81
409.12	919.81
409.344	889.81
409.567	911.81
409.791	897.81
410.014	900.81
410.238	889.81
410.461	872.81
410.685	887.81
410.908	880.81
411.132	940.81
411.355	933.81
411.578	944.81
411.802	926.81
412.025	988.81
412.249	1018.81
412.472	941.81
412.695	940.81
412.919	965.81
413.142	979.81
413.365	1043.81
413.589	1074.81
413.812	952.81
414.035	921.81
414.258	948.81
414.482	1059.81
414.705	1064.81
414.928	916.81
415.151	896.81
415.374	879.81
415.597	945.81
415.821	932.81
416.044	877.81
416.267	890.81
416.49	874.81
416.713	878.81
416.936	866.81
417.159	846.81
417.382	894.81
417.605	885.81
417.828	925.81
418.051	933.81
418.274	940.81
418.497	936.81
418.72	921.81
418.943	983.81
419.166	1046.81
419.389	1029.81
419.611	998.81
419.834	1009.81
420.057	1107.81
420.28	1119.81
420.503	1040.81
420.726	918.81
420.948	866.81
421.171	884.81
421.394	870.81
421.617	853.81
421.839	890.81
422.062	929.81
422.285	927.81
422.507	941.81
422.73	952.81
422.953	961.81
423.175	951.81
423.398	969.81
423.621	1036.81
423.843	1034.81
424.066	971.81
424.288	951.81
424.511	874.81
424.733	898.81
424.956	987.81
425.178	1072.81
425.401	1254.81
425.623	1420.81
425.846	1164.81
426.068	1023.81
426.291	1132.81
426.513	1048.81
426.735	956.81
426.958	999.81
427.18	1156.81
427.402	1530.81
427.625	1488.81
427.847	1209.81
428.069	914.81
428.292	880.81
428.514	920.81
428.736	871.81
428.958	962.81
429.181	1133.81
429.403	997.81
429.625	897.81
429.847	863.81
430.069	890.81
430.292	904.81
430.514	882.81
430.736	1004.81
430.958	1216.81
431.18	1089.81
431.402	837.81
431.624	802.81
431.846	814.81
432.068	802.81
432.29	827.81
432.512	930.81
432.734	1232.81
432.956	1157.81
433.178	860.81
433.4	812.81
433.622	842.81
433.844	882.81
434.066	924.81
434.287	896.81
434.509	893.81
434.731	916.81
434.953	880.81
435.175	945.81
435.397	1040.81
435.618	888.81
435.84	809.81
436.062	834.81
436.284	826.81
436.505	786.81
436.727	769.81
436.949	823.81
437.17	820.81
437.392	873.81
437.614	824.81
437.835	828.81
438.057	864.81
438.278	980.81
438.5	1399.81
438.721	1370.81
438.943	953.81
439.165	817.81
439.386	797.81
439.608	773.81
439.829	788.81
440.05	792.81
440.272	848.81
440.493	977.81
440.715	1219.81
440.936	997.81
441.158	855.81
441.379	858.81
441.6	992.81
441.822	1011.81
442.043	889.81
442.264	856.81
442.486	884.81
442.707	863.81
442.928	878.81
443.149	900.81
443.371	885.81
443.592	926.81
443.813	961.81
444.034	896.81
444.255	912.81
444.476	954.81
444.698	913.81
444.919	946.81
445.14	1063.81
445.361	1025.81
445.582	967.81
445.803	938.81
446.024	929.81
446.245	928.81
446.466	911.81
446.687	868.81
446.908	864.81
447.129	836.81
447.35	815.81
447.571	777.81
447.792	818.81
448.013	805.81
448.234	775.81
448.455	775.81
448.675	805.81
448.896	818.81
449.117	802.81
449.338	830.81
449.559	844.81
449.779	881.81
450	868.81
450.221	860.81
450.442	829.81
450.662	803.81
450.883	788.81
451.104	807.81
451.324	782.81
451.545	794.81
451.766	825.81
451.986	776.81
452.207	760.81
452.428	781.81
452.648	791.81
452.869	836.81
453.089	835.81
453.31	853.81
453.53	758.81
453.751	741.81
453.971	753.81
454.192	782.81
454.412	799.81
454.633	739.81
454.853	765.81
455.073	723.81
455.294	706.81
455.514	746.81
455.734	755.81
455.955	810.81
456.175	828.81
456.395	756.81
456.616	713.81
456.836	702.81
457.056	694.81
457.276	717.81
457.497	700.81
457.717	711.81
457.937	712.81
458.157	713.81
458.377	721.81
458.598	740.81
458.818	754.81
459.038	838.81
459.258	823.81
459.478	855.81
459.698	893.81
459.918	900.81
460.138	900.81
460.358	917.81
460.578	890.81
460.798	900.81
461.018	883.81
461.238	862.81
461.458	866.81
461.678	864.81
461.898	944.81
462.118	912.81
462.338	919.81
462.558	962.81
462.777	979.81
462.997	993.81
463.217	1020.81
463.437	1040.81
463.657	990.81
463.876	982.81
464.096	955.81
464.316	974.81
464.536	975.81
464.755	1019.81
464.975	1002.81
465.195	955.81
465.414	1010.81
465.634	948.81
465.854	925.81
466.073	877.81
466.293	848.81
466.512	953.81
466.732	1044.81
466.951	1061.81
467.171	942.81
467.391	894.81
467.61	885.81
467.829	952.81
468.049	936.81
468.268	896.81
468.488	890.81
468.707	935.81
468.927	1056.81
469.146	1158.81
469.365	1042.81
469.585	974.81
469.804	1001.81
470.023	1132.81
470.243	979.81
470.462	932.81
470.681	924.81
470.901	926.81
471.12	999.81
471.339	968.81
471.558	945.81
471.777	959.81
471.997	996.81
472.216	1131.81
472.435	1073.81
472.654	987.81
472.873	953.81
473.092	1009.81
473.311	1047.81
473.53	940.81
473.749	931.81
473.968	968.81
474.187	954.81
474.406	950.81
474.625	928.81
474.844	947.81
475.063	1008.81
475.282	1018.81
475.501	1068.81
475.72	1151.81
475.939	1122.81
476.158	1094.81
476.377	1282.81
476.596	1452.81
476.814	1506.81
477.033	1230.81
477.252	1047.81
477.471	1037.81
477.69	1001.81
477.908	1112.81
478.127	1146.81
478.346	1085.81
478.564	1162.81
478.783	1059.81
479.002	1088.81
479.22	1299.81
479.439	1442.81
479.658	1239.81
479.876	1119.81
480.095	1202.81
480.313	1223.81
480.532	1134.81
480.751	1110.81
480.969	1137.81
481.188	1266.81
481.406	1298.81
481.624	1227.81
481.843	1136.81
482.061	1062.81
482.28	1192.81
482.498	1466.81
482.717	1406.81
482.935	1200.81
483.153	1150.81
483.372	1080.81
483.59	1050.81
483.808	1102.81
484.027	1045.81
484.245	994.81
484.463	983.81
484.681	1026.81
484.9	1147.81
485.118	1205.81
485.336	1101.81
485.554	1058.81
485.772	1089.81
485.99	1168.81
486.209	1254.81
486.427	1235.81
486.645	1226.81
486.863	1233.81
487.081	1213.81
487.299	1366.81
487.517	1387.81
487.735	1186.81
487.953	1234.81
488.171	1253.81
488.389	1210.81
488.607	1118.81
488.825	1163.81
489.043	1311.81
489.261	1443.81
489.479	1556.81
489.696	1286.81
489.914	1194.81
490.132	1106.81
490.35	1110.81
490.568	1144.81
490.786	1108.81
491.003	1129.81
491.221	1167.81
491.439	1144.81
491.657	1166.81
491.874	1198.81
492.092	1530.81
492.31	1819.81
492.527	1788.81
492.745	1508.81
492.963	1345.81
493.18	1326.81
493.398	1322.81
493.615	1315.81
493.833	1253.81
494.05	1228.81
494.268	1230.81
