Data from NickelSpatula_HRD10591_16-34-02-126.txt Node
Date: Mon Jul 22 16:34:02 EDT 2019
User: cochatt
Spectrometer: HR+D1059
Trigger mode: 1
Integration Time (sec): 1.000000E-1
Scans to average: 1
Electric dark correction enabled: true
Nonlinearity correction enabled: false
Boxcar width: 0
XAxis mode: Wavelengths
Number of Pixels in Spectrum: 2048
>>>>>Begin Spectral Data<<<<<
223.165	-11.75
223.4	-11.75
223.635	-11.75
223.869	-26.75
224.104	-16.75
224.338	-20.75
224.573	5.25
224.808	-5.75
225.042	-22.75
225.277	-12.75
225.511	-1.75
225.746	13.25
225.98	3.25
226.215	5.25
226.449	19.25
226.683	20.25
226.918	32.25
227.152	20.25
227.387	38.25
227.621	26.25
227.856	38.25
228.09	40.25
228.324	50.25
228.559	62.25
228.793	53.25
229.027	62.25
229.262	79.25
229.496	74.25
229.73	78.25
229.964	92.25
230.199	95.25
230.433	100.25
230.667	83.25
230.901	87.25
231.136	88.25
231.37	96.25
231.604	86.25
231.838	90.25
232.072	97.25
232.306	99.25
232.541	101.25
232.775	114.25
233.009	92.25
233.243	117.25
233.477	124.25
233.711	121.25
233.945	121.25
234.179	115.25
234.413	117.25
234.647	143.25
234.881	128.25
235.115	130.25
235.349	122.25
235.583	124.25
235.817	103.25
236.051	113.25
236.285	130.25
236.519	125.25
236.753	131.25
236.987	132.25
237.221	111.25
237.455	128.25
237.689	137.25
237.922	125.25
238.156	152.25
238.39	133.25
238.624	175.25
238.858	149.25
239.091	138.25
239.325	138.25
239.559	134.25
239.793	149.25
240.027	159.25
240.26	163.25
240.494	164.25
240.728	161.25
240.961	154.25
241.195	149.25
241.429	178.25
241.662	173.25
241.896	141.25
242.13	131.25
242.363	126.25
242.597	133.25
242.83	146.25
243.064	145.25
243.298	149.25
243.531	152.25
243.765	166.25
243.998	174.25
244.232	148.25
244.465	166.25
244.699	147.25
244.932	182.25
245.166	160.25
245.399	159.25
245.633	138.25
245.866	152.25
246.099	157.25
246.333	185.25
246.566	189.25
246.8	187.25
247.033	179.25
247.266	167.25
247.5	176.25
247.733	172.25
247.966	169.25
248.2	167.25
248.433	170.25
248.666	198.25
248.899	194.25
249.133	192.25
249.366	206.25
249.599	221.25
249.832	217.25
250.066	229.25
250.299	192.25
250.532	198.25
250.765	193.25
250.998	184.25
251.231	171.25
251.465	198.25
251.698	194.25
251.931	192.25
252.164	199.25
252.397	228.25
252.63	243.25
252.863	264.25
253.096	272.25
253.329	250.25
253.562	244.25
253.795	267.25
254.028	310.25
254.261	304.25
254.494	284.25
254.727	263.25
254.96	244.25
255.193	264.25
255.426	236.25
255.659	207.25
255.892	184.25
256.124	225.25
256.357	241.25
256.59	277.25
256.823	274.25
257.056	242.25
257.289	214.25
257.521	207.25
257.754	272.25
257.987	306.25
258.22	263.25
258.452	239.25
258.685	255.25
258.918	272.25
259.151	297.25
259.383	294.25
259.616	334.25
259.849	333.25
260.081	351.25
260.314	377.25
260.547	326.25
260.779	328.25
261.012	339.25
261.244	349.25
261.477	344.25
261.71	322.25
261.942	292.25
262.175	286.25
262.407	266.25
262.64	276.25
262.872	329.25
263.105	348.25
263.337	351.25
263.57	322.25
263.802	248.25
264.035	201.25
264.267	213.25
264.499	188.25
264.732	174.25
264.964	170.25
265.197	181.25
265.429	186.25
265.661	203.25
265.894	216.25
266.126	222.25
266.358	227.25
266.591	281.25
266.823	326.25
267.055	321.25
267.287	275.25
267.52	286.25
267.752	296.25
267.984	315.25
268.216	296.25
268.448	272.25
268.681	257.25
268.913	283.25
269.145	288.25
269.377	289.25
269.609	309.25
269.841	263.25
270.073	284.25
270.306	293.25
270.538	307.25
270.77	316.25
271.002	323.25
271.234	318.25
271.466	340.25
271.698	338.25
271.93	296.25
272.162	296.25
272.394	319.25
272.626	298.25
272.858	302.25
273.09	300.25
273.322	276.25
273.553	270.25
273.785	293.25
274.017	353.25
274.249	456.25
274.481	462.25
274.713	499.25
274.945	578.25
275.176	621.25
275.408	551.25
275.64	514.25
275.872	515.25
276.104	455.25
276.335	401.25
276.567	393.25
276.799	382.25
277.031	428.25
277.262	343.25
277.494	270.25
277.726	282.25
277.957	284.25
278.189	323.25
278.421	292.25
278.652	316.25
278.884	289.25
279.115	265.25
279.347	256.25
279.579	244.25
279.81	262.25
280.042	269.25
280.273	266.25
280.505	252.25
280.736	229.25
280.968	230.25
281.199	258.25
281.431	281.25
281.662	279.25
281.894	258.25
282.125	270.25
282.356	285.25
282.588	302.25
282.819	262.25
283.051	265.25
283.282	344.25
283.513	374.25
283.745	400.25
283.976	426.25
284.207	385.25
284.439	405.25
284.67	400.25
284.901	348.25
285.132	396.25
285.364	415.25
285.595	391.25
285.826	402.25
286.057	409.25
286.288	371.25
286.52	412.25
286.751	412.25
286.982	412.25
287.213	366.25
287.444	358.25
287.675	376.25
287.906	388.25
288.138	332.25
288.369	284.25
288.6	283.25
288.831	280.25
289.062	339.25
289.293	362.25
289.524	350.25
289.755	354.25
289.986	344.25
290.217	307.25
290.448	236.25
290.679	212.25
290.91	201.25
291.141	213.25
291.371	218.25
291.602	208.25
291.833	211.25
292.064	225.25
292.295	262.25
292.526	288.25
292.757	297.25
292.987	354.25
293.218	332.25
293.449	324.25
293.68	365.25
293.91	348.25
294.141	349.25
294.372	334.25
294.603	304.25
294.833	318.25
295.064	376.25
295.295	372.25
295.525	295.25
295.756	258.25
295.987	234.25
296.217	211.25
296.448	236.25
296.679	226.25
296.909	258.25
297.14	258.25
297.37	282.25
297.601	288.25
297.831	234.25
298.062	255.25
298.292	287.25
298.523	319.25
298.753	341.25
298.984	326.25
299.214	281.25
299.445	252.25
299.675	224.25
299.905	241.25
300.136	221.25
300.366	227.25
300.597	226.25
300.827	209.25
301.057	205.25
301.288	206.25
301.518	235.25
301.748	256.25
301.979	269.25
302.209	287.25
302.439	281.25
302.669	265.25
302.9	239.25
303.13	237.25
303.36	248.25
303.59	202.25
303.82	242.25
304.051	257.25
304.281	274.25
304.511	284.25
304.741	234.25
304.971	239.25
305.201	271.25
305.431	261.25
305.661	245.25
305.891	229.25
306.121	211.25
306.352	206.25
306.582	196.25
306.812	184.25
307.042	173.25
307.272	186.25
307.502	181.25
307.731	188.25
307.961	206.25
308.191	188.25
308.421	184.25
308.651	199.25
308.881	188.25
309.111	186.25
309.341	185.25
309.571	202.25
309.8	206.25
310.03	195.25
310.26	209.25
310.49	206.25
310.72	183.25
310.949	178.25
311.179	182.25
311.409	194.25
311.639	220.25
311.868	272.25
312.098	343.25
312.328	378.25
312.557	366.25
312.787	356.25
313.017	334.25
313.246	348.25
313.476	386.25
313.706	326.25
313.935	252.25
314.165	215.25
314.394	214.25
314.624	206.25
314.853	199.25
315.083	225.25
315.312	212.25
315.542	212.25
315.771	217.25
316.001	158.25
316.23	185.25
316.46	189.25
316.689	184.25
316.919	196.25
317.148	190.25
317.377	186.25
317.607	191.25
317.836	190.25
318.065	234.25
318.295	250.25
318.524	237.25
318.753	204.25
318.983	216.25
319.212	201.25
319.441	211.25
319.67	226.25
319.9	233.25
320.129	226.25
320.358	191.25
320.587	206.25
320.816	206.25
321.046	222.25
321.275	261.25
321.504	238.25
321.733	245.25
321.962	231.25
322.191	240.25
322.42	228.25
322.649	214.25
322.878	237.25
323.108	239.25
323.337	225.25
323.566	222.25
323.795	221.25
324.024	220.25
324.253	213.25
324.482	192.25
324.71	201.25
324.939	232.25
325.168	220.25
325.397	201.25
325.626	193.25
325.855	190.25
326.084	192.25
326.313	210.25
326.542	178.25
326.77	187.25
326.999	186.25
327.228	204.25
327.457	199.25
327.686	211.25
327.914	182.25
328.143	174.25
328.372	165.25
328.6	175.25
328.829	182.25
329.058	168.25
329.287	193.25
329.515	208.25
329.744	186.25
329.972	176.25
330.201	178.25
330.43	178.25
330.658	196.25
330.887	218.25
331.115	217.25
331.344	219.25
331.572	212.25
331.801	192.25
332.03	187.25
332.258	174.25
332.486	199.25
332.715	192.25
332.943	195.25
333.172	183.25
333.4	185.25
333.629	223.25
333.857	232.25
334.085	226.25
334.314	227.25
334.542	231.25
334.771	211.25
334.999	192.25
335.227	191.25
335.455	194.25
335.684	193.25
335.912	233.25
336.14	263.25
336.369	253.25
336.597	238.25
336.825	266.25
337.053	302.25
337.281	239.25
337.51	210.25
337.738	194.25
337.966	201.25
338.194	226.25
338.422	246.25
338.65	199.25
338.878	187.25
339.106	192.25
339.334	218.25
339.562	218.25
339.79	206.25
340.018	186.25
340.246	204.25
340.474	219.25
340.702	240.25
340.93	251.25
341.158	272.25
341.386	218.25
341.614	213.25
341.842	227.25
342.07	222.25
342.298	267.25
342.526	275.25
342.754	252.25
342.981	214.25
343.209	213.25
343.437	218.25
343.665	245.25
343.893	222.25
344.12	272.25
344.348	296.25
344.576	288.25
344.804	242.25
345.031	210.25
345.259	184.25
345.487	209.25
345.714	209.25
345.942	218.25
346.17	225.25
346.397	243.25
346.625	199.25
346.853	202.25
347.08	199.25
347.308	197.25
347.535	238.25
347.763	231.25
347.99	199.25
348.218	190.25
348.445	199.25
348.673	206.25
348.9	197.25
349.128	205.25
349.355	223.25
349.583	207.25
349.81	202.25
350.037	188.25
350.265	192.25
350.492	176.25
350.72	177.25
350.947	174.25
351.174	190.25
351.402	184.25
351.629	190.25
351.856	168.25
352.083	177.25
352.311	188.25
352.538	224.25
352.765	219.25
352.992	217.25
353.22	204.25
353.447	222.25
353.674	198.25
353.901	198.25
354.128	192.25
354.355	197.25
354.583	208.25
354.81	193.25
355.037	210.25
355.264	201.25
355.491	217.25
355.718	222.25
355.945	215.25
356.172	228.25
356.399	221.25
356.626	242.25
356.853	291.25
357.08	314.25
357.307	324.25
357.534	255.25
357.761	269.25
357.988	302.25
358.215	344.25
358.441	313.25
358.668	304.25
358.895	282.25
359.122	224.25
359.349	236.25
359.576	249.25
359.802	196.25
360.029	201.25
360.256	203.25
360.483	260.25
360.709	302.25
360.936	303.25
361.163	273.25
361.39	216.25
361.616	202.25
361.843	239.25
362.07	266.25
362.296	254.25
362.523	202.25
362.749	191.25
362.976	197.25
363.203	221.25
363.429	248.25
363.656	197.25
363.882	211.25
364.109	196.25
364.335	203.25
364.562	173.25
364.788	200.25
365.015	242.25
365.241	218.25
365.468	198.25
365.694	182.25
365.92	159.25
366.147	155.25
366.373	174.25
366.599	143.25
366.826	175.25
367.052	183.25
367.278	169.25
367.505	164.25
367.731	173.25
367.957	199.25
368.184	220.25
368.41	195.25
368.636	206.25
368.862	200.25
369.089	204.25
369.315	185.25
369.541	184.25
369.767	192.25
369.993	174.25
370.219	167.25
370.445	192.25
370.672	214.25
370.898	231.25
371.124	220.25
371.35	174.25
371.576	188.25
371.802	203.25
372.028	199.25
372.254	223.25
372.48	209.25
372.706	197.25
372.932	212.25
373.158	221.25
373.384	236.25
373.61	317.25
373.835	311.25
374.061	245.25
374.287	208.25
374.513	250.25
374.739	286.25
374.965	285.25
375.191	293.25
375.416	220.25
375.642	209.25
375.868	206.25
376.094	252.25
376.319	209.25
376.545	237.25
376.771	241.25
376.997	230.25
377.222	185.25
377.448	175.25
377.674	172.25
377.899	164.25
378.125	173.25
378.35	161.25
378.576	182.25
378.802	199.25
379.027	198.25
379.253	184.25
379.478	177.25
379.704	198.25
379.929	201.25
380.155	206.25
380.38	204.25
380.606	194.25
380.831	224.25
381.057	222.25
381.282	188.25
381.507	224.25
381.733	264.25
381.958	275.25
382.184	284.25
382.409	289.25
382.634	297.25
382.86	291.25
383.085	268.25
383.31	223.25
383.535	241.25
383.761	240.25
383.986	215.25
384.211	262.25
384.436	246.25
384.662	213.25
384.887	207.25
385.112	211.25
385.337	222.25
385.562	193.25
385.787	209.25
386.013	229.25
386.238	254.25
386.463	215.25
386.688	197.25
386.913	196.25
387.138	198.25
387.363	193.25
387.588	208.25
387.813	207.25
388.038	224.25
388.263	187.25
388.488	197.25
388.713	226.25
388.938	245.25
389.163	206.25
389.387	188.25
389.612	190.25
389.837	194.25
390.062	218.25
390.287	204.25
390.512	209.25
390.736	178.25
390.961	190.25
391.186	197.25
391.411	176.25
391.636	172.25
391.86	193.25
392.085	208.25
392.31	202.25
392.534	196.25
392.759	214.25
392.984	205.25
393.208	207.25
393.433	207.25
393.658	185.25
393.882	161.25
394.107	161.25
394.331	186.25
394.556	181.25
394.78	171.25
395.005	180.25
395.229	179.25
395.454	197.25
395.678	176.25
395.903	190.25
396.127	174.25
396.352	190.25
396.576	206.25
396.801	208.25
397.025	209.25
397.249	222.25
397.474	199.25
397.698	213.25
397.922	198.25
398.147	195.25
398.371	187.25
398.595	197.25
398.82	207.25
399.044	195.25
399.268	202.25
399.492	235.25
399.717	229.25
399.941	229.25
400.165	226.25
400.389	216.25
400.613	216.25
400.837	226.25
401.062	204.25
401.286	191.25
401.51	191.25
401.734	188.25
401.958	223.25
402.182	194.25
402.406	191.25
402.63	209.25
402.854	207.25
403.078	232.25
403.302	277.25
403.526	294.25
403.75	278.25
403.974	216.25
404.198	228.25
404.422	256.25
404.645	278.25
404.869	287.25
405.093	238.25
405.317	212.25
405.541	214.25
405.765	227.25
405.988	229.25
406.212	221.25
406.436	230.25
406.66	254.25
406.883	220.25
407.107	224.25
407.331	247.25
407.555	246.25
407.778	236.25
408.002	236.25
408.226	227.25
408.449	225.25
408.673	212.25
408.896	200.25
409.12	177.25
409.344	202.25
409.567	190.25
409.791	210.25
410.014	199.25
410.238	183.25
410.461	180.25
410.685	196.25
410.908	180.25
411.132	210.25
411.355	197.25
411.578	199.25
411.802	194.25
412.025	211.25
412.249	197.25
412.472	207.25
412.695	199.25
412.919	207.25
413.142	188.25
413.365	228.25
413.589	209.25
413.812	216.25
414.035	186.25
414.258	188.25
414.482	203.25
414.705	236.25
414.928	193.25
415.151	172.25
415.374	172.25
415.597	191.25
415.821	189.25
416.044	194.25
416.267	193.25
416.49	185.25
416.713	191.25
416.936	197.25
417.159	193.25
417.382	208.25
417.605	175.25
417.828	183.25
418.051	173.25
418.274	191.25
418.497	190.25
418.72	190.25
418.943	199.25
419.166	211.25
419.389	220.25
419.611	211.25
419.834	208.25
420.057	225.25
420.28	220.25
420.503	221.25
420.726	191.25
420.948	183.25
421.171	208.25
421.394	185.25
421.617	180.25
421.839	182.25
422.062	196.25
422.285	185.25
422.507	206.25
422.73	204.25
422.953	201.25
423.175	214.25
423.398	190.25
423.621	204.25
423.843	220.25
424.066	222.25
424.288	203.25
424.511	200.25
424.733	198.25
424.956	201.25
425.178	218.25
425.401	266.25
425.623	263.25
425.846	257.25
426.068	190.25
426.291	228.25
426.513	199.25
426.735	205.25
426.958	210.25
427.18	209.25
427.402	284.25
427.625	291.25
427.847	244.25
428.069	189.25
428.292	188.25
428.514	180.25
428.736	185.25
428.958	192.25
429.181	240.25
429.403	202.25
429.625	182.25
429.847	195.25
430.069	196.25
430.292	211.25
430.514	180.25
430.736	177.25
430.958	232.25
431.18	204.25
431.402	181.25
431.624	189.25
431.846	186.25
432.068	168.25
432.29	190.25
432.512	188.25
432.734	228.25
432.956	220.25
433.178	179.25
433.4	183.25
433.622	185.25
433.844	193.25
434.066	198.25
434.287	229.25
434.509	209.25
434.731	196.25
434.953	194.25
435.175	189.25
435.397	222.25
435.618	202.25
435.84	162.25
436.062	173.25
436.284	189.25
436.505	178.25
436.727	172.25
436.949	177.25
437.17	168.25
437.392	195.25
437.614	178.25
437.835	173.25
438.057	202.25
438.278	209.25
438.5	260.25
438.721	256.25
438.943	185.25
439.165	176.25
439.386	179.25
439.608	180.25
439.829	181.25
440.05	151.25
440.272	181.25
440.493	217.25
440.715	241.25
440.936	198.25
441.158	194.25
441.379	165.25
441.6	202.25
441.822	205.25
442.043	190.25
442.264	186.25
442.486	183.25
442.707	177.25
442.928	195.25
443.149	200.25
443.371	196.25
443.592	202.25
443.813	216.25
444.034	197.25
444.255	185.25
444.476	205.25
444.698	211.25
444.919	191.25
445.14	335.25
445.361	290.25
445.582	206.25
445.803	196.25
446.024	199.25
446.245	207.25
446.466	214.25
446.687	197.25
446.908	180.25
447.129	174.25
447.35	190.25
447.571	178.25
447.792	168.25
448.013	158.25
448.234	164.25
448.455	163.25
448.675	173.25
448.896	177.25
449.117	174.25
449.338	188.25
449.559	188.25
449.779	181.25
450	187.25
450.221	182.25
450.442	170.25
450.662	179.25
450.883	167.25
451.104	168.25
451.324	173.25
451.545	167.25
451.766	175.25
451.986	181.25
452.207	193.25
452.428	167.25
452.648	161.25
452.869	191.25
453.089	203.25
453.31	199.25
453.53	162.25
453.751	169.25
453.971	174.25
454.192	188.25
454.412	165.25
454.633	164.25
454.853	169.25
455.073	169.25
455.294	154.25
455.514	180.25
455.734	167.25
455.955	184.25
456.175	169.25
456.395	154.25
456.616	168.25
456.836	156.25
457.056	159.25
457.276	155.25
457.497	168.25
457.717	163.25
457.937	164.25
458.157	157.25
458.377	150.25
458.598	151.25
458.818	154.25
459.038	159.25
459.258	172.25
459.478	162.25
459.698	207.25
459.918	199.25
460.138	206.25
460.358	202.25
460.578	187.25
460.798	206.25
461.018	199.25
461.238	196.25
461.458	193.25
461.678	199.25
461.898	209.25
462.118	229.25
462.338	201.25
462.558	208.25
462.777	220.25
462.997	210.25
463.217	237.25
463.437	233.25
463.657	217.25
463.876	221.25
464.096	219.25
464.316	210.25
464.536	213.25
464.755	215.25
464.975	221.25
465.195	220.25
465.414	218.25
465.634	211.25
465.854	199.25
466.073	195.25
466.293	168.25
466.512	208.25
466.732	209.25
466.951	208.25
467.171	198.25
467.391	184.25
467.61	193.25
467.829	188.25
468.049	205.25
468.268	177.25
468.488	169.25
468.707	189.25
468.927	216.25
469.146	226.25
469.365	201.25
469.585	197.25
469.804	198.25
470.023	209.25
470.243	189.25
470.462	194.25
470.681	186.25
470.901	197.25
471.12	205.25
471.339	206.25
471.558	188.25
471.777	204.25
471.997	205.25
472.216	224.25
472.435	226.25
472.654	213.25
472.873	204.25
473.092	209.25
473.311	223.25
473.53	194.25
473.749	186.25
473.968	209.25
474.187	200.25
474.406	197.25
474.625	189.25
474.844	199.25
475.063	212.25
475.282	213.25
475.501	230.25
475.72	254.25
475.939	219.25
476.158	227.25
476.377	266.25
476.596	298.25
476.814	317.25
477.033	252.25
477.252	211.25
477.471	212.25
477.69	218.25
477.908	219.25
478.127	241.25
478.346	242.25
478.564	256.25
478.783	220.25
479.002	240.25
479.22	246.25
479.439	272.25
479.658	239.25
479.876	211.25
480.095	228.25
480.313	222.25
480.532	220.25
480.751	229.25
480.969	224.25
481.188	231.25
481.406	254.25
481.624	236.25
481.843	207.25
482.061	212.25
482.28	226.25
482.498	308.25
482.717	289.25
482.935	231.25
483.153	214.25
483.372	207.25
483.59	207.25
483.808	215.25
484.027	216.25
484.245	216.25
484.463	191.25
484.681	194.25
484.9	222.25
485.118	260.25
485.336	216.25
485.554	221.25
485.772	218.25
485.99	239.25
486.209	252.25
486.427	246.25
486.645	229.25
486.863	238.25
487.081	248.25
487.299	268.25
487.517	250.25
487.735	236.25
487.953	233.25
488.171	247.25
488.389	213.25
488.607	215.25
488.825	228.25
489.043	253.25
489.261	277.25
489.479	307.25
489.696	246.25
489.914	230.25
490.132	210.25
490.35	206.25
490.568	224.25
490.786	215.25
491.003	230.25
491.221	229.25
491.439	203.25
491.657	213.25
491.874	247.25
492.092	284.25
492.31	337.25
492.527	326.25
492.745	278.25
492.963	254.25
493.18	245.25
493.398	242.25
493.615	223.25
493.833	229.25
494.05	240.25
494.268	241.25
494.485	257.25
494.703	231.25
494.92	229.25
495.138	218.25
495.355	220.25
495.573	231.25
495.79	274.25
496.008	350.25
496.225	272.25
496.442	242.25
496.66	254.25
496.877	286.25
497.094	274.25
497.312	260.25
497.529	260.25
497.746	254.25
497.963	252.25
498.181	261.25
498.398	302.25
498.615	311.25
498.832	328.25
499.049	341.25
499.267	290.25
499.484	311.25
499.701	335.25
499.918	365.25
500.135	374.25
500.352	389.25
500.569	398.25
500.786	423.25
501.003	414.25
501.22	367.25
501.437	334.25
501.654	324.25
501.871	304.25
502.088	335.25
502.305	300.25
502.522	309.25
502.739	297.25
