Data from NickelSpatula.Lamp.E10.P2_HRD10591_11-58-45-527.txt Node
Date: Tue Jul 23 11:58:45 EDT 2019
User: cochatt
Spectrometer: HR+D1059
Trigger mode: 1
Integration Time (sec): 1.000000E-1
Scans to average: 1
Electric dark correction enabled: true
Nonlinearity correction enabled: false
Boxcar width: 0
XAxis mode: Wavelengths
Number of Pixels in Spectrum: 2048
>>>>>Begin Spectral Data<<<<<
223.165	-14.06
223.4	-14.06
223.635	-14.06
223.869	-22.06
224.104	-18.06
224.338	-19.06
224.573	-7.06
224.808	-6.06
225.042	-1.06
225.277	13.94
225.511	-8.06
225.746	4.94
225.98	8.94
226.215	-7.06
226.449	1.94
226.683	12.94
226.918	23.94
227.152	35.94
227.387	49.94
227.621	40.94
227.856	38.94
228.09	45.94
228.324	39.94
228.559	48.94
228.793	96.94
229.027	133.94
229.262	153.94
229.496	154.94
229.73	178.94
229.964	203.94
230.199	203.94
230.433	222.94
230.667	208.94
230.901	190.94
231.136	194.94
231.37	207.94
231.604	226.94
231.838	234.94
232.072	261.94
232.306	246.94
232.541	256.94
232.775	262.94
233.009	265.94
233.243	293.94
233.477	305.94
233.711	342.94
233.945	348.94
234.179	320.94
234.413	331.94
234.647	375.94
234.881	464.94
235.115	414.94
235.349	395.94
235.583	351.94
235.817	346.94
236.051	380.94
236.285	426.94
236.519	468.94
236.753	430.94
236.987	443.94
237.221	409.94
237.455	405.94
237.689	436.94
237.922	463.94
238.156	471.94
238.39	542.94
238.624	670.94
238.858	569.94
239.091	480.94
239.325	540.94
239.559	497.94
239.793	544.94
240.027	641.94
240.26	596.94
240.494	558.94
240.728	581.94
240.961	677.94
241.195	649.94
241.429	614.94
241.662	626.94
241.896	517.94
242.13	487.94
242.363	449.94
242.597	468.94
242.83	546.94
243.064	550.94
243.298	574.94
243.531	601.94
243.765	634.94
243.998	646.94
244.232	601.94
244.465	596.94
244.699	565.94
244.932	679.94
245.166	624.94
245.399	557.94
245.633	544.94
245.866	545.94
246.099	611.94
246.333	722.94
246.566	771.94
246.8	767.94
247.033	759.94
247.266	663.94
247.5	682.94
247.733	679.94
247.966	658.94
248.2	700.94
248.433	765.94
248.666	822.94
248.899	846.94
249.133	880.94
249.366	998.94
249.599	1061.94
249.832	955.94
250.066	800.94
250.299	859.94
250.532	834.94
250.765	791.94
250.998	744.94
251.231	686.94
251.465	778.94
251.698	848.94
251.931	806.94
252.164	853.94
252.397	922.94
252.63	1084.94
252.863	1170.94
253.096	1174.94
253.329	1146.94
253.562	1082.94
253.795	1223.94
254.028	1370.94
254.261	1359.94
254.494	1250.94
254.727	1137.94
254.96	1117.94
255.193	1177.94
255.426	1114.94
255.659	863.94
255.892	771.94
256.124	880.94
256.357	1024.94
256.59	1190.94
256.823	1137.94
257.056	965.94
257.289	916.94
257.521	985.94
257.754	1134.94
257.987	1287.94
258.22	1106.94
258.452	1004.94
258.685	1141.94
258.918	1255.94
259.151	1235.94
259.383	1336.94
259.616	1509.94
259.849	1545.94
260.081	1718.94
260.314	1896.94
260.547	1453.94
260.779	1478.94
261.012	1713.94
261.244	1580.94
261.477	1598.94
261.71	1512.94
261.942	1273.94
262.175	1278.94
262.407	1243.94
262.64	1237.94
262.872	1507.94
263.105	1643.94
263.337	1699.94
263.57	1508.94
263.802	1006.94
264.035	903.94
264.267	884.94
264.499	774.94
264.732	695.94
264.964	680.94
265.197	713.94
265.429	752.94
265.661	808.94
265.894	857.94
266.126	925.94
266.358	1005.94
266.591	1253.94
266.823	1520.94
267.055	1383.94
267.287	1260.94
267.52	1253.94
267.752	1349.94
267.984	1419.94
268.216	1351.94
268.448	1127.94
268.681	1105.94
268.913	1191.94
269.145	1254.94
269.377	1312.94
269.609	1296.94
269.841	1218.94
270.073	1298.94
270.306	1368.94
270.538	1358.94
270.77	1397.94
271.002	1419.94
271.234	1433.94
271.466	1513.94
271.698	1446.94
271.93	1414.94
272.162	1448.94
272.394	1408.94
272.626	1407.94
272.858	1472.94
273.09	1478.94
273.322	1314.94
273.553	1298.94
273.785	1518.94
274.017	1976.94
274.249	2464.94
274.481	2513.94
274.713	2735.94
274.945	3130.94
275.176	3213.94
275.408	2869.94
275.64	2611.94
275.872	2583.94
276.104	2192.94
276.335	1911.94
276.567	1830.94
276.799	1959.94
277.031	2066.94
277.262	1618.94
277.494	1237.94
277.726	1181.94
277.957	1342.94
278.189	1454.94
278.421	1465.94
278.652	1414.94
278.884	1325.94
279.115	1271.94
279.347	1198.94
279.579	1220.94
279.81	1189.94
280.042	1226.94
280.273	1210.94
280.505	1152.94
280.736	1014.94
280.968	1011.94
281.199	1096.94
281.431	1228.94
281.662	1179.94
281.894	1168.94
282.125	1265.94
282.356	1341.94
282.588	1377.94
282.819	1290.94
283.051	1360.94
283.282	1680.94
283.513	1928.94
283.745	2177.94
283.976	2167.94
284.207	2006.94
284.439	2092.94
284.67	2019.94
284.901	1773.94
285.132	1908.94
285.364	1964.94
285.595	1825.94
285.826	1981.94
286.057	2030.94
286.288	1973.94
286.52	1989.94
286.751	2110.94
286.982	2101.94
287.213	1785.94
287.444	1754.94
287.675	1801.94
287.906	1821.94
288.138	1552.94
288.369	1383.94
288.6	1267.94
288.831	1302.94
289.062	1532.94
289.293	1697.94
289.524	1569.94
289.755	1558.94
289.986	1603.94
290.217	1425.94
290.448	1132.94
290.679	968.94
290.91	908.94
291.141	933.94
291.371	986.94
291.602	967.94
291.833	978.94
292.064	1059.94
292.295	1183.94
292.526	1360.94
292.757	1444.94
292.987	1572.94
293.218	1560.94
293.449	1582.94
293.68	1694.94
293.91	1578.94
294.141	1613.94
294.372	1487.94
294.603	1416.94
294.833	1588.94
295.064	1798.94
295.295	1705.94
295.525	1308.94
295.756	1128.94
295.987	1021.94
296.217	1020.94
296.448	1055.94
296.679	1128.94
296.909	1242.94
297.14	1327.94
297.37	1425.94
297.601	1365.94
297.831	1150.94
298.062	1251.94
298.292	1429.94
298.523	1608.94
298.753	1769.94
298.984	1570.94
299.214	1274.94
299.445	1079.94
299.675	1046.94
299.905	1043.94
300.136	1098.94
300.366	1172.94
300.597	1160.94
300.827	1030.94
301.057	998.94
301.288	1030.94
301.518	1082.94
301.748	1199.94
301.979	1320.94
302.209	1443.94
302.439	1466.94
302.669	1250.94
302.9	1243.94
303.13	1135.94
303.36	1095.94
303.59	1055.94
303.82	1120.94
304.051	1243.94
304.281	1354.94
304.511	1313.94
304.741	1135.94
304.971	1188.94
305.201	1280.94
305.431	1217.94
305.661	1084.94
305.891	1104.94
306.121	1096.94
306.352	969.94
306.582	892.94
306.812	864.94
307.042	860.94
307.272	793.94
307.502	822.94
307.731	878.94
307.961	902.94
308.191	879.94
308.421	812.94
308.651	809.94
308.881	770.94
309.111	749.94
309.341	820.94
309.571	908.94
309.8	920.94
310.03	944.94
310.26	1020.94
310.49	982.94
310.72	894.94
310.949	848.94
311.179	855.94
311.409	909.94
311.639	1087.94
311.868	1412.94
312.098	1779.94
312.328	1953.94
312.557	1873.94
312.787	1887.94
313.017	1679.94
313.246	1805.94
313.476	1946.94
313.706	1613.94
313.935	1290.94
314.165	1056.94
314.394	933.94
314.624	955.94
314.853	984.94
315.083	1026.94
315.312	1014.94
315.542	1000.94
315.771	957.94
316.001	858.94
316.23	841.94
316.46	842.94
316.689	893.94
316.919	877.94
317.148	886.94
317.377	872.94
317.607	885.94
317.836	951.94
318.065	1114.94
318.295	1221.94
318.524	1143.94
318.753	976.94
318.983	933.94
319.212	938.94
319.441	966.94
319.67	1129.94
319.9	1236.94
320.129	1120.94
320.358	970.94
320.587	947.94
320.816	1032.94
321.046	1167.94
321.275	1351.94
321.504	1357.94
321.733	1281.94
321.962	1235.94
322.191	1168.94
322.42	1120.94
322.649	1145.94
322.878	1208.94
323.108	1231.94
323.337	1126.94
323.566	1124.94
323.795	1068.94
324.024	1017.94
324.253	997.94
324.482	972.94
324.71	1075.94
324.939	1261.94
325.168	1128.94
325.397	941.94
325.626	889.94
325.855	905.94
326.084	929.94
326.313	882.94
326.542	839.94
326.77	892.94
326.999	900.94
327.228	968.94
327.457	996.94
327.686	1030.94
327.914	892.94
328.143	835.94
328.372	828.94
328.6	833.94
328.829	846.94
329.058	894.94
329.287	892.94
329.515	912.94
329.744	862.94
329.972	834.94
330.201	807.94
330.43	846.94
330.658	934.94
330.887	1098.94
331.115	1063.94
331.344	1012.94
331.572	958.94
331.801	910.94
332.03	863.94
332.258	904.94
332.486	962.94
332.715	945.94
332.943	900.94
333.172	892.94
333.4	923.94
333.629	1002.94
333.857	1092.94
334.085	1125.94
334.314	1111.94
334.542	1034.94
334.771	955.94
334.999	919.94
335.227	918.94
335.455	943.94
335.684	1018.94
335.912	1204.94
336.14	1272.94
336.369	1261.94
336.597	1182.94
336.825	1390.94
337.053	1534.94
337.281	1233.94
337.51	999.94
337.738	965.94
337.966	1052.94
338.194	1180.94
338.422	1124.94
338.65	974.94
338.878	888.94
339.106	924.94
339.334	1033.94
339.562	1085.94
339.79	1012.94
340.018	955.94
340.246	1048.94
340.474	1222.94
340.702	1278.94
340.93	1310.94
341.158	1326.94
341.386	1150.94
341.614	1106.94
341.842	1123.94
342.07	1160.94
342.298	1323.94
342.526	1388.94
342.754	1208.94
342.981	1132.94
343.209	1070.94
343.437	1150.94
343.665	1234.94
343.893	1191.94
344.12	1370.94
344.348	1609.94
344.576	1427.94
344.804	1202.94
345.031	1039.94
345.259	994.94
345.487	963.94
345.714	1060.94
345.942	1098.94
346.17	1197.94
346.397	1159.94
346.625	1022.94
346.853	992.94
347.08	956.94
347.308	1011.94
347.535	1128.94
347.763	1125.94
347.99	986.94
348.218	901.94
348.445	958.94
348.673	950.94
348.9	994.94
349.128	1064.94
349.355	1076.94
349.583	1054.94
349.81	1021.94
350.037	936.94
350.265	842.94
350.492	808.94
350.72	784.94
350.947	832.94
351.174	892.94
351.402	933.94
351.629	988.94
351.856	936.94
352.083	880.94
352.311	987.94
352.538	1091.94
352.765	1170.94
352.992	1052.94
353.22	975.94
353.447	978.94
353.674	952.94
353.901	940.94
354.128	962.94
354.355	1002.94
354.583	989.94
354.81	980.94
355.037	1024.94
355.264	1020.94
355.491	1086.94
355.718	1175.94
355.945	1158.94
356.172	1126.94
356.399	1126.94
356.626	1345.94
356.853	1650.94
357.08	1746.94
357.307	1777.94
357.534	1393.94
357.761	1440.94
357.988	1745.94
358.215	2064.94
358.441	2015.94
358.668	1663.94
358.895	1482.94
359.122	1212.94
359.349	1204.94
359.576	1342.94
359.802	1113.94
360.029	958.94
360.256	1064.94
360.483	1331.94
360.709	1658.94
360.936	1701.94
361.163	1484.94
361.39	1144.94
361.616	1094.94
361.843	1244.94
362.07	1539.94
362.296	1410.94
362.523	1093.94
362.749	930.94
362.976	988.94
363.203	1232.94
363.429	1400.94
363.656	1106.94
363.882	1024.94
364.109	1002.94
364.335	981.94
364.562	969.94
364.788	1144.94
365.015	1323.94
365.241	1180.94
365.468	973.94
365.694	855.94
365.92	797.94
366.147	792.94
366.373	792.94
366.599	777.94
366.826	800.94
367.052	824.94
367.278	869.94
367.505	839.94
367.731	895.94
367.957	998.94
368.184	1059.94
368.41	1001.94
368.636	1038.94
368.862	1062.94
369.089	1025.94
369.315	895.94
369.541	904.94
369.767	882.94
369.993	850.94
370.219	878.94
370.445	934.94
370.672	1024.94
370.898	1123.94
371.124	1123.94
371.35	945.94
371.576	884.94
371.802	998.94
372.028	1225.94
372.254	1353.94
372.48	1123.94
372.706	1028.94
372.932	1092.94
373.158	1103.94
373.384	1376.94
373.61	1881.94
373.835	1891.94
374.061	1423.94
374.287	1188.94
374.513	1437.94
374.739	1669.94
374.965	1732.94
375.191	1710.94
375.416	1161.94
375.642	1012.94
375.868	1208.94
376.094	1374.94
376.319	1214.94
376.545	1346.94
376.771	1383.94
376.997	1151.94
377.222	890.94
377.448	794.94
377.674	742.94
377.899	742.94
378.125	748.94
378.35	752.94
378.576	784.94
378.802	860.94
379.027	926.94
379.253	880.94
379.478	950.94
379.704	1059.94
379.929	1118.94
380.155	1104.94
380.38	975.94
380.606	1003.94
380.831	1116.94
381.057	1025.94
381.282	1006.94
381.507	1176.94
381.733	1484.94
381.958	1555.94
382.184	1673.94
382.409	1746.94
382.634	1681.94
382.86	1764.94
383.085	1462.94
383.31	1127.94
383.535	1231.94
383.761	1225.94
383.986	1168.94
384.211	1454.94
384.436	1400.94
384.662	1040.94
384.887	995.94
385.112	1008.94
385.337	1029.94
385.562	985.94
385.787	1123.94
386.013	1253.94
386.238	1278.94
386.463	1024.94
386.688	964.94
386.913	963.94
387.138	898.94
387.363	978.94
387.588	1012.94
387.813	980.94
388.038	1128.94
388.263	981.94
388.488	958.94
388.713	1145.94
388.938	1240.94
389.163	1023.94
389.387	916.94
389.612	953.94
389.837	956.94
390.062	962.94
390.287	998.94
390.512	1031.94
390.736	944.94
390.961	897.94
391.186	851.94
391.411	862.94
391.636	865.94
391.86	953.94
392.085	1043.94
392.31	1022.94
392.534	945.94
392.759	946.94
392.984	991.94
393.208	1007.94
393.433	871.94
393.658	829.94
393.882	779.94
394.107	779.94
394.331	778.94
394.556	816.94
394.78	821.94
395.005	867.94
395.229	877.94
395.454	865.94
395.678	912.94
395.903	937.94
396.127	863.94
396.352	902.94
396.576	985.94
396.801	1033.94
397.025	1097.94
397.249	1151.94
397.474	951.94
397.698	932.94
397.922	1008.94
398.147	896.94
398.371	933.94
398.595	964.94
398.82	945.94
399.044	924.94
399.268	1027.94
399.492	1056.94
399.717	1048.94
399.941	1103.94
400.165	1079.94
400.389	1039.94
400.613	1061.94
400.837	1043.94
401.062	930.94
401.286	889.94
401.51	921.94
401.734	887.94
401.958	927.94
402.182	883.94
402.406	922.94
402.63	921.94
402.854	959.94
403.078	1053.94
403.302	1333.94
403.526	1362.94
403.75	1206.94
403.974	1034.94
404.198	1093.94
404.422	1253.94
404.645	1465.94
404.869	1598.94
405.093	1182.94
405.317	1017.94
405.541	961.94
405.765	1006.94
405.988	1034.94
406.212	1102.94
406.436	1333.94
406.66	1453.94
406.883	1160.94
407.107	1176.94
407.331	1402.94
407.555	1319.94
407.778	1123.94
408.002	1064.94
408.226	1045.94
408.449	1050.94
408.673	1049.94
408.896	948.94
409.12	915.94
409.344	908.94
409.567	880.94
409.791	889.94
410.014	890.94
410.238	872.94
410.461	877.94
410.685	879.94
410.908	890.94
411.132	941.94
411.355	914.94
411.578	953.94
411.802	933.94
412.025	998.94
412.249	999.94
412.472	971.94
412.695	970.94
412.919	973.94
413.142	996.94
413.365	1064.94
413.589	1036.94
413.812	958.94
414.035	928.94
414.258	952.94
414.482	1050.94
414.705	1119.94
414.928	923.94
415.151	905.94
415.374	924.94
415.597	906.94
415.821	905.94
416.044	904.94
416.267	848.94
416.49	884.94
416.713	857.94
416.936	841.94
417.159	885.94
417.382	894.94
417.605	898.94
417.828	904.94
418.051	935.94
418.274	918.94
418.497	924.94
418.72	942.94
418.943	940.94
419.166	994.94
419.389	1032.94
419.611	1025.94
419.834	1019.94
420.057	1152.94
420.28	1124.94
420.503	1049.94
420.726	912.94
420.948	868.94
421.171	910.94
421.394	868.94
421.617	875.94
421.839	872.94
422.062	947.94
422.285	932.94
422.507	934.94
422.73	940.94
422.953	976.94
423.175	959.94
423.398	947.94
423.621	1039.94
423.843	1028.94
424.066	996.94
424.288	916.94
424.511	909.94
424.733	905.94
424.956	950.94
425.178	1069.94
425.401	1199.94
425.623	1409.94
425.846	1136.94
426.068	1023.94
426.291	1139.94
426.513	1047.94
426.735	953.94
426.958	983.94
427.18	1149.94
427.402	1525.94
427.625	1489.94
427.847	1216.94
428.069	923.94
428.292	903.94
428.514	893.94
428.736	853.94
428.958	962.94
429.181	1143.94
429.403	980.94
429.625	896.94
429.847	894.94
430.069	896.94
430.292	937.94
430.514	894.94
430.736	920.94
430.958	1202.94
431.18	1122.94
431.402	854.94
431.624	803.94
431.846	824.94
432.068	790.94
432.29	810.94
432.512	895.94
432.734	1259.94
432.956	1128.94
433.178	894.94
433.4	830.94
433.622	845.94
433.844	871.94
434.066	951.94
434.287	921.94
434.509	899.94
434.731	933.94
434.953	858.94
435.175	930.94
435.397	1027.94
435.618	923.94
435.84	834.94
436.062	824.94
436.284	853.94
436.505	821.94
436.727	773.94
436.949	776.94
437.17	853.94
437.392	856.94
437.614	838.94
437.835	830.94
438.057	867.94
438.278	991.94
438.5	1418.94
438.721	1409.94
438.943	939.94
439.165	792.94
439.386	772.94
439.608	771.94
439.829	778.94
440.05	792.94
440.272	841.94
440.493	992.94
440.715	1246.94
440.936	985.94
441.158	883.94
441.379	850.94
441.6	986.94
441.822	1039.94
442.043	886.94
442.264	879.94
442.486	868.94
442.707	872.94
442.928	881.94
443.149	910.94
443.371	903.94
443.592	913.94
443.813	916.94
444.034	898.94
444.255	893.94
444.476	945.94
444.698	937.94
444.919	932.94
445.14	1097.94
445.361	1020.94
445.582	995.94
445.803	924.94
446.024	945.94
446.245	940.94
446.466	912.94
446.687	864.94
446.908	893.94
447.129	851.94
447.35	839.94
447.571	786.94
447.792	798.94
448.013	801.94
448.234	786.94
448.455	793.94
448.675	813.94
448.896	798.94
449.117	817.94
449.338	822.94
449.559	812.94
449.779	870.94
450	850.94
450.221	853.94
450.442	829.94
450.662	816.94
450.883	816.94
451.104	813.94
451.324	814.94
451.545	825.94
451.766	819.94
451.986	790.94
452.207	775.94
452.428	770.94
452.648	776.94
452.869	820.94
453.089	838.94
453.31	836.94
453.53	729.94
453.751	734.94
453.971	748.94
454.192	761.94
454.412	801.94
454.633	751.94
454.853	761.94
455.073	737.94
455.294	740.94
455.514	773.94
455.734	792.94
455.955	798.94
456.175	837.94
456.395	768.94
456.616	708.94
456.836	718.94
457.056	704.94
457.276	690.94
457.497	719.94
457.717	725.94
457.937	737.94
458.157	726.94
458.377	727.94
458.598	760.94
458.818	788.94
459.038	808.94
459.258	834.94
459.478	866.94
459.698	906.94
459.918	907.94
460.138	878.94
460.358	917.94
460.578	885.94
460.798	881.94
461.018	897.94
461.238	862.94
461.458	872.94
461.678	872.94
461.898	934.94
462.118	904.94
462.338	917.94
462.558	964.94
462.777	1021.94
462.997	1025.94
463.217	998.94
463.437	1024.94
463.657	1034.94
463.876	974.94
464.096	938.94
464.316	972.94
464.536	983.94
464.755	993.94
464.975	1023.94
465.195	931.94
465.414	982.94
465.634	953.94
465.854	933.94
466.073	862.94
466.293	873.94
466.512	941.94
466.732	1038.94
466.951	1050.94
467.171	930.94
467.391	865.94
467.61	888.94
467.829	940.94
468.049	941.94
468.268	884.94
468.488	855.94
468.707	932.94
468.927	1064.94
469.146	1152.94
469.365	1064.94
469.585	960.94
469.804	1004.94
470.023	1122.94
470.243	984.94
470.462	922.94
470.681	915.94
470.901	936.94
471.12	952.94
471.339	992.94
471.558	924.94
471.777	921.94
471.997	1009.94
472.216	1118.94
472.435	1080.94
472.654	990.94
472.873	952.94
473.092	1028.94
473.311	1047.94
473.53	963.94
473.749	921.94
473.968	965.94
474.187	950.94
474.406	969.94
474.625	924.94
474.844	926.94
475.063	1025.94
475.282	1004.94
475.501	1057.94
475.72	1124.94
475.939	1137.94
476.158	1097.94
476.377	1242.94
476.596	1462.94
476.814	1500.94
477.033	1229.94
477.252	1043.94
477.471	1030.94
477.69	1026.94
477.908	1088.94
478.127	1161.94
478.346	1070.94
478.564	1146.94
478.783	1098.94
479.002	1129.94
479.22	1272.94
479.439	1469.94
479.658	1223.94
479.876	1117.94
480.095	1205.94
480.313	1203.94
480.532	1110.94
480.751	1091.94
480.969	1098.94
481.188	1271.94
481.406	1276.94
481.624	1250.94
481.843	1109.94
482.061	1032.94
482.28	1203.94
482.498	1455.94
482.717	1376.94
482.935	1192.94
483.153	1156.94
483.372	1058.94
483.59	1048.94
483.808	1065.94
484.027	1036.94
484.245	986.94
484.463	1016.94
484.681	1032.94
484.9	1083.94
485.118	1184.94
485.336	1096.94
485.554	999.94
485.772	1094.94
485.99	1184.94
486.209	1248.94
486.427	1246.94
486.645	1206.94
486.863	1255.94
487.081	1242.94
487.299	1393.94
487.517	1352.94
487.735	1238.94
487.953	1262.94
488.171	1311.94
488.389	1222.94
488.607	1116.94
488.825	1170.94
489.043	1266.94
489.261	1410.94
489.479	1541.94
489.696	1282.94
489.914	1184.94
490.132	1136.94
490.35	1135.94
490.568	1130.94
490.786	1114.94
491.003	1135.94
491.221	1145.94
491.439	1153.94
491.657	1130.94
491.874	1225.94
492.092	1524.94
492.31	1810.94
492.527	1756.94
492.745	1498.94
492.963	1314.94
493.18	1280.94
493.398	1328.94
493.615	1318.94
493.833	1245.94
494.05	1265.94
494.268	1263.94
