Data from NickelSpatula.Lamp.E10.P2_HRD10591_11-57-26-532.txt Node
Date: Tue Jul 23 11:57:26 EDT 2019
User: cochatt
Spectrometer: HR+D1059
Trigger mode: 1
Integration Time (sec): 1.000000E-1
Scans to average: 1
Electric dark correction enabled: true
Nonlinearity correction enabled: false
Boxcar width: 0
XAxis mode: Wavelengths
Number of Pixels in Spectrum: 2048
>>>>>Begin Spectral Data<<<<<
223.165	-24.25
223.4	-24.25
223.635	-24.25
223.869	-24.25
224.104	-17.25
224.338	-15.25
224.573	-3.25
224.808	-5.25
225.042	-3.25
225.277	-17.25
225.511	0.75
225.746	-1.25
225.98	0.75
226.215	18.75
226.449	9.75
226.683	28.75
226.918	19.75
227.152	32.75
227.387	26.75
227.621	36.75
227.856	39.75
228.09	65.75
228.324	44.75
228.559	54.75
228.793	93.75
229.027	136.75
229.262	174.75
229.496	166.75
229.73	148.75
229.964	194.75
230.199	208.75
230.433	213.75
230.667	214.75
230.901	209.75
231.136	206.75
231.37	205.75
231.604	228.75
231.838	244.75
232.072	250.75
232.306	238.75
232.541	231.75
232.775	210.75
233.009	257.75
233.243	298.75
233.477	302.75
233.711	335.75
233.945	320.75
234.179	326.75
234.413	336.75
234.647	382.75
234.881	456.75
235.115	432.75
235.349	407.75
235.583	350.75
235.817	330.75
236.051	367.75
236.285	423.75
236.519	443.75
236.753	412.75
236.987	390.75
237.221	402.75
237.455	412.75
237.689	419.75
237.922	468.75
238.156	471.75
238.39	549.75
238.624	616.75
238.858	567.75
239.091	486.75
239.325	516.75
239.559	466.75
239.793	532.75
240.027	636.75
240.26	602.75
240.494	590.75
240.728	579.75
240.961	659.75
241.195	624.75
241.429	620.75
241.662	591.75
241.896	501.75
242.13	455.75
242.363	430.75
242.597	466.75
242.83	545.75
243.064	530.75
243.298	583.75
243.531	591.75
243.765	597.75
243.998	611.75
244.232	592.75
244.465	599.75
244.699	581.75
244.932	646.75
245.166	605.75
245.399	544.75
245.633	535.75
245.866	543.75
246.099	596.75
246.333	690.75
246.566	734.75
246.8	737.75
247.033	719.75
247.266	681.75
247.5	692.75
247.733	671.75
247.966	649.75
248.2	680.75
248.433	761.75
248.666	827.75
248.899	849.75
249.133	854.75
249.366	944.75
249.599	1036.75
249.832	926.75
250.066	806.75
250.299	851.75
250.532	826.75
250.765	783.75
250.998	704.75
251.231	681.75
251.465	769.75
251.698	801.75
251.931	762.75
252.164	832.75
252.397	930.75
252.63	1017.75
252.863	1154.75
253.096	1162.75
253.329	1139.75
253.562	1082.75
253.795	1169.75
254.028	1307.75
254.261	1323.75
254.494	1246.75
254.727	1116.75
254.96	1084.75
255.193	1153.75
255.426	1092.75
255.659	843.75
255.892	798.75
256.124	893.75
256.357	997.75
256.59	1152.75
256.823	1112.75
257.056	942.75
257.289	910.75
257.521	949.75
257.754	1101.75
257.987	1238.75
258.22	1093.75
258.452	974.75
258.685	1138.75
258.918	1257.75
259.151	1212.75
259.383	1317.75
259.616	1453.75
259.849	1534.75
260.081	1658.75
260.314	1832.75
260.547	1446.75
260.779	1460.75
261.012	1675.75
261.244	1576.75
261.477	1572.75
261.71	1509.75
261.942	1256.75
262.175	1258.75
262.407	1214.75
262.64	1238.75
262.872	1454.75
263.105	1605.75
263.337	1684.75
263.57	1485.75
263.802	1017.75
264.035	886.75
264.267	866.75
264.499	787.75
264.732	702.75
264.964	680.75
265.197	716.75
265.429	751.75
265.661	805.75
265.894	830.75
266.126	896.75
266.358	1009.75
266.591	1242.75
266.823	1481.75
267.055	1417.75
267.287	1205.75
267.52	1254.75
267.752	1308.75
267.984	1417.75
268.216	1356.75
268.448	1074.75
268.681	1084.75
268.913	1152.75
269.145	1227.75
269.377	1324.75
269.609	1243.75
269.841	1190.75
270.073	1322.75
270.306	1335.75
270.538	1367.75
270.77	1388.75
271.002	1404.75
271.234	1437.75
271.466	1463.75
271.698	1415.75
271.93	1420.75
272.162	1424.75
272.394	1394.75
272.626	1352.75
272.858	1384.75
273.09	1423.75
273.322	1265.75
273.553	1254.75
273.785	1456.75
274.017	1893.75
274.249	2336.75
274.481	2417.75
274.713	2678.75
274.945	3002.75
275.176	3159.75
275.408	2771.75
275.64	2585.75
275.872	2519.75
276.104	2123.75
276.335	1906.75
276.567	1863.75
276.799	1907.75
277.031	1976.75
277.262	1560.75
277.494	1204.75
277.726	1183.75
277.957	1296.75
278.189	1481.75
278.421	1428.75
278.652	1369.75
278.884	1331.75
279.115	1266.75
279.347	1190.75
279.579	1184.75
279.81	1193.75
280.042	1185.75
280.273	1210.75
280.505	1109.75
280.736	984.75
280.968	1014.75
281.199	1075.75
281.431	1207.75
281.662	1201.75
281.894	1157.75
282.125	1225.75
282.356	1322.75
282.588	1390.75
282.819	1221.75
283.051	1336.75
283.282	1689.75
283.513	1903.75
283.745	2151.75
283.976	2118.75
284.207	1944.75
284.439	2052.75
284.67	1952.75
284.901	1750.75
285.132	1917.75
285.364	2001.75
285.595	1823.75
285.826	1959.75
286.057	1977.75
286.288	1889.75
286.52	1943.75
286.751	2053.75
286.982	2010.75
287.213	1764.75
287.444	1682.75
287.675	1789.75
287.906	1762.75
288.138	1527.75
288.369	1356.75
288.6	1262.75
288.831	1290.75
289.062	1533.75
289.293	1656.75
289.524	1604.75
289.755	1592.75
289.986	1609.75
290.217	1424.75
290.448	1088.75
290.679	978.75
290.91	908.75
291.141	927.75
291.371	952.75
291.602	961.75
291.833	964.75
292.064	1065.75
292.295	1197.75
292.526	1364.75
292.757	1422.75
292.987	1493.75
293.218	1547.75
293.449	1574.75
293.68	1640.75
293.91	1573.75
294.141	1597.75
294.372	1518.75
294.603	1383.75
294.833	1509.75
295.064	1802.75
295.295	1708.75
295.525	1280.75
295.756	1109.75
295.987	984.75
296.217	1006.75
296.448	1022.75
296.679	1081.75
296.909	1181.75
297.14	1244.75
297.37	1416.75
297.601	1312.75
297.831	1151.75
298.062	1236.75
298.292	1439.75
298.523	1509.75
298.753	1715.75
298.984	1548.75
299.214	1252.75
299.445	1040.75
299.675	1014.75
299.905	985.75
300.136	1028.75
300.366	1139.75
300.597	1114.75
300.827	995.75
301.057	959.75
301.288	962.75
301.518	1041.75
301.748	1169.75
301.979	1296.75
302.209	1368.75
302.439	1401.75
302.669	1193.75
302.9	1188.75
303.13	1122.75
303.36	1063.75
303.59	1034.75
303.82	1072.75
304.051	1196.75
304.281	1315.75
304.511	1251.75
304.741	1103.75
304.971	1168.75
305.201	1248.75
305.431	1187.75
305.661	1033.75
305.891	1025.75
306.121	1025.75
306.352	933.75
306.582	848.75
306.812	824.75
307.042	845.75
307.272	812.75
307.502	803.75
307.731	852.75
307.961	919.75
308.191	869.75
308.421	804.75
308.651	778.75
308.881	752.75
309.111	755.75
309.341	807.75
309.571	878.75
309.8	882.75
310.03	941.75
310.26	972.75
310.49	930.75
310.72	850.75
310.949	841.75
311.179	890.75
311.409	932.75
311.639	1071.75
311.868	1354.75
312.098	1714.75
312.328	1903.75
312.557	1841.75
312.787	1854.75
313.017	1645.75
313.246	1766.75
313.476	1922.75
313.706	1576.75
313.935	1254.75
314.165	1076.75
314.394	936.75
314.624	915.75
314.853	989.75
315.083	1041.75
315.312	996.75
315.542	948.75
315.771	922.75
316.001	852.75
316.23	796.75
316.46	823.75
316.689	850.75
316.919	860.75
317.148	897.75
317.377	872.75
317.607	870.75
317.836	925.75
318.065	1072.75
318.295	1221.75
318.524	1114.75
318.753	945.75
318.983	908.75
319.212	913.75
319.441	966.75
319.67	1094.75
319.9	1161.75
320.129	1065.75
320.358	963.75
320.587	923.75
320.816	985.75
321.046	1156.75
321.275	1295.75
321.504	1283.75
321.733	1201.75
321.962	1171.75
322.191	1126.75
322.42	1086.75
322.649	1068.75
322.878	1186.75
323.108	1122.75
323.337	1066.75
323.566	1059.75
323.795	1034.75
324.024	1005.75
324.253	948.75
324.482	936.75
324.71	1030.75
324.939	1173.75
325.168	1068.75
325.397	902.75
325.626	896.75
325.855	904.75
326.084	921.75
326.313	848.75
326.542	823.75
326.77	839.75
326.999	872.75
327.228	943.75
327.457	969.75
327.686	984.75
327.914	880.75
328.143	819.75
328.372	832.75
328.6	820.75
328.829	842.75
329.058	856.75
329.287	859.75
329.515	900.75
329.744	870.75
329.972	820.75
330.201	798.75
330.43	802.75
330.658	943.75
330.887	1052.75
331.115	1020.75
331.344	974.75
331.572	932.75
331.801	886.75
332.03	839.75
332.258	865.75
332.486	950.75
332.715	932.75
332.943	903.75
333.172	887.75
333.4	914.75
333.629	1021.75
333.857	1127.75
334.085	1076.75
334.314	1115.75
334.542	1045.75
334.771	973.75
334.999	938.75
335.227	933.75
335.455	950.75
335.684	1016.75
335.912	1177.75
336.14	1296.75
336.369	1252.75
336.597	1212.75
336.825	1330.75
337.053	1510.75
337.281	1170.75
337.51	983.75
337.738	945.75
337.966	1048.75
338.194	1129.75
338.422	1100.75
338.65	928.75
338.878	872.75
339.106	912.75
339.334	990.75
339.562	1050.75
339.79	976.75
340.018	950.75
340.246	1041.75
340.474	1160.75
340.702	1213.75
340.93	1253.75
341.158	1262.75
341.386	1088.75
341.614	1076.75
341.842	1078.75
342.07	1148.75
342.298	1272.75
342.526	1340.75
342.754	1159.75
342.981	1082.75
343.209	1044.75
343.437	1105.75
343.665	1170.75
343.893	1156.75
344.12	1336.75
344.348	1524.75
344.576	1375.75
344.804	1143.75
345.031	1008.75
345.259	973.75
345.487	969.75
345.714	981.75
345.942	1054.75
346.17	1169.75
346.397	1102.75
346.625	973.75
346.853	957.75
347.08	918.75
347.308	964.75
347.535	1065.75
347.763	1123.75
347.99	978.75
348.218	899.75
348.445	948.75
348.673	960.75
348.9	946.75
349.128	1046.75
349.355	1064.75
349.583	1036.75
349.81	990.75
350.037	906.75
350.265	828.75
350.492	820.75
350.72	813.75
350.947	828.75
351.174	846.75
351.402	907.75
351.629	963.75
351.856	917.75
352.083	873.75
352.311	980.75
352.538	1048.75
352.765	1102.75
352.992	1024.75
353.22	954.75
353.447	974.75
353.674	949.75
353.901	918.75
354.128	965.75
354.355	989.75
354.583	965.75
354.81	982.75
355.037	983.75
355.264	975.75
355.491	1048.75
355.718	1123.75
355.945	1113.75
356.172	1034.75
356.399	1058.75
356.626	1262.75
356.853	1548.75
357.08	1618.75
357.307	1656.75
357.534	1308.75
357.761	1363.75
357.988	1674.75
358.215	1930.75
358.441	1852.75
358.668	1567.75
358.895	1431.75
359.122	1165.75
359.349	1148.75
359.576	1269.75
359.802	1058.75
360.029	942.75
360.256	1022.75
360.483	1242.75
360.709	1511.75
360.936	1550.75
361.163	1384.75
361.39	1085.75
361.616	1022.75
361.843	1170.75
362.07	1444.75
362.296	1304.75
362.523	1054.75
362.749	900.75
362.976	942.75
363.203	1139.75
363.429	1278.75
363.656	1045.75
363.882	969.75
364.109	968.75
364.335	961.75
364.562	941.75
364.788	1073.75
365.015	1253.75
365.241	1105.75
365.468	929.75
365.694	801.75
365.92	825.75
366.147	760.75
366.373	798.75
366.599	772.75
366.826	773.75
367.052	774.75
367.278	812.75
367.505	799.75
367.731	874.75
367.957	976.75
368.184	1004.75
368.41	976.75
368.636	991.75
368.862	1021.75
369.089	1002.75
369.315	896.75
369.541	863.75
369.767	851.75
369.993	816.75
370.219	830.75
370.445	888.75
370.672	980.75
370.898	1057.75
371.124	1008.75
371.35	924.75
371.576	876.75
371.802	924.75
372.028	1096.75
372.254	1268.75
372.48	1104.75
372.706	983.75
372.932	1038.75
373.158	1090.75
373.384	1261.75
373.61	1699.75
373.835	1780.75
374.061	1324.75
374.287	1121.75
374.513	1326.75
374.739	1568.75
374.965	1618.75
375.191	1578.75
375.416	1153.75
375.642	960.75
375.868	1189.75
376.094	1262.75
376.319	1125.75
376.545	1223.75
376.771	1296.75
376.997	1109.75
377.222	852.75
377.448	754.75
377.674	714.75
377.899	741.75
378.125	747.75
378.35	725.75
378.576	749.75
378.802	855.75
379.027	909.75
379.253	871.75
379.478	889.75
379.704	992.75
379.929	1026.75
380.155	1054.75
380.38	934.75
380.606	980.75
380.831	1091.75
381.057	1005.75
381.282	984.75
381.507	1122.75
381.733	1369.75
381.958	1457.75
382.184	1521.75
382.409	1587.75
382.634	1571.75
382.86	1644.75
383.085	1376.75
383.31	1110.75
383.535	1177.75
383.761	1193.75
383.986	1130.75
384.211	1352.75
384.436	1281.75
384.662	1021.75
384.887	953.75
385.112	979.75
385.337	1014.75
385.562	994.75
385.787	1068.75
386.013	1148.75
386.238	1179.75
386.463	987.75
386.688	956.75
386.913	944.75
387.138	901.75
387.363	941.75
387.588	943.75
387.813	957.75
388.038	1084.75
388.263	964.75
388.488	929.75
388.713	1079.75
388.938	1180.75
389.163	1005.75
389.387	875.75
389.612	900.75
389.837	911.75
390.062	943.75
390.287	949.75
390.512	972.75
390.736	912.75
390.961	861.75
391.186	848.75
391.411	840.75
391.636	826.75
391.86	916.75
392.085	984.75
392.31	964.75
392.534	948.75
392.759	920.75
392.984	934.75
393.208	937.75
393.433	852.75
393.658	795.75
393.882	778.75
394.107	786.75
394.331	805.75
394.556	792.75
394.78	804.75
395.005	817.75
395.229	852.75
395.454	852.75
395.678	871.75
395.903	902.75
396.127	865.75
396.352	888.75
396.576	929.75
396.801	994.75
397.025	1091.75
397.249	1075.75
397.474	911.75
397.698	878.75
397.922	985.75
398.147	907.75
398.371	907.75
398.595	968.75
398.82	931.75
399.044	941.75
399.268	1028.75
399.492	1020.75
399.717	1043.75
399.941	1097.75
400.165	1048.75
400.389	1007.75
400.613	1028.75
400.837	1009.75
401.062	940.75
401.286	904.75
401.51	903.75
401.734	900.75
401.958	930.75
402.182	888.75
402.406	894.75
402.63	923.75
402.854	970.75
403.078	1051.75
403.302	1271.75
403.526	1304.75
403.75	1176.75
403.974	1056.75
404.198	1069.75
404.422	1221.75
404.645	1365.75
404.869	1496.75
405.093	1151.75
405.317	986.75
405.541	983.75
405.765	997.75
405.988	1013.75
406.212	1083.75
406.436	1260.75
406.66	1412.75
406.883	1099.75
407.107	1134.75
407.331	1344.75
407.555	1269.75
407.778	1052.75
408.002	1040.75
408.226	1062.75
408.449	1040.75
408.673	998.75
408.896	940.75
409.12	917.75
409.344	918.75
409.567	899.75
409.791	894.75
410.014	880.75
410.238	896.75
410.461	872.75
410.685	896.75
410.908	925.75
411.132	910.75
411.355	936.75
411.578	961.75
411.802	929.75
412.025	961.75
412.249	965.75
412.472	960.75
412.695	939.75
412.919	948.75
413.142	950.75
413.365	1027.75
413.589	1060.75
413.812	959.75
414.035	916.75
414.258	916.75
414.482	1038.75
414.705	1063.75
414.928	900.75
415.151	880.75
415.374	866.75
415.597	893.75
415.821	924.75
416.044	882.75
416.267	879.75
416.49	858.75
416.713	857.75
416.936	837.75
417.159	866.75
417.382	895.75
417.605	882.75
417.828	895.75
418.051	892.75
418.274	926.75
418.497	926.75
418.72	920.75
418.943	973.75
419.166	976.75
419.389	1045.75
419.611	988.75
419.834	1011.75
420.057	1104.75
420.28	1094.75
420.503	1012.75
420.726	925.75
420.948	861.75
421.171	898.75
421.394	911.75
421.617	857.75
421.839	878.75
422.062	929.75
422.285	912.75
422.507	920.75
422.73	942.75
422.953	964.75
423.175	925.75
423.398	957.75
423.621	1023.75
423.843	1036.75
424.066	986.75
424.288	961.75
424.511	910.75
424.733	914.75
424.956	931.75
425.178	1063.75
425.401	1196.75
425.623	1337.75
425.846	1109.75
426.068	988.75
426.291	1094.75
426.513	1031.75
426.735	946.75
426.958	999.75
427.18	1113.75
427.402	1460.75
427.625	1440.75
427.847	1168.75
428.069	899.75
428.292	896.75
428.514	895.75
428.736	878.75
428.958	936.75
429.181	1105.75
429.403	929.75
429.625	871.75
429.847	864.75
430.069	888.75
430.292	898.75
430.514	878.75
430.736	919.75
430.958	1160.75
431.18	1080.75
431.402	854.75
431.624	799.75
431.846	794.75
432.068	796.75
432.29	832.75
432.512	896.75
432.734	1148.75
432.956	1074.75
433.178	878.75
433.4	840.75
433.622	844.75
433.844	884.75
434.066	917.75
434.287	866.75
434.509	882.75
434.731	904.75
434.953	881.75
435.175	928.75
435.397	1042.75
435.618	875.75
435.84	848.75
436.062	819.75
436.284	836.75
436.505	800.75
436.727	798.75
436.949	776.75
437.17	848.75
437.392	849.75
437.614	824.75
437.835	820.75
438.057	844.75
438.278	968.75
438.5	1356.75
438.721	1322.75
438.943	957.75
439.165	772.75
439.386	766.75
439.608	784.75
439.829	750.75
440.05	779.75
440.272	867.75
440.493	977.75
440.715	1170.75
440.936	959.75
441.158	863.75
441.379	871.75
441.6	967.75
441.822	1018.75
442.043	893.75
442.264	876.75
442.486	890.75
442.707	863.75
442.928	870.75
443.149	919.75
443.371	887.75
443.592	961.75
443.813	905.75
444.034	888.75
444.255	901.75
444.476	970.75
444.698	912.75
444.919	928.75
445.14	1033.75
445.361	1037.75
445.582	969.75
445.803	906.75
446.024	936.75
446.245	953.75
446.466	892.75
446.687	858.75
446.908	874.75
447.129	852.75
447.35	815.75
447.571	793.75
447.792	785.75
448.013	795.75
448.234	784.75
448.455	789.75
448.675	786.75
448.896	812.75
449.117	786.75
449.338	823.75
449.559	817.75
449.779	868.75
450	857.75
450.221	820.75
450.442	815.75
450.662	795.75
450.883	786.75
451.104	808.75
451.324	770.75
451.545	798.75
451.766	789.75
451.986	774.75
452.207	748.75
452.428	776.75
452.648	768.75
452.869	779.75
453.089	853.75
453.31	808.75
453.53	754.75
453.751	762.75
453.971	723.75
454.192	729.75
454.412	782.75
454.633	740.75
454.853	748.75
455.073	734.75
455.294	738.75
455.514	748.75
455.734	761.75
455.955	776.75
456.175	835.75
456.395	737.75
456.616	720.75
456.836	701.75
457.056	704.75
457.276	701.75
457.497	720.75
457.717	738.75
457.937	713.75
458.157	732.75
458.377	725.75
458.598	744.75
458.818	735.75
459.038	804.75
459.258	783.75
459.478	851.75
459.698	898.75
459.918	916.75
460.138	869.75
460.358	912.75
460.578	884.75
460.798	892.75
461.018	888.75
461.238	854.75
461.458	861.75
461.678	893.75
461.898	940.75
462.118	934.75
462.338	952.75
462.558	950.75
462.777	983.75
462.997	998.75
463.217	1020.75
463.437	1044.75
463.657	1030.75
463.876	951.75
464.096	965.75
464.316	988.75
464.536	969.75
464.755	1002.75
464.975	1002.75
465.195	946.75
465.414	1016.75
465.634	944.75
465.854	912.75
466.073	869.75
466.293	865.75
466.512	931.75
466.732	1008.75
466.951	1042.75
467.171	920.75
467.391	873.75
467.61	890.75
467.829	922.75
468.049	936.75
468.268	868.75
468.488	846.75
468.707	895.75
468.927	1038.75
469.146	1144.75
469.365	1008.75
469.585	935.75
469.804	990.75
470.023	1080.75
470.243	957.75
470.462	912.75
470.681	891.75
470.901	908.75
471.12	974.75
471.339	936.75
471.558	940.75
471.777	914.75
471.997	1001.75
472.216	1125.75
472.435	1075.75
472.654	946.75
472.873	961.75
473.092	993.75
473.311	1031.75
473.53	976.75
473.749	949.75
473.968	981.75
474.187	966.75
474.406	946.75
474.625	902.75
474.844	942.75
475.063	999.75
475.282	994.75
475.501	1066.75
475.72	1130.75
475.939	1096.75
476.158	1094.75
476.377	1207.75
476.596	1416.75
476.814	1442.75
477.033	1222.75
477.252	1057.75
477.471	991.75
477.69	999.75
477.908	1118.75
478.127	1127.75
478.346	1032.75
478.564	1138.75
478.783	1082.75
479.002	1103.75
479.22	1261.75
479.439	1412.75
479.658	1189.75
479.876	1120.75
480.095	1223.75
480.313	1232.75
480.532	1087.75
480.751	1081.75
480.969	1119.75
481.188	1255.75
481.406	1305.75
481.624	1239.75
481.843	1114.75
482.061	1060.75
482.28	1153.75
482.498	1458.75
482.717	1369.75
482.935	1192.75
483.153	1118.75
483.372	1041.75
483.59	1064.75
483.808	1068.75
484.027	1032.75
484.245	1005.75
484.463	950.75
484.681	1020.75
484.9	1058.75
485.118	1160.75
485.336	1127.75
485.554	1036.75
485.772	1041.75
485.99	1136.75
486.209	1214.75
486.427	1208.75
486.645	1198.75
486.863	1247.75
487.081	1222.75
487.299	1334.75
487.517	1296.75
487.735	1225.75
487.953	1220.75
488.171	1231.75
488.389	1177.75
488.607	1087.75
488.825	1157.75
489.043	1252.75
489.261	1405.75
489.479	1488.75
489.696	1286.75
489.914	1180.75
490.132	1118.75
490.35	1121.75
490.568	1113.75
490.786	1109.75
491.003	1140.75
491.221	1154.75
491.439	1144.75
491.657	1135.75
491.874	1215.75
492.092	1477.75
492.31	1712.75
492.527	1710.75
492.745	1463.75
492.963	1282.75
493.18	1282.75
493.398	1264.75
493.615	1254.75
493.833	1236.75
494.05	1236.75
494.268	1256.75
494.485	1214.75
494.703	1208.75
494.92	1212.75
