Data from NickelSpatula.Lamp.E5.5.P2_HRD10591_11-51-29-560.txt Node
Date: Tue Jul 23 11:51:29 EDT 2019
User: cochatt
Spectrometer: HR+D1059
Trigger mode: 1
Integration Time (sec): 1.000000E-1
Scans to average: 1
Electric dark correction enabled: true
Nonlinearity correction enabled: false
Boxcar width: 0
XAxis mode: Wavelengths
Number of Pixels in Spectrum: 2048
>>>>>Begin Spectral Data<<<<<
223.165	-17.56
223.4	-17.56
223.635	-17.56
223.869	-7.56
224.104	-13.56
224.338	2.44
224.573	-12.56
224.808	-22.56
225.042	-8.56
225.277	-12.56
225.511	-3.56
225.746	14.44
225.98	5.44
226.215	11.44
226.449	5.44
226.683	18.44
226.918	14.44
227.152	26.44
227.387	42.44
227.621	42.44
227.856	59.44
228.09	51.44
228.324	54.44
228.559	53.44
228.793	66.44
229.027	66.44
229.262	84.44
229.496	74.44
229.73	79.44
229.964	81.44
230.199	93.44
230.433	99.44
230.667	100.44
230.901	89.44
231.136	92.44
231.37	95.44
231.604	115.44
231.838	92.44
232.072	92.44
232.306	107.44
232.541	106.44
232.775	111.44
233.009	118.44
233.243	121.44
233.477	126.44
233.711	114.44
233.945	123.44
234.179	102.44
234.413	123.44
234.647	127.44
234.881	138.44
235.115	142.44
235.349	125.44
235.583	126.44
235.817	129.44
236.051	135.44
236.285	125.44
236.519	137.44
236.753	126.44
236.987	135.44
237.221	142.44
237.455	129.44
237.689	133.44
237.922	135.44
238.156	148.44
238.39	150.44
238.624	181.44
238.858	153.44
239.091	133.44
239.325	138.44
239.559	143.44
239.793	153.44
240.027	194.44
240.26	161.44
240.494	170.44
240.728	172.44
240.961	180.44
241.195	165.44
241.429	177.44
241.662	176.44
241.896	141.44
242.13	151.44
242.363	128.44
242.597	138.44
242.83	171.44
243.064	167.44
243.298	162.44
243.531	169.44
243.765	178.44
243.998	166.44
244.232	162.44
244.465	152.44
244.699	133.44
244.932	182.44
245.166	177.44
245.399	148.44
245.633	133.44
245.866	167.44
246.099	151.44
246.333	185.44
246.566	185.44
246.8	193.44
247.033	184.44
247.266	190.44
247.5	177.44
247.733	170.44
247.966	168.44
248.2	180.44
248.433	182.44
248.666	205.44
248.899	200.44
249.133	192.44
249.366	219.44
249.599	249.44
249.832	220.44
250.066	201.44
250.299	205.44
250.532	199.44
250.765	203.44
250.998	189.44
251.231	182.44
251.465	200.44
251.698	207.44
251.931	183.44
252.164	191.44
252.397	220.44
252.63	241.44
252.863	260.44
253.096	248.44
253.329	255.44
253.562	239.44
253.795	287.44
254.028	297.44
254.261	316.44
254.494	271.44
254.727	263.44
254.96	263.44
255.193	255.44
255.426	277.44
255.659	215.44
255.892	196.44
256.124	200.44
256.357	237.44
256.59	282.44
256.823	277.44
257.056	230.44
257.289	224.44
257.521	221.44
257.754	251.44
257.987	285.44
258.22	250.44
258.452	235.44
258.685	254.44
258.918	283.44
259.151	282.44
259.383	296.44
259.616	329.44
259.849	318.44
260.081	358.44
260.314	383.44
260.547	314.44
260.779	314.44
261.012	378.44
261.244	361.44
261.477	351.44
261.71	321.44
261.942	282.44
262.175	303.44
262.407	275.44
262.64	277.44
262.872	302.44
263.105	339.44
263.337	354.44
263.57	341.44
263.802	262.44
264.035	227.44
264.267	231.44
264.499	205.44
264.732	186.44
264.964	179.44
265.197	186.44
265.429	203.44
265.661	209.44
265.894	211.44
266.126	215.44
266.358	228.44
266.591	285.44
266.823	325.44
267.055	318.44
267.287	260.44
267.52	278.44
267.752	301.44
267.984	329.44
268.216	320.44
268.448	274.44
268.681	277.44
268.913	271.44
269.145	282.44
269.377	285.44
269.609	291.44
269.841	290.44
270.073	289.44
270.306	304.44
270.538	298.44
270.77	305.44
271.002	314.44
271.234	329.44
271.466	338.44
271.698	313.44
271.93	313.44
272.162	309.44
272.394	307.44
272.626	288.44
272.858	299.44
273.09	312.44
273.322	272.44
273.553	274.44
273.785	299.44
274.017	379.44
274.249	478.44
274.481	495.44
274.713	525.44
274.945	593.44
275.176	615.44
275.408	561.44
275.64	513.44
275.872	515.44
276.104	422.44
276.335	402.44
276.567	388.44
276.799	405.44
277.031	415.44
277.262	355.44
277.494	265.44
277.726	263.44
277.957	290.44
278.189	327.44
278.421	319.44
278.652	315.44
278.884	297.44
279.115	266.44
279.347	267.44
279.579	265.44
279.81	278.44
280.042	292.44
280.273	284.44
280.505	282.44
280.736	239.44
280.968	237.44
281.199	249.44
281.431	288.44
281.662	283.44
281.894	257.44
282.125	285.44
282.356	288.44
282.588	303.44
282.819	294.44
283.051	291.44
283.282	347.44
283.513	402.44
283.745	443.44
283.976	447.44
284.207	401.44
284.439	435.44
284.67	393.44
284.901	374.44
285.132	394.44
285.364	420.44
285.595	386.44
285.826	387.44
286.057	419.44
286.288	400.44
286.52	402.44
286.751	411.44
286.982	417.44
287.213	365.44
287.444	359.44
287.675	387.44
287.906	399.44
288.138	329.44
288.369	292.44
288.6	286.44
288.831	298.44
289.062	318.44
289.293	367.44
289.524	342.44
289.755	355.44
289.986	350.44
290.217	333.44
290.448	262.44
290.679	245.44
290.91	212.44
291.141	224.44
291.371	245.44
291.602	231.44
291.833	260.44
292.064	223.44
292.295	253.44
292.526	297.44
292.757	315.44
292.987	321.44
293.218	346.44
293.449	362.44
293.68	377.44
293.91	350.44
294.141	358.44
294.372	350.44
294.603	308.44
294.833	340.44
295.064	421.44
295.295	386.44
295.525	293.44
295.756	265.44
295.987	244.44
296.217	245.44
296.448	229.44
296.679	229.44
296.909	269.44
297.14	281.44
297.37	313.44
297.601	311.44
297.831	259.44
298.062	303.44
298.292	313.44
298.523	361.44
298.753	386.44
298.984	343.44
299.214	275.44
299.445	236.44
299.675	238.44
299.905	234.44
300.136	239.44
300.366	251.44
300.597	263.44
300.827	233.44
301.057	248.44
301.288	245.44
301.518	249.44
301.748	294.44
301.979	318.44
302.209	312.44
302.439	315.44
302.669	272.44
302.9	295.44
303.13	266.44
303.36	273.44
303.59	249.44
303.82	260.44
304.051	289.44
304.281	297.44
304.511	295.44
304.741	259.44
304.971	271.44
305.201	281.44
305.431	280.44
305.661	260.44
305.891	244.44
306.121	248.44
306.352	217.44
306.582	203.44
306.812	221.44
307.042	223.44
307.272	202.44
307.502	196.44
307.731	200.44
307.961	208.44
308.191	209.44
308.421	204.44
308.651	197.44
308.881	201.44
309.111	207.44
309.341	223.44
309.571	205.44
309.8	220.44
310.03	213.44
310.26	234.44
310.49	240.44
310.72	215.44
310.949	206.44
311.179	210.44
311.409	215.44
311.639	270.44
311.868	291.44
312.098	354.44
312.328	392.44
312.557	397.44
312.787	385.44
313.017	353.44
313.246	359.44
313.476	393.44
313.706	352.44
313.935	289.44
314.165	246.44
314.394	226.44
314.624	221.44
314.853	234.44
315.083	253.44
315.312	231.44
315.542	233.44
315.771	226.44
316.001	211.44
316.23	195.44
316.46	207.44
316.689	186.44
316.919	213.44
317.148	221.44
317.377	217.44
317.607	207.44
317.836	224.44
318.065	222.44
318.295	260.44
318.524	267.44
318.753	236.44
318.983	217.44
319.212	216.44
319.441	230.44
319.67	237.44
319.9	245.44
320.129	256.44
320.358	230.44
320.587	225.44
320.816	220.44
321.046	242.44
321.275	277.44
321.504	282.44
321.733	275.44
321.962	275.44
322.191	263.44
322.42	226.44
322.649	239.44
322.878	270.44
323.108	269.44
323.337	252.44
323.566	239.44
323.795	249.44
324.024	220.44
324.253	214.44
324.482	209.44
324.71	238.44
324.939	270.44
325.168	271.44
325.397	229.44
325.626	220.44
325.855	204.44
326.084	232.44
326.313	210.44
326.542	202.44
326.77	209.44
326.999	211.44
327.228	225.44
327.457	207.44
327.686	230.44
327.914	229.44
328.143	195.44
328.372	204.44
328.6	195.44
328.829	213.44
329.058	215.44
329.287	208.44
329.515	229.44
329.744	226.44
329.972	192.44
330.201	187.44
330.43	208.44
330.658	222.44
330.887	233.44
331.115	236.44
331.344	245.44
331.572	233.44
331.801	206.44
332.03	211.44
332.258	200.44
332.486	223.44
332.715	239.44
332.943	242.44
333.172	243.44
333.4	241.44
333.629	254.44
333.857	287.44
334.085	252.44
334.314	266.44
334.542	245.44
334.771	241.44
334.999	232.44
335.227	211.44
335.455	238.44
335.684	239.44
335.912	265.44
336.14	294.44
336.369	276.44
336.597	270.44
336.825	305.44
337.053	324.44
337.281	277.44
337.51	239.44
337.738	224.44
337.966	245.44
338.194	255.44
338.422	260.44
338.65	232.44
338.878	226.44
339.106	216.44
339.334	237.44
339.562	252.44
339.79	245.44
340.018	223.44
340.246	228.44
340.474	262.44
340.702	269.44
340.93	263.44
341.158	280.44
341.386	249.44
341.614	223.44
341.842	235.44
342.07	243.44
342.298	290.44
342.526	293.44
342.754	268.44
342.981	233.44
343.209	241.44
343.437	265.44
343.665	285.44
343.893	281.44
344.12	305.44
344.348	345.44
344.576	323.44
344.804	266.44
345.031	226.44
345.259	228.44
345.487	249.44
345.714	224.44
345.942	241.44
346.17	263.44
346.397	263.44
346.625	238.44
346.853	233.44
347.08	241.44
347.308	218.44
347.535	253.44
347.763	277.44
347.99	245.44
348.218	231.44
348.445	240.44
348.673	245.44
348.9	245.44
349.128	243.44
349.355	274.44
349.583	277.44
349.81	237.44
350.037	241.44
350.265	213.44
350.492	201.44
350.72	206.44
350.947	227.44
351.174	218.44
351.402	209.44
351.629	221.44
351.856	217.44
352.083	183.44
352.311	225.44
352.538	234.44
352.765	254.44
352.992	236.44
353.22	239.44
353.447	243.44
353.674	237.44
353.901	211.44
354.128	219.44
354.355	217.44
354.583	222.44
354.81	215.44
355.037	252.44
355.264	241.44
355.491	244.44
355.718	230.44
355.945	241.44
356.172	241.44
356.399	257.44
356.626	291.44
356.853	322.44
357.08	351.44
357.307	347.44
357.534	297.44
357.761	289.44
357.988	361.44
358.215	413.44
358.441	393.44
358.668	326.44
358.895	319.44
359.122	273.44
359.349	277.44
359.576	312.44
359.802	258.44
360.029	231.44
360.256	232.44
360.483	280.44
360.709	342.44
360.936	350.44
361.163	306.44
361.39	265.44
361.616	256.44
361.843	283.44
362.07	325.44
362.296	289.44
362.523	241.44
362.749	226.44
362.976	217.44
363.203	263.44
363.429	282.44
363.656	241.44
363.882	215.44
364.109	237.44
364.335	237.44
364.562	227.44
364.788	228.44
365.015	274.44
365.241	264.44
365.468	239.44
365.694	205.44
365.92	207.44
366.147	187.44
366.373	206.44
366.599	200.44
366.826	196.44
367.052	189.44
367.278	217.44
367.505	226.44
367.731	206.44
367.957	228.44
368.184	240.44
368.41	207.44
368.636	225.44
368.862	235.44
369.089	229.44
369.315	199.44
369.541	203.44
369.767	229.44
369.993	214.44
370.219	200.44
370.445	214.44
370.672	245.44
370.898	253.44
371.124	260.44
371.35	225.44
371.576	221.44
371.802	234.44
372.028	261.44
372.254	298.44
372.48	269.44
372.706	241.44
372.932	257.44
373.158	257.44
373.384	302.44
373.61	379.44
373.835	373.44
374.061	279.44
374.287	249.44
374.513	285.44
374.739	365.44
374.965	355.44
375.191	344.44
375.416	279.44
375.642	245.44
375.868	259.44
376.094	303.44
376.319	245.44
376.545	270.44
376.771	285.44
376.997	266.44
377.222	211.44
377.448	200.44
377.674	196.44
377.899	205.44
378.125	186.44
378.35	183.44
378.576	200.44
378.802	191.44
379.027	214.44
379.253	217.44
379.478	214.44
379.704	243.44
379.929	242.44
380.155	243.44
380.38	216.44
380.606	231.44
380.831	275.44
381.057	253.44
381.282	234.44
381.507	266.44
381.733	301.44
381.958	298.44
382.184	344.44
382.409	341.44
382.634	353.44
382.86	381.44
383.085	313.44
383.31	256.44
383.535	269.44
383.761	285.44
383.986	260.44
384.211	304.44
384.436	305.44
384.662	246.44
384.887	254.44
385.112	242.44
385.337	233.44
385.562	225.44
385.787	264.44
386.013	303.44
386.238	307.44
386.463	248.44
386.688	230.44
386.913	226.44
387.138	217.44
387.363	234.44
387.588	225.44
387.813	259.44
388.038	271.44
388.263	239.44
388.488	216.44
388.713	285.44
388.938	267.44
389.163	274.44
389.387	217.44
389.612	227.44
389.837	222.44
390.062	234.44
390.287	240.44
390.512	210.44
390.736	215.44
390.961	223.44
391.186	222.44
391.411	223.44
391.636	208.44
391.86	215.44
392.085	247.44
392.31	238.44
392.534	233.44
392.759	233.44
392.984	230.44
393.208	260.44
393.433	233.44
393.658	221.44
393.882	214.44
394.107	213.44
394.331	223.44
394.556	211.44
394.78	208.44
395.005	206.44
395.229	226.44
395.454	218.44
395.678	226.44
395.903	239.44
396.127	211.44
396.352	219.44
396.576	235.44
396.801	239.44
397.025	251.44
397.249	263.44
397.474	240.44
397.698	235.44
397.922	248.44
398.147	217.44
398.371	239.44
398.595	251.44
398.82	239.44
399.044	247.44
399.268	255.44
399.492	289.44
399.717	286.44
399.941	284.44
400.165	280.44
400.389	255.44
400.613	255.44
400.837	236.44
401.062	224.44
401.286	223.44
401.51	212.44
401.734	235.44
401.958	230.44
402.182	246.44
402.406	227.44
402.63	240.44
402.854	257.44
403.078	296.44
403.302	362.44
403.526	377.44
403.75	337.44
403.974	273.44
404.198	281.44
404.422	304.44
404.645	330.44
404.869	369.44
405.093	294.44
405.317	243.44
405.541	247.44
405.765	250.44
405.988	256.44
406.212	276.44
406.436	317.44
406.66	338.44
406.883	272.44
407.107	296.44
407.331	336.44
407.555	321.44
407.778	281.44
408.002	264.44
408.226	261.44
408.449	267.44
408.673	285.44
408.896	253.44
409.12	234.44
409.344	245.44
409.567	243.44
409.791	239.44
410.014	241.44
410.238	258.44
410.461	240.44
410.685	236.44
410.908	232.44
411.132	235.44
411.355	244.44
411.578	259.44
411.802	243.44
412.025	255.44
412.249	250.44
412.472	258.44
412.695	239.44
412.919	224.44
413.142	242.44
413.365	253.44
413.589	275.44
413.812	245.44
414.035	241.44
414.258	222.44
414.482	264.44
414.705	256.44
414.928	231.44
415.151	230.44
415.374	231.44
415.597	233.44
415.821	225.44
416.044	210.44
416.267	233.44
416.49	228.44
416.713	243.44
416.936	232.44
417.159	224.44
417.382	222.44
417.605	247.44
417.828	239.44
418.051	235.44
418.274	237.44
418.497	235.44
418.72	243.44
418.943	270.44
419.166	247.44
419.389	274.44
419.611	267.44
419.834	254.44
420.057	257.44
420.28	287.44
420.503	257.44
420.726	224.44
420.948	232.44
421.171	233.44
421.394	245.44
421.617	218.44
421.839	218.44
422.062	238.44
422.285	238.44
422.507	250.44
422.73	239.44
422.953	245.44
423.175	240.44
423.398	225.44
423.621	264.44
423.843	278.44
424.066	273.44
424.288	247.44
424.511	232.44
424.733	241.44
424.956	246.44
425.178	275.44
425.401	302.44
425.623	354.44
425.846	297.44
426.068	244.44
426.291	266.44
426.513	250.44
426.735	243.44
426.958	244.44
427.18	299.44
427.402	337.44
427.625	353.44
427.847	299.44
428.069	251.44
428.292	246.44
428.514	232.44
428.736	215.44
428.958	241.44
429.181	305.44
429.403	268.44
429.625	228.44
429.847	232.44
430.069	244.44
430.292	241.44
430.514	231.44
430.736	235.44
430.958	273.44
431.18	258.44
431.402	235.44
431.624	216.44
431.846	226.44
432.068	223.44
432.29	213.44
432.512	245.44
432.734	273.44
432.956	266.44
433.178	237.44
433.4	219.44
433.622	234.44
433.844	225.44
434.066	257.44
434.287	249.44
434.509	241.44
434.731	243.44
434.953	254.44
435.175	244.44
435.397	256.44
435.618	239.44
435.84	227.44
436.062	222.44
436.284	213.44
436.505	227.44
436.727	234.44
436.949	226.44
437.17	207.44
437.392	235.44
437.614	229.44
437.835	214.44
438.057	213.44
438.278	248.44
438.5	291.44
438.721	332.44
438.943	238.44
439.165	238.44
439.386	210.44
439.608	226.44
439.829	218.44
440.05	219.44
440.272	228.44
440.493	270.44
440.715	290.44
440.936	257.44
441.158	226.44
441.379	237.44
441.6	257.44
441.822	276.44
442.043	235.44
442.264	232.44
442.486	232.44
442.707	238.44
442.928	233.44
443.149	263.44
443.371	232.44
443.592	241.44
443.813	245.44
444.034	238.44
444.255	230.44
444.476	238.44
444.698	259.44
444.919	261.44
445.14	352.44
445.361	293.44
445.582	265.44
445.803	235.44
446.024	256.44
446.245	253.44
446.466	242.44
446.687	237.44
446.908	220.44
447.129	225.44
447.35	219.44
447.571	216.44
447.792	228.44
448.013	229.44
448.234	214.44
448.455	205.44
448.675	212.44
448.896	205.44
449.117	202.44
449.338	232.44
449.559	217.44
449.779	222.44
450	223.44
450.221	222.44
450.442	222.44
450.662	224.44
450.883	218.44
451.104	222.44
451.324	217.44
451.545	234.44
451.766	222.44
451.986	201.44
452.207	207.44
452.428	235.44
452.648	209.44
452.869	221.44
453.089	224.44
453.31	213.44
453.53	209.44
453.751	196.44
453.971	208.44
454.192	218.44
454.412	209.44
454.633	213.44
454.853	212.44
455.073	184.44
455.294	207.44
455.514	201.44
455.734	227.44
455.955	213.44
456.175	223.44
456.395	228.44
456.616	193.44
456.836	191.44
457.056	206.44
457.276	197.44
457.497	183.44
457.717	196.44
457.937	204.44
458.157	198.44
458.377	193.44
458.598	195.44
458.818	195.44
459.038	211.44
459.258	214.44
459.478	238.44
459.698	245.44
459.918	244.44
460.138	240.44
460.358	248.44
460.578	234.44
460.798	237.44
461.018	245.44
461.238	229.44
461.458	241.44
461.678	251.44
461.898	248.44
462.118	257.44
462.338	245.44
462.558	262.44
462.777	251.44
462.997	282.44
463.217	279.44
463.437	299.44
463.657	288.44
463.876	280.44
464.096	270.44
464.316	279.44
464.536	286.44
464.755	280.44
464.975	281.44
465.195	264.44
465.414	259.44
465.634	247.44
465.854	243.44
466.073	240.44
466.293	231.44
466.512	253.44
466.732	245.44
466.951	262.44
467.171	246.44
467.391	232.44
467.61	232.44
467.829	246.44
468.049	233.44
468.268	224.44
468.488	233.44
468.707	227.44
468.927	237.44
469.146	286.44
469.365	278.44
469.585	243.44
469.804	261.44
470.023	279.44
470.243	263.44
470.462	252.44
470.681	234.44
470.901	243.44
471.12	255.44
471.339	229.44
471.558	238.44
471.777	227.44
471.997	244.44
472.216	257.44
472.435	262.44
472.654	241.44
472.873	244.44
473.092	261.44
473.311	271.44
473.53	236.44
473.749	229.44
473.968	253.44
474.187	240.44
474.406	232.44
474.625	222.44
474.844	241.44
475.063	245.44
475.282	247.44
475.501	258.44
475.72	283.44
475.939	276.44
476.158	264.44
476.377	306.44
476.596	351.44
476.814	367.44
477.033	294.44
477.252	262.44
477.471	229.44
477.69	245.44
477.908	292.44
478.127	274.44
478.346	258.44
478.564	278.44
478.783	264.44
479.002	277.44
479.22	311.44
479.439	338.44
479.658	295.44
479.876	283.44
480.095	272.44
480.313	309.44
480.532	271.44
480.751	264.44
480.969	281.44
481.188	298.44
481.406	281.44
481.624	293.44
481.843	282.44
482.061	258.44
482.28	274.44
482.498	323.44
482.717	328.44
482.935	286.44
483.153	263.44
483.372	248.44
483.59	261.44
483.808	253.44
484.027	260.44
484.245	265.44
484.463	255.44
484.681	268.44
484.9	262.44
485.118	282.44
485.336	293.44
485.554	272.44
485.772	264.44
485.99	299.44
486.209	279.44
486.427	286.44
486.645	291.44
486.863	306.44
487.081	282.44
487.299	334.44
487.517	314.44
487.735	288.44
487.953	303.44
488.171	288.44
488.389	281.44
488.607	272.44
488.825	271.44
489.043	299.44
489.261	320.44
489.479	357.44
489.696	305.44
489.914	297.44
490.132	259.44
490.35	278.44
490.568	257.44
490.786	269.44
491.003	274.44
491.221	270.44
491.439	275.44
491.657	247.44
491.874	273.44
492.092	337.44
492.31	373.44
492.527	367.44
492.745	331.44
492.963	291.44
493.18	305.44
493.398	298.44
493.615	295.44
493.833	293.44
494.05	288.44
494.268	287.44
494.485	286.44
494.703	289.44
494.92	275.44
495.138	289.44
495.355	290.44
495.573	288.44
495.79	296.44
496.008	366.44
496.225	321.44
496.442	287.44
496.66	287.44
496.877	319.44
497.094	321.44
497.312	320.44
497.529	311.44
497.746	300.44
497.963	322.44
498.181	336.44
498.398	355.44
498.615	358.44
498.832	388.44
499.049	408.44
499.267	375.44
499.484	392.44
499.701	404.44
499.918	451.44
500.135	500.44
500.352	522.44
500.569	575.44
500.786	567.44
501.003	521.44
501.22	479.44
501.437	420.44
501.654	423.44
501.871	392.44
502.088	393.44
502.305	375.44
502.522	359.44
