Data from NickelSpatula.Lamp.E5.5.P2_HRD10591_11-53-38-548.txt Node
Date: Tue Jul 23 11:53:38 EDT 2019
User: cochatt
Spectrometer: HR+D1059
Trigger mode: 1
Integration Time (sec): 1.000000E-1
Scans to average: 1
Electric dark correction enabled: true
Nonlinearity correction enabled: false
Boxcar width: 0
XAxis mode: Wavelengths
Number of Pixels in Spectrum: 2048
>>>>>Begin Spectral Data<<<<<
223.165	-17.38
223.4	-17.38
223.635	-17.38
223.869	-16.38
224.104	-6.38
224.338	-17.38
224.573	-7.38
224.808	-11.38
225.042	-6.38
225.277	-3.38
225.511	-12.38
225.746	-0.38
225.98	7.62
226.215	18.62
226.449	17.62
226.683	20.62
226.918	10.62
227.152	23.62
227.387	11.62
227.621	54.62
227.856	60.62
228.09	34.62
228.324	48.62
228.559	52.62
228.793	71.62
229.027	69.62
229.262	84.62
229.496	68.62
229.73	88.62
229.964	92.62
230.199	108.62
230.433	87.62
230.667	98.62
230.901	97.62
231.136	89.62
231.37	90.62
231.604	88.62
231.838	96.62
232.072	114.62
232.306	106.62
232.541	98.62
232.775	110.62
233.009	114.62
233.243	108.62
233.477	125.62
233.711	130.62
233.945	124.62
234.179	120.62
234.413	114.62
234.647	135.62
234.881	137.62
235.115	142.62
235.349	125.62
235.583	120.62
235.817	124.62
236.051	134.62
236.285	152.62
236.519	144.62
236.753	138.62
236.987	137.62
237.221	118.62
237.455	128.62
237.689	141.62
237.922	140.62
238.156	134.62
238.39	154.62
238.624	175.62
238.858	178.62
239.091	127.62
239.325	146.62
239.559	125.62
239.793	166.62
240.027	182.62
240.26	147.62
240.494	149.62
240.728	169.62
240.961	177.62
241.195	169.62
241.429	172.62
241.662	163.62
241.896	138.62
242.13	142.62
242.363	132.62
242.597	130.62
242.83	157.62
243.064	148.62
243.298	139.62
243.531	166.62
243.765	166.62
243.998	150.62
244.232	165.62
244.465	168.62
244.699	143.62
244.932	176.62
245.166	170.62
245.399	151.62
245.633	140.62
245.866	153.62
246.099	165.62
246.333	185.62
246.566	173.62
246.8	197.62
247.033	184.62
247.266	179.62
247.5	176.62
247.733	181.62
247.966	182.62
248.2	166.62
248.433	192.62
248.666	199.62
248.899	200.62
249.133	190.62
249.366	225.62
249.599	246.62
249.832	236.62
250.066	202.62
250.299	189.62
250.532	195.62
250.765	196.62
250.998	182.62
251.231	162.62
251.465	189.62
251.698	217.62
251.931	195.62
252.164	201.62
252.397	228.62
252.63	221.62
252.863	261.62
253.096	277.62
253.329	257.62
253.562	264.62
253.795	267.62
254.028	296.62
254.261	307.62
254.494	296.62
254.727	266.62
254.96	244.62
255.193	272.62
255.426	254.62
255.659	204.62
255.892	189.62
256.124	214.62
256.357	252.62
256.59	278.62
256.823	262.62
257.056	233.62
257.289	206.62
257.521	214.62
257.754	273.62
257.987	306.62
258.22	272.62
258.452	241.62
258.685	248.62
258.918	295.62
259.151	256.62
259.383	292.62
259.616	348.62
259.849	361.62
260.081	353.62
260.314	397.62
260.547	296.62
260.779	341.62
261.012	375.62
261.244	345.62
261.477	351.62
261.71	326.62
261.942	286.62
262.175	300.62
262.407	282.62
262.64	302.62
262.872	348.62
263.105	356.62
263.337	364.62
263.57	332.62
263.802	244.62
264.035	222.62
264.267	200.62
264.499	190.62
264.732	176.62
264.964	181.62
265.197	194.62
265.429	202.62
265.661	190.62
265.894	206.62
266.126	215.62
266.358	238.62
266.591	261.62
266.823	321.62
267.055	306.62
267.287	278.62
267.52	275.62
267.752	309.62
267.984	327.62
268.216	298.62
268.448	270.62
268.681	253.62
268.913	259.62
269.145	288.62
269.377	287.62
269.609	319.62
269.841	284.62
270.073	291.62
270.306	317.62
270.538	327.62
270.77	323.62
271.002	297.62
271.234	333.62
271.466	330.62
271.698	312.62
271.93	289.62
272.162	321.62
272.394	294.62
272.626	300.62
272.858	313.62
273.09	310.62
273.322	276.62
273.553	261.62
273.785	292.62
274.017	378.62
274.249	452.62
274.481	478.62
274.713	522.62
274.945	604.62
275.176	625.62
275.408	560.62
275.64	490.62
275.872	518.62
276.104	464.62
276.335	363.62
276.567	393.62
276.799	404.62
277.031	440.62
277.262	342.62
277.494	276.62
277.726	264.62
277.957	281.62
278.189	327.62
278.421	321.62
278.652	305.62
278.884	288.62
279.115	294.62
279.347	273.62
279.579	273.62
279.81	281.62
280.042	276.62
280.273	278.62
280.505	263.62
280.736	228.62
280.968	236.62
281.199	240.62
281.431	272.62
281.662	273.62
281.894	256.62
282.125	281.62
282.356	297.62
282.588	324.62
282.819	278.62
283.051	300.62
283.282	334.62
283.513	400.62
283.745	443.62
283.976	443.62
284.207	416.62
284.439	430.62
284.67	399.62
284.901	356.62
285.132	396.62
285.364	419.62
285.595	385.62
285.826	401.62
286.057	410.62
286.288	408.62
286.52	421.62
286.751	429.62
286.982	433.62
287.213	371.62
287.444	367.62
287.675	373.62
287.906	400.62
288.138	332.62
288.369	294.62
288.6	276.62
288.831	305.62
289.062	346.62
289.293	382.62
289.524	351.62
289.755	338.62
289.986	347.62
290.217	330.62
290.448	252.62
290.679	212.62
290.91	216.62
291.141	210.62
291.371	232.62
291.602	224.62
291.833	229.62
292.064	237.62
292.295	259.62
292.526	286.62
292.757	302.62
292.987	320.62
293.218	339.62
293.449	364.62
293.68	383.62
293.91	352.62
294.141	394.62
294.372	348.62
294.603	300.62
294.833	349.62
295.064	409.62
295.295	399.62
295.525	303.62
295.756	269.62
295.987	226.62
296.217	225.62
296.448	224.62
296.679	236.62
296.909	269.62
297.14	282.62
297.37	294.62
297.601	302.62
297.831	263.62
298.062	266.62
298.292	329.62
298.523	317.62
298.753	356.62
298.984	335.62
299.214	284.62
299.445	261.62
299.675	243.62
299.905	232.62
300.136	254.62
300.366	261.62
300.597	253.62
300.827	220.62
301.057	248.62
301.288	222.62
301.518	256.62
301.748	268.62
301.979	309.62
302.209	318.62
302.439	308.62
302.669	269.62
302.9	252.62
303.13	262.62
303.36	252.62
303.59	237.62
303.82	252.62
304.051	276.62
304.281	311.62
304.511	295.62
304.741	268.62
304.971	269.62
305.201	285.62
305.431	268.62
305.661	245.62
305.891	232.62
306.121	240.62
306.352	228.62
306.582	219.62
306.812	201.62
307.042	221.62
307.272	186.62
307.502	223.62
307.731	219.62
307.961	218.62
308.191	210.62
308.421	183.62
308.651	198.62
308.881	190.62
309.111	184.62
309.341	199.62
309.571	209.62
309.8	228.62
310.03	214.62
310.26	209.62
310.49	208.62
310.72	201.62
310.949	200.62
311.179	220.62
311.409	211.62
311.639	256.62
311.868	297.62
312.098	370.62
312.328	382.62
312.557	372.62
312.787	387.62
313.017	345.62
313.246	368.62
313.476	394.62
313.706	325.62
313.935	260.62
314.165	233.62
314.394	232.62
314.624	225.62
314.853	216.62
315.083	230.62
315.312	228.62
315.542	222.62
315.771	203.62
316.001	199.62
316.23	206.62
316.46	197.62
316.689	200.62
316.919	213.62
317.148	201.62
317.377	186.62
317.607	196.62
317.836	214.62
318.065	247.62
318.295	262.62
318.524	273.62
318.753	220.62
318.983	210.62
319.212	199.62
319.441	234.62
319.67	251.62
319.9	261.62
320.129	242.62
320.358	232.62
320.587	210.62
320.816	206.62
321.046	254.62
321.275	259.62
321.504	270.62
321.733	263.62
321.962	246.62
322.191	244.62
322.42	243.62
322.649	233.62
322.878	252.62
323.108	262.62
323.337	222.62
323.566	239.62
323.795	225.62
324.024	255.62
324.253	221.62
324.482	216.62
324.71	252.62
324.939	258.62
325.168	258.62
325.397	207.62
325.626	222.62
325.855	210.62
326.084	221.62
326.313	217.62
326.542	199.62
326.77	212.62
326.999	221.62
327.228	214.62
327.457	220.62
327.686	231.62
327.914	202.62
328.143	183.62
328.372	198.62
328.6	197.62
328.829	202.62
329.058	198.62
329.287	210.62
329.515	211.62
329.744	196.62
329.972	191.62
330.201	196.62
330.43	191.62
330.658	222.62
330.887	229.62
331.115	230.62
331.344	231.62
331.572	229.62
331.801	211.62
332.03	191.62
332.258	218.62
332.486	229.62
332.715	227.62
332.943	227.62
333.172	231.62
333.4	204.62
333.629	233.62
333.857	248.62
334.085	263.62
334.314	258.62
334.542	268.62
334.771	227.62
334.999	209.62
335.227	223.62
335.455	217.62
335.684	241.62
335.912	254.62
336.14	293.62
336.369	274.62
336.597	265.62
336.825	300.62
337.053	313.62
337.281	284.62
337.51	215.62
337.738	214.62
337.966	226.62
338.194	290.62
338.422	240.62
338.65	215.62
338.878	195.62
339.106	196.62
339.334	218.62
339.562	218.62
339.79	226.62
340.018	217.62
340.246	237.62
340.474	247.62
340.702	277.62
340.93	262.62
341.158	272.62
341.386	237.62
341.614	231.62
341.842	231.62
342.07	246.62
342.298	270.62
342.526	288.62
342.754	236.62
342.981	249.62
343.209	214.62
343.437	260.62
343.665	264.62
343.893	266.62
344.12	314.62
344.348	344.62
344.576	313.62
344.804	271.62
345.031	233.62
345.259	218.62
345.487	226.62
345.714	252.62
345.942	255.62
346.17	267.62
346.397	253.62
346.625	223.62
346.853	215.62
347.08	209.62
347.308	224.62
347.535	271.62
347.763	265.62
347.99	222.62
348.218	232.62
348.445	229.62
348.673	232.62
348.9	244.62
349.128	248.62
349.355	225.62
349.583	233.62
349.81	219.62
350.037	218.62
350.265	199.62
350.492	185.62
350.72	195.62
350.947	195.62
351.174	201.62
351.402	198.62
351.629	216.62
351.856	221.62
352.083	224.62
352.311	217.62
352.538	236.62
352.765	229.62
352.992	218.62
353.22	230.62
353.447	232.62
353.674	216.62
353.901	224.62
354.128	202.62
354.355	212.62
354.583	230.62
354.81	225.62
355.037	246.62
355.264	236.62
355.491	237.62
355.718	269.62
355.945	232.62
356.172	252.62
356.399	254.62
356.626	274.62
356.853	334.62
357.08	341.62
357.307	365.62
357.534	291.62
357.761	280.62
357.988	372.62
358.215	413.62
358.441	362.62
358.668	313.62
358.895	306.62
359.122	273.62
359.349	263.62
359.576	307.62
359.802	262.62
360.029	222.62
360.256	238.62
360.483	284.62
360.709	329.62
360.936	349.62
361.163	308.62
361.39	239.62
361.616	231.62
361.843	246.62
362.07	300.62
362.296	300.62
362.523	230.62
362.749	225.62
362.976	208.62
363.203	268.62
363.429	283.62
363.656	249.62
363.882	233.62
364.109	226.62
364.335	222.62
364.562	232.62
364.788	253.62
365.015	258.62
365.241	243.62
365.468	204.62
365.694	184.62
365.92	189.62
366.147	193.62
366.373	190.62
366.599	190.62
366.826	200.62
367.052	203.62
367.278	202.62
367.505	208.62
367.731	197.62
367.957	211.62
368.184	211.62
368.41	242.62
368.636	235.62
368.862	242.62
369.089	224.62
369.315	201.62
369.541	207.62
369.767	208.62
369.993	208.62
370.219	208.62
370.445	213.62
370.672	232.62
370.898	241.62
371.124	252.62
371.35	217.62
371.576	222.62
371.802	226.62
372.028	260.62
372.254	294.62
372.48	265.62
372.706	223.62
372.932	245.62
373.158	231.62
373.384	276.62
373.61	353.62
373.835	380.62
374.061	309.62
374.287	260.62
374.513	289.62
374.739	330.62
374.965	358.62
375.191	352.62
375.416	274.62
375.642	237.62
375.868	279.62
376.094	293.62
376.319	257.62
376.545	264.62
376.771	288.62
376.997	265.62
377.222	217.62
377.448	196.62
377.674	181.62
377.899	188.62
378.125	196.62
378.35	196.62
378.576	194.62
378.802	192.62
379.027	213.62
379.253	220.62
379.478	218.62
379.704	240.62
379.929	254.62
380.155	238.62
380.38	221.62
380.606	210.62
380.831	266.62
381.057	248.62
381.282	237.62
381.507	266.62
381.733	297.62
381.958	323.62
382.184	340.62
382.409	344.62
382.634	346.62
382.86	369.62
383.085	304.62
383.31	254.62
383.535	296.62
383.761	293.62
383.986	274.62
384.211	306.62
384.436	303.62
384.662	261.62
384.887	242.62
385.112	250.62
385.337	243.62
385.562	257.62
385.787	254.62
386.013	295.62
386.238	277.62
386.463	239.62
386.688	246.62
386.913	233.62
387.138	221.62
387.363	215.62
387.588	246.62
387.813	233.62
388.038	261.62
388.263	232.62
388.488	232.62
388.713	257.62
388.938	274.62
389.163	241.62
389.387	229.62
389.612	221.62
389.837	237.62
390.062	223.62
390.287	236.62
390.512	219.62
390.736	231.62
390.961	215.62
391.186	233.62
391.411	213.62
391.636	218.62
391.86	242.62
392.085	256.62
392.31	251.62
392.534	230.62
392.759	228.62
392.984	247.62
393.208	229.62
393.433	221.62
393.658	210.62
393.882	195.62
394.107	215.62
394.331	202.62
394.556	210.62
394.78	201.62
395.005	211.62
395.229	212.62
395.454	211.62
395.678	215.62
395.903	213.62
396.127	214.62
396.352	215.62
396.576	240.62
396.801	228.62
397.025	254.62
397.249	262.62
397.474	235.62
397.698	229.62
397.922	238.62
398.147	212.62
398.371	226.62
398.595	231.62
398.82	221.62
399.044	231.62
399.268	269.62
399.492	267.62
399.717	289.62
399.941	290.62
400.165	264.62
400.389	247.62
400.613	240.62
400.837	231.62
401.062	215.62
401.286	194.62
401.51	227.62
401.734	243.62
401.958	224.62
402.182	232.62
402.406	232.62
402.63	225.62
402.854	248.62
403.078	287.62
403.302	357.62
403.526	380.62
403.75	351.62
403.974	290.62
404.198	288.62
404.422	311.62
404.645	316.62
404.869	342.62
405.093	291.62
405.317	231.62
405.541	240.62
405.765	263.62
405.988	252.62
406.212	263.62
406.436	297.62
406.66	323.62
406.883	278.62
407.107	283.62
407.331	316.62
407.555	312.62
407.778	259.62
408.002	265.62
408.226	261.62
408.449	266.62
408.673	267.62
408.896	235.62
409.12	240.62
409.344	229.62
409.567	230.62
409.791	228.62
410.014	248.62
410.238	232.62
410.461	217.62
410.685	237.62
410.908	239.62
411.132	230.62
411.355	236.62
411.578	246.62
411.802	216.62
412.025	235.62
412.249	239.62
412.472	237.62
412.695	227.62
412.919	232.62
413.142	249.62
413.365	243.62
413.589	238.62
413.812	227.62
414.035	224.62
414.258	214.62
414.482	257.62
414.705	278.62
414.928	217.62
415.151	215.62
415.374	223.62
415.597	207.62
415.821	251.62
416.044	215.62
416.267	200.62
416.49	219.62
416.713	214.62
416.936	210.62
417.159	221.62
417.382	222.62
417.605	223.62
417.828	236.62
418.051	213.62
418.274	248.62
418.497	226.62
418.72	246.62
418.943	254.62
419.166	247.62
419.389	252.62
419.611	241.62
419.834	262.62
420.057	238.62
420.28	258.62
420.503	242.62
420.726	254.62
420.948	224.62
421.171	229.62
421.394	209.62
421.617	217.62
421.839	213.62
422.062	220.62
422.285	228.62
422.507	244.62
422.73	245.62
422.953	232.62
423.175	225.62
423.398	238.62
423.621	243.62
423.843	242.62
424.066	255.62
424.288	251.62
424.511	214.62
424.733	237.62
424.956	253.62
425.178	262.62
425.401	285.62
425.623	353.62
425.846	308.62
426.068	248.62
426.291	276.62
426.513	244.62
426.735	240.62
426.958	246.62
427.18	274.62
427.402	343.62
427.625	370.62
427.847	294.62
428.069	240.62
428.292	242.62
428.514	233.62
428.736	216.62
428.958	253.62
429.181	302.62
429.403	256.62
429.625	234.62
429.847	226.62
430.069	225.62
430.292	224.62
430.514	215.62
430.736	195.62
430.958	274.62
431.18	272.62
431.402	220.62
431.624	218.62
431.846	198.62
432.068	215.62
432.29	213.62
432.512	221.62
432.734	286.62
432.956	258.62
433.178	231.62
433.4	210.62
433.622	221.62
433.844	245.62
434.066	251.62
434.287	242.62
434.509	231.62
434.731	250.62
434.953	230.62
435.175	264.62
435.397	264.62
435.618	233.62
435.84	222.62
436.062	207.62
436.284	238.62
436.505	207.62
436.727	211.62
436.949	223.62
437.17	222.62
437.392	229.62
437.614	226.62
437.835	217.62
438.057	213.62
438.278	245.62
438.5	335.62
438.721	298.62
438.943	220.62
439.165	216.62
439.386	201.62
439.608	192.62
439.829	195.62
440.05	202.62
440.272	235.62
440.493	246.62
440.715	288.62
440.936	241.62
441.158	216.62
441.379	218.62
441.6	239.62
441.822	262.62
442.043	241.62
442.264	237.62
442.486	237.62
442.707	237.62
442.928	223.62
443.149	211.62
443.371	225.62
443.592	244.62
443.813	241.62
444.034	241.62
444.255	245.62
444.476	246.62
444.698	262.62
444.919	254.62
445.14	352.62
445.361	299.62
445.582	242.62
445.803	238.62
446.024	241.62
446.245	259.62
446.466	226.62
446.687	225.62
446.908	217.62
447.129	221.62
447.35	213.62
447.571	216.62
447.792	214.62
448.013	213.62
448.234	194.62
448.455	215.62
448.675	205.62
448.896	203.62
449.117	198.62
449.338	210.62
449.559	201.62
449.779	220.62
450	232.62
450.221	213.62
450.442	214.62
450.662	213.62
450.883	214.62
451.104	230.62
451.324	206.62
451.545	215.62
451.766	226.62
451.986	210.62
452.207	216.62
452.428	195.62
452.648	217.62
452.869	213.62
453.089	214.62
453.31	221.62
453.53	209.62
453.751	210.62
453.971	214.62
454.192	216.62
454.412	205.62
454.633	207.62
454.853	216.62
455.073	202.62
455.294	196.62
455.514	189.62
455.734	192.62
455.955	212.62
456.175	208.62
456.395	201.62
456.616	194.62
456.836	203.62
457.056	206.62
457.276	181.62
457.497	194.62
457.717	205.62
457.937	209.62
458.157	206.62
458.377	203.62
458.598	193.62
458.818	199.62
459.038	215.62
459.258	217.62
459.478	225.62
459.698	238.62
459.918	248.62
460.138	222.62
460.358	220.62
460.578	240.62
460.798	241.62
461.018	217.62
461.238	235.62
461.458	228.62
461.678	227.62
461.898	257.62
462.118	241.62
462.338	239.62
462.558	234.62
462.777	260.62
462.997	289.62
463.217	280.62
463.437	290.62
463.657	254.62
463.876	261.62
464.096	270.62
464.316	260.62
464.536	278.62
464.755	274.62
464.975	280.62
465.195	254.62
465.414	262.62
465.634	240.62
465.854	237.62
466.073	225.62
466.293	208.62
466.512	221.62
466.732	241.62
466.951	254.62
467.171	233.62
467.391	212.62
467.61	225.62
467.829	219.62
468.049	229.62
468.268	218.62
468.488	211.62
468.707	206.62
468.927	274.62
469.146	279.62
469.365	256.62
469.585	228.62
469.804	250.62
470.023	273.62
470.243	248.62
470.462	211.62
470.681	219.62
470.901	246.62
471.12	247.62
471.339	229.62
471.558	225.62
471.777	236.62
471.997	248.62
472.216	261.62
472.435	236.62
472.654	239.62
472.873	240.62
473.092	233.62
473.311	260.62
473.53	236.62
473.749	232.62
473.968	240.62
474.187	237.62
474.406	222.62
474.625	231.62
474.844	242.62
475.063	248.62
475.282	240.62
475.501	264.62
475.72	297.62
475.939	258.62
476.158	266.62
476.377	312.62
476.596	350.62
476.814	344.62
477.033	303.62
477.252	262.62
477.471	256.62
477.69	260.62
477.908	265.62
478.127	267.62
478.346	264.62
478.564	284.62
478.783	297.62
479.002	288.62
479.22	284.62
479.439	328.62
479.658	282.62
479.876	266.62
480.095	282.62
480.313	313.62
480.532	272.62
480.751	281.62
480.969	268.62
481.188	306.62
481.406	292.62
481.624	279.62
481.843	281.62
482.061	250.62
482.28	277.62
482.498	350.62
482.717	340.62
482.935	292.62
483.153	272.62
483.372	260.62
483.59	250.62
483.808	256.62
484.027	240.62
484.245	246.62
484.463	253.62
484.681	250.62
484.9	250.62
485.118	305.62
485.336	261.62
485.554	254.62
485.772	271.62
485.99	281.62
486.209	298.62
486.427	272.62
486.645	275.62
486.863	295.62
487.081	283.62
487.299	304.62
487.517	308.62
487.735	278.62
487.953	284.62
488.171	285.62
488.389	288.62
488.607	253.62
488.825	285.62
489.043	290.62
489.261	333.62
489.479	313.62
489.696	291.62
489.914	264.62
490.132	246.62
490.35	245.62
490.568	276.62
490.786	265.62
491.003	267.62
491.221	250.62
491.439	261.62
491.657	276.62
491.874	282.62
492.092	342.62
492.31	346.62
492.527	353.62
492.745	306.62
492.963	303.62
493.18	292.62
493.398	292.62
493.615	294.62
493.833	284.62
494.05	309.62
494.268	260.62
494.485	285.62
494.703	263.62
494.92	282.62
495.138	265.62
495.355	273.62
495.573	282.62
495.79	290.62
496.008	348.62
496.225	334.62
496.442	308.62
496.66	298.62
496.877	303.62
497.094	309.62
497.312	294.62
497.529	311.62
497.746	304.62
497.963	310.62
498.181	344.62
498.398	342.62
498.615	364.62
498.832	381.62
499.049	409.62
499.267	345.62
499.484	354.62
499.701	390.62
499.918	420.62
500.135	466.62
500.352	507.62
500.569	512.62
500.786	528.62
501.003	530.62
501.22	457.62
501.437	439.62
501.654	393.62
501.871	373.62
502.088	366.62
502.305	334.62
502.522	352.62
