Data from NickelSpatula.Lamp.E5.5.P2_HRD10591_11-50-59-563.txt Node
Date: Tue Jul 23 11:50:59 EDT 2019
User: cochatt
Spectrometer: HR+D1059
Trigger mode: 1
Integration Time (sec): 1.000000E-1
Scans to average: 1
Electric dark correction enabled: true
Nonlinearity correction enabled: false
Boxcar width: 0
XAxis mode: Wavelengths
Number of Pixels in Spectrum: 2048
>>>>>Begin Spectral Data<<<<<
223.165	-16.12
223.4	-16.12
223.635	-16.12
223.869	-15.12
224.104	-17.12
224.338	0.88
224.573	-23.12
224.808	-19.12
225.042	2.88
225.277	-7.12
225.511	0.88
225.746	-4.12
225.98	-3.12
226.215	7.88
226.449	4.88
226.683	27.88
226.918	16.88
227.152	42.88
227.387	45.88
227.621	43.88
227.856	47.88
228.09	55.88
228.324	49.88
228.559	44.88
228.793	59.88
229.027	66.88
229.262	82.88
229.496	78.88
229.73	86.88
229.964	84.88
230.199	100.88
230.433	80.88
230.667	85.88
230.901	93.88
231.136	87.88
231.37	100.88
231.604	97.88
231.838	108.88
232.072	102.88
232.306	106.88
232.541	95.88
232.775	104.88
233.009	103.88
233.243	98.88
233.477	115.88
233.711	124.88
233.945	114.88
234.179	118.88
234.413	116.88
234.647	115.88
234.881	121.88
235.115	128.88
235.349	103.88
235.583	114.88
235.817	119.88
236.051	108.88
236.285	120.88
236.519	111.88
236.753	106.88
236.987	123.88
237.221	122.88
237.455	122.88
237.689	119.88
237.922	114.88
238.156	127.88
238.39	125.88
238.624	134.88
238.858	136.88
239.091	125.88
239.325	138.88
239.559	123.88
239.793	146.88
240.027	158.88
240.26	136.88
240.494	140.88
240.728	135.88
240.961	148.88
241.195	156.88
241.429	153.88
241.662	124.88
241.896	120.88
242.13	117.88
242.363	115.88
242.597	124.88
242.83	149.88
243.064	127.88
243.298	148.88
243.531	134.88
243.765	151.88
243.998	156.88
244.232	147.88
244.465	136.88
244.699	155.88
244.932	147.88
245.166	147.88
245.399	128.88
245.633	141.88
245.866	142.88
246.099	139.88
246.333	149.88
246.566	174.88
246.8	158.88
247.033	151.88
247.266	161.88
247.5	144.88
247.733	156.88
247.966	150.88
248.2	157.88
248.433	171.88
248.666	147.88
248.899	167.88
249.133	166.88
249.366	191.88
249.599	192.88
249.832	188.88
250.066	170.88
250.299	183.88
250.532	167.88
250.765	174.88
250.998	172.88
251.231	162.88
251.465	146.88
251.698	191.88
251.931	172.88
252.164	175.88
252.397	209.88
252.63	212.88
252.863	201.88
253.096	220.88
253.329	212.88
253.562	194.88
253.795	229.88
254.028	246.88
254.261	254.88
254.494	214.88
254.727	214.88
254.96	210.88
255.193	226.88
255.426	224.88
255.659	194.88
255.892	186.88
256.124	181.88
256.357	202.88
256.59	228.88
256.823	229.88
257.056	186.88
257.289	182.88
257.521	211.88
257.754	214.88
257.987	220.88
258.22	234.88
258.452	219.88
258.685	229.88
258.918	249.88
259.151	228.88
259.383	252.88
259.616	282.88
259.849	298.88
260.081	299.88
260.314	311.88
260.547	276.88
260.779	268.88
261.012	304.88
261.244	279.88
261.477	293.88
261.71	260.88
261.942	234.88
262.175	247.88
262.407	244.88
262.64	239.88
262.872	271.88
263.105	294.88
263.337	284.88
263.57	257.88
263.802	213.88
264.035	181.88
264.267	186.88
264.499	168.88
264.732	160.88
264.964	177.88
265.197	166.88
265.429	195.88
265.661	184.88
265.894	196.88
266.126	207.88
266.358	214.88
266.591	228.88
266.823	268.88
267.055	262.88
267.287	256.88
267.52	231.88
267.752	264.88
267.984	278.88
268.216	258.88
268.448	214.88
268.681	215.88
268.913	226.88
269.145	228.88
269.377	257.88
269.609	254.88
269.841	243.88
270.073	254.88
270.306	277.88
270.538	260.88
270.77	273.88
271.002	276.88
271.234	274.88
271.466	283.88
271.698	272.88
271.93	271.88
272.162	262.88
272.394	265.88
272.626	260.88
272.858	252.88
273.09	269.88
273.322	242.88
273.553	238.88
273.785	256.88
274.017	298.88
274.249	364.88
274.481	380.88
274.713	423.88
274.945	469.88
275.176	476.88
275.408	428.88
275.64	400.88
275.872	415.88
276.104	365.88
276.335	329.88
276.567	328.88
276.799	319.88
277.031	337.88
277.262	290.88
277.494	247.88
277.726	235.88
277.957	243.88
278.189	277.88
278.421	252.88
278.652	278.88
278.884	243.88
279.115	246.88
279.347	220.88
279.579	230.88
279.81	239.88
280.042	242.88
280.273	259.88
280.505	229.88
280.736	211.88
280.968	220.88
281.199	229.88
281.431	234.88
281.662	245.88
281.894	263.88
282.125	251.88
282.356	270.88
282.588	250.88
282.819	240.88
283.051	242.88
283.282	299.88
283.513	352.88
283.745	369.88
283.976	348.88
284.207	365.88
284.439	342.88
284.67	336.88
284.901	308.88
285.132	323.88
285.364	376.88
285.595	332.88
285.826	357.88
286.057	338.88
286.288	336.88
286.52	344.88
286.751	363.88
286.982	382.88
287.213	321.88
287.444	330.88
287.675	340.88
287.906	341.88
288.138	291.88
288.369	259.88
288.6	252.88
288.831	265.88
289.062	284.88
289.293	318.88
289.524	317.88
289.755	309.88
289.986	318.88
290.217	277.88
290.448	220.88
290.679	205.88
290.91	206.88
291.141	208.88
291.371	223.88
291.602	221.88
291.833	221.88
292.064	212.88
292.295	231.88
292.526	263.88
292.757	288.88
292.987	281.88
293.218	280.88
293.449	314.88
293.68	330.88
293.91	295.88
294.141	316.88
294.372	306.88
294.603	288.88
294.833	291.88
295.064	351.88
295.295	332.88
295.525	259.88
295.756	242.88
295.987	214.88
296.217	213.88
296.448	216.88
296.679	232.88
296.909	221.88
297.14	264.88
297.37	287.88
297.601	263.88
297.831	260.88
298.062	248.88
298.292	282.88
298.523	286.88
298.753	315.88
298.984	314.88
299.214	248.88
299.445	219.88
299.675	236.88
299.905	215.88
300.136	212.88
300.366	226.88
300.597	234.88
300.827	231.88
301.057	228.88
301.288	226.88
301.518	227.88
301.748	254.88
301.979	258.88
302.209	274.88
302.439	287.88
302.669	253.88
302.9	259.88
303.13	244.88
303.36	224.88
303.59	236.88
303.82	228.88
304.051	249.88
304.281	270.88
304.511	268.88
304.741	230.88
304.971	267.88
305.201	258.88
305.431	235.88
305.661	217.88
305.891	214.88
306.121	229.88
306.352	212.88
306.582	212.88
306.812	189.88
307.042	188.88
307.272	196.88
307.502	195.88
307.731	200.88
307.961	200.88
308.191	180.88
308.421	187.88
308.651	195.88
308.881	184.88
309.111	186.88
309.341	195.88
309.571	203.88
309.8	207.88
310.03	200.88
310.26	202.88
310.49	203.88
310.72	207.88
310.949	210.88
311.179	183.88
311.409	202.88
311.639	221.88
311.868	248.88
312.098	314.88
312.328	317.88
312.557	311.88
312.787	329.88
313.017	298.88
313.246	310.88
313.476	342.88
313.706	306.88
313.935	247.88
314.165	203.88
314.394	204.88
314.624	215.88
314.853	206.88
315.083	220.88
315.312	215.88
315.542	214.88
315.771	196.88
316.001	203.88
316.23	207.88
316.46	186.88
316.689	191.88
316.919	193.88
317.148	184.88
317.377	188.88
317.607	176.88
317.836	185.88
318.065	211.88
318.295	236.88
318.524	247.88
318.753	224.88
318.983	196.88
319.212	206.88
319.441	187.88
319.67	219.88
319.9	246.88
320.129	217.88
320.358	216.88
320.587	213.88
320.816	200.88
321.046	231.88
321.275	247.88
321.504	230.88
321.733	237.88
321.962	227.88
322.191	237.88
322.42	223.88
322.649	212.88
322.878	224.88
323.108	231.88
323.337	214.88
323.566	192.88
323.795	231.88
324.024	229.88
324.253	213.88
324.482	200.88
324.71	224.88
324.939	230.88
325.168	213.88
325.397	225.88
325.626	192.88
325.855	211.88
326.084	208.88
326.313	188.88
326.542	196.88
326.77	199.88
326.999	196.88
327.228	194.88
327.457	214.88
327.686	229.88
327.914	194.88
328.143	194.88
328.372	193.88
328.6	202.88
328.829	174.88
329.058	191.88
329.287	195.88
329.515	190.88
329.744	184.88
329.972	199.88
330.201	189.88
330.43	200.88
330.658	180.88
330.887	223.88
331.115	200.88
331.344	203.88
331.572	213.88
331.801	202.88
332.03	195.88
332.258	197.88
332.486	212.88
332.715	216.88
332.943	219.88
333.172	212.88
333.4	223.88
333.629	225.88
333.857	238.88
334.085	255.88
334.314	248.88
334.542	260.88
334.771	221.88
334.999	218.88
335.227	204.88
335.455	217.88
335.684	229.88
335.912	253.88
336.14	272.88
336.369	264.88
336.597	256.88
336.825	254.88
337.053	273.88
337.281	256.88
337.51	241.88
337.738	218.88
337.966	206.88
338.194	253.88
338.422	225.88
338.65	206.88
338.878	202.88
339.106	208.88
339.334	205.88
339.562	211.88
339.79	204.88
340.018	205.88
340.246	201.88
340.474	216.88
340.702	263.88
340.93	245.88
341.158	258.88
341.386	246.88
341.614	227.88
341.842	211.88
342.07	225.88
342.298	265.88
342.526	259.88
342.754	221.88
342.981	220.88
343.209	211.88
343.437	215.88
343.665	244.88
343.893	246.88
344.12	276.88
344.348	315.88
344.576	294.88
344.804	240.88
345.031	203.88
345.259	208.88
345.487	210.88
345.714	226.88
345.942	219.88
346.17	236.88
346.397	254.88
346.625	226.88
346.853	200.88
347.08	212.88
347.308	211.88
347.535	236.88
347.763	229.88
347.99	231.88
348.218	223.88
348.445	208.88
348.673	221.88
348.9	232.88
349.128	238.88
349.355	237.88
349.583	222.88
349.81	221.88
350.037	212.88
350.265	191.88
350.492	182.88
350.72	176.88
350.947	184.88
351.174	190.88
351.402	191.88
351.629	205.88
351.856	206.88
352.083	188.88
352.311	207.88
352.538	221.88
352.765	234.88
352.992	221.88
353.22	231.88
353.447	216.88
353.674	205.88
353.901	186.88
354.128	198.88
354.355	211.88
354.583	221.88
354.81	213.88
355.037	214.88
355.264	213.88
355.491	227.88
355.718	224.88
355.945	231.88
356.172	225.88
356.399	221.88
356.626	257.88
356.853	293.88
357.08	314.88
357.307	330.88
357.534	273.88
357.761	277.88
357.988	316.88
358.215	390.88
358.441	336.88
358.668	298.88
358.895	282.88
359.122	264.88
359.349	251.88
359.576	283.88
359.802	238.88
360.029	231.88
360.256	212.88
360.483	253.88
360.709	326.88
360.936	309.88
361.163	275.88
361.39	230.88
361.616	220.88
361.843	241.88
362.07	270.88
362.296	246.88
362.523	227.88
362.749	196.88
362.976	202.88
363.203	234.88
363.429	254.88
363.656	224.88
363.882	200.88
364.109	196.88
364.335	222.88
364.562	208.88
364.788	222.88
365.015	261.88
365.241	240.88
365.468	215.88
365.694	183.88
365.92	185.88
366.147	182.88
366.373	172.88
366.599	201.88
366.826	183.88
367.052	191.88
367.278	176.88
367.505	192.88
367.731	190.88
367.957	208.88
368.184	228.88
368.41	191.88
368.636	197.88
368.862	234.88
369.089	198.88
369.315	193.88
369.541	203.88
369.767	194.88
369.993	201.88
370.219	205.88
370.445	208.88
370.672	217.88
370.898	234.88
371.124	230.88
371.35	208.88
371.576	202.88
371.802	224.88
372.028	226.88
372.254	275.88
372.48	238.88
372.706	221.88
372.932	230.88
373.158	233.88
373.384	269.88
373.61	341.88
373.835	354.88
374.061	292.88
374.287	236.88
374.513	289.88
374.739	304.88
374.965	338.88
375.191	336.88
375.416	243.88
375.642	216.88
375.868	254.88
376.094	268.88
376.319	250.88
376.545	269.88
376.771	259.88
376.997	250.88
377.222	222.88
377.448	194.88
377.674	167.88
377.899	170.88
378.125	170.88
378.35	191.88
378.576	202.88
378.802	190.88
379.027	215.88
379.253	205.88
379.478	210.88
379.704	211.88
379.929	214.88
380.155	241.88
380.38	197.88
380.606	199.88
380.831	232.88
381.057	235.88
381.282	212.88
381.507	238.88
381.733	278.88
381.958	294.88
382.184	304.88
382.409	338.88
382.634	305.88
382.86	326.88
383.085	286.88
383.31	252.88
383.535	268.88
383.761	275.88
383.986	271.88
384.211	278.88
384.436	285.88
384.662	232.88
384.887	219.88
385.112	238.88
385.337	240.88
385.562	254.88
385.787	260.88
386.013	265.88
386.238	272.88
386.463	219.88
386.688	227.88
386.913	225.88
387.138	217.88
387.363	224.88
387.588	234.88
387.813	213.88
388.038	241.88
388.263	234.88
388.488	218.88
388.713	231.88
388.938	283.88
389.163	221.88
389.387	199.88
389.612	204.88
389.837	229.88
390.062	222.88
390.287	219.88
390.512	234.88
390.736	204.88
390.961	208.88
391.186	203.88
391.411	206.88
391.636	206.88
391.86	230.88
392.085	236.88
392.31	256.88
392.534	248.88
392.759	225.88
392.984	225.88
393.208	235.88
393.433	218.88
393.658	189.88
393.882	199.88
394.107	206.88
394.331	200.88
394.556	208.88
394.78	211.88
395.005	214.88
395.229	212.88
395.454	217.88
395.678	223.88
395.903	231.88
396.127	212.88
396.352	214.88
396.576	227.88
396.801	243.88
397.025	230.88
397.249	254.88
397.474	208.88
397.698	223.88
397.922	221.88
398.147	224.88
398.371	221.88
398.595	231.88
398.82	222.88
399.044	237.88
399.268	256.88
399.492	273.88
399.717	280.88
399.941	297.88
400.165	271.88
400.389	246.88
400.613	246.88
400.837	254.88
401.062	221.88
401.286	229.88
401.51	217.88
401.734	222.88
401.958	227.88
402.182	216.88
402.406	228.88
402.63	229.88
402.854	231.88
403.078	257.88
403.302	352.88
403.526	345.88
403.75	312.88
403.974	282.88
404.198	285.88
404.422	291.88
404.645	304.88
404.869	349.88
405.093	280.88
405.317	239.88
405.541	240.88
405.765	264.88
405.988	266.88
406.212	250.88
406.436	284.88
406.66	280.88
406.883	261.88
407.107	272.88
407.331	288.88
407.555	311.88
407.778	281.88
408.002	270.88
408.226	270.88
408.449	248.88
408.673	266.88
408.896	231.88
409.12	240.88
409.344	243.88
409.567	245.88
409.791	218.88
410.014	236.88
410.238	234.88
410.461	221.88
410.685	229.88
410.908	221.88
411.132	223.88
411.355	224.88
411.578	232.88
411.802	222.88
412.025	230.88
412.249	233.88
412.472	242.88
412.695	224.88
412.919	254.88
413.142	243.88
413.365	238.88
413.589	252.88
413.812	234.88
414.035	223.88
414.258	221.88
414.482	261.88
414.705	270.88
414.928	224.88
415.151	214.88
415.374	216.88
415.597	227.88
415.821	239.88
416.044	214.88
416.267	214.88
416.49	215.88
416.713	200.88
416.936	215.88
417.159	221.88
417.382	237.88
417.605	248.88
417.828	226.88
418.051	220.88
418.274	235.88
418.497	236.88
418.72	219.88
418.943	237.88
419.166	250.88
419.389	244.88
419.611	260.88
419.834	238.88
420.057	253.88
420.28	260.88
420.503	248.88
420.726	245.88
420.948	224.88
421.171	245.88
421.394	260.88
421.617	238.88
421.839	232.88
422.062	209.88
422.285	242.88
422.507	235.88
422.73	225.88
422.953	234.88
423.175	210.88
423.398	216.88
423.621	250.88
423.843	263.88
424.066	256.88
424.288	235.88
424.511	220.88
424.733	229.88
424.956	251.88
425.178	254.88
425.401	275.88
425.623	343.88
425.846	274.88
426.068	252.88
426.291	260.88
426.513	240.88
426.735	231.88
426.958	231.88
427.18	250.88
427.402	315.88
427.625	326.88
427.847	296.88
428.069	252.88
428.292	229.88
428.514	226.88
428.736	199.88
428.958	241.88
429.181	273.88
429.403	240.88
429.625	220.88
429.847	214.88
430.069	222.88
430.292	213.88
430.514	209.88
430.736	222.88
430.958	258.88
431.18	246.88
431.402	208.88
431.624	223.88
431.846	198.88
432.068	220.88
432.29	218.88
432.512	210.88
432.734	257.88
432.956	263.88
433.178	216.88
433.4	216.88
433.622	218.88
433.844	226.88
434.066	231.88
434.287	270.88
434.509	228.88
434.731	258.88
434.953	231.88
435.175	261.88
435.397	265.88
435.618	232.88
435.84	224.88
436.062	233.88
436.284	216.88
436.505	195.88
436.727	219.88
436.949	229.88
437.17	196.88
437.392	215.88
437.614	218.88
437.835	223.88
438.057	207.88
438.278	219.88
438.5	289.88
438.721	291.88
438.943	243.88
439.165	214.88
439.386	210.88
439.608	216.88
439.829	220.88
440.05	219.88
440.272	210.88
440.493	237.88
440.715	280.88
440.936	235.88
441.158	212.88
441.379	222.88
441.6	240.88
441.822	251.88
442.043	228.88
442.264	216.88
442.486	222.88
442.707	219.88
442.928	220.88
443.149	225.88
443.371	228.88
443.592	239.88
443.813	228.88
444.034	231.88
444.255	228.88
444.476	251.88
444.698	263.88
444.919	264.88
445.14	367.88
445.361	303.88
445.582	227.88
445.803	226.88
446.024	239.88
446.245	230.88
446.466	222.88
446.687	219.88
446.908	221.88
447.129	213.88
447.35	199.88
447.571	195.88
447.792	210.88
448.013	204.88
448.234	216.88
448.455	202.88
448.675	204.88
448.896	195.88
449.117	200.88
449.338	208.88
449.559	211.88
449.779	206.88
450	222.88
450.221	215.88
450.442	217.88
450.662	212.88
450.883	219.88
451.104	221.88
451.324	199.88
451.545	218.88
451.766	223.88
451.986	193.88
452.207	191.88
452.428	196.88
452.648	205.88
452.869	220.88
453.089	202.88
453.31	230.88
453.53	206.88
453.751	199.88
453.971	200.88
454.192	201.88
454.412	209.88
454.633	201.88
454.853	225.88
455.073	194.88
455.294	183.88
455.514	199.88
455.734	191.88
455.955	199.88
456.175	211.88
456.395	194.88
456.616	189.88
456.836	190.88
457.056	180.88
457.276	170.88
457.497	189.88
457.717	198.88
457.937	189.88
458.157	178.88
458.377	213.88
458.598	191.88
458.818	207.88
459.038	220.88
459.258	202.88
459.478	219.88
459.698	216.88
459.918	225.88
460.138	224.88
460.358	235.88
460.578	233.88
460.798	236.88
461.018	228.88
461.238	224.88
461.458	230.88
461.678	242.88
461.898	252.88
462.118	234.88
462.338	263.88
462.558	275.88
462.777	260.88
462.997	274.88
463.217	288.88
463.437	289.88
463.657	267.88
463.876	279.88
464.096	276.88
464.316	262.88
464.536	272.88
464.755	288.88
464.975	263.88
465.195	234.88
465.414	250.88
465.634	239.88
465.854	227.88
466.073	230.88
466.293	218.88
466.512	211.88
466.732	250.88
466.951	238.88
467.171	208.88
467.391	210.88
467.61	218.88
467.829	212.88
468.049	226.88
468.268	213.88
468.488	211.88
468.707	223.88
468.927	229.88
469.146	236.88
469.365	228.88
469.585	219.88
469.804	237.88
470.023	235.88
470.243	255.88
470.462	221.88
470.681	222.88
470.901	235.88
471.12	244.88
471.339	239.88
471.558	225.88
471.777	202.88
471.997	254.88
472.216	255.88
472.435	249.88
472.654	228.88
472.873	229.88
473.092	227.88
473.311	231.88
473.53	226.88
473.749	212.88
473.968	212.88
474.187	223.88
474.406	214.88
474.625	220.88
474.844	210.88
475.063	216.88
475.282	219.88
475.501	246.88
475.72	268.88
475.939	246.88
476.158	248.88
476.377	267.88
476.596	293.88
476.814	306.88
477.033	275.88
477.252	244.88
477.471	216.88
477.69	223.88
477.908	248.88
478.127	264.88
478.346	243.88
478.564	271.88
478.783	269.88
479.002	260.88
479.22	284.88
479.439	305.88
479.658	277.88
479.876	266.88
480.095	260.88
480.313	272.88
480.532	255.88
480.751	273.88
480.969	252.88
481.188	253.88
481.406	292.88
481.624	270.88
481.843	223.88
482.061	236.88
482.28	255.88
482.498	310.88
482.717	321.88
482.935	246.88
483.153	264.88
483.372	240.88
483.59	244.88
483.808	236.88
484.027	241.88
484.245	246.88
484.463	231.88
484.681	245.88
484.9	240.88
485.118	269.88
485.336	266.88
485.554	258.88
485.772	262.88
485.99	258.88
486.209	271.88
486.427	276.88
486.645	248.88
486.863	288.88
487.081	282.88
487.299	294.88
487.517	288.88
487.735	271.88
487.953	272.88
488.171	283.88
488.389	273.88
488.607	244.88
488.825	273.88
489.043	264.88
489.261	308.88
489.479	311.88
489.696	266.88
489.914	256.88
490.132	250.88
490.35	259.88
490.568	245.88
490.786	253.88
491.003	257.88
491.221	256.88
491.439	250.88
491.657	248.88
491.874	268.88
492.092	303.88
492.31	329.88
492.527	322.88
492.745	290.88
492.963	284.88
493.18	294.88
493.398	275.88
493.615	280.88
493.833	270.88
494.05	269.88
494.268	276.88
494.485	266.88
494.703	278.88
494.92	262.88
495.138	261.88
495.355	267.88
495.573	263.88
495.79	303.88
496.008	358.88
496.225	290.88
496.442	279.88
496.66	298.88
496.877	278.88
497.094	286.88
497.312	260.88
497.529	287.88
497.746	291.88
497.963	282.88
498.181	311.88
498.398	325.88
498.615	334.88
498.832	359.88
499.049	366.88
499.267	358.88
499.484	384.88
499.701	397.88
499.918	439.88
500.135	485.88
500.352	538.88
500.569	550.88
500.786	559.88
501.003	513.88
501.22	466.88
501.437	436.88
501.654	393.88
501.871	376.88
502.088	370.88
502.305	338.88
502.522	342.88
