Data from NickelSpatula.Lamp.E5.5.P2_HRD10591_11-53-10-550.txt Node
Date: Tue Jul 23 11:53:10 EDT 2019
User: cochatt
Spectrometer: HR+D1059
Trigger mode: 1
Integration Time (sec): 1.000000E-1
Scans to average: 1
Electric dark correction enabled: true
Nonlinearity correction enabled: false
Boxcar width: 0
XAxis mode: Wavelengths
Number of Pixels in Spectrum: 2048
>>>>>Begin Spectral Data<<<<<
223.165	-17.31
223.4	-17.31
223.635	-17.31
223.869	-24.31
224.104	-21.31
224.338	-16.31
224.573	-13.31
224.808	-12.31
225.042	-5.31
225.277	-10.31
225.511	-11.31
225.746	-6.31
225.98	6.69
226.215	24.69
226.449	28.69
226.683	19.69
226.918	22.69
227.152	35.69
227.387	38.69
227.621	44.69
227.856	57.69
228.09	46.69
228.324	43.69
228.559	64.69
228.793	69.69
229.027	80.69
229.262	74.69
229.496	77.69
229.73	86.69
229.964	99.69
230.199	102.69
230.433	100.69
230.667	88.69
230.901	113.69
231.136	98.69
231.37	91.69
231.604	113.69
231.838	106.69
232.072	112.69
232.306	121.69
232.541	120.69
232.775	115.69
233.009	120.69
233.243	127.69
233.477	127.69
233.711	114.69
233.945	116.69
234.179	140.69
234.413	127.69
234.647	140.69
234.881	147.69
235.115	140.69
235.349	130.69
235.583	119.69
235.817	126.69
236.051	128.69
236.285	144.69
236.519	151.69
236.753	152.69
236.987	145.69
237.221	123.69
237.455	132.69
237.689	138.69
237.922	138.69
238.156	134.69
238.39	159.69
238.624	180.69
238.858	192.69
239.091	133.69
239.325	152.69
239.559	155.69
239.793	140.69
240.027	176.69
240.26	178.69
240.494	168.69
240.728	178.69
240.961	209.69
241.195	179.69
241.429	165.69
241.662	182.69
241.896	163.69
242.13	144.69
242.363	143.69
242.597	135.69
242.83	165.69
243.064	151.69
243.298	180.69
243.531	158.69
243.765	169.69
243.998	184.69
244.232	174.69
244.465	166.69
244.699	188.69
244.932	194.69
245.166	180.69
245.399	172.69
245.633	169.69
245.866	163.69
246.099	163.69
246.333	187.69
246.566	200.69
246.8	192.69
247.033	201.69
247.266	172.69
247.5	165.69
247.733	187.69
247.966	165.69
248.2	197.69
248.433	203.69
248.666	215.69
248.899	204.69
249.133	195.69
249.366	218.69
249.599	251.69
249.832	231.69
250.066	225.69
250.299	207.69
250.532	190.69
250.765	207.69
250.998	176.69
251.231	195.69
251.465	202.69
251.698	214.69
251.931	201.69
252.164	210.69
252.397	211.69
252.63	263.69
252.863	262.69
253.096	288.69
253.329	267.69
253.562	268.69
253.795	278.69
254.028	305.69
254.261	322.69
254.494	290.69
254.727	271.69
254.96	238.69
255.193	263.69
255.426	275.69
255.659	213.69
255.892	206.69
256.124	234.69
256.357	247.69
256.59	274.69
256.823	277.69
257.056	263.69
257.289	224.69
257.521	242.69
257.754	277.69
257.987	324.69
258.22	283.69
258.452	241.69
258.685	260.69
258.918	300.69
259.151	286.69
259.383	306.69
259.616	352.69
259.849	360.69
260.081	383.69
260.314	438.69
260.547	335.69
260.779	348.69
261.012	413.69
261.244	386.69
261.477	382.69
261.71	341.69
261.942	294.69
262.175	296.69
262.407	302.69
262.64	281.69
262.872	335.69
263.105	362.69
263.337	382.69
263.57	366.69
263.802	263.69
264.035	219.69
264.267	206.69
264.499	199.69
264.732	178.69
264.964	190.69
265.197	178.69
265.429	201.69
265.661	210.69
265.894	225.69
266.126	232.69
266.358	260.69
266.591	290.69
266.823	331.69
267.055	338.69
267.287	304.69
267.52	303.69
267.752	323.69
267.984	337.69
268.216	313.69
268.448	284.69
268.681	286.69
268.913	286.69
269.145	295.69
269.377	314.69
269.609	328.69
269.841	293.69
270.073	319.69
270.306	322.69
270.538	323.69
270.77	329.69
271.002	340.69
271.234	352.69
271.466	354.69
271.698	343.69
271.93	328.69
272.162	325.69
272.394	307.69
272.626	303.69
272.858	314.69
273.09	327.69
273.322	283.69
273.553	286.69
273.785	327.69
274.017	411.69
274.249	508.69
274.481	509.69
274.713	533.69
274.945	650.69
275.176	660.69
275.408	590.69
275.64	531.69
275.872	556.69
276.104	487.69
276.335	430.69
276.567	430.69
276.799	413.69
277.031	450.69
277.262	347.69
277.494	282.69
277.726	257.69
277.957	303.69
278.189	331.69
278.421	323.69
278.652	311.69
278.884	307.69
279.115	281.69
279.347	282.69
279.579	291.69
279.81	290.69
280.042	303.69
280.273	293.69
280.505	282.69
280.736	257.69
280.968	261.69
281.199	266.69
281.431	295.69
281.662	291.69
281.894	268.69
282.125	286.69
282.356	311.69
282.588	309.69
282.819	296.69
283.051	309.69
283.282	372.69
283.513	396.69
283.745	467.69
283.976	449.69
284.207	433.69
284.439	438.69
284.67	420.69
284.901	383.69
285.132	426.69
285.364	452.69
285.595	407.69
285.826	416.69
286.057	417.69
286.288	412.69
286.52	421.69
286.751	454.69
286.982	461.69
287.213	402.69
287.444	391.69
287.675	399.69
287.906	414.69
288.138	335.69
288.369	313.69
288.6	300.69
288.831	306.69
289.062	347.69
289.293	375.69
289.524	354.69
289.755	357.69
289.986	378.69
290.217	318.69
290.448	256.69
290.679	227.69
290.91	227.69
291.141	234.69
291.371	232.69
291.602	231.69
291.833	231.69
292.064	260.69
292.295	269.69
292.526	310.69
292.757	312.69
292.987	350.69
293.218	367.69
293.449	381.69
293.68	401.69
293.91	363.69
294.141	379.69
294.372	356.69
294.603	318.69
294.833	350.69
295.064	420.69
295.295	410.69
295.525	289.69
295.756	274.69
295.987	228.69
296.217	242.69
296.448	250.69
296.679	266.69
296.909	261.69
297.14	289.69
297.37	319.69
297.601	301.69
297.831	279.69
298.062	287.69
298.292	339.69
298.523	337.69
298.753	387.69
298.984	357.69
299.214	296.69
299.445	269.69
299.675	256.69
299.905	246.69
300.136	252.69
300.366	248.69
300.597	257.69
300.827	239.69
301.057	239.69
301.288	231.69
301.518	272.69
301.748	280.69
301.979	310.69
302.209	302.69
302.439	323.69
302.669	279.69
302.9	294.69
303.13	267.69
303.36	278.69
303.59	255.69
303.82	283.69
304.051	267.69
304.281	300.69
304.511	311.69
304.741	286.69
304.971	276.69
305.201	304.69
305.431	272.69
305.661	258.69
305.891	249.69
306.121	243.69
306.352	223.69
306.582	225.69
306.812	201.69
307.042	213.69
307.272	202.69
307.502	201.69
307.731	215.69
307.961	226.69
308.191	198.69
308.421	212.69
308.651	192.69
308.881	195.69
309.111	194.69
309.341	198.69
309.571	210.69
309.8	230.69
310.03	225.69
310.26	231.69
310.49	227.69
310.72	195.69
310.949	208.69
311.179	204.69
311.409	232.69
311.639	260.69
311.868	294.69
312.098	359.69
312.328	417.69
312.557	381.69
312.787	392.69
313.017	366.69
313.246	373.69
313.476	419.69
313.706	353.69
313.935	310.69
314.165	234.69
314.394	226.69
314.624	230.69
314.853	245.69
315.083	232.69
315.312	225.69
315.542	232.69
315.771	226.69
316.001	215.69
316.23	217.69
316.46	206.69
316.689	207.69
316.919	226.69
317.148	223.69
317.377	201.69
317.607	205.69
317.836	217.69
318.065	236.69
318.295	268.69
318.524	265.69
318.753	223.69
318.983	218.69
319.212	208.69
319.441	230.69
319.67	257.69
319.9	250.69
320.129	266.69
320.358	232.69
320.587	209.69
320.816	219.69
321.046	259.69
321.275	286.69
321.504	280.69
321.733	265.69
321.962	250.69
322.191	276.69
322.42	232.69
322.649	231.69
322.878	268.69
323.108	256.69
323.337	264.69
323.566	252.69
323.795	239.69
324.024	235.69
324.253	231.69
324.482	228.69
324.71	258.69
324.939	265.69
325.168	245.69
325.397	212.69
325.626	222.69
325.855	213.69
326.084	231.69
326.313	231.69
326.542	215.69
326.77	217.69
326.999	215.69
327.228	225.69
327.457	232.69
327.686	247.69
327.914	208.69
328.143	192.69
328.372	201.69
328.6	214.69
328.829	206.69
329.058	199.69
329.287	207.69
329.515	220.69
329.744	211.69
329.972	193.69
330.201	188.69
330.43	191.69
330.658	217.69
330.887	258.69
331.115	244.69
331.344	233.69
331.572	237.69
331.801	211.69
332.03	211.69
332.258	215.69
332.486	239.69
332.715	231.69
332.943	218.69
333.172	229.69
333.4	251.69
333.629	254.69
333.857	267.69
334.085	243.69
334.314	283.69
334.542	254.69
334.771	250.69
334.999	228.69
335.227	216.69
335.455	217.69
335.684	241.69
335.912	253.69
336.14	300.69
336.369	281.69
336.597	275.69
336.825	290.69
337.053	337.69
337.281	286.69
337.51	205.69
337.738	206.69
337.966	234.69
338.194	250.69
338.422	263.69
338.65	228.69
338.878	217.69
339.106	220.69
339.334	234.69
339.562	244.69
339.79	224.69
340.018	213.69
340.246	249.69
340.474	261.69
340.702	272.69
340.93	270.69
341.158	288.69
341.386	242.69
341.614	241.69
341.842	250.69
342.07	252.69
342.298	300.69
342.526	324.69
342.754	255.69
342.981	225.69
343.209	260.69
343.437	252.69
343.665	289.69
343.893	275.69
344.12	321.69
344.348	367.69
344.576	328.69
344.804	268.69
345.031	232.69
345.259	244.69
345.487	237.69
345.714	227.69
345.942	266.69
346.17	272.69
346.397	268.69
346.625	250.69
346.853	229.69
347.08	220.69
347.308	249.69
347.535	275.69
347.763	282.69
347.99	250.69
348.218	236.69
348.445	227.69
348.673	234.69
348.9	234.69
349.128	259.69
349.355	259.69
349.583	235.69
349.81	242.69
350.037	218.69
350.265	215.69
350.492	186.69
350.72	210.69
350.947	196.69
351.174	190.69
351.402	222.69
351.629	225.69
351.856	218.69
352.083	208.69
352.311	226.69
352.538	245.69
352.765	250.69
352.992	258.69
353.22	234.69
353.447	243.69
353.674	216.69
353.901	209.69
354.128	231.69
354.355	225.69
354.583	225.69
354.81	232.69
355.037	236.69
355.264	241.69
355.491	246.69
355.718	257.69
355.945	244.69
356.172	243.69
356.399	243.69
356.626	293.69
356.853	357.69
357.08	360.69
357.307	368.69
357.534	294.69
357.761	304.69
357.988	387.69
358.215	432.69
358.441	386.69
358.668	342.69
358.895	333.69
359.122	285.69
359.349	275.69
359.576	313.69
359.802	267.69
360.029	227.69
360.256	240.69
360.483	299.69
360.709	343.69
360.936	355.69
361.163	324.69
361.39	280.69
361.616	244.69
361.843	256.69
362.07	282.69
362.296	292.69
362.523	236.69
362.749	230.69
362.976	235.69
363.203	271.69
363.429	280.69
363.656	242.69
363.882	227.69
364.109	225.69
364.335	244.69
364.562	230.69
364.788	263.69
365.015	280.69
365.241	284.69
365.468	222.69
365.694	223.69
365.92	217.69
366.147	183.69
366.373	182.69
366.599	200.69
366.826	182.69
367.052	199.69
367.278	199.69
367.505	205.69
367.731	210.69
367.957	239.69
368.184	225.69
368.41	244.69
368.636	248.69
368.862	239.69
369.089	238.69
369.315	216.69
369.541	229.69
369.767	211.69
369.993	225.69
370.219	212.69
370.445	228.69
370.672	222.69
370.898	252.69
371.124	248.69
371.35	218.69
371.576	223.69
371.802	225.69
372.028	275.69
372.254	280.69
372.48	264.69
372.706	241.69
372.932	255.69
373.158	261.69
373.384	297.69
373.61	373.69
373.835	400.69
374.061	294.69
374.287	247.69
374.513	313.69
374.739	347.69
374.965	362.69
375.191	360.69
375.416	276.69
375.642	222.69
375.868	274.69
376.094	297.69
376.319	251.69
376.545	290.69
376.771	285.69
376.997	262.69
377.222	232.69
377.448	218.69
377.674	195.69
377.899	197.69
378.125	193.69
378.35	205.69
378.576	192.69
378.802	206.69
379.027	218.69
379.253	219.69
379.478	224.69
379.704	258.69
379.929	243.69
380.155	260.69
380.38	227.69
380.606	228.69
380.831	263.69
381.057	252.69
381.282	244.69
381.507	276.69
381.733	305.69
381.958	315.69
382.184	324.69
382.409	354.69
382.634	382.69
382.86	368.69
383.085	305.69
383.31	253.69
383.535	299.69
383.761	294.69
383.986	264.69
384.211	296.69
384.436	306.69
384.662	222.69
384.887	244.69
385.112	254.69
385.337	254.69
385.562	266.69
385.787	259.69
386.013	289.69
386.238	305.69
386.463	229.69
386.688	232.69
386.913	230.69
387.138	208.69
387.363	234.69
387.588	233.69
387.813	232.69
388.038	264.69
388.263	252.69
388.488	235.69
388.713	253.69
388.938	296.69
389.163	225.69
389.387	224.69
389.612	228.69
389.837	244.69
390.062	245.69
390.287	262.69
390.512	246.69
390.736	238.69
390.961	226.69
391.186	221.69
391.411	213.69
391.636	201.69
391.86	224.69
392.085	255.69
392.31	254.69
392.534	263.69
392.759	244.69
392.984	248.69
393.208	243.69
393.433	228.69
393.658	218.69
393.882	216.69
394.107	211.69
394.331	212.69
394.556	214.69
394.78	203.69
395.005	201.69
395.229	213.69
395.454	203.69
395.678	228.69
395.903	217.69
396.127	211.69
396.352	222.69
396.576	247.69
396.801	235.69
397.025	274.69
397.249	265.69
397.474	227.69
397.698	223.69
397.922	227.69
398.147	219.69
398.371	226.69
398.595	231.69
398.82	227.69
399.044	232.69
399.268	243.69
399.492	276.69
399.717	287.69
399.941	291.69
400.165	268.69
400.389	246.69
400.613	254.69
400.837	263.69
401.062	239.69
401.286	240.69
401.51	223.69
401.734	228.69
401.958	243.69
402.182	224.69
402.406	236.69
402.63	223.69
402.854	236.69
403.078	288.69
403.302	372.69
403.526	406.69
403.75	344.69
403.974	297.69
404.198	286.69
404.422	304.69
404.645	344.69
404.869	368.69
405.093	291.69
405.317	274.69
405.541	284.69
405.765	260.69
405.988	264.69
406.212	276.69
406.436	296.69
406.66	327.69
406.883	286.69
407.107	276.69
407.331	324.69
407.555	312.69
407.778	291.69
408.002	283.69
408.226	268.69
408.449	271.69
408.673	259.69
408.896	249.69
409.12	252.69
409.344	266.69
409.567	228.69
409.791	232.69
410.014	231.69
410.238	227.69
410.461	222.69
410.685	230.69
410.908	229.69
411.132	239.69
411.355	246.69
411.578	233.69
411.802	241.69
412.025	264.69
412.249	244.69
412.472	234.69
412.695	244.69
412.919	229.69
413.142	233.69
413.365	255.69
413.589	249.69
413.812	217.69
414.035	225.69
414.258	230.69
414.482	257.69
414.705	264.69
414.928	239.69
415.151	218.69
415.374	223.69
415.597	244.69
415.821	239.69
416.044	238.69
416.267	227.69
416.49	238.69
416.713	235.69
416.936	223.69
417.159	238.69
417.382	228.69
417.605	233.69
417.828	235.69
418.051	222.69
418.274	238.69
418.497	246.69
418.72	219.69
418.943	254.69
419.166	260.69
419.389	272.69
419.611	265.69
419.834	250.69
420.057	279.69
420.28	267.69
420.503	256.69
420.726	244.69
420.948	218.69
421.171	225.69
421.394	239.69
421.617	238.69
421.839	214.69
422.062	234.69
422.285	217.69
422.507	230.69
422.73	238.69
422.953	248.69
423.175	248.69
423.398	251.69
423.621	282.69
423.843	259.69
424.066	254.69
424.288	243.69
424.511	245.69
424.733	249.69
424.956	255.69
425.178	258.69
425.401	311.69
425.623	358.69
425.846	312.69
426.068	262.69
426.291	277.69
426.513	273.69
426.735	248.69
426.958	250.69
427.18	293.69
427.402	325.69
427.625	367.69
427.847	308.69
428.069	242.69
428.292	233.69
428.514	222.69
428.736	218.69
428.958	249.69
429.181	315.69
429.403	251.69
429.625	236.69
429.847	223.69
430.069	233.69
430.292	239.69
430.514	232.69
430.736	242.69
430.958	287.69
431.18	266.69
431.402	221.69
431.624	225.69
431.846	215.69
432.068	216.69
432.29	225.69
432.512	225.69
432.734	277.69
432.956	269.69
433.178	234.69
433.4	222.69
433.622	217.69
433.844	243.69
434.066	257.69
434.287	240.69
434.509	242.69
434.731	249.69
434.953	234.69
435.175	251.69
435.397	284.69
435.618	230.69
435.84	213.69
436.062	226.69
436.284	231.69
436.505	213.69
436.727	212.69
436.949	219.69
437.17	242.69
437.392	214.69
437.614	215.69
437.835	216.69
438.057	217.69
438.278	256.69
438.5	342.69
438.721	333.69
438.943	253.69
439.165	220.69
439.386	208.69
439.608	200.69
439.829	205.69
440.05	205.69
440.272	218.69
440.493	259.69
440.715	286.69
440.936	248.69
441.158	243.69
441.379	233.69
441.6	250.69
441.822	273.69
442.043	235.69
442.264	215.69
442.486	219.69
442.707	240.69
442.928	224.69
443.149	223.69
443.371	229.69
443.592	247.69
443.813	251.69
444.034	259.69
444.255	248.69
444.476	260.69
444.698	251.69
444.919	264.69
445.14	361.69
445.361	302.69
445.582	254.69
445.803	243.69
446.024	242.69
446.245	250.69
446.466	239.69
446.687	229.69
446.908	230.69
447.129	243.69
447.35	190.69
447.571	214.69
447.792	203.69
448.013	215.69
448.234	224.69
448.455	206.69
448.675	194.69
448.896	209.69
449.117	224.69
449.338	219.69
449.559	221.69
449.779	239.69
450	239.69
450.221	227.69
450.442	219.69
450.662	218.69
450.883	218.69
451.104	213.69
451.324	208.69
451.545	219.69
451.766	222.69
451.986	222.69
452.207	230.69
452.428	218.69
452.648	219.69
452.869	232.69
453.089	237.69
453.31	225.69
453.53	200.69
453.751	215.69
453.971	208.69
454.192	202.69
454.412	213.69
454.633	211.69
454.853	210.69
455.073	199.69
455.294	179.69
455.514	211.69
455.734	220.69
455.955	214.69
456.175	219.69
456.395	200.69
456.616	197.69
456.836	199.69
457.056	200.69
457.276	198.69
457.497	195.69
457.717	201.69
457.937	192.69
458.157	190.69
458.377	206.69
458.598	212.69
458.818	218.69
459.038	210.69
459.258	207.69
459.478	229.69
459.698	230.69
459.918	258.69
460.138	238.69
460.358	265.69
460.578	231.69
460.798	241.69
461.018	243.69
461.238	227.69
461.458	230.69
461.678	238.69
461.898	231.69
462.118	251.69
462.338	238.69
462.558	249.69
462.777	277.69
462.997	279.69
463.217	283.69
463.437	290.69
463.657	294.69
463.876	275.69
464.096	265.69
464.316	279.69
464.536	270.69
464.755	264.69
464.975	280.69
465.195	257.69
465.414	288.69
465.634	266.69
465.854	245.69
466.073	220.69
466.293	240.69
466.512	231.69
466.732	259.69
466.951	255.69
467.171	232.69
467.391	217.69
467.61	228.69
467.829	238.69
468.049	243.69
468.268	218.69
468.488	226.69
468.707	214.69
468.927	270.69
469.146	299.69
469.365	246.69
469.585	216.69
469.804	246.69
470.023	273.69
470.243	230.69
470.462	258.69
470.681	236.69
470.901	269.69
471.12	262.69
471.339	241.69
471.558	247.69
471.777	253.69
471.997	260.69
472.216	271.69
472.435	263.69
472.654	249.69
472.873	254.69
473.092	242.69
473.311	262.69
473.53	228.69
473.749	222.69
473.968	257.69
474.187	240.69
474.406	235.69
474.625	231.69
474.844	242.69
475.063	242.69
475.282	267.69
475.501	257.69
475.72	280.69
475.939	262.69
476.158	267.69
476.377	317.69
476.596	338.69
476.814	362.69
477.033	301.69
477.252	272.69
477.471	242.69
477.69	266.69
477.908	270.69
478.127	287.69
478.346	273.69
478.564	292.69
478.783	268.69
479.002	270.69
479.22	312.69
479.439	342.69
479.658	309.69
479.876	278.69
480.095	297.69
480.313	306.69
480.532	263.69
480.751	274.69
480.969	251.69
481.188	299.69
481.406	312.69
481.624	307.69
481.843	280.69
482.061	262.69
482.28	287.69
482.498	342.69
482.717	334.69
482.935	303.69
483.153	251.69
483.372	262.69
483.59	272.69
483.808	294.69
484.027	252.69
484.245	250.69
484.463	246.69
484.681	248.69
484.9	257.69
485.118	279.69
485.336	276.69
485.554	274.69
485.772	271.69
485.99	294.69
486.209	306.69
486.427	295.69
486.645	296.69
486.863	297.69
487.081	286.69
487.299	337.69
487.517	299.69
487.735	283.69
487.953	289.69
488.171	306.69
488.389	280.69
488.607	264.69
488.825	283.69
489.043	309.69
489.261	345.69
489.479	341.69
489.696	301.69
489.914	288.69
490.132	258.69
490.35	262.69
490.568	283.69
490.786	272.69
491.003	273.69
491.221	275.69
491.439	271.69
491.657	270.69
491.874	295.69
492.092	334.69
492.31	375.69
492.527	376.69
492.745	357.69
492.963	287.69
493.18	300.69
493.398	295.69
493.615	302.69
493.833	307.69
494.05	280.69
494.268	290.69
494.485	291.69
494.703	297.69
494.92	299.69
495.138	271.69
495.355	282.69
495.573	288.69
495.79	310.69
496.008	415.69
496.225	328.69
496.442	291.69
496.66	298.69
496.877	314.69
497.094	326.69
497.312	289.69
497.529	282.69
497.746	306.69
497.963	324.69
498.181	359.69
498.398	359.69
498.615	372.69
498.832	396.69
499.049	384.69
499.267	370.69
499.484	394.69
499.701	398.69
499.918	432.69
500.135	486.69
500.352	530.69
500.569	559.69
500.786	556.69
501.003	534.69
501.22	472.69
501.437	433.69
501.654	418.69
501.871	384.69
502.088	378.69
502.305	338.69
