Data from NickelSpatula_HRD10591_16-35-21-126.txt Node
Date: Mon Jul 22 16:35:21 EDT 2019
User: cochatt
Spectrometer: HR+D1059
Trigger mode: 1
Integration Time (sec): 1.000000E-1
Scans to average: 1
Electric dark correction enabled: true
Nonlinearity correction enabled: false
Boxcar width: 0
XAxis mode: Wavelengths
Number of Pixels in Spectrum: 2048
>>>>>Begin Spectral Data<<<<<
223.165	-12.06
223.4	-12.06
223.635	-12.06
223.869	-21.06
224.104	-8.06
224.338	-8.06
224.573	-18.06
224.808	-12.06
225.042	-0.06
225.277	5.94
225.511	-10.06
225.746	1.94
225.98	19.94
226.215	0.94
226.449	-0.06
226.683	17.94
226.918	11.94
227.152	30.94
227.387	35.94
227.621	31.94
227.856	43.94
228.09	46.94
228.324	49.94
228.559	66.94
228.793	55.94
229.027	73.94
229.262	91.94
229.496	68.94
229.73	76.94
229.964	75.94
230.199	90.94
230.433	83.94
230.667	98.94
230.901	89.94
231.136	105.94
231.37	88.94
231.604	89.94
231.838	96.94
232.072	94.94
232.306	96.94
232.541	101.94
232.775	105.94
233.009	117.94
233.243	111.94
233.477	132.94
233.711	123.94
233.945	111.94
234.179	106.94
234.413	131.94
234.647	125.94
234.881	131.94
235.115	129.94
235.349	144.94
235.583	114.94
235.817	111.94
236.051	120.94
236.285	119.94
236.519	137.94
236.753	129.94
236.987	135.94
237.221	135.94
237.455	143.94
237.689	138.94
237.922	123.94
238.156	147.94
238.39	157.94
238.624	166.94
238.858	164.94
239.091	138.94
239.325	138.94
239.559	128.94
239.793	148.94
240.027	164.94
240.26	149.94
240.494	147.94
240.728	146.94
240.961	165.94
241.195	168.94
241.429	161.94
241.662	149.94
241.896	127.94
242.13	145.94
242.363	126.94
242.597	145.94
242.83	141.94
243.064	157.94
243.298	149.94
243.531	151.94
243.765	151.94
243.998	162.94
244.232	162.94
244.465	153.94
244.699	159.94
244.932	186.94
245.166	157.94
245.399	156.94
245.633	142.94
245.866	157.94
246.099	161.94
246.333	180.94
246.566	176.94
246.8	187.94
247.033	191.94
247.266	177.94
247.5	185.94
247.733	156.94
247.966	183.94
248.2	168.94
248.433	184.94
248.666	201.94
248.899	187.94
249.133	213.94
249.366	222.94
249.599	227.94
249.832	219.94
250.066	204.94
250.299	182.94
250.532	198.94
250.765	173.94
250.998	176.94
251.231	187.94
251.465	181.94
251.698	194.94
251.931	189.94
252.164	217.94
252.397	221.94
252.63	221.94
252.863	244.94
253.096	255.94
253.329	251.94
253.562	223.94
253.795	264.94
254.028	280.94
254.261	287.94
254.494	270.94
254.727	239.94
254.96	246.94
255.193	255.94
255.426	268.94
255.659	200.94
255.892	196.94
256.124	213.94
256.357	236.94
256.59	268.94
256.823	258.94
257.056	214.94
257.289	189.94
257.521	212.94
257.754	229.94
257.987	273.94
258.22	234.94
258.452	219.94
258.685	250.94
258.918	271.94
259.151	253.94
259.383	288.94
259.616	327.94
259.849	301.94
260.081	335.94
260.314	358.94
260.547	299.94
260.779	305.94
261.012	344.94
261.244	310.94
261.477	337.94
261.71	321.94
261.942	263.94
262.175	291.94
262.407	270.94
262.64	277.94
262.872	307.94
263.105	346.94
263.337	345.94
263.57	303.94
263.802	239.94
264.035	216.94
264.267	197.94
264.499	196.94
264.732	183.94
264.964	183.94
265.197	166.94
265.429	175.94
265.661	164.94
265.894	198.94
266.126	196.94
266.358	226.94
266.591	267.94
266.823	311.94
267.055	307.94
267.287	248.94
267.52	260.94
267.752	260.94
267.984	296.94
268.216	296.94
268.448	264.94
268.681	245.94
268.913	248.94
269.145	260.94
269.377	290.94
269.609	251.94
269.841	255.94
270.073	272.94
270.306	282.94
270.538	298.94
270.77	293.94
271.002	291.94
271.234	311.94
271.466	308.94
271.698	305.94
271.93	285.94
272.162	287.94
272.394	291.94
272.626	282.94
272.858	290.94
273.09	309.94
273.322	275.94
273.553	234.94
273.785	266.94
274.017	346.94
274.249	428.94
274.481	473.94
274.713	485.94
274.945	560.94
275.176	563.94
275.408	512.94
275.64	468.94
275.872	481.94
276.104	425.94
276.335	366.94
276.567	357.94
276.799	373.94
277.031	388.94
277.262	334.94
277.494	261.94
277.726	264.94
277.957	269.94
278.189	290.94
278.421	314.94
278.652	311.94
278.884	285.94
279.115	253.94
279.347	263.94
279.579	244.94
279.81	259.94
280.042	247.94
280.273	263.94
280.505	241.94
280.736	223.94
280.968	216.94
281.199	225.94
281.431	268.94
281.662	246.94
281.894	242.94
282.125	248.94
282.356	278.94
282.588	266.94
282.819	244.94
283.051	268.94
283.282	319.94
283.513	365.94
283.745	415.94
283.976	385.94
284.207	379.94
284.439	381.94
284.67	380.94
284.901	328.94
285.132	349.94
285.364	357.94
285.595	355.94
285.826	378.94
286.057	385.94
286.288	381.94
286.52	370.94
286.751	405.94
286.982	363.94
287.213	347.94
287.444	340.94
287.675	355.94
287.906	352.94
288.138	305.94
288.369	301.94
288.6	263.94
288.831	259.94
289.062	324.94
289.293	336.94
289.524	324.94
289.755	340.94
289.986	335.94
290.217	316.94
290.448	220.94
290.679	211.94
290.91	189.94
291.141	206.94
291.371	215.94
291.602	219.94
291.833	207.94
292.064	216.94
292.295	245.94
292.526	287.94
292.757	289.94
292.987	305.94
293.218	307.94
293.449	289.94
293.68	333.94
293.91	318.94
294.141	308.94
294.372	296.94
294.603	285.94
294.833	292.94
295.064	347.94
295.295	337.94
295.525	278.94
295.756	234.94
295.987	204.94
296.217	203.94
296.448	214.94
296.679	225.94
296.909	238.94
297.14	246.94
297.37	261.94
297.601	259.94
297.831	229.94
298.062	243.94
298.292	275.94
298.523	294.94
298.753	309.94
298.984	310.94
299.214	248.94
299.445	212.94
299.675	204.94
299.905	219.94
300.136	213.94
300.366	234.94
300.597	218.94
300.827	215.94
301.057	223.94
301.288	204.94
301.518	224.94
301.748	244.94
301.979	264.94
302.209	262.94
302.439	256.94
302.669	244.94
302.9	243.94
303.13	224.94
303.36	220.94
303.59	218.94
303.82	209.94
304.051	239.94
304.281	260.94
304.511	266.94
304.741	230.94
304.971	220.94
305.201	245.94
305.431	254.94
305.661	201.94
305.891	208.94
306.121	223.94
306.352	205.94
306.582	196.94
306.812	194.94
307.042	171.94
307.272	189.94
307.502	175.94
307.731	168.94
307.961	187.94
308.191	193.94
308.421	167.94
308.651	167.94
308.881	169.94
309.111	151.94
309.341	177.94
309.571	187.94
309.8	195.94
310.03	177.94
310.26	187.94
310.49	175.94
310.72	179.94
310.949	160.94
311.179	194.94
311.409	188.94
311.639	209.94
311.868	272.94
312.098	316.94
312.328	345.94
312.557	349.94
312.787	336.94
313.017	299.94
313.246	329.94
313.476	360.94
313.706	296.94
313.935	244.94
314.165	218.94
314.394	204.94
314.624	201.94
314.853	206.94
315.083	213.94
315.312	210.94
315.542	200.94
315.771	200.94
316.001	190.94
316.23	170.94
316.46	169.94
316.689	168.94
316.919	192.94
317.148	187.94
317.377	177.94
317.607	181.94
317.836	204.94
318.065	219.94
318.295	237.94
318.524	236.94
318.753	205.94
318.983	189.94
319.212	186.94
319.441	189.94
319.67	205.94
319.9	227.94
320.129	209.94
320.358	199.94
320.587	205.94
320.816	194.94
321.046	220.94
321.275	242.94
321.504	246.94
321.733	234.94
321.962	222.94
322.191	219.94
322.42	193.94
322.649	222.94
322.878	236.94
323.108	224.94
323.337	206.94
323.566	206.94
323.795	226.94
324.024	192.94
324.253	196.94
324.482	201.94
324.71	213.94
324.939	220.94
325.168	218.94
325.397	183.94
325.626	175.94
325.855	182.94
326.084	188.94
326.313	184.94
326.542	179.94
326.77	184.94
326.999	178.94
327.228	186.94
327.457	192.94
327.686	185.94
327.914	180.94
328.143	180.94
328.372	162.94
328.6	165.94
328.829	172.94
329.058	179.94
329.287	189.94
329.515	187.94
329.744	173.94
329.972	181.94
330.201	152.94
330.43	172.94
330.658	187.94
330.887	208.94
331.115	200.94
331.344	204.94
331.572	193.94
331.801	184.94
332.03	171.94
332.258	172.94
332.486	183.94
332.715	197.94
332.943	162.94
333.172	189.94
333.4	202.94
333.629	198.94
333.857	203.94
334.085	205.94
334.314	223.94
334.542	211.94
334.771	181.94
334.999	198.94
335.227	195.94
335.455	192.94
335.684	196.94
335.912	219.94
336.14	243.94
336.369	249.94
336.597	210.94
336.825	252.94
337.053	275.94
337.281	217.94
337.51	202.94
337.738	195.94
337.966	205.94
338.194	219.94
338.422	214.94
338.65	179.94
338.878	175.94
339.106	190.94
339.334	220.94
339.562	202.94
339.79	196.94
340.018	195.94
340.246	205.94
340.474	226.94
340.702	220.94
340.93	232.94
341.158	231.94
341.386	201.94
341.614	211.94
341.842	220.94
342.07	213.94
342.298	230.94
342.526	241.94
342.754	211.94
342.981	205.94
343.209	191.94
343.437	200.94
343.665	208.94
343.893	223.94
344.12	269.94
344.348	295.94
344.576	285.94
344.804	224.94
345.031	204.94
345.259	198.94
345.487	177.94
345.714	186.94
345.942	214.94
346.17	227.94
346.397	206.94
346.625	182.94
346.853	190.94
347.08	182.94
347.308	207.94
347.535	205.94
347.763	213.94
347.99	202.94
348.218	195.94
348.445	205.94
348.673	192.94
348.9	204.94
349.128	189.94
349.355	202.94
349.583	193.94
349.81	201.94
350.037	197.94
350.265	175.94
350.492	154.94
350.72	166.94
350.947	170.94
351.174	179.94
351.402	192.94
351.629	191.94
351.856	191.94
352.083	174.94
352.311	193.94
352.538	205.94
352.765	217.94
352.992	188.94
353.22	192.94
353.447	204.94
353.674	194.94
353.901	187.94
354.128	193.94
354.355	190.94
354.583	169.94
354.81	193.94
355.037	207.94
355.264	177.94
355.491	206.94
355.718	222.94
355.945	208.94
356.172	203.94
356.399	213.94
356.626	236.94
356.853	275.94
357.08	287.94
357.307	288.94
357.534	258.94
357.761	242.94
357.988	295.94
358.215	340.94
358.441	315.94
358.668	289.94
358.895	265.94
359.122	227.94
359.349	218.94
359.576	220.94
359.802	219.94
360.029	190.94
360.256	206.94
360.483	223.94
360.709	269.94
360.936	273.94
361.163	251.94
361.39	207.94
361.616	187.94
361.843	213.94
362.07	247.94
362.296	242.94
362.523	205.94
362.749	181.94
362.976	189.94
363.203	213.94
363.429	229.94
363.656	204.94
363.882	196.94
364.109	205.94
364.335	195.94
364.562	168.94
364.788	200.94
365.015	232.94
365.241	223.94
365.468	182.94
365.694	169.94
365.92	175.94
366.147	157.94
366.373	152.94
366.599	166.94
366.826	164.94
367.052	163.94
367.278	159.94
367.505	176.94
367.731	195.94
367.957	198.94
368.184	184.94
368.41	194.94
368.636	181.94
368.862	193.94
369.089	209.94
369.315	175.94
369.541	171.94
369.767	168.94
369.993	159.94
370.219	180.94
370.445	170.94
370.672	201.94
370.898	189.94
371.124	196.94
371.35	181.94
371.576	179.94
371.802	191.94
372.028	203.94
372.254	217.94
372.48	201.94
372.706	202.94
372.932	207.94
373.158	209.94
373.384	214.94
373.61	275.94
373.835	279.94
374.061	244.94
374.287	199.94
374.513	251.94
374.739	261.94
374.965	283.94
375.191	259.94
375.416	205.94
375.642	188.94
375.868	210.94
376.094	233.94
376.319	209.94
376.545	205.94
376.771	240.94
376.997	202.94
377.222	172.94
377.448	163.94
377.674	149.94
377.899	160.94
378.125	162.94
378.35	169.94
378.576	161.94
378.802	174.94
379.027	185.94
379.253	166.94
379.478	187.94
379.704	200.94
379.929	188.94
380.155	225.94
380.38	184.94
380.606	181.94
380.831	203.94
381.057	215.94
381.282	191.94
381.507	209.94
381.733	244.94
381.958	256.94
382.184	273.94
382.409	292.94
382.634	282.94
382.86	285.94
383.085	268.94
383.31	213.94
383.535	224.94
383.761	229.94
383.986	204.94
384.211	236.94
384.436	252.94
384.662	223.94
384.887	203.94
385.112	205.94
385.337	211.94
385.562	203.94
385.787	207.94
386.013	220.94
386.238	242.94
386.463	178.94
386.688	184.94
386.913	186.94
387.138	185.94
387.363	189.94
387.588	203.94
387.813	190.94
388.038	204.94
388.263	185.94
388.488	197.94
388.713	202.94
388.938	209.94
389.163	188.94
389.387	185.94
389.612	179.94
389.837	205.94
390.062	181.94
390.287	193.94
390.512	194.94
390.736	178.94
390.961	190.94
391.186	183.94
391.411	163.94
391.636	177.94
391.86	179.94
392.085	213.94
392.31	192.94
392.534	203.94
392.759	187.94
392.984	199.94
393.208	210.94
393.433	173.94
393.658	169.94
393.882	167.94
394.107	162.94
394.331	168.94
394.556	167.94
394.78	152.94
395.005	171.94
395.229	171.94
395.454	168.94
395.678	180.94
395.903	183.94
396.127	168.94
396.352	179.94
396.576	211.94
396.801	190.94
397.025	212.94
397.249	226.94
397.474	181.94
397.698	179.94
397.922	194.94
398.147	177.94
398.371	170.94
398.595	195.94
398.82	176.94
399.044	195.94
399.268	223.94
399.492	201.94
399.717	204.94
399.941	223.94
400.165	213.94
400.389	193.94
400.613	209.94
400.837	204.94
401.062	181.94
401.286	201.94
401.51	165.94
401.734	187.94
401.958	185.94
402.182	182.94
402.406	178.94
402.63	181.94
402.854	196.94
403.078	210.94
403.302	261.94
403.526	275.94
403.75	256.94
403.974	215.94
404.198	199.94
404.422	247.94
404.645	259.94
404.869	277.94
405.093	227.94
405.317	199.94
405.541	203.94
405.765	199.94
405.988	198.94
406.212	216.94
406.436	241.94
406.66	255.94
406.883	212.94
407.107	226.94
407.331	255.94
407.555	242.94
407.778	211.94
408.002	210.94
408.226	213.94
408.449	211.94
408.673	206.94
408.896	179.94
409.12	179.94
409.344	199.94
409.567	197.94
409.791	193.94
410.014	195.94
410.238	195.94
410.461	176.94
410.685	189.94
410.908	176.94
411.132	184.94
411.355	190.94
411.578	191.94
411.802	197.94
412.025	219.94
412.249	200.94
412.472	198.94
412.695	209.94
412.919	183.94
413.142	184.94
413.365	213.94
413.589	206.94
413.812	211.94
414.035	200.94
414.258	199.94
414.482	208.94
414.705	219.94
414.928	195.94
415.151	192.94
415.374	182.94
415.597	193.94
415.821	187.94
416.044	193.94
416.267	180.94
416.49	184.94
416.713	172.94
416.936	161.94
417.159	183.94
417.382	187.94
417.605	197.94
417.828	184.94
418.051	192.94
418.274	196.94
418.497	176.94
418.72	194.94
418.943	194.94
419.166	221.94
419.389	201.94
419.611	210.94
419.834	196.94
420.057	221.94
420.28	240.94
420.503	203.94
420.726	182.94
420.948	184.94
421.171	178.94
421.394	199.94
421.617	163.94
421.839	181.94
422.062	189.94
422.285	183.94
422.507	178.94
422.73	202.94
422.953	180.94
423.175	182.94
423.398	209.94
423.621	198.94
423.843	207.94
424.066	211.94
424.288	199.94
424.511	211.94
424.733	185.94
424.956	204.94
425.178	211.94
425.401	227.94
425.623	267.94
425.846	228.94
426.068	205.94
426.291	218.94
426.513	200.94
426.735	185.94
426.958	206.94
427.18	224.94
427.402	280.94
427.625	296.94
427.847	239.94
428.069	193.94
428.292	190.94
428.514	202.94
428.736	185.94
428.958	183.94
429.181	221.94
429.403	209.94
429.625	192.94
429.847	179.94
430.069	187.94
430.292	205.94
430.514	163.94
430.736	184.94
430.958	231.94
431.18	185.94
431.402	169.94
431.624	184.94
431.846	175.94
432.068	172.94
432.29	175.94
432.512	196.94
432.734	236.94
432.956	220.94
433.178	186.94
433.4	171.94
433.622	193.94
433.844	191.94
434.066	194.94
434.287	199.94
434.509	200.94
434.731	200.94
434.953	174.94
435.175	204.94
435.397	201.94
435.618	161.94
435.84	181.94
436.062	178.94
436.284	168.94
436.505	166.94
436.727	164.94
436.949	184.94
437.17	185.94
437.392	194.94
437.614	165.94
437.835	186.94
438.057	181.94
438.278	200.94
438.5	248.94
438.721	263.94
438.943	183.94
439.165	167.94
439.386	161.94
439.608	147.94
439.829	167.94
440.05	166.94
440.272	156.94
440.493	193.94
440.715	214.94
440.936	192.94
441.158	167.94
441.379	197.94
441.6	213.94
441.822	209.94
442.043	188.94
442.264	172.94
442.486	184.94
442.707	166.94
442.928	194.94
443.149	183.94
443.371	195.94
443.592	173.94
443.813	189.94
444.034	181.94
444.255	188.94
444.476	183.94
444.698	181.94
444.919	191.94
445.14	309.94
445.361	259.94
445.582	199.94
445.803	203.94
446.024	205.94
446.245	219.94
446.466	201.94
446.687	169.94
446.908	177.94
447.129	179.94
447.35	180.94
447.571	179.94
447.792	169.94
448.013	156.94
448.234	162.94
448.455	164.94
448.675	188.94
448.896	189.94
449.117	184.94
449.338	160.94
449.559	181.94
449.779	186.94
450	186.94
450.221	169.94
450.442	165.94
450.662	161.94
450.883	158.94
451.104	163.94
451.324	184.94
451.545	161.94
451.766	160.94
451.986	164.94
452.207	170.94
452.428	168.94
452.648	179.94
452.869	168.94
453.089	183.94
453.31	171.94
453.53	168.94
453.751	160.94
453.971	178.94
454.192	167.94
454.412	183.94
454.633	142.94
454.853	178.94
455.073	160.94
455.294	161.94
455.514	159.94
455.734	180.94
455.955	177.94
456.175	189.94
456.395	167.94
456.616	148.94
456.836	160.94
457.056	159.94
457.276	150.94
457.497	162.94
457.717	135.94
457.937	157.94
458.157	164.94
458.377	166.94
458.598	168.94
458.818	157.94
459.038	187.94
459.258	192.94
459.478	189.94
459.698	188.94
459.918	191.94
460.138	191.94
460.358	200.94
460.578	186.94
460.798	197.94
461.018	188.94
461.238	194.94
461.458	186.94
461.678	190.94
461.898	202.94
462.118	193.94
462.338	209.94
462.558	191.94
462.777	205.94
462.997	211.94
463.217	208.94
463.437	211.94
463.657	208.94
463.876	192.94
464.096	196.94
464.316	212.94
464.536	214.94
464.755	212.94
464.975	228.94
465.195	221.94
465.414	200.94
465.634	202.94
465.854	191.94
466.073	183.94
466.293	177.94
466.512	195.94
466.732	218.94
466.951	205.94
467.171	201.94
467.391	191.94
467.61	176.94
467.829	188.94
468.049	172.94
468.268	190.94
468.488	201.94
468.707	184.94
468.927	223.94
469.146	227.94
469.365	214.94
469.585	185.94
469.804	196.94
470.023	223.94
470.243	220.94
470.462	200.94
470.681	185.94
470.901	204.94
471.12	217.94
471.339	214.94
471.558	193.94
471.777	186.94
471.997	200.94
472.216	229.94
472.435	212.94
472.654	199.94
472.873	195.94
473.092	193.94
473.311	226.94
473.53	202.94
473.749	189.94
473.968	212.94
474.187	208.94
474.406	185.94
474.625	179.94
474.844	216.94
475.063	199.94
475.282	211.94
475.501	239.94
475.72	236.94
475.939	227.94
476.158	227.94
476.377	252.94
476.596	283.94
476.814	309.94
477.033	246.94
477.252	197.94
477.471	188.94
477.69	179.94
477.908	211.94
478.127	231.94
478.346	209.94
478.564	243.94
478.783	248.94
479.002	223.94
479.22	253.94
479.439	259.94
479.658	261.94
479.876	216.94
480.095	231.94
480.313	232.94
480.532	231.94
480.751	224.94
480.969	225.94
481.188	227.94
481.406	233.94
481.624	223.94
481.843	215.94
482.061	227.94
482.28	248.94
482.498	263.94
482.717	279.94
482.935	241.94
483.153	225.94
483.372	216.94
483.59	219.94
483.808	196.94
484.027	214.94
484.245	199.94
484.463	199.94
484.681	193.94
484.9	216.94
485.118	235.94
485.336	215.94
485.554	195.94
485.772	202.94
485.99	234.94
486.209	243.94
486.427	239.94
486.645	212.94
486.863	243.94
487.081	224.94
487.299	259.94
487.517	234.94
487.735	223.94
487.953	227.94
488.171	231.94
488.389	223.94
488.607	202.94
488.825	243.94
489.043	234.94
489.261	273.94
489.479	276.94
489.696	236.94
489.914	214.94
490.132	212.94
490.35	209.94
490.568	225.94
490.786	216.94
491.003	208.94
491.221	221.94
491.439	211.94
491.657	211.94
491.874	219.94
492.092	295.94
492.31	343.94
492.527	316.94
492.745	276.94
492.963	242.94
493.18	242.94
493.398	245.94
493.615	249.94
493.833	228.94
494.05	237.94
494.268	244.94
494.485	239.94
494.703	241.94
494.92	227.94
495.138	230.94
495.355	243.94
495.573	234.94
495.79	259.94
496.008	351.94
496.225	277.94
496.442	258.94
496.66	259.94
496.877	252.94
497.094	263.94
497.312	244.94
497.529	245.94
497.746	260.94
497.963	235.94
498.181	267.94
498.398	300.94
498.615	306.94
498.832	320.94
499.049	298.94
499.267	290.94
499.484	303.94
499.701	296.94
499.918	329.94
500.135	376.94
500.352	381.94
500.569	407.94
500.786	387.94
501.003	383.94
501.22	334.94
501.437	317.94
501.654	318.94
501.871	283.94
502.088	291.94
502.305	275.94
502.522	271.94
502.739	281.94
