Data from NickelSpatula.Lamp.E5.5.P2_HRD10591_11-51-02-563.txt Node
Date: Tue Jul 23 11:51:02 EDT 2019
User: cochatt
Spectrometer: HR+D1059
Trigger mode: 1
Integration Time (sec): 1.000000E-1
Scans to average: 1
Electric dark correction enabled: true
Nonlinearity correction enabled: false
Boxcar width: 0
XAxis mode: Wavelengths
Number of Pixels in Spectrum: 2048
>>>>>Begin Spectral Data<<<<<
223.165	-13.06
223.4	-13.06
223.635	-13.06
223.869	-16.06
224.104	-17.06
224.338	-11.06
224.573	-10.06
224.808	-13.06
225.042	-5.06
225.277	-11.06
225.511	-11.06
225.746	4.94
225.98	-0.06
226.215	27.94
226.449	-0.06
226.683	17.94
226.918	25.94
227.152	30.94
227.387	35.94
227.621	57.94
227.856	29.94
228.09	38.94
228.324	52.94
228.559	60.94
228.793	54.94
229.027	54.94
229.262	67.94
229.496	89.94
229.73	84.94
229.964	83.94
230.199	86.94
230.433	84.94
230.667	84.94
230.901	90.94
231.136	88.94
231.37	91.94
231.604	103.94
231.838	99.94
232.072	90.94
232.306	97.94
232.541	93.94
232.775	105.94
233.009	105.94
233.243	111.94
233.477	99.94
233.711	109.94
233.945	106.94
234.179	125.94
234.413	114.94
234.647	121.94
234.881	126.94
235.115	122.94
235.349	117.94
235.583	113.94
235.817	121.94
236.051	115.94
236.285	128.94
236.519	128.94
236.753	117.94
236.987	120.94
237.221	111.94
237.455	102.94
237.689	113.94
237.922	119.94
238.156	124.94
238.39	142.94
238.624	140.94
238.858	132.94
239.091	129.94
239.325	134.94
239.559	134.94
239.793	127.94
240.027	142.94
240.26	127.94
240.494	159.94
240.728	143.94
240.961	141.94
241.195	150.94
241.429	147.94
241.662	147.94
241.896	123.94
242.13	125.94
242.363	118.94
242.597	116.94
242.83	135.94
243.064	140.94
243.298	137.94
243.531	136.94
243.765	158.94
243.998	146.94
244.232	127.94
244.465	141.94
244.699	151.94
244.932	153.94
245.166	127.94
245.399	146.94
245.633	142.94
245.866	140.94
246.099	147.94
246.333	152.94
246.566	151.94
246.8	167.94
247.033	160.94
247.266	153.94
247.5	145.94
247.733	169.94
247.966	166.94
248.2	155.94
248.433	158.94
248.666	157.94
248.899	168.94
249.133	172.94
249.366	182.94
249.599	186.94
249.832	188.94
250.066	187.94
250.299	164.94
250.532	148.94
250.765	165.94
250.998	161.94
251.231	162.94
251.465	175.94
251.698	176.94
251.931	163.94
252.164	169.94
252.397	192.94
252.63	193.94
252.863	229.94
253.096	214.94
253.329	203.94
253.562	213.94
253.795	247.94
254.028	244.94
254.261	239.94
254.494	230.94
254.727	219.94
254.96	201.94
255.193	217.94
255.426	218.94
255.659	198.94
255.892	182.94
256.124	195.94
256.357	200.94
256.59	226.94
256.823	228.94
257.056	190.94
257.289	192.94
257.521	187.94
257.754	243.94
257.987	254.94
258.22	223.94
258.452	184.94
258.685	209.94
258.918	229.94
259.151	241.94
259.383	252.94
259.616	287.94
259.849	279.94
260.081	296.94
260.314	321.94
260.547	273.94
260.779	256.94
261.012	279.94
261.244	291.94
261.477	306.94
261.71	270.94
261.942	257.94
262.175	259.94
262.407	230.94
262.64	230.94
262.872	257.94
263.105	253.94
263.337	296.94
263.57	284.94
263.802	216.94
264.035	191.94
264.267	200.94
264.499	192.94
264.732	164.94
264.964	160.94
265.197	177.94
265.429	181.94
265.661	193.94
265.894	179.94
266.126	194.94
266.358	210.94
266.591	245.94
266.823	272.94
267.055	280.94
267.287	241.94
267.52	272.94
267.752	259.94
267.984	296.94
268.216	259.94
268.448	227.94
268.681	231.94
268.913	251.94
269.145	252.94
269.377	264.94
269.609	248.94
269.841	252.94
270.073	272.94
270.306	270.94
270.538	285.94
270.77	270.94
271.002	281.94
271.234	272.94
271.466	279.94
271.698	273.94
271.93	256.94
272.162	262.94
272.394	238.94
272.626	249.94
272.858	259.94
273.09	265.94
273.322	244.94
273.553	220.94
273.785	262.94
274.017	313.94
274.249	348.94
274.481	373.94
274.713	396.94
274.945	439.94
275.176	464.94
275.408	417.94
275.64	418.94
275.872	414.94
276.104	369.94
276.335	321.94
276.567	322.94
276.799	329.94
277.031	341.94
277.262	286.94
277.494	241.94
277.726	226.94
277.957	252.94
278.189	271.94
278.421	273.94
278.652	255.94
278.884	257.94
279.115	231.94
279.347	258.94
279.579	249.94
279.81	236.94
280.042	252.94
280.273	262.94
280.505	233.94
280.736	207.94
280.968	209.94
281.199	236.94
281.431	235.94
281.662	235.94
281.894	238.94
282.125	253.94
282.356	254.94
282.588	277.94
282.819	254.94
283.051	247.94
283.282	277.94
283.513	332.94
283.745	366.94
283.976	358.94
284.207	350.94
284.439	336.94
284.67	323.94
284.901	322.94
285.132	332.94
285.364	358.94
285.595	322.94
285.826	335.94
286.057	351.94
286.288	337.94
286.52	327.94
286.751	340.94
286.982	360.94
287.213	330.94
287.444	308.94
287.675	312.94
287.906	341.94
288.138	310.94
288.369	279.94
288.6	265.94
288.831	279.94
289.062	286.94
289.293	328.94
289.524	298.94
289.755	311.94
289.986	319.94
290.217	295.94
290.448	213.94
290.679	208.94
290.91	224.94
291.141	218.94
291.371	217.94
291.602	217.94
291.833	207.94
292.064	231.94
292.295	245.94
292.526	267.94
292.757	270.94
292.987	297.94
293.218	294.94
293.449	324.94
293.68	344.94
293.91	286.94
294.141	314.94
294.372	321.94
294.603	292.94
294.833	309.94
295.064	348.94
295.295	337.94
295.525	270.94
295.756	225.94
295.987	198.94
296.217	221.94
296.448	216.94
296.679	230.94
296.909	238.94
297.14	254.94
297.37	281.94
297.601	286.94
297.831	231.94
298.062	249.94
298.292	271.94
298.523	284.94
298.753	304.94
298.984	310.94
299.214	256.94
299.445	246.94
299.675	219.94
299.905	212.94
300.136	222.94
300.366	224.94
300.597	222.94
300.827	224.94
301.057	227.94
301.288	222.94
301.518	240.94
301.748	267.94
301.979	271.94
302.209	265.94
302.439	288.94
302.669	238.94
302.9	255.94
303.13	240.94
303.36	249.94
303.59	225.94
303.82	236.94
304.051	258.94
304.281	253.94
304.511	251.94
304.741	242.94
304.971	256.94
305.201	245.94
305.431	239.94
305.661	225.94
305.891	224.94
306.121	231.94
306.352	211.94
306.582	188.94
306.812	196.94
307.042	206.94
307.272	173.94
307.502	189.94
307.731	199.94
307.961	199.94
308.191	197.94
308.421	199.94
308.651	179.94
308.881	183.94
309.111	186.94
309.341	192.94
309.571	201.94
309.8	216.94
310.03	205.94
310.26	200.94
310.49	204.94
310.72	186.94
310.949	197.94
311.179	200.94
311.409	200.94
311.639	209.94
311.868	268.94
312.098	321.94
312.328	339.94
312.557	333.94
312.787	324.94
313.017	301.94
313.246	325.94
313.476	317.94
313.706	293.94
313.935	278.94
314.165	226.94
314.394	212.94
314.624	214.94
314.853	231.94
315.083	212.94
315.312	221.94
315.542	224.94
315.771	211.94
316.001	197.94
316.23	184.94
316.46	178.94
316.689	187.94
316.919	200.94
317.148	201.94
317.377	200.94
317.607	192.94
317.836	204.94
318.065	217.94
318.295	257.94
318.524	232.94
318.753	216.94
318.983	203.94
319.212	208.94
319.441	222.94
319.67	228.94
319.9	226.94
320.129	229.94
320.358	205.94
320.587	212.94
320.816	205.94
321.046	238.94
321.275	241.94
321.504	262.94
321.733	230.94
321.962	226.94
322.191	241.94
322.42	226.94
322.649	219.94
322.878	243.94
323.108	258.94
323.337	232.94
323.566	223.94
323.795	226.94
324.024	225.94
324.253	236.94
324.482	223.94
324.71	218.94
324.939	233.94
325.168	222.94
325.397	202.94
325.626	202.94
325.855	200.94
326.084	209.94
326.313	204.94
326.542	181.94
326.77	207.94
326.999	209.94
327.228	216.94
327.457	216.94
327.686	229.94
327.914	195.94
328.143	201.94
328.372	181.94
328.6	194.94
328.829	224.94
329.058	204.94
329.287	206.94
329.515	196.94
329.744	193.94
329.972	184.94
330.201	188.94
330.43	198.94
330.658	212.94
330.887	218.94
331.115	215.94
331.344	213.94
331.572	209.94
331.801	202.94
332.03	206.94
332.258	197.94
332.486	222.94
332.715	222.94
332.943	233.94
333.172	225.94
333.4	221.94
333.629	243.94
333.857	253.94
334.085	225.94
334.314	228.94
334.542	231.94
334.771	213.94
334.999	225.94
335.227	216.94
335.455	214.94
335.684	224.94
335.912	246.94
336.14	274.94
336.369	242.94
336.597	253.94
336.825	255.94
337.053	280.94
337.281	255.94
337.51	212.94
337.738	208.94
337.966	231.94
338.194	244.94
338.422	209.94
338.65	212.94
338.878	212.94
339.106	208.94
339.334	210.94
339.562	226.94
339.79	205.94
340.018	218.94
340.246	227.94
340.474	236.94
340.702	255.94
340.93	277.94
341.158	254.94
341.386	233.94
341.614	226.94
341.842	240.94
342.07	227.94
342.298	252.94
342.526	270.94
342.754	243.94
342.981	220.94
343.209	218.94
343.437	239.94
343.665	254.94
343.893	263.94
344.12	302.94
344.348	315.94
344.576	309.94
344.804	254.94
345.031	216.94
345.259	198.94
345.487	216.94
345.714	221.94
345.942	225.94
346.17	248.94
346.397	218.94
346.625	228.94
346.853	217.94
347.08	212.94
347.308	218.94
347.535	233.94
347.763	255.94
347.99	217.94
348.218	193.94
348.445	214.94
348.673	220.94
348.9	222.94
349.128	241.94
349.355	220.94
349.583	222.94
349.81	225.94
350.037	216.94
350.265	188.94
350.492	199.94
350.72	181.94
350.947	195.94
351.174	207.94
351.402	206.94
351.629	227.94
351.856	196.94
352.083	208.94
352.311	210.94
352.538	223.94
352.765	232.94
352.992	220.94
353.22	223.94
353.447	234.94
353.674	211.94
353.901	216.94
354.128	212.94
354.355	218.94
354.583	229.94
354.81	222.94
355.037	233.94
355.264	228.94
355.491	222.94
355.718	232.94
355.945	220.94
356.172	224.94
356.399	241.94
356.626	252.94
356.853	272.94
357.08	325.94
357.307	345.94
357.534	279.94
357.761	273.94
357.988	341.94
358.215	372.94
358.441	330.94
358.668	291.94
358.895	305.94
359.122	255.94
359.349	277.94
359.576	288.94
359.802	236.94
360.029	216.94
360.256	231.94
360.483	260.94
360.709	321.94
360.936	325.94
361.163	308.94
361.39	238.94
361.616	227.94
361.843	256.94
362.07	277.94
362.296	273.94
362.523	232.94
362.749	207.94
362.976	209.94
363.203	240.94
363.429	251.94
363.656	223.94
363.882	228.94
364.109	224.94
364.335	213.94
364.562	215.94
364.788	217.94
365.015	243.94
365.241	257.94
365.468	219.94
365.694	196.94
365.92	201.94
366.147	188.94
366.373	183.94
366.599	180.94
366.826	179.94
367.052	188.94
367.278	191.94
367.505	194.94
367.731	197.94
367.957	213.94
368.184	213.94
368.41	226.94
368.636	207.94
368.862	238.94
369.089	212.94
369.315	221.94
369.541	207.94
369.767	205.94
369.993	189.94
370.219	206.94
370.445	197.94
370.672	245.94
370.898	238.94
371.124	249.94
371.35	221.94
371.576	221.94
371.802	237.94
372.028	253.94
372.254	293.94
372.48	250.94
372.706	220.94
372.932	231.94
373.158	254.94
373.384	260.94
373.61	321.94
373.835	337.94
374.061	280.94
374.287	239.94
374.513	300.94
374.739	324.94
374.965	328.94
375.191	336.94
375.416	245.94
375.642	236.94
375.868	270.94
376.094	277.94
376.319	239.94
376.545	286.94
376.771	273.94
376.997	263.94
377.222	198.94
377.448	189.94
377.674	185.94
377.899	198.94
378.125	180.94
378.35	186.94
378.576	181.94
378.802	208.94
379.027	215.94
379.253	215.94
379.478	210.94
379.704	233.94
379.929	232.94
380.155	239.94
380.38	222.94
380.606	227.94
380.831	264.94
381.057	238.94
381.282	221.94
381.507	236.94
381.733	286.94
381.958	309.94
382.184	318.94
382.409	320.94
382.634	296.94
382.86	325.94
383.085	306.94
383.31	258.94
383.535	277.94
383.761	280.94
383.986	261.94
384.211	286.94
384.436	283.94
384.662	237.94
384.887	245.94
385.112	245.94
385.337	248.94
385.562	248.94
385.787	270.94
386.013	281.94
386.238	277.94
386.463	238.94
386.688	245.94
386.913	240.94
387.138	216.94
387.363	228.94
387.588	262.94
387.813	237.94
388.038	260.94
388.263	243.94
388.488	235.94
388.713	259.94
388.938	279.94
389.163	222.94
389.387	200.94
389.612	202.94
389.837	236.94
390.062	228.94
390.287	233.94
390.512	233.94
390.736	222.94
390.961	220.94
391.186	210.94
391.411	220.94
391.636	214.94
391.86	230.94
392.085	270.94
392.31	253.94
392.534	238.94
392.759	221.94
392.984	228.94
393.208	229.94
393.433	218.94
393.658	209.94
393.882	217.94
394.107	199.94
394.331	190.94
394.556	199.94
394.78	205.94
395.005	209.94
395.229	209.94
395.454	206.94
395.678	215.94
395.903	201.94
396.127	225.94
396.352	230.94
396.576	217.94
396.801	226.94
397.025	247.94
397.249	265.94
397.474	232.94
397.698	218.94
397.922	211.94
398.147	218.94
398.371	252.94
398.595	236.94
398.82	235.94
399.044	242.94
399.268	257.94
399.492	281.94
399.717	292.94
399.941	302.94
400.165	278.94
400.389	255.94
400.613	231.94
400.837	240.94
401.062	239.94
401.286	225.94
401.51	218.94
401.734	224.94
401.958	214.94
402.182	249.94
402.406	252.94
402.63	228.94
402.854	252.94
403.078	316.94
403.302	353.94
403.526	365.94
403.75	326.94
403.974	276.94
404.198	284.94
404.422	303.94
404.645	324.94
404.869	339.94
405.093	273.94
405.317	264.94
405.541	254.94
405.765	263.94
405.988	254.94
406.212	259.94
406.436	302.94
406.66	325.94
406.883	271.94
407.107	262.94
407.331	309.94
407.555	302.94
407.778	283.94
408.002	272.94
408.226	258.94
408.449	269.94
408.673	262.94
408.896	240.94
409.12	255.94
409.344	255.94
409.567	245.94
409.791	252.94
410.014	234.94
410.238	240.94
410.461	243.94
410.685	239.94
410.908	226.94
411.132	260.94
411.355	255.94
411.578	242.94
411.802	240.94
412.025	241.94
412.249	237.94
412.472	233.94
412.695	240.94
412.919	221.94
413.142	247.94
413.365	230.94
413.589	242.94
413.812	226.94
414.035	211.94
414.258	234.94
414.482	248.94
414.705	241.94
414.928	232.94
415.151	234.94
415.374	220.94
415.597	236.94
415.821	232.94
416.044	231.94
416.267	222.94
416.49	226.94
416.713	227.94
416.936	202.94
417.159	217.94
417.382	234.94
417.605	231.94
417.828	232.94
418.051	230.94
418.274	228.94
418.497	239.94
418.72	236.94
418.943	231.94
419.166	257.94
419.389	259.94
419.611	255.94
419.834	261.94
420.057	250.94
420.28	253.94
420.503	246.94
420.726	233.94
420.948	228.94
421.171	202.94
421.394	207.94
421.617	219.94
421.839	207.94
422.062	216.94
422.285	223.94
422.507	245.94
422.73	240.94
422.953	233.94
423.175	236.94
423.398	260.94
423.621	253.94
423.843	262.94
424.066	245.94
424.288	240.94
424.511	237.94
424.733	232.94
424.956	261.94
425.178	262.94
425.401	296.94
425.623	344.94
425.846	302.94
426.068	249.94
426.291	239.94
426.513	258.94
426.735	232.94
426.958	232.94
427.18	253.94
427.402	317.94
427.625	365.94
427.847	308.94
428.069	215.94
428.292	241.94
428.514	225.94
428.736	231.94
428.958	257.94
429.181	294.94
429.403	276.94
429.625	228.94
429.847	227.94
430.069	234.94
430.292	233.94
430.514	213.94
430.736	252.94
430.958	268.94
431.18	251.94
431.402	216.94
431.624	222.94
431.846	236.94
432.068	211.94
432.29	223.94
432.512	233.94
432.734	285.94
432.956	267.94
433.178	234.94
433.4	219.94
433.622	231.94
433.844	236.94
434.066	248.94
434.287	233.94
434.509	229.94
434.731	252.94
434.953	270.94
435.175	245.94
435.397	276.94
435.618	242.94
435.84	219.94
436.062	236.94
436.284	210.94
436.505	210.94
436.727	223.94
436.949	222.94
437.17	231.94
437.392	232.94
437.614	207.94
437.835	215.94
438.057	204.94
438.278	231.94
438.5	293.94
438.721	287.94
438.943	232.94
439.165	227.94
439.386	216.94
439.608	204.94
439.829	212.94
440.05	218.94
440.272	211.94
440.493	250.94
440.715	281.94
440.936	255.94
441.158	245.94
441.379	206.94
441.6	245.94
441.822	259.94
442.043	220.94
442.264	226.94
442.486	240.94
442.707	225.94
442.928	233.94
443.149	237.94
443.371	252.94
443.592	234.94
443.813	232.94
444.034	238.94
444.255	233.94
444.476	243.94
444.698	270.94
444.919	255.94
445.14	396.94
445.361	313.94
445.582	246.94
445.803	218.94
446.024	244.94
446.245	250.94
446.466	225.94
446.687	235.94
446.908	221.94
447.129	229.94
447.35	235.94
447.571	212.94
447.792	211.94
448.013	205.94
448.234	207.94
448.455	198.94
448.675	200.94
448.896	204.94
449.117	221.94
449.338	216.94
449.559	217.94
449.779	207.94
450	208.94
450.221	222.94
450.442	217.94
450.662	210.94
450.883	210.94
451.104	216.94
451.324	209.94
451.545	226.94
451.766	209.94
451.986	194.94
452.207	208.94
452.428	210.94
452.648	202.94
452.869	225.94
453.089	211.94
453.31	216.94
453.53	216.94
453.751	209.94
453.971	211.94
454.192	197.94
454.412	220.94
454.633	212.94
454.853	213.94
455.073	186.94
455.294	189.94
455.514	197.94
455.734	199.94
455.955	185.94
456.175	207.94
456.395	193.94
456.616	195.94
456.836	199.94
457.056	190.94
457.276	182.94
457.497	195.94
457.717	192.94
457.937	202.94
458.157	184.94
458.377	200.94
458.598	196.94
458.818	216.94
459.038	233.94
459.258	214.94
459.478	209.94
459.698	214.94
459.918	236.94
460.138	242.94
460.358	241.94
460.578	226.94
460.798	245.94
461.018	222.94
461.238	239.94
461.458	227.94
461.678	243.94
461.898	242.94
462.118	257.94
462.338	264.94
462.558	248.94
462.777	267.94
462.997	273.94
463.217	284.94
463.437	291.94
463.657	266.94
463.876	248.94
464.096	262.94
464.316	278.94
464.536	274.94
464.755	264.94
464.975	293.94
465.195	248.94
465.414	230.94
465.634	224.94
465.854	240.94
466.073	229.94
466.293	212.94
466.512	225.94
466.732	244.94
466.951	225.94
467.171	216.94
467.391	226.94
467.61	212.94
467.829	221.94
468.049	218.94
468.268	222.94
468.488	197.94
468.707	214.94
468.927	226.94
469.146	236.94
469.365	241.94
469.585	228.94
469.804	253.94
470.023	254.94
470.243	256.94
470.462	238.94
470.681	250.94
470.901	228.94
471.12	228.94
471.339	240.94
471.558	218.94
471.777	240.94
471.997	251.94
472.216	248.94
472.435	236.94
472.654	244.94
472.873	224.94
473.092	240.94
473.311	250.94
473.53	221.94
473.749	230.94
473.968	228.94
474.187	214.94
474.406	228.94
474.625	224.94
474.844	231.94
475.063	213.94
475.282	239.94
475.501	234.94
475.72	275.94
475.939	250.94
476.158	268.94
476.377	284.94
476.596	290.94
476.814	316.94
477.033	276.94
477.252	238.94
477.471	237.94
477.69	249.94
477.908	243.94
478.127	280.94
478.346	274.94
478.564	289.94
478.783	293.94
479.002	262.94
479.22	280.94
479.439	299.94
479.658	278.94
479.876	283.94
480.095	259.94
480.313	289.94
480.532	257.94
480.751	261.94
480.969	272.94
481.188	275.94
481.406	284.94
481.624	268.94
481.843	255.94
482.061	261.94
482.28	275.94
482.498	317.94
482.717	308.94
482.935	262.94
483.153	274.94
483.372	262.94
483.59	256.94
483.808	262.94
484.027	247.94
484.245	248.94
484.463	258.94
484.681	239.94
484.9	256.94
485.118	283.94
485.336	280.94
485.554	275.94
485.772	254.94
485.99	284.94
486.209	277.94
486.427	289.94
486.645	266.94
486.863	299.94
487.081	278.94
487.299	271.94
487.517	296.94
487.735	258.94
487.953	260.94
488.171	289.94
488.389	256.94
488.607	247.94
488.825	271.94
489.043	281.94
489.261	307.94
489.479	298.94
489.696	273.94
489.914	278.94
490.132	253.94
490.35	265.94
490.568	264.94
490.786	257.94
491.003	265.94
491.221	257.94
491.439	250.94
491.657	266.94
491.874	265.94
492.092	313.94
492.31	327.94
492.527	342.94
492.745	304.94
492.963	281.94
493.18	260.94
493.398	282.94
493.615	274.94
493.833	274.94
494.05	278.94
494.268	254.94
494.485	278.94
494.703	265.94
494.92	283.94
495.138	275.94
495.355	279.94
495.573	273.94
495.79	300.94
496.008	334.94
496.225	291.94
496.442	294.94
496.66	265.94
496.877	300.94
497.094	292.94
497.312	260.94
497.529	286.94
497.746	296.94
497.963	292.94
498.181	328.94
498.398	341.94
498.615	339.94
498.832	364.94
499.049	369.94
499.267	355.94
499.484	376.94
499.701	393.94
499.918	430.94
500.135	482.94
500.352	519.94
500.569	552.94
500.786	561.94
501.003	520.94
501.22	462.94
501.437	412.94
501.654	403.94
501.871	374.94
502.088	347.94
502.305	331.94
502.522	334.94
