Data from NickelSpatula_HRD10591_16-35-43-126.txt Node
Date: Mon Jul 22 16:35:43 EDT 2019
User: cochatt
Spectrometer: HR+D1059
Trigger mode: 1
Integration Time (sec): 1.000000E-1
Scans to average: 1
Electric dark correction enabled: true
Nonlinearity correction enabled: false
Boxcar width: 0
XAxis mode: Wavelengths
Number of Pixels in Spectrum: 2048
>>>>>Begin Spectral Data<<<<<
223.165	-8.81
223.4	-8.81
223.635	-8.81
223.869	-7.81
224.104	-27.81
224.338	-20.81
224.573	-25.81
224.808	-27.81
225.042	-8.81
225.277	-5.81
225.511	4.19
225.746	-7.81
225.98	22.19
226.215	16.19
226.449	20.19
226.683	30.19
226.918	25.19
227.152	23.19
227.387	37.19
227.621	44.19
227.856	50.19
228.09	42.19
228.324	50.19
228.559	60.19
228.793	49.19
229.027	63.19
229.262	74.19
229.496	84.19
229.73	79.19
229.964	86.19
230.199	96.19
230.433	94.19
230.667	103.19
230.901	93.19
231.136	84.19
231.37	84.19
231.604	90.19
231.838	95.19
232.072	114.19
232.306	99.19
232.541	128.19
232.775	97.19
233.009	104.19
233.243	103.19
233.477	118.19
233.711	110.19
233.945	125.19
234.179	109.19
234.413	124.19
234.647	115.19
234.881	126.19
235.115	119.19
235.349	116.19
235.583	116.19
235.817	96.19
236.051	114.19
236.285	134.19
236.519	126.19
236.753	102.19
236.987	102.19
237.221	131.19
237.455	118.19
237.689	126.19
237.922	126.19
238.156	132.19
238.39	132.19
238.624	146.19
238.858	131.19
239.091	135.19
239.325	135.19
239.559	127.19
239.793	141.19
240.027	148.19
240.26	155.19
240.494	142.19
240.728	145.19
240.961	163.19
241.195	156.19
241.429	140.19
241.662	149.19
241.896	146.19
242.13	127.19
242.363	119.19
242.597	133.19
242.83	133.19
243.064	133.19
243.298	136.19
243.531	152.19
243.765	140.19
243.998	156.19
244.232	158.19
244.465	163.19
244.699	140.19
244.932	158.19
245.166	154.19
245.399	132.19
245.633	141.19
245.866	136.19
246.099	161.19
246.333	155.19
246.566	161.19
246.8	161.19
247.033	158.19
247.266	159.19
247.5	158.19
247.733	157.19
247.966	149.19
248.2	147.19
248.433	155.19
248.666	170.19
248.899	162.19
249.133	170.19
249.366	190.19
249.599	211.19
249.832	167.19
250.066	188.19
250.299	173.19
250.532	169.19
250.765	174.19
250.998	160.19
251.231	147.19
251.465	174.19
251.698	182.19
251.931	165.19
252.164	173.19
252.397	186.19
252.63	209.19
252.863	199.19
253.096	232.19
253.329	229.19
253.562	218.19
253.795	230.19
254.028	238.19
254.261	234.19
254.494	243.19
254.727	226.19
254.96	213.19
255.193	198.19
255.426	214.19
255.659	171.19
255.892	185.19
256.124	184.19
256.357	190.19
256.59	222.19
256.823	215.19
257.056	203.19
257.289	188.19
257.521	186.19
257.754	216.19
257.987	243.19
258.22	212.19
258.452	203.19
258.685	212.19
258.918	216.19
259.151	229.19
259.383	225.19
259.616	259.19
259.849	279.19
260.081	268.19
260.314	300.19
260.547	253.19
260.779	256.19
261.012	278.19
261.244	273.19
261.477	281.19
261.71	260.19
261.942	229.19
262.175	225.19
262.407	212.19
262.64	230.19
262.872	266.19
263.105	282.19
263.337	282.19
263.57	260.19
263.802	198.19
264.035	196.19
264.267	175.19
264.499	161.19
264.732	146.19
264.964	153.19
265.197	164.19
265.429	156.19
265.661	155.19
265.894	182.19
266.126	168.19
266.358	198.19
266.591	223.19
266.823	249.19
267.055	258.19
267.287	232.19
267.52	240.19
267.752	251.19
267.984	239.19
268.216	234.19
268.448	216.19
268.681	216.19
268.913	228.19
269.145	247.19
269.377	228.19
269.609	243.19
269.841	240.19
270.073	243.19
270.306	252.19
270.538	254.19
270.77	234.19
271.002	258.19
271.234	263.19
271.466	266.19
271.698	256.19
271.93	247.19
272.162	230.19
272.394	234.19
272.626	237.19
272.858	251.19
273.09	248.19
273.322	243.19
273.553	221.19
273.785	238.19
274.017	302.19
274.249	366.19
274.481	364.19
274.713	416.19
274.945	451.19
275.176	485.19
275.408	424.19
275.64	403.19
275.872	388.19
276.104	337.19
276.335	314.19
276.567	303.19
276.799	311.19
277.031	326.19
277.262	282.19
277.494	238.19
277.726	221.19
277.957	225.19
278.189	273.19
278.421	263.19
278.652	229.19
278.884	246.19
279.115	223.19
279.347	216.19
279.579	212.19
279.81	213.19
280.042	229.19
280.273	234.19
280.505	219.19
280.736	171.19
280.968	193.19
281.199	191.19
281.431	217.19
281.662	217.19
281.894	214.19
282.125	218.19
282.356	237.19
282.588	219.19
282.819	222.19
283.051	235.19
283.282	302.19
283.513	308.19
283.745	348.19
283.976	347.19
284.207	322.19
284.439	317.19
284.67	304.19
284.901	284.19
285.132	308.19
285.364	300.19
285.595	312.19
285.826	301.19
286.057	333.19
286.288	301.19
286.52	324.19
286.751	318.19
286.982	317.19
287.213	302.19
287.444	294.19
287.675	290.19
287.906	311.19
288.138	278.19
288.369	239.19
288.6	239.19
288.831	246.19
289.062	269.19
289.293	294.19
289.524	268.19
289.755	272.19
289.986	258.19
290.217	247.19
290.448	199.19
290.679	180.19
290.91	183.19
291.141	167.19
291.371	197.19
291.602	178.19
291.833	188.19
292.064	188.19
292.295	209.19
292.526	235.19
292.757	246.19
292.987	240.19
293.218	257.19
293.449	265.19
293.68	290.19
293.91	274.19
294.141	270.19
294.372	247.19
294.603	228.19
294.833	264.19
295.064	278.19
295.295	276.19
295.525	220.19
295.756	191.19
295.987	174.19
296.217	190.19
296.448	181.19
296.679	187.19
296.909	197.19
297.14	212.19
297.37	224.19
297.601	216.19
297.831	207.19
298.062	208.19
298.292	234.19
298.523	236.19
298.753	265.19
298.984	278.19
299.214	224.19
299.445	178.19
299.675	170.19
299.905	180.19
300.136	178.19
300.366	196.19
300.597	182.19
300.827	168.19
301.057	182.19
301.288	168.19
301.518	182.19
301.748	196.19
301.979	203.19
302.209	229.19
302.439	231.19
302.669	212.19
302.9	207.19
303.13	198.19
303.36	198.19
303.59	192.19
303.82	186.19
304.051	207.19
304.281	246.19
304.511	212.19
304.741	197.19
304.971	208.19
305.201	216.19
305.431	190.19
305.661	181.19
305.891	184.19
306.121	184.19
306.352	171.19
306.582	191.19
306.812	174.19
307.042	166.19
307.272	150.19
307.502	146.19
307.731	151.19
307.961	154.19
308.191	152.19
308.421	150.19
308.651	143.19
308.881	141.19
309.111	159.19
309.341	171.19
309.571	167.19
309.8	158.19
310.03	173.19
310.26	163.19
310.49	167.19
310.72	138.19
310.949	156.19
311.179	145.19
311.409	177.19
311.639	178.19
311.868	224.19
312.098	271.19
312.328	308.19
312.557	298.19
312.787	297.19
313.017	253.19
313.246	274.19
313.476	302.19
313.706	262.19
313.935	206.19
314.165	185.19
314.394	161.19
314.624	164.19
314.853	168.19
315.083	180.19
315.312	170.19
315.542	179.19
315.771	174.19
316.001	144.19
316.23	157.19
316.46	146.19
316.689	144.19
316.919	163.19
317.148	166.19
317.377	164.19
317.607	156.19
317.836	181.19
318.065	184.19
318.295	212.19
318.524	195.19
318.753	169.19
318.983	182.19
319.212	167.19
319.441	178.19
319.67	195.19
319.9	204.19
320.129	172.19
320.358	150.19
320.587	174.19
320.816	162.19
321.046	185.19
321.275	207.19
321.504	200.19
321.733	196.19
321.962	207.19
322.191	190.19
322.42	175.19
322.649	168.19
322.878	203.19
323.108	202.19
323.337	182.19
323.566	187.19
323.795	164.19
324.024	181.19
324.253	166.19
324.482	152.19
324.71	174.19
324.939	190.19
325.168	188.19
325.397	168.19
325.626	159.19
325.855	159.19
326.084	163.19
326.313	160.19
326.542	154.19
326.77	167.19
326.999	161.19
327.228	155.19
327.457	167.19
327.686	152.19
327.914	152.19
328.143	152.19
328.372	164.19
328.6	144.19
328.829	168.19
329.058	153.19
329.287	142.19
329.515	159.19
329.744	144.19
329.972	145.19
330.201	144.19
330.43	154.19
330.658	158.19
330.887	181.19
331.115	179.19
331.344	184.19
331.572	159.19
331.801	152.19
332.03	140.19
332.258	156.19
332.486	166.19
332.715	164.19
332.943	147.19
333.172	158.19
333.4	147.19
333.629	167.19
333.857	194.19
334.085	173.19
334.314	192.19
334.542	163.19
334.771	164.19
334.999	169.19
335.227	156.19
335.455	161.19
335.684	167.19
335.912	189.19
336.14	202.19
336.369	196.19
336.597	194.19
336.825	219.19
337.053	239.19
337.281	194.19
337.51	165.19
337.738	178.19
337.966	182.19
338.194	194.19
338.422	175.19
338.65	166.19
338.878	152.19
339.106	150.19
339.334	165.19
339.562	184.19
339.79	155.19
340.018	185.19
340.246	166.19
340.474	198.19
340.702	199.19
340.93	214.19
341.158	207.19
341.386	165.19
341.614	187.19
341.842	182.19
342.07	180.19
342.298	215.19
342.526	217.19
342.754	192.19
342.981	190.19
343.209	171.19
343.437	194.19
343.665	192.19
343.893	194.19
344.12	224.19
344.348	245.19
344.576	223.19
344.804	178.19
345.031	173.19
345.259	144.19
345.487	167.19
345.714	171.19
345.942	169.19
346.17	195.19
346.397	180.19
346.625	169.19
346.853	168.19
347.08	144.19
347.308	170.19
347.535	193.19
347.763	193.19
347.99	175.19
348.218	163.19
348.445	167.19
348.673	187.19
348.9	172.19
349.128	180.19
349.355	182.19
349.583	158.19
349.81	173.19
350.037	151.19
350.265	148.19
350.492	145.19
350.72	165.19
350.947	159.19
351.174	154.19
351.402	147.19
351.629	144.19
351.856	163.19
352.083	156.19
352.311	158.19
352.538	175.19
352.765	204.19
352.992	183.19
353.22	174.19
353.447	184.19
353.674	180.19
353.901	179.19
354.128	175.19
354.355	171.19
354.583	173.19
354.81	158.19
355.037	183.19
355.264	170.19
355.491	183.19
355.718	189.19
355.945	180.19
356.172	187.19
356.399	184.19
356.626	227.19
356.853	232.19
357.08	276.19
357.307	279.19
357.534	213.19
357.761	225.19
357.988	252.19
358.215	268.19
358.441	263.19
358.668	257.19
358.895	227.19
359.122	191.19
359.349	189.19
359.576	218.19
359.802	199.19
360.029	142.19
360.256	174.19
360.483	204.19
360.709	239.19
360.936	251.19
361.163	223.19
361.39	190.19
361.616	167.19
361.843	196.19
362.07	224.19
362.296	204.19
362.523	175.19
362.749	168.19
362.976	167.19
363.203	186.19
363.429	194.19
363.656	166.19
363.882	163.19
364.109	173.19
364.335	166.19
364.562	172.19
364.788	185.19
365.015	198.19
365.241	195.19
365.468	155.19
365.694	153.19
365.92	151.19
366.147	140.19
366.373	142.19
366.599	128.19
366.826	135.19
367.052	154.19
367.278	156.19
367.505	152.19
367.731	151.19
367.957	154.19
368.184	165.19
368.41	164.19
368.636	173.19
368.862	178.19
369.089	164.19
369.315	181.19
369.541	172.19
369.767	168.19
369.993	152.19
370.219	166.19
370.445	172.19
370.672	176.19
370.898	156.19
371.124	187.19
371.35	142.19
371.576	157.19
371.802	173.19
372.028	173.19
372.254	191.19
372.48	176.19
372.706	168.19
372.932	174.19
373.158	168.19
373.384	207.19
373.61	275.19
373.835	234.19
374.061	208.19
374.287	194.19
374.513	192.19
374.739	232.19
374.965	250.19
375.191	232.19
375.416	190.19
375.642	196.19
375.868	183.19
376.094	195.19
376.319	188.19
376.545	186.19
376.771	221.19
376.997	189.19
377.222	152.19
377.448	143.19
377.674	148.19
377.899	132.19
378.125	136.19
378.35	134.19
378.576	142.19
378.802	143.19
379.027	144.19
379.253	162.19
379.478	165.19
379.704	172.19
379.929	174.19
380.155	163.19
380.38	164.19
380.606	171.19
380.831	189.19
381.057	166.19
381.282	161.19
381.507	179.19
381.733	213.19
381.958	227.19
382.184	236.19
382.409	242.19
382.634	244.19
382.86	260.19
383.085	207.19
383.31	178.19
383.535	208.19
383.761	197.19
383.986	194.19
384.211	225.19
384.436	206.19
384.662	174.19
384.887	186.19
385.112	179.19
385.337	169.19
385.562	162.19
385.787	184.19
386.013	203.19
386.238	194.19
386.463	169.19
386.688	157.19
386.913	154.19
387.138	146.19
387.363	166.19
387.588	173.19
387.813	179.19
388.038	170.19
388.263	171.19
388.488	157.19
388.713	191.19
388.938	193.19
389.163	184.19
389.387	174.19
389.612	162.19
389.837	159.19
390.062	163.19
390.287	170.19
390.512	170.19
390.736	169.19
390.961	149.19
391.186	165.19
391.411	162.19
391.636	160.19
391.86	174.19
392.085	172.19
392.31	170.19
392.534	159.19
392.759	144.19
392.984	165.19
393.208	162.19
393.433	155.19
393.658	142.19
393.882	150.19
394.107	144.19
394.331	127.19
394.556	154.19
394.78	146.19
395.005	153.19
395.229	158.19
395.454	155.19
395.678	156.19
395.903	172.19
396.127	154.19
396.352	127.19
396.576	180.19
396.801	171.19
397.025	187.19
397.249	189.19
397.474	172.19
397.698	154.19
397.922	188.19
398.147	143.19
398.371	161.19
398.595	164.19
398.82	172.19
399.044	179.19
399.268	175.19
399.492	167.19
399.717	189.19
399.941	190.19
400.165	181.19
400.389	171.19
400.613	165.19
400.837	187.19
401.062	162.19
401.286	152.19
401.51	162.19
401.734	141.19
401.958	152.19
402.182	158.19
402.406	152.19
402.63	157.19
402.854	171.19
403.078	198.19
403.302	223.19
403.526	219.19
403.75	216.19
403.974	175.19
404.198	206.19
404.422	207.19
404.645	212.19
404.869	235.19
405.093	175.19
405.317	166.19
405.541	164.19
405.765	181.19
405.988	182.19
406.212	164.19
406.436	195.19
406.66	221.19
406.883	191.19
407.107	187.19
407.331	201.19
407.555	211.19
407.778	178.19
408.002	192.19
408.226	183.19
408.449	186.19
408.673	184.19
408.896	160.19
409.12	164.19
409.344	165.19
409.567	157.19
409.791	140.19
410.014	126.19
410.238	145.19
410.461	146.19
410.685	158.19
410.908	159.19
411.132	166.19
411.355	182.19
411.578	172.19
411.802	168.19
412.025	168.19
412.249	176.19
412.472	155.19
412.695	166.19
412.919	167.19
413.142	171.19
413.365	188.19
413.589	180.19
413.812	166.19
414.035	174.19
414.258	171.19
414.482	184.19
414.705	186.19
414.928	163.19
415.151	150.19
415.374	148.19
415.597	171.19
415.821	151.19
416.044	156.19
416.267	156.19
416.49	152.19
416.713	154.19
416.936	152.19
417.159	152.19
417.382	167.19
417.605	170.19
417.828	150.19
418.051	172.19
418.274	163.19
418.497	182.19
418.72	164.19
418.943	166.19
419.166	169.19
419.389	170.19
419.611	167.19
419.834	170.19
420.057	210.19
420.28	188.19
420.503	175.19
420.726	156.19
420.948	168.19
421.171	165.19
421.394	158.19
421.617	143.19
421.839	154.19
422.062	167.19
422.285	164.19
422.507	157.19
422.73	169.19
422.953	175.19
423.175	165.19
423.398	163.19
423.621	183.19
423.843	194.19
424.066	182.19
424.288	160.19
424.511	156.19
424.733	170.19
424.956	186.19
425.178	194.19
425.401	200.19
425.623	225.19
425.846	186.19
426.068	170.19
426.291	183.19
426.513	184.19
426.735	184.19
426.958	176.19
427.18	189.19
427.402	241.19
427.625	247.19
427.847	216.19
428.069	169.19
428.292	178.19
428.514	154.19
428.736	162.19
428.958	166.19
429.181	201.19
429.403	178.19
429.625	160.19
429.847	165.19
430.069	160.19
430.292	166.19
430.514	168.19
430.736	170.19
430.958	189.19
431.18	195.19
431.402	148.19
431.624	145.19
431.846	162.19
432.068	144.19
432.29	167.19
432.512	170.19
432.734	188.19
432.956	196.19
433.178	158.19
433.4	162.19
433.622	164.19
433.844	183.19
434.066	181.19
434.287	194.19
434.509	176.19
434.731	180.19
434.953	176.19
435.175	158.19
435.397	183.19
435.618	164.19
435.84	154.19
436.062	139.19
436.284	142.19
436.505	163.19
436.727	141.19
436.949	146.19
437.17	151.19
437.392	161.19
437.614	157.19
437.835	152.19
438.057	151.19
438.278	155.19
438.5	220.19
438.721	221.19
438.943	180.19
439.165	155.19
439.386	141.19
439.608	165.19
439.829	146.19
440.05	148.19
440.272	162.19
440.493	169.19
440.715	212.19
440.936	186.19
441.158	146.19
441.379	164.19
441.6	178.19
441.822	189.19
442.043	161.19
442.264	156.19
442.486	169.19
442.707	156.19
442.928	173.19
443.149	166.19
443.371	171.19
443.592	171.19
443.813	172.19
444.034	152.19
444.255	161.19
444.476	165.19
444.698	155.19
444.919	174.19
445.14	319.19
445.361	244.19
445.582	164.19
445.803	179.19
446.024	172.19
446.245	172.19
446.466	171.19
446.687	174.19
446.908	170.19
447.129	162.19
447.35	170.19
447.571	155.19
447.792	154.19
448.013	148.19
448.234	151.19
448.455	140.19
448.675	158.19
448.896	162.19
449.117	165.19
449.338	152.19
449.559	151.19
449.779	156.19
450	182.19
450.221	153.19
450.442	143.19
450.662	148.19
450.883	148.19
451.104	164.19
451.324	157.19
451.545	153.19
451.766	135.19
451.986	148.19
452.207	160.19
452.428	162.19
452.648	144.19
452.869	150.19
453.089	157.19
453.31	169.19
453.53	144.19
453.751	151.19
453.971	154.19
454.192	149.19
454.412	155.19
454.633	145.19
454.853	156.19
455.073	148.19
455.294	140.19
455.514	146.19
455.734	159.19
455.955	154.19
456.175	143.19
456.395	145.19
456.616	130.19
456.836	131.19
457.056	156.19
457.276	130.19
457.497	139.19
457.717	157.19
457.937	148.19
458.157	144.19
458.377	163.19
458.598	155.19
458.818	156.19
459.038	166.19
459.258	160.19
459.478	168.19
459.698	172.19
459.918	158.19
460.138	169.19
460.358	171.19
460.578	160.19
460.798	165.19
461.018	155.19
461.238	140.19
461.458	152.19
461.678	158.19
461.898	180.19
462.118	171.19
462.338	178.19
462.558	170.19
462.777	176.19
462.997	194.19
463.217	165.19
463.437	188.19
463.657	174.19
463.876	181.19
464.096	168.19
464.316	178.19
464.536	167.19
464.755	192.19
464.975	188.19
465.195	170.19
465.414	190.19
465.634	175.19
465.854	163.19
466.073	146.19
466.293	151.19
466.512	181.19
466.732	180.19
466.951	197.19
467.171	164.19
467.391	158.19
467.61	158.19
467.829	165.19
468.049	175.19
468.268	170.19
468.488	153.19
468.707	178.19
468.927	176.19
469.146	202.19
469.365	180.19
469.585	172.19
469.804	175.19
470.023	186.19
470.243	156.19
470.462	176.19
470.681	184.19
470.901	175.19
471.12	183.19
471.339	159.19
471.558	171.19
471.777	185.19
471.997	189.19
472.216	203.19
472.435	190.19
472.654	186.19
472.873	171.19
473.092	184.19
473.311	180.19
473.53	159.19
473.749	180.19
473.968	192.19
474.187	173.19
474.406	173.19
474.625	170.19
474.844	172.19
475.063	179.19
475.282	184.19
475.501	203.19
475.72	211.19
475.939	191.19
476.158	199.19
476.377	236.19
476.596	254.19
476.814	259.19
477.033	228.19
477.252	182.19
477.471	189.19
477.69	192.19
477.908	199.19
478.127	195.19
478.346	206.19
478.564	221.19
478.783	202.19
479.002	202.19
479.22	205.19
479.439	223.19
479.658	197.19
479.876	191.19
480.095	184.19
480.313	206.19
480.532	188.19
480.751	185.19
480.969	186.19
481.188	214.19
481.406	205.19
481.624	205.19
481.843	179.19
482.061	182.19
482.28	212.19
482.498	271.19
482.717	250.19
482.935	197.19
483.153	205.19
483.372	196.19
483.59	183.19
483.808	173.19
484.027	190.19
484.245	182.19
484.463	166.19
484.681	179.19
484.9	186.19
485.118	191.19
485.336	183.19
485.554	173.19
485.772	197.19
485.99	217.19
486.209	215.19
486.427	207.19
486.645	200.19
486.863	202.19
487.081	217.19
487.299	228.19
487.517	238.19
487.735	198.19
487.953	205.19
488.171	219.19
488.389	197.19
488.607	190.19
488.825	193.19
489.043	210.19
489.261	254.19
489.479	252.19
489.696	199.19
489.914	199.19
490.132	189.19
490.35	176.19
490.568	198.19
490.786	184.19
491.003	195.19
491.221	190.19
491.439	191.19
491.657	192.19
491.874	207.19
492.092	242.19
492.31	284.19
492.527	275.19
492.745	218.19
492.963	223.19
493.18	225.19
493.398	212.19
493.615	215.19
493.833	204.19
494.05	205.19
494.268	212.19
494.485	221.19
494.703	200.19
494.92	206.19
495.138	195.19
495.355	201.19
495.573	207.19
495.79	224.19
496.008	295.19
496.225	238.19
496.442	215.19
496.66	211.19
496.877	219.19
497.094	214.19
497.312	228.19
497.529	212.19
497.746	228.19
497.963	194.19
498.181	219.19
498.398	231.19
498.615	261.19
498.832	259.19
499.049	261.19
499.267	256.19
499.484	256.19
499.701	235.19
499.918	265.19
500.135	281.19
500.352	287.19
500.569	306.19
500.786	308.19
501.003	295.19
501.22	283.19
501.437	264.19
501.654	242.19
501.871	234.19
502.088	242.19
502.305	231.19
502.522	238.19
502.739	233.19
