Data from NickelSpatula.Lamp.E10.P2_HRD10591_11-56-50-535.txt Node
Date: Tue Jul 23 11:56:50 EDT 2019
User: cochatt
Spectrometer: HR+D1059
Trigger mode: 1
Integration Time (sec): 1.000000E-1
Scans to average: 1
Electric dark correction enabled: true
Nonlinearity correction enabled: false
Boxcar width: 0
XAxis mode: Wavelengths
Number of Pixels in Spectrum: 2048
>>>>>Begin Spectral Data<<<<<
223.165	-16.62
223.4	-16.62
223.635	-16.62
223.869	-10.62
224.104	-26.62
224.338	-0.62
224.573	-11.62
224.808	-2.62
225.042	-2.62
225.277	-5.62
225.511	-9.62
225.746	0.38
225.98	-8.62
226.215	5.38
226.449	23.38
226.683	15.38
226.918	27.38
227.152	23.38
227.387	20.38
227.621	42.38
227.856	32.38
228.09	32.38
228.324	40.38
228.559	61.38
228.793	77.38
229.027	133.38
229.262	135.38
229.496	146.38
229.73	159.38
229.964	167.38
230.199	204.38
230.433	202.38
230.667	200.38
230.901	191.38
231.136	196.38
231.37	199.38
231.604	207.38
231.838	237.38
232.072	220.38
232.306	226.38
232.541	219.38
232.775	215.38
233.009	242.38
233.243	270.38
233.477	284.38
233.711	314.38
233.945	308.38
234.179	297.38
234.413	318.38
234.647	332.38
234.881	417.38
235.115	378.38
235.349	342.38
235.583	326.38
235.817	303.38
236.051	323.38
236.285	379.38
236.519	400.38
236.753	398.38
236.987	355.38
237.221	359.38
237.455	367.38
237.689	389.38
237.922	412.38
238.156	415.38
238.39	464.38
238.624	571.38
238.858	524.38
239.091	434.38
239.325	451.38
239.559	416.38
239.793	476.38
240.027	567.38
240.26	525.38
240.494	525.38
240.728	513.38
240.961	611.38
241.195	561.38
241.429	569.38
241.662	538.38
241.896	455.38
242.13	442.38
242.363	393.38
242.597	412.38
242.83	497.38
243.064	460.38
243.298	531.38
243.531	545.38
243.765	571.38
243.998	560.38
244.232	535.38
244.465	536.38
244.699	510.38
244.932	581.38
245.166	552.38
245.399	499.38
245.633	502.38
245.866	515.38
246.099	564.38
246.333	648.38
246.566	668.38
246.8	654.38
247.033	640.38
247.266	601.38
247.5	603.38
247.733	566.38
247.966	586.38
248.2	588.38
248.433	671.38
248.666	728.38
248.899	715.38
249.133	728.38
249.366	815.38
249.599	906.38
249.832	818.38
250.066	698.38
250.299	735.38
250.532	716.38
250.765	688.38
250.998	648.38
251.231	652.38
251.465	701.38
251.698	743.38
251.931	730.38
252.164	735.38
252.397	829.38
252.63	900.38
252.863	989.38
253.096	1015.38
253.329	960.38
253.562	970.38
253.795	1093.38
254.028	1166.38
254.261	1172.38
254.494	1095.38
254.727	995.38
254.96	947.38
255.193	1002.38
255.426	940.38
255.659	758.38
255.892	734.38
256.124	803.38
256.357	903.38
256.59	1043.38
256.823	1007.38
257.056	867.38
257.289	831.38
257.521	875.38
257.754	1035.38
257.987	1199.38
258.22	1011.38
258.452	911.38
258.685	1021.38
258.918	1124.38
259.151	1131.38
259.383	1205.38
259.616	1400.38
259.849	1434.38
260.081	1506.38
260.314	1632.38
260.547	1315.38
260.779	1358.38
261.012	1559.38
261.244	1443.38
261.477	1460.38
261.71	1348.38
261.942	1167.38
262.175	1130.38
262.407	1088.38
262.64	1136.38
262.872	1330.38
263.105	1452.38
263.337	1502.38
263.57	1371.38
263.802	961.38
264.035	856.38
264.267	840.38
264.499	738.38
264.732	650.38
264.964	626.38
265.197	662.38
265.429	731.38
265.661	761.38
265.894	796.38
266.126	843.38
266.358	947.38
266.591	1114.38
266.823	1343.38
267.055	1242.38
267.287	1154.38
267.52	1208.38
267.752	1245.38
267.984	1367.38
268.216	1296.38
268.448	1096.38
268.681	1010.38
268.913	1089.38
269.145	1170.38
269.377	1211.38
269.609	1230.38
269.841	1120.38
270.073	1190.38
270.306	1273.38
270.538	1294.38
270.77	1312.38
271.002	1307.38
271.234	1379.38
271.466	1363.38
271.698	1296.38
271.93	1269.38
272.162	1262.38
272.394	1219.38
272.626	1224.38
272.858	1260.38
273.09	1303.38
273.322	1112.38
273.553	1066.38
273.785	1248.38
274.017	1606.38
274.249	1992.38
274.481	2110.38
274.713	2293.38
274.945	2627.38
275.176	2777.38
275.408	2431.38
275.64	2282.38
275.872	2273.38
276.104	1977.38
276.335	1735.38
276.567	1697.38
276.799	1774.38
277.031	1856.38
277.262	1434.38
277.494	1111.38
277.726	1082.38
277.957	1186.38
278.189	1334.38
278.421	1324.38
278.652	1300.38
278.884	1222.38
279.115	1121.38
279.347	1081.38
279.579	1115.38
279.81	1096.38
280.042	1080.38
280.273	1122.38
280.505	1078.38
280.736	920.38
280.968	970.38
281.199	1034.38
281.431	1184.38
281.662	1151.38
281.894	1097.38
282.125	1194.38
282.356	1259.38
282.588	1267.38
282.819	1182.38
283.051	1280.38
283.282	1535.38
283.513	1786.38
283.745	1964.38
283.976	1962.38
284.207	1818.38
284.439	1857.38
284.67	1823.38
284.901	1591.38
285.132	1781.38
285.364	1870.38
285.595	1700.38
285.826	1766.38
286.057	1812.38
286.288	1765.38
286.52	1821.38
286.751	1897.38
286.982	1913.38
287.213	1659.38
287.444	1603.38
287.675	1664.38
287.906	1673.38
288.138	1425.38
288.369	1267.38
288.6	1196.38
288.831	1258.38
289.062	1500.38
289.293	1623.38
289.524	1492.38
289.755	1471.38
289.986	1498.38
290.217	1359.38
290.448	1074.38
290.679	896.38
290.91	845.38
291.141	876.38
291.371	876.38
291.602	904.38
291.833	910.38
292.064	938.38
292.295	1141.38
292.526	1283.38
292.757	1296.38
292.987	1390.38
293.218	1430.38
293.449	1526.38
293.68	1602.38
293.91	1518.38
294.141	1558.38
294.372	1466.38
294.603	1306.38
294.833	1435.38
295.064	1699.38
295.295	1639.38
295.525	1220.38
295.756	1039.38
295.987	886.38
296.217	904.38
296.448	925.38
296.679	942.38
296.909	1040.38
297.14	1114.38
297.37	1237.38
297.601	1179.38
297.831	1061.38
298.062	1138.38
298.292	1253.38
298.523	1335.38
298.753	1467.38
298.984	1350.38
299.214	1102.38
299.445	932.38
299.675	897.38
299.905	853.38
300.136	840.38
300.366	955.38
300.597	972.38
300.827	879.38
301.057	835.38
301.288	848.38
301.518	912.38
301.748	1014.38
301.979	1074.38
302.209	1119.38
302.439	1140.38
302.669	1052.38
302.9	1068.38
303.13	1022.38
303.36	961.38
303.59	964.38
303.82	963.38
304.051	1074.38
304.281	1166.38
304.511	1138.38
304.741	1026.38
304.971	1062.38
305.201	1134.38
305.431	1060.38
305.661	927.38
305.891	886.38
306.121	890.38
306.352	832.38
306.582	756.38
306.812	731.38
307.042	783.38
307.272	719.38
307.502	728.38
307.731	762.38
307.961	822.38
308.191	775.38
308.421	742.38
308.651	709.38
308.881	709.38
309.111	712.38
309.341	743.38
309.571	801.38
309.8	806.38
310.03	787.38
310.26	831.38
310.49	795.38
310.72	762.38
310.949	763.38
311.179	804.38
311.409	853.38
311.639	954.38
311.868	1270.38
312.098	1604.38
312.328	1718.38
312.557	1653.38
312.787	1699.38
313.017	1480.38
313.246	1574.38
313.476	1723.38
313.706	1462.38
313.935	1150.38
314.165	960.38
314.394	844.38
314.624	850.38
314.853	901.38
315.083	941.38
315.312	913.38
315.542	903.38
315.771	822.38
316.001	768.38
316.23	748.38
316.46	750.38
316.689	775.38
316.919	792.38
317.148	781.38
317.377	772.38
317.607	782.38
317.836	830.38
318.065	964.38
318.295	1077.38
318.524	974.38
318.753	863.38
318.983	828.38
319.212	839.38
319.441	859.38
319.67	949.38
319.9	1008.38
320.129	957.38
320.358	854.38
320.587	834.38
320.816	855.38
321.046	970.38
321.275	1058.38
321.504	1074.38
321.733	1055.38
321.962	1023.38
322.191	958.38
322.42	907.38
322.649	911.38
322.878	965.38
323.108	966.38
323.337	948.38
323.566	918.38
323.795	932.38
324.024	885.38
324.253	828.38
324.482	850.38
324.71	878.38
324.939	961.38
325.168	885.38
325.397	800.38
325.626	800.38
325.855	832.38
326.084	863.38
326.313	805.38
326.542	762.38
326.77	766.38
326.999	800.38
327.228	843.38
327.457	858.38
327.686	890.38
327.914	778.38
328.143	736.38
328.372	760.38
328.6	734.38
328.829	762.38
329.058	789.38
329.287	782.38
329.515	824.38
329.744	806.38
329.972	740.38
330.201	758.38
330.43	764.38
330.658	861.38
330.887	925.38
331.115	928.38
331.344	906.38
331.572	866.38
331.801	811.38
332.03	768.38
332.258	793.38
332.486	884.38
332.715	880.38
332.943	842.38
333.172	830.38
333.4	844.38
333.629	965.38
333.857	1004.38
334.085	1003.38
334.314	991.38
334.542	943.38
334.771	895.38
334.999	877.38
335.227	833.38
335.455	870.38
335.684	925.38
335.912	1125.38
336.14	1174.38
336.369	1148.38
336.597	1091.38
336.825	1224.38
337.053	1310.38
337.281	1071.38
337.51	893.38
337.738	870.38
337.966	934.38
338.194	1025.38
338.422	956.38
338.65	871.38
338.878	795.38
339.106	807.38
339.334	897.38
339.562	964.38
339.79	888.38
340.018	878.38
340.246	925.38
340.474	1001.38
340.702	1055.38
340.93	1105.38
341.158	1111.38
341.386	946.38
341.614	898.38
341.842	897.38
342.07	1000.38
342.298	1130.38
342.526	1181.38
342.754	953.38
342.981	902.38
343.209	890.38
343.437	958.38
343.665	1015.38
343.893	987.38
344.12	1138.38
344.348	1274.38
344.576	1183.38
344.804	985.38
345.031	864.38
345.259	830.38
345.487	852.38
345.714	906.38
345.942	942.38
346.17	996.38
346.397	967.38
346.625	837.38
346.853	841.38
347.08	830.38
347.308	862.38
347.535	942.38
347.763	958.38
347.99	847.38
348.218	828.38
348.445	862.38
348.673	867.38
348.9	828.38
349.128	908.38
349.355	891.38
349.583	887.38
349.81	848.38
350.037	837.38
350.265	762.38
350.492	721.38
350.72	713.38
350.947	734.38
351.174	775.38
351.402	798.38
351.629	799.38
351.856	771.38
352.083	782.38
352.311	783.38
352.538	858.38
352.765	868.38
352.992	818.38
353.22	807.38
353.447	804.38
353.674	814.38
353.901	801.38
354.128	778.38
354.355	807.38
354.583	822.38
354.81	842.38
355.037	855.38
355.264	805.38
355.491	888.38
355.718	887.38
355.945	875.38
356.172	852.38
356.399	877.38
356.626	1014.38
356.853	1182.38
357.08	1243.38
357.307	1240.38
357.534	1053.38
357.761	1076.38
357.988	1278.38
358.215	1443.38
358.441	1366.38
358.668	1210.38
358.895	1112.38
359.122	960.38
359.349	982.38
359.576	1050.38
359.802	874.38
360.029	794.38
360.256	829.38
360.483	967.38
360.709	1175.38
360.936	1205.38
361.163	1059.38
361.39	852.38
361.616	855.38
361.843	918.38
362.07	1093.38
362.296	1034.38
362.523	854.38
362.749	776.38
362.976	804.38
363.203	914.38
363.429	1003.38
363.656	887.38
363.882	817.38
364.109	817.38
364.335	815.38
364.562	788.38
364.788	870.38
365.015	978.38
365.241	893.38
365.468	795.38
365.694	747.38
365.92	699.38
366.147	701.38
366.373	684.38
366.599	701.38
366.826	684.38
367.052	679.38
367.278	698.38
367.505	701.38
367.731	763.38
367.957	836.38
368.184	851.38
368.41	795.38
368.636	843.38
368.862	846.38
369.089	818.38
369.315	763.38
369.541	748.38
369.767	791.38
369.993	735.38
370.219	715.38
370.445	760.38
370.672	818.38
370.898	843.38
371.124	859.38
371.35	796.38
371.576	783.38
371.802	812.38
372.028	936.38
372.254	997.38
372.48	916.38
372.706	836.38
372.932	865.38
373.158	883.38
373.384	1019.38
373.61	1256.38
373.835	1299.38
374.061	1015.38
374.287	928.38
374.513	1049.38
374.739	1173.38
374.965	1213.38
375.191	1200.38
375.416	926.38
375.642	874.38
375.868	935.38
376.094	995.38
376.319	909.38
376.545	1005.38
376.771	988.38
376.997	880.38
377.222	752.38
377.448	698.38
377.674	672.38
377.899	694.38
378.125	690.38
378.35	692.38
378.576	662.38
378.802	725.38
379.027	770.38
379.253	767.38
379.478	762.38
379.704	845.38
379.929	858.38
380.155	875.38
380.38	775.38
380.606	814.38
380.831	893.38
381.057	854.38
381.282	823.38
381.507	895.38
381.733	1046.38
381.958	1141.38
382.184	1172.38
382.409	1280.38
382.634	1244.38
382.86	1232.38
383.085	1056.38
383.31	910.38
383.535	953.38
383.761	951.38
383.986	925.38
384.211	1061.38
384.436	1063.38
384.662	855.38
384.887	844.38
385.112	848.38
385.337	874.38
385.562	843.38
385.787	922.38
386.013	974.38
386.238	997.38
386.463	860.38
386.688	835.38
386.913	830.38
387.138	800.38
387.363	833.38
387.588	836.38
387.813	865.38
388.038	912.38
388.263	842.38
388.488	837.38
388.713	893.38
388.938	922.38
389.163	848.38
389.387	786.38
389.612	810.38
389.837	832.38
390.062	843.38
390.287	851.38
390.512	866.38
390.736	808.38
390.961	830.38
391.186	805.38
391.411	776.38
391.636	766.38
391.86	820.38
392.085	877.38
392.31	892.38
392.534	840.38
392.759	819.38
392.984	853.38
393.208	817.38
393.433	804.38
393.658	768.38
393.882	692.38
394.107	717.38
394.331	762.38
394.556	737.38
394.78	760.38
395.005	780.38
395.229	776.38
395.454	794.38
395.678	831.38
395.903	802.38
396.127	805.38
396.352	799.38
396.576	855.38
396.801	860.38
397.025	904.38
397.249	948.38
397.474	852.38
397.698	823.38
397.922	858.38
398.147	839.38
398.371	839.38
398.595	896.38
398.82	858.38
399.044	885.38
399.268	930.38
399.492	998.38
399.717	995.38
399.941	1010.38
400.165	999.38
400.389	945.38
400.613	928.38
400.837	919.38
401.062	858.38
401.286	869.38
401.51	850.38
401.734	865.38
401.958	859.38
402.182	866.38
402.406	842.38
402.63	864.38
402.854	893.38
403.078	980.38
403.302	1178.38
403.526	1159.38
403.75	1077.38
403.974	961.38
404.198	1007.38
404.422	1098.38
404.645	1165.38
404.869	1222.38
405.093	1024.38
405.317	929.38
405.541	925.38
405.765	934.38
405.988	927.38
406.212	995.38
406.436	1069.38
406.66	1118.38
406.883	993.38
407.107	1023.38
407.331	1119.38
407.555	1117.38
407.778	1008.38
408.002	990.38
408.226	986.38
408.449	997.38
408.673	943.38
408.896	853.38
409.12	858.38
409.344	887.38
409.567	862.38
409.791	877.38
410.014	850.38
410.238	819.38
410.461	844.38
410.685	841.38
410.908	870.38
411.132	894.38
411.355	880.38
411.578	884.38
411.802	862.38
412.025	894.38
412.249	916.38
412.472	914.38
412.695	896.38
412.919	877.38
413.142	895.38
413.365	926.38
413.589	944.38
413.812	888.38
414.035	869.38
414.258	873.38
414.482	910.38
414.705	923.38
414.928	859.38
415.151	811.38
415.374	830.38
415.597	844.38
415.821	837.38
416.044	840.38
416.267	832.38
416.49	807.38
416.713	838.38
416.936	790.38
417.159	825.38
417.382	821.38
417.605	837.38
417.828	844.38
418.051	872.38
418.274	844.38
418.497	849.38
418.72	862.38
418.943	864.38
419.166	893.38
419.389	944.38
419.611	942.38
419.834	902.38
420.057	967.38
420.28	931.38
420.503	876.38
420.726	820.38
420.948	816.38
421.171	847.38
421.394	828.38
421.617	813.38
421.839	823.38
422.062	845.38
422.285	836.38
422.507	868.38
422.73	867.38
422.953	864.38
423.175	855.38
423.398	880.38
423.621	914.38
423.843	935.38
424.066	882.38
424.288	880.38
424.511	833.38
424.733	838.38
424.956	883.38
425.178	918.38
425.401	1037.38
425.623	1172.38
425.846	994.38
426.068	923.38
426.291	911.38
426.513	877.38
426.735	885.38
426.958	876.38
427.18	1000.38
427.402	1154.38
427.625	1212.38
427.847	1009.38
428.069	844.38
428.292	844.38
428.514	828.38
428.736	834.38
428.958	895.38
429.181	968.38
429.403	865.38
429.625	814.38
429.847	810.38
430.069	817.38
430.292	832.38
430.514	781.38
430.736	846.38
430.958	1008.38
431.18	913.38
431.402	817.38
431.624	752.38
431.846	751.38
432.068	755.38
432.29	791.38
432.512	818.38
432.734	1008.38
432.956	957.38
433.178	795.38
433.4	790.38
433.622	796.38
433.844	821.38
434.066	867.38
434.287	838.38
434.509	824.38
434.731	870.38
434.953	829.38
435.175	863.38
435.397	957.38
435.618	852.38
435.84	802.38
436.062	786.38
436.284	828.38
436.505	741.38
436.727	758.38
436.949	749.38
437.17	765.38
437.392	770.38
437.614	769.38
437.835	770.38
438.057	777.38
438.278	861.38
438.5	1091.38
438.721	1102.38
438.943	824.38
439.165	751.38
439.386	772.38
439.608	753.38
439.829	766.38
440.05	744.38
440.272	804.38
440.493	862.38
440.715	980.38
440.936	882.38
441.158	798.38
441.379	823.38
441.6	893.38
441.822	893.38
442.043	812.38
442.264	831.38
442.486	802.38
442.707	825.38
442.928	826.38
443.149	856.38
443.371	848.38
443.592	866.38
443.813	910.38
444.034	865.38
444.255	856.38
444.476	894.38
444.698	879.38
444.919	918.38
445.14	1030.38
445.361	972.38
445.582	903.38
445.803	891.38
446.024	903.38
446.245	872.38
446.466	871.38
446.687	826.38
446.908	828.38
447.129	795.38
447.35	784.38
447.571	749.38
447.792	775.38
448.013	748.38
448.234	739.38
448.455	741.38
448.675	773.38
448.896	772.38
449.117	752.38
449.338	777.38
449.559	774.38
449.779	787.38
450	798.38
450.221	782.38
450.442	797.38
450.662	746.38
450.883	760.38
451.104	775.38
451.324	771.38
451.545	776.38
451.766	772.38
451.986	759.38
452.207	720.38
452.428	733.38
452.648	712.38
452.869	742.38
453.089	780.38
453.31	753.38
453.53	702.38
453.751	708.38
453.971	692.38
454.192	724.38
454.412	731.38
454.633	738.38
454.853	723.38
455.073	709.38
455.294	691.38
455.514	701.38
455.734	713.38
455.955	779.38
456.175	765.38
456.395	717.38
456.616	708.38
456.836	686.38
457.056	669.38
457.276	663.38
457.497	676.38
457.717	685.38
457.937	696.38
458.157	679.38
458.377	686.38
458.598	722.38
458.818	732.38
459.038	751.38
459.258	787.38
459.478	809.38
459.698	844.38
459.918	864.38
460.138	817.38
460.358	838.38
460.578	814.38
460.798	852.38
461.018	845.38
461.238	809.38
461.458	812.38
461.678	838.38
461.898	880.38
462.118	884.38
462.338	863.38
462.558	889.38
462.777	921.38
462.997	968.38
463.217	946.38
463.437	999.38
463.657	974.38
463.876	932.38
464.096	918.38
464.316	926.38
464.536	926.38
464.755	934.38
464.975	948.38
465.195	908.38
465.414	928.38
465.634	897.38
465.854	877.38
466.073	795.38
466.293	830.38
466.512	846.38
466.732	942.38
466.951	943.38
467.171	877.38
467.391	814.38
467.61	817.38
467.829	871.38
468.049	880.38
468.268	802.38
468.488	808.38
468.707	841.38
468.927	978.38
469.146	1032.38
469.365	945.38
469.585	874.38
469.804	930.38
470.023	980.38
470.243	878.38
470.462	874.38
470.681	875.38
470.901	861.38
471.12	899.38
471.339	902.38
471.558	837.38
471.777	860.38
471.997	928.38
472.216	1004.38
472.435	990.38
472.654	886.38
472.873	858.38
473.092	916.38
473.311	969.38
473.53	886.38
473.749	880.38
473.968	891.38
474.187	880.38
474.406	887.38
474.625	876.38
474.844	879.38
475.063	933.38
475.282	929.38
475.501	958.38
475.72	1043.38
475.939	1018.38
476.158	994.38
476.377	1144.38
476.596	1313.38
476.814	1359.38
477.033	1118.38
477.252	974.38
477.471	949.38
477.69	959.38
477.908	1036.38
478.127	1073.38
478.346	1006.38
478.564	1111.38
478.783	1044.38
479.002	1020.38
479.22	1166.38
479.439	1299.38
479.658	1123.38
479.876	1071.38
480.095	1166.38
480.313	1134.38
480.532	1060.38
480.751	1037.38
480.969	1062.38
481.188	1170.38
481.406	1203.38
481.624	1153.38
481.843	1032.38
482.061	1009.38
482.28	1106.38
482.498	1349.38
482.717	1245.38
482.935	1103.38
483.153	1045.38
483.372	980.38
483.59	1014.38
483.808	1005.38
484.027	978.38
484.245	944.38
484.463	918.38
484.681	946.38
484.9	1024.38
485.118	1103.38
485.336	1006.38
485.554	967.38
485.772	998.38
485.99	1059.38
486.209	1105.38
486.427	1110.38
486.645	1099.38
486.863	1157.38
487.081	1126.38
487.299	1213.38
487.517	1140.38
487.735	1086.38
487.953	1130.38
488.171	1166.38
488.389	1097.38
488.607	1044.38
488.825	1063.38
489.043	1093.38
489.261	1217.38
489.479	1265.38
489.696	1171.38
489.914	1111.38
490.132	1043.38
490.35	1032.38
490.568	1059.38
490.786	1071.38
491.003	1085.38
491.221	1074.38
491.439	1076.38
491.657	1068.38
491.874	1102.38
492.092	1272.38
492.31	1414.38
492.527	1454.38
492.745	1337.38
492.963	1210.38
493.18	1187.38
493.398	1183.38
493.615	1180.38
493.833	1148.38
494.05	1138.38
494.268	1156.38
494.485	1159.38
494.703	1107.38
494.92	1131.38
495.138	1095.38
495.355	1106.38
495.573	1132.38
495.79	1173.38
496.008	1370.38
496.225	1282.38
496.442	1225.38
496.66	1230.38
496.877	1297.38
497.094	1267.38
497.312	1189.38
