Data from NickelSpatula.Lamp.E5.5.P2_HRD10591_11-51-22-561.txt Node
Date: Tue Jul 23 11:51:22 EDT 2019
User: cochatt
Spectrometer: HR+D1059
Trigger mode: 1
Integration Time (sec): 1.000000E-1
Scans to average: 1
Electric dark correction enabled: true
Nonlinearity correction enabled: false
Boxcar width: 0
XAxis mode: Wavelengths
Number of Pixels in Spectrum: 2048
>>>>>Begin Spectral Data<<<<<
223.165	-12.88
223.4	-12.88
223.635	-12.88
223.869	-14.88
224.104	-17.88
224.338	-14.88
224.573	-15.88
224.808	-0.88
225.042	-4.88
225.277	1.12
225.511	-6.88
225.746	5.12
225.98	7.12
226.215	5.12
226.449	7.12
226.683	10.12
226.918	37.12
227.152	16.12
227.387	38.12
227.621	30.12
227.856	33.12
228.09	53.12
228.324	40.12
228.559	52.12
228.793	48.12
229.027	56.12
229.262	80.12
229.496	78.12
229.73	89.12
229.964	87.12
230.199	85.12
230.433	105.12
230.667	84.12
230.901	91.12
231.136	85.12
231.37	93.12
231.604	118.12
231.838	96.12
232.072	104.12
232.306	88.12
232.541	82.12
232.775	112.12
233.009	113.12
233.243	107.12
233.477	115.12
233.711	120.12
233.945	97.12
234.179	108.12
234.413	119.12
234.647	129.12
234.881	152.12
235.115	153.12
235.349	123.12
235.583	130.12
235.817	119.12
236.051	118.12
236.285	116.12
236.519	139.12
236.753	141.12
236.987	134.12
237.221	126.12
237.455	128.12
237.689	118.12
237.922	149.12
238.156	129.12
238.39	129.12
238.624	174.12
238.858	156.12
239.091	151.12
239.325	118.12
239.559	131.12
239.793	149.12
240.027	185.12
240.26	168.12
240.494	152.12
240.728	161.12
240.961	172.12
241.195	178.12
241.429	165.12
241.662	181.12
241.896	151.12
242.13	141.12
242.363	133.12
242.597	146.12
242.83	146.12
243.064	165.12
243.298	147.12
243.531	149.12
243.765	177.12
243.998	165.12
244.232	161.12
244.465	163.12
244.699	163.12
244.932	164.12
245.166	170.12
245.399	154.12
245.633	164.12
245.866	162.12
246.099	169.12
246.333	176.12
246.566	179.12
246.8	174.12
247.033	185.12
247.266	164.12
247.5	165.12
247.733	185.12
247.966	180.12
248.2	164.12
248.433	188.12
248.666	190.12
248.899	184.12
249.133	202.12
249.366	207.12
249.599	218.12
249.832	198.12
250.066	198.12
250.299	182.12
250.532	194.12
250.765	213.12
250.998	168.12
251.231	170.12
251.465	182.12
251.698	196.12
251.931	188.12
252.164	199.12
252.397	221.12
252.63	233.12
252.863	251.12
253.096	279.12
253.329	270.12
253.562	253.12
253.795	278.12
254.028	290.12
254.261	297.12
254.494	268.12
254.727	251.12
254.96	240.12
255.193	233.12
255.426	253.12
255.659	204.12
255.892	195.12
256.124	206.12
256.357	242.12
256.59	257.12
256.823	250.12
257.056	229.12
257.289	200.12
257.521	222.12
257.754	253.12
257.987	283.12
258.22	260.12
258.452	215.12
258.685	260.12
258.918	291.12
259.151	265.12
259.383	288.12
259.616	312.12
259.849	356.12
260.081	341.12
260.314	401.12
260.547	316.12
260.779	302.12
261.012	372.12
261.244	344.12
261.477	334.12
261.71	321.12
261.942	270.12
262.175	276.12
262.407	271.12
262.64	274.12
262.872	325.12
263.105	342.12
263.337	359.12
263.57	330.12
263.802	233.12
264.035	214.12
264.267	208.12
264.499	201.12
264.732	180.12
264.964	157.12
265.197	193.12
265.429	199.12
265.661	201.12
265.894	219.12
266.126	208.12
266.358	214.12
266.591	291.12
266.823	337.12
267.055	319.12
267.287	273.12
267.52	277.12
267.752	287.12
267.984	333.12
268.216	308.12
268.448	265.12
268.681	239.12
268.913	273.12
269.145	274.12
269.377	272.12
269.609	288.12
269.841	285.12
270.073	286.12
270.306	300.12
270.538	288.12
270.77	307.12
271.002	315.12
271.234	312.12
271.466	318.12
271.698	304.12
271.93	292.12
272.162	295.12
272.394	266.12
272.626	288.12
272.858	313.12
273.09	308.12
273.322	257.12
273.553	244.12
273.785	278.12
274.017	382.12
274.249	462.12
274.481	471.12
274.713	515.12
274.945	577.12
275.176	602.12
275.408	541.12
275.64	510.12
275.872	496.12
276.104	416.12
276.335	376.12
276.567	391.12
276.799	403.12
277.031	415.12
277.262	341.12
277.494	280.12
277.726	252.12
277.957	264.12
278.189	313.12
278.421	300.12
278.652	294.12
278.884	285.12
279.115	266.12
279.347	250.12
279.579	275.12
279.81	261.12
280.042	269.12
280.273	282.12
280.505	253.12
280.736	231.12
280.968	242.12
281.199	254.12
281.431	282.12
281.662	277.12
281.894	252.12
282.125	277.12
282.356	295.12
282.588	294.12
282.819	271.12
283.051	296.12
283.282	356.12
283.513	389.12
283.745	432.12
283.976	425.12
284.207	410.12
284.439	410.12
284.67	417.12
284.901	358.12
285.132	404.12
285.364	382.12
285.595	369.12
285.826	378.12
286.057	409.12
286.288	367.12
286.52	386.12
286.751	419.12
286.982	409.12
287.213	361.12
287.444	342.12
287.675	365.12
287.906	371.12
288.138	333.12
288.369	308.12
288.6	295.12
288.831	302.12
289.062	341.12
289.293	365.12
289.524	338.12
289.755	322.12
289.986	349.12
290.217	317.12
290.448	273.12
290.679	231.12
290.91	214.12
291.141	214.12
291.371	218.12
291.602	219.12
291.833	238.12
292.064	245.12
292.295	257.12
292.526	311.12
292.757	312.12
292.987	322.12
293.218	336.12
293.449	352.12
293.68	395.12
293.91	364.12
294.141	370.12
294.372	331.12
294.603	319.12
294.833	340.12
295.064	388.12
295.295	386.12
295.525	312.12
295.756	256.12
295.987	240.12
296.217	230.12
296.448	225.12
296.679	238.12
296.909	265.12
297.14	281.12
297.37	317.12
297.601	307.12
297.831	279.12
298.062	296.12
298.292	299.12
298.523	332.12
298.753	366.12
298.984	335.12
299.214	280.12
299.445	247.12
299.675	228.12
299.905	228.12
300.136	234.12
300.366	247.12
300.597	250.12
300.827	218.12
301.057	233.12
301.288	230.12
301.518	264.12
301.748	272.12
301.979	294.12
302.209	320.12
302.439	337.12
302.669	260.12
302.9	273.12
303.13	252.12
303.36	257.12
303.59	247.12
303.82	257.12
304.051	260.12
304.281	272.12
304.511	282.12
304.741	261.12
304.971	274.12
305.201	267.12
305.431	268.12
305.661	244.12
305.891	240.12
306.121	249.12
306.352	231.12
306.582	221.12
306.812	198.12
307.042	216.12
307.272	185.12
307.502	199.12
307.731	182.12
307.961	205.12
308.191	206.12
308.421	203.12
308.651	195.12
308.881	192.12
309.111	199.12
309.341	213.12
309.571	215.12
309.8	233.12
310.03	200.12
310.26	229.12
310.49	224.12
310.72	228.12
310.949	194.12
311.179	191.12
311.409	217.12
311.639	233.12
311.868	285.12
312.098	352.12
312.328	386.12
312.557	372.12
312.787	391.12
313.017	360.12
313.246	353.12
313.476	387.12
313.706	340.12
313.935	282.12
314.165	244.12
314.394	226.12
314.624	222.12
314.853	232.12
315.083	234.12
315.312	221.12
315.542	224.12
315.771	222.12
316.001	214.12
316.23	213.12
316.46	200.12
316.689	212.12
316.919	213.12
317.148	206.12
317.377	202.12
317.607	193.12
317.836	197.12
318.065	241.12
318.295	273.12
318.524	244.12
318.753	220.12
318.983	216.12
319.212	207.12
319.441	217.12
319.67	248.12
319.9	257.12
320.129	246.12
320.358	215.12
320.587	221.12
320.816	228.12
321.046	256.12
321.275	254.12
321.504	268.12
321.733	252.12
321.962	257.12
322.191	217.12
322.42	232.12
322.649	237.12
322.878	267.12
323.108	263.12
323.337	237.12
323.566	245.12
323.795	238.12
324.024	223.12
324.253	224.12
324.482	224.12
324.71	230.12
324.939	239.12
325.168	229.12
325.397	238.12
325.626	239.12
325.855	208.12
326.084	218.12
326.313	188.12
326.542	202.12
326.77	206.12
326.999	214.12
327.228	201.12
327.457	214.12
327.686	221.12
327.914	212.12
328.143	195.12
328.372	196.12
328.6	180.12
328.829	211.12
329.058	212.12
329.287	203.12
329.515	205.12
329.744	214.12
329.972	189.12
330.201	201.12
330.43	195.12
330.658	204.12
330.887	240.12
331.115	240.12
331.344	212.12
331.572	211.12
331.801	205.12
332.03	202.12
332.258	208.12
332.486	232.12
332.715	238.12
332.943	232.12
333.172	228.12
333.4	230.12
333.629	255.12
333.857	256.12
334.085	248.12
334.314	249.12
334.542	238.12
334.771	234.12
334.999	224.12
335.227	238.12
335.455	221.12
335.684	227.12
335.912	253.12
336.14	300.12
336.369	275.12
336.597	245.12
336.825	295.12
337.053	310.12
337.281	274.12
337.51	231.12
337.738	217.12
337.966	263.12
338.194	254.12
338.422	250.12
338.65	245.12
338.878	201.12
339.106	213.12
339.334	233.12
339.562	226.12
339.79	220.12
340.018	228.12
340.246	226.12
340.474	241.12
340.702	252.12
340.93	265.12
341.158	285.12
341.386	246.12
341.614	239.12
341.842	237.12
342.07	232.12
342.298	273.12
342.526	280.12
342.754	261.12
342.981	242.12
343.209	219.12
343.437	236.12
343.665	262.12
343.893	269.12
344.12	288.12
344.348	340.12
344.576	332.12
344.804	272.12
345.031	226.12
345.259	210.12
345.487	246.12
345.714	235.12
345.942	246.12
346.17	265.12
346.397	259.12
346.625	247.12
346.853	225.12
347.08	224.12
347.308	226.12
347.535	264.12
347.763	263.12
347.99	235.12
348.218	216.12
348.445	226.12
348.673	258.12
348.9	229.12
349.128	238.12
349.355	226.12
349.583	223.12
349.81	217.12
350.037	224.12
350.265	193.12
350.492	180.12
350.72	188.12
350.947	206.12
351.174	206.12
351.402	202.12
351.629	226.12
351.856	231.12
352.083	220.12
352.311	235.12
352.538	227.12
352.765	254.12
352.992	233.12
353.22	237.12
353.447	233.12
353.674	224.12
353.901	218.12
354.128	220.12
354.355	214.12
354.583	222.12
354.81	231.12
355.037	242.12
355.264	224.12
355.491	232.12
355.718	244.12
355.945	235.12
356.172	243.12
356.399	228.12
356.626	266.12
356.853	323.12
357.08	332.12
357.307	353.12
357.534	294.12
357.761	300.12
357.988	355.12
358.215	410.12
358.441	364.12
358.668	328.12
358.895	304.12
359.122	288.12
359.349	265.12
359.576	307.12
359.802	253.12
360.029	217.12
360.256	239.12
360.483	281.12
360.709	332.12
360.936	340.12
361.163	304.12
361.39	248.12
361.616	241.12
361.843	252.12
362.07	288.12
362.296	268.12
362.523	216.12
362.749	210.12
362.976	234.12
363.203	261.12
363.429	292.12
363.656	233.12
363.882	238.12
364.109	219.12
364.335	214.12
364.562	209.12
364.788	240.12
365.015	278.12
365.241	246.12
365.468	212.12
365.694	205.12
365.92	202.12
366.147	192.12
366.373	197.12
366.599	205.12
366.826	206.12
367.052	196.12
367.278	191.12
367.505	193.12
367.731	218.12
367.957	227.12
368.184	231.12
368.41	233.12
368.636	231.12
368.862	234.12
369.089	228.12
369.315	205.12
369.541	217.12
369.767	205.12
369.993	192.12
370.219	216.12
370.445	214.12
370.672	237.12
370.898	244.12
371.124	232.12
371.35	231.12
371.576	213.12
371.802	227.12
372.028	261.12
372.254	301.12
372.48	248.12
372.706	242.12
372.932	261.12
373.158	273.12
373.384	278.12
373.61	351.12
373.835	351.12
374.061	322.12
374.287	248.12
374.513	294.12
374.739	342.12
374.965	343.12
375.191	352.12
375.416	290.12
375.642	255.12
375.868	274.12
376.094	298.12
376.319	274.12
376.545	265.12
376.771	291.12
376.997	257.12
377.222	217.12
377.448	202.12
377.674	191.12
377.899	205.12
378.125	199.12
378.35	180.12
378.576	196.12
378.802	196.12
379.027	215.12
379.253	212.12
379.478	204.12
379.704	255.12
379.929	234.12
380.155	254.12
380.38	216.12
380.606	216.12
380.831	236.12
381.057	240.12
381.282	228.12
381.507	265.12
381.733	298.12
381.958	311.12
382.184	340.12
382.409	357.12
382.634	341.12
382.86	341.12
383.085	309.12
383.31	270.12
383.535	273.12
383.761	291.12
383.986	258.12
384.211	311.12
384.436	300.12
384.662	233.12
384.887	240.12
385.112	235.12
385.337	256.12
385.562	236.12
385.787	257.12
386.013	276.12
386.238	296.12
386.463	256.12
386.688	224.12
386.913	232.12
387.138	220.12
387.363	240.12
387.588	232.12
387.813	226.12
388.038	275.12
388.263	231.12
388.488	229.12
388.713	255.12
388.938	279.12
389.163	238.12
389.387	213.12
389.612	233.12
389.837	225.12
390.062	231.12
390.287	226.12
390.512	237.12
390.736	217.12
390.961	240.12
391.186	212.12
391.411	202.12
391.636	217.12
391.86	236.12
392.085	258.12
392.31	252.12
392.534	228.12
392.759	225.12
392.984	240.12
393.208	243.12
393.433	222.12
393.658	199.12
393.882	222.12
394.107	238.12
394.331	216.12
394.556	200.12
394.78	196.12
395.005	224.12
395.229	224.12
395.454	217.12
395.678	204.12
395.903	238.12
396.127	220.12
396.352	218.12
396.576	230.12
396.801	246.12
397.025	257.12
397.249	245.12
397.474	225.12
397.698	226.12
397.922	247.12
398.147	222.12
398.371	240.12
398.595	239.12
398.82	236.12
399.044	240.12
399.268	281.12
399.492	276.12
399.717	281.12
399.941	300.12
400.165	266.12
400.389	263.12
400.613	260.12
400.837	236.12
401.062	233.12
401.286	232.12
401.51	239.12
401.734	225.12
401.958	232.12
402.182	231.12
402.406	215.12
402.63	236.12
402.854	254.12
403.078	314.12
403.302	364.12
403.526	364.12
403.75	320.12
403.974	295.12
404.198	291.12
404.422	302.12
404.645	354.12
404.869	349.12
405.093	286.12
405.317	258.12
405.541	255.12
405.765	245.12
405.988	272.12
406.212	281.12
406.436	286.12
406.66	318.12
406.883	260.12
407.107	291.12
407.331	332.12
407.555	318.12
407.778	270.12
408.002	282.12
408.226	284.12
408.449	256.12
408.673	270.12
408.896	232.12
409.12	260.12
409.344	242.12
409.567	249.12
409.791	260.12
410.014	243.12
410.238	242.12
410.461	252.12
410.685	252.12
410.908	254.12
411.132	242.12
411.355	231.12
411.578	254.12
411.802	238.12
412.025	235.12
412.249	253.12
412.472	227.12
412.695	252.12
412.919	246.12
413.142	237.12
413.365	248.12
413.589	251.12
413.812	250.12
414.035	233.12
414.258	221.12
414.482	252.12
414.705	264.12
414.928	239.12
415.151	238.12
415.374	229.12
415.597	234.12
415.821	239.12
416.044	242.12
416.267	213.12
416.49	213.12
416.713	231.12
416.936	226.12
417.159	230.12
417.382	227.12
417.605	236.12
417.828	241.12
418.051	228.12
418.274	227.12
418.497	255.12
418.72	243.12
418.943	249.12
419.166	258.12
419.389	264.12
419.611	257.12
419.834	274.12
420.057	274.12
420.28	246.12
420.503	238.12
420.726	222.12
420.948	219.12
421.171	231.12
421.394	230.12
421.617	259.12
421.839	214.12
422.062	237.12
422.285	256.12
422.507	238.12
422.73	249.12
422.953	238.12
423.175	248.12
423.398	272.12
423.621	252.12
423.843	264.12
424.066	258.12
424.288	240.12
424.511	240.12
424.733	248.12
424.956	247.12
425.178	272.12
425.401	314.12
425.623	342.12
425.846	303.12
426.068	257.12
426.291	255.12
426.513	236.12
426.735	231.12
426.958	258.12
427.18	272.12
427.402	341.12
427.625	378.12
427.847	328.12
428.069	258.12
428.292	249.12
428.514	249.12
428.736	235.12
428.958	242.12
429.181	317.12
429.403	246.12
429.625	246.12
429.847	234.12
430.069	218.12
430.292	251.12
430.514	231.12
430.736	243.12
430.958	273.12
431.18	253.12
431.402	238.12
431.624	242.12
431.846	226.12
432.068	212.12
432.29	221.12
432.512	215.12
432.734	271.12
432.956	281.12
433.178	237.12
433.4	215.12
433.622	223.12
433.844	228.12
434.066	252.12
434.287	242.12
434.509	225.12
434.731	240.12
434.953	229.12
435.175	244.12
435.397	263.12
435.618	238.12
435.84	214.12
436.062	230.12
436.284	224.12
436.505	212.12
436.727	224.12
436.949	214.12
437.17	238.12
437.392	225.12
437.614	233.12
437.835	225.12
438.057	226.12
438.278	226.12
438.5	307.12
438.721	309.12
438.943	232.12
439.165	210.12
439.386	218.12
439.608	212.12
439.829	200.12
440.05	217.12
440.272	212.12
440.493	241.12
440.715	277.12
440.936	254.12
441.158	249.12
441.379	224.12
441.6	233.12
441.822	264.12
442.043	229.12
442.264	243.12
442.486	238.12
442.707	224.12
442.928	222.12
443.149	221.12
443.371	237.12
443.592	226.12
443.813	245.12
444.034	245.12
444.255	242.12
444.476	257.12
444.698	246.12
444.919	267.12
445.14	336.12
445.361	293.12
445.582	263.12
445.803	238.12
446.024	250.12
446.245	262.12
446.466	243.12
446.687	251.12
446.908	228.12
447.129	246.12
447.35	206.12
447.571	212.12
447.792	244.12
448.013	208.12
448.234	188.12
448.455	213.12
448.675	217.12
448.896	212.12
449.117	222.12
449.338	202.12
449.559	218.12
449.779	234.12
450	210.12
450.221	211.12
450.442	215.12
450.662	218.12
450.883	214.12
451.104	229.12
451.324	219.12
451.545	221.12
451.766	232.12
451.986	200.12
452.207	209.12
452.428	211.12
452.648	228.12
452.869	217.12
453.089	229.12
453.31	223.12
453.53	233.12
453.751	202.12
453.971	200.12
454.192	216.12
454.412	212.12
454.633	205.12
454.853	210.12
455.073	202.12
455.294	200.12
455.514	191.12
455.734	205.12
455.955	224.12
456.175	211.12
456.395	202.12
456.616	191.12
456.836	187.12
457.056	198.12
457.276	197.12
457.497	210.12
457.717	192.12
457.937	199.12
458.157	210.12
458.377	200.12
458.598	207.12
458.818	196.12
459.038	218.12
459.258	224.12
459.478	225.12
459.698	241.12
459.918	219.12
460.138	213.12
460.358	234.12
460.578	252.12
460.798	238.12
461.018	229.12
461.238	216.12
461.458	255.12
461.678	242.12
461.898	263.12
462.118	248.12
462.338	269.12
462.558	257.12
462.777	292.12
462.997	281.12
463.217	285.12
463.437	290.12
463.657	296.12
463.876	254.12
464.096	270.12
464.316	282.12
464.536	276.12
464.755	283.12
464.975	266.12
465.195	272.12
465.414	269.12
465.634	246.12
465.854	250.12
466.073	240.12
466.293	229.12
466.512	238.12
466.732	256.12
466.951	237.12
467.171	224.12
467.391	232.12
467.61	226.12
467.829	212.12
468.049	220.12
468.268	221.12
468.488	230.12
468.707	238.12
468.927	260.12
469.146	263.12
469.365	250.12
469.585	257.12
469.804	247.12
470.023	254.12
470.243	260.12
470.462	237.12
470.681	252.12
470.901	233.12
471.12	241.12
471.339	249.12
471.558	229.12
471.777	228.12
471.997	261.12
472.216	267.12
472.435	270.12
472.654	246.12
472.873	240.12
473.092	264.12
473.311	269.12
473.53	233.12
473.749	234.12
473.968	246.12
474.187	249.12
474.406	230.12
474.625	213.12
474.844	233.12
475.063	269.12
475.282	262.12
475.501	257.12
475.72	281.12
475.939	274.12
476.158	273.12
476.377	300.12
476.596	339.12
476.814	348.12
477.033	306.12
477.252	272.12
477.471	246.12
477.69	255.12
477.908	278.12
478.127	272.12
478.346	274.12
478.564	296.12
478.783	287.12
479.002	273.12
479.22	302.12
479.439	345.12
479.658	301.12
479.876	264.12
480.095	294.12
480.313	314.12
480.532	286.12
480.751	274.12
480.969	267.12
481.188	306.12
481.406	323.12
481.624	308.12
481.843	280.12
482.061	246.12
482.28	286.12
482.498	344.12
482.717	316.12
482.935	280.12
483.153	254.12
483.372	233.12
483.59	253.12
483.808	254.12
484.027	259.12
484.245	263.12
484.463	231.12
484.681	249.12
484.9	258.12
485.118	265.12
485.336	260.12
485.554	254.12
485.772	270.12
485.99	285.12
486.209	283.12
486.427	294.12
486.645	280.12
486.863	292.12
487.081	281.12
487.299	294.12
487.517	320.12
487.735	283.12
487.953	290.12
488.171	301.12
488.389	288.12
488.607	254.12
488.825	265.12
489.043	290.12
489.261	316.12
489.479	324.12
489.696	302.12
489.914	290.12
490.132	257.12
490.35	258.12
490.568	261.12
490.786	258.12
491.003	263.12
491.221	263.12
491.439	293.12
491.657	272.12
491.874	284.12
492.092	326.12
492.31	349.12
492.527	345.12
492.745	334.12
492.963	311.12
493.18	291.12
493.398	285.12
493.615	292.12
493.833	286.12
494.05	304.12
494.268	288.12
494.485	271.12
494.703	289.12
494.92	284.12
495.138	272.12
495.355	292.12
495.573	292.12
495.79	316.12
496.008	376.12
496.225	321.12
496.442	313.12
496.66	308.12
496.877	295.12
497.094	295.12
497.312	301.12
497.529	303.12
497.746	302.12
497.963	298.12
498.181	320.12
498.398	358.12
498.615	358.12
498.832	395.12
499.049	378.12
499.267	387.12
499.484	401.12
499.701	418.12
499.918	462.12
500.135	510.12
500.352	560.12
500.569	566.12
500.786	570.12
501.003	558.12
501.22	496.12
501.437	437.12
501.654	412.12
501.871	391.12
502.088	373.12
502.305	356.12
502.522	378.12
