Data from NickelSpatula.Lamp.E5.5.P2_HRD10591_11-51-58-557.txt Node
Date: Tue Jul 23 11:51:58 EDT 2019
User: cochatt
Spectrometer: HR+D1059
Trigger mode: 1
Integration Time (sec): 1.000000E-1
Scans to average: 1
Electric dark correction enabled: true
Nonlinearity correction enabled: false
Boxcar width: 0
XAxis mode: Wavelengths
Number of Pixels in Spectrum: 2048
>>>>>Begin Spectral Data<<<<<
223.165	-18.31
223.4	-18.31
223.635	-18.31
223.869	-8.31
224.104	-20.31
224.338	-24.31
224.573	-13.31
224.808	-3.31
225.042	8.69
225.277	-0.31
225.511	-2.31
225.746	-5.31
225.98	17.69
226.215	-1.31
226.449	10.69
226.683	18.69
226.918	16.69
227.152	24.69
227.387	37.69
227.621	47.69
227.856	39.69
228.09	48.69
228.324	59.69
228.559	51.69
228.793	56.69
229.027	74.69
229.262	69.69
229.496	81.69
229.73	91.69
229.964	104.69
230.199	97.69
230.433	94.69
230.667	95.69
230.901	100.69
231.136	97.69
231.37	106.69
231.604	120.69
231.838	112.69
232.072	106.69
232.306	117.69
232.541	114.69
232.775	102.69
233.009	121.69
233.243	113.69
233.477	126.69
233.711	131.69
233.945	121.69
234.179	125.69
234.413	131.69
234.647	129.69
234.881	139.69
235.115	127.69
235.349	121.69
235.583	129.69
235.817	127.69
236.051	122.69
236.285	140.69
236.519	145.69
236.753	132.69
236.987	123.69
237.221	148.69
237.455	129.69
237.689	136.69
237.922	156.69
238.156	144.69
238.39	151.69
238.624	191.69
238.858	171.69
239.091	162.69
239.325	155.69
239.559	148.69
239.793	156.69
240.027	182.69
240.26	175.69
240.494	162.69
240.728	163.69
240.961	194.69
241.195	181.69
241.429	174.69
241.662	182.69
241.896	138.69
242.13	150.69
242.363	145.69
242.597	153.69
242.83	146.69
243.064	150.69
243.298	139.69
243.531	162.69
243.765	183.69
243.998	186.69
244.232	176.69
244.465	165.69
244.699	159.69
244.932	182.69
245.166	167.69
245.399	171.69
245.633	153.69
245.866	161.69
246.099	162.69
246.333	175.69
246.566	209.69
246.8	202.69
247.033	196.69
247.266	172.69
247.5	174.69
247.733	191.69
247.966	182.69
248.2	176.69
248.433	191.69
248.666	203.69
248.899	205.69
249.133	205.69
249.366	225.69
249.599	250.69
249.832	229.69
250.066	196.69
250.299	204.69
250.532	205.69
250.765	206.69
250.998	184.69
251.231	179.69
251.465	183.69
251.698	191.69
251.931	196.69
252.164	220.69
252.397	226.69
252.63	246.69
252.863	273.69
253.096	286.69
253.329	268.69
253.562	260.69
253.795	297.69
254.028	324.69
254.261	310.69
254.494	288.69
254.727	265.69
254.96	261.69
255.193	292.69
255.426	250.69
255.659	225.69
255.892	199.69
256.124	219.69
256.357	268.69
256.59	266.69
256.823	277.69
257.056	233.69
257.289	210.69
257.521	243.69
257.754	268.69
257.987	319.69
258.22	291.69
258.452	232.69
258.685	258.69
258.918	298.69
259.151	295.69
259.383	324.69
259.616	346.69
259.849	338.69
260.081	381.69
260.314	424.69
260.547	334.69
260.779	338.69
261.012	377.69
261.244	370.69
261.477	364.69
261.71	352.69
261.942	283.69
262.175	283.69
262.407	285.69
262.64	281.69
262.872	343.69
263.105	377.69
263.337	371.69
263.57	369.69
263.802	254.69
264.035	230.69
264.267	222.69
264.499	203.69
264.732	187.69
264.964	177.69
265.197	185.69
265.429	219.69
265.661	211.69
265.894	210.69
266.126	227.69
266.358	239.69
266.591	284.69
266.823	323.69
267.055	328.69
267.287	285.69
267.52	305.69
267.752	325.69
267.984	330.69
268.216	324.69
268.448	267.69
268.681	277.69
268.913	301.69
269.145	292.69
269.377	312.69
269.609	290.69
269.841	283.69
270.073	316.69
270.306	321.69
270.538	317.69
270.77	328.69
271.002	318.69
271.234	350.69
271.466	373.69
271.698	346.69
271.93	322.69
272.162	318.69
272.394	315.69
272.626	311.69
272.858	328.69
273.09	339.69
273.322	290.69
273.553	264.69
273.785	318.69
274.017	405.69
274.249	487.69
274.481	501.69
274.713	543.69
274.945	633.69
275.176	656.69
275.408	578.69
275.64	534.69
275.872	524.69
276.104	455.69
276.335	408.69
276.567	395.69
276.799	429.69
277.031	456.69
277.262	370.69
277.494	296.69
277.726	271.69
277.957	296.69
278.189	341.69
278.421	322.69
278.652	330.69
278.884	318.69
279.115	283.69
279.347	263.69
279.579	279.69
279.81	287.69
280.042	285.69
280.273	308.69
280.505	247.69
280.736	257.69
280.968	245.69
281.199	249.69
281.431	297.69
281.662	284.69
281.894	267.69
282.125	279.69
282.356	310.69
282.588	309.69
282.819	286.69
283.051	309.69
283.282	361.69
283.513	420.69
283.745	463.69
283.976	437.69
284.207	426.69
284.439	431.69
284.67	424.69
284.901	373.69
285.132	433.69
285.364	427.69
285.595	397.69
285.826	425.69
286.057	422.69
286.288	413.69
286.52	403.69
286.751	431.69
286.982	454.69
287.213	387.69
287.444	381.69
287.675	405.69
287.906	402.69
288.138	335.69
288.369	296.69
288.6	298.69
288.831	308.69
289.062	354.69
289.293	378.69
289.524	367.69
289.755	353.69
289.986	371.69
290.217	339.69
290.448	264.69
290.679	229.69
290.91	216.69
291.141	229.69
291.371	227.69
291.602	238.69
291.833	231.69
292.064	242.69
292.295	263.69
292.526	293.69
292.757	327.69
292.987	335.69
293.218	354.69
293.449	356.69
293.68	390.69
293.91	349.69
294.141	379.69
294.372	343.69
294.603	327.69
294.833	356.69
295.064	423.69
295.295	415.69
295.525	293.69
295.756	262.69
295.987	244.69
296.217	225.69
296.448	252.69
296.679	256.69
296.909	273.69
297.14	288.69
297.37	317.69
297.601	322.69
297.831	273.69
298.062	291.69
298.292	328.69
298.523	330.69
298.753	377.69
298.984	349.69
299.214	317.69
299.445	261.69
299.675	257.69
299.905	260.69
300.136	255.69
300.366	271.69
300.597	273.69
300.827	241.69
301.057	244.69
301.288	237.69
301.518	262.69
301.748	288.69
301.979	295.69
302.209	315.69
302.439	331.69
302.669	285.69
302.9	287.69
303.13	280.69
303.36	279.69
303.59	260.69
303.82	275.69
304.051	293.69
304.281	313.69
304.511	288.69
304.741	286.69
304.971	274.69
305.201	292.69
305.431	274.69
305.661	265.69
305.891	230.69
306.121	263.69
306.352	236.69
306.582	217.69
306.812	207.69
307.042	202.69
307.272	204.69
307.502	187.69
307.731	212.69
307.961	221.69
308.191	239.69
308.421	193.69
308.651	193.69
308.881	224.69
309.111	210.69
309.341	195.69
309.571	223.69
309.8	222.69
310.03	214.69
310.26	246.69
310.49	208.69
310.72	207.69
310.949	211.69
311.179	224.69
311.409	222.69
311.639	256.69
311.868	307.69
312.098	392.69
312.328	401.69
312.557	393.69
312.787	388.69
313.017	348.69
313.246	388.69
313.476	431.69
313.706	359.69
313.935	317.69
314.165	253.69
314.394	243.69
314.624	224.69
314.853	236.69
315.083	259.69
315.312	227.69
315.542	233.69
315.771	225.69
316.001	216.69
316.23	200.69
316.46	221.69
316.689	199.69
316.919	205.69
317.148	217.69
317.377	205.69
317.607	218.69
317.836	216.69
318.065	251.69
318.295	275.69
318.524	260.69
318.753	230.69
318.983	222.69
319.212	225.69
319.441	216.69
319.67	263.69
319.9	267.69
320.129	265.69
320.358	221.69
320.587	218.69
320.816	239.69
321.046	253.69
321.275	274.69
321.504	287.69
321.733	259.69
321.962	268.69
322.191	257.69
322.42	242.69
322.649	252.69
322.878	267.69
323.108	269.69
323.337	247.69
323.566	249.69
323.795	253.69
324.024	240.69
324.253	229.69
324.482	221.69
324.71	250.69
324.939	271.69
325.168	259.69
325.397	225.69
325.626	222.69
325.855	223.69
326.084	239.69
326.313	228.69
326.542	213.69
326.77	202.69
326.999	241.69
327.228	212.69
327.457	237.69
327.686	224.69
327.914	210.69
328.143	202.69
328.372	218.69
328.6	211.69
328.829	206.69
329.058	203.69
329.287	217.69
329.515	234.69
329.744	228.69
329.972	205.69
330.201	208.69
330.43	219.69
330.658	219.69
330.887	239.69
331.115	240.69
331.344	229.69
331.572	240.69
331.801	220.69
332.03	203.69
332.258	210.69
332.486	238.69
332.715	231.69
332.943	238.69
333.172	231.69
333.4	239.69
333.629	244.69
333.857	282.69
334.085	270.69
334.314	250.69
334.542	261.69
334.771	253.69
334.999	250.69
335.227	233.69
335.455	220.69
335.684	254.69
335.912	281.69
336.14	298.69
336.369	293.69
336.597	267.69
336.825	305.69
337.053	330.69
337.281	275.69
337.51	248.69
337.738	247.69
337.966	254.69
338.194	272.69
338.422	256.69
338.65	231.69
338.878	209.69
339.106	227.69
339.334	236.69
339.562	242.69
339.79	241.69
340.018	238.69
340.246	240.69
340.474	255.69
340.702	289.69
340.93	292.69
341.158	292.69
341.386	267.69
341.614	239.69
341.842	247.69
342.07	254.69
342.298	276.69
342.526	317.69
342.754	252.69
342.981	243.69
343.209	234.69
343.437	276.69
343.665	280.69
343.893	277.69
344.12	330.69
344.348	364.69
344.576	346.69
344.804	259.69
345.031	246.69
345.259	223.69
345.487	230.69
345.714	234.69
345.942	250.69
346.17	272.69
346.397	267.69
346.625	246.69
346.853	235.69
347.08	228.69
347.308	215.69
347.535	253.69
347.763	286.69
347.99	249.69
348.218	245.69
348.445	221.69
348.673	232.69
348.9	223.69
349.128	239.69
349.355	252.69
349.583	229.69
349.81	225.69
350.037	226.69
350.265	211.69
350.492	196.69
350.72	201.69
350.947	205.69
351.174	196.69
351.402	208.69
351.629	232.69
351.856	217.69
352.083	206.69
352.311	217.69
352.538	245.69
352.765	257.69
352.992	244.69
353.22	217.69
353.447	237.69
353.674	229.69
353.901	218.69
354.128	232.69
354.355	244.69
354.583	230.69
354.81	255.69
355.037	259.69
355.264	239.69
355.491	233.69
355.718	260.69
355.945	276.69
356.172	257.69
356.399	249.69
356.626	279.69
356.853	350.69
357.08	362.69
357.307	373.69
357.534	298.69
357.761	296.69
357.988	363.69
358.215	427.69
358.441	400.69
358.668	341.69
358.895	337.69
359.122	294.69
359.349	282.69
359.576	309.69
359.802	265.69
360.029	222.69
360.256	233.69
360.483	278.69
360.709	338.69
360.936	362.69
361.163	327.69
361.39	261.69
361.616	224.69
361.843	249.69
362.07	316.69
362.296	293.69
362.523	248.69
362.749	232.69
362.976	239.69
363.203	287.69
363.429	287.69
363.656	259.69
363.882	239.69
364.109	258.69
364.335	232.69
364.562	227.69
364.788	277.69
365.015	279.69
365.241	263.69
365.468	234.69
365.694	197.69
365.92	199.69
366.147	198.69
366.373	186.69
366.599	204.69
366.826	197.69
367.052	206.69
367.278	204.69
367.505	211.69
367.731	208.69
367.957	229.69
368.184	245.69
368.41	233.69
368.636	239.69
368.862	233.69
369.089	247.69
369.315	211.69
369.541	206.69
369.767	211.69
369.993	226.69
370.219	200.69
370.445	220.69
370.672	222.69
370.898	259.69
371.124	247.69
371.35	232.69
371.576	226.69
371.802	249.69
372.028	268.69
372.254	305.69
372.48	264.69
372.706	251.69
372.932	259.69
373.158	247.69
373.384	292.69
373.61	371.69
373.835	395.69
374.061	320.69
374.287	266.69
374.513	311.69
374.739	356.69
374.965	362.69
375.191	358.69
375.416	267.69
375.642	240.69
375.868	287.69
376.094	305.69
376.319	277.69
376.545	291.69
376.771	307.69
376.997	274.69
377.222	222.69
377.448	198.69
377.674	201.69
377.899	218.69
378.125	199.69
378.35	204.69
378.576	210.69
378.802	203.69
379.027	234.69
379.253	230.69
379.478	239.69
379.704	242.69
379.929	253.69
380.155	257.69
380.38	230.69
380.606	245.69
380.831	270.69
381.057	253.69
381.282	244.69
381.507	267.69
381.733	311.69
381.958	314.69
382.184	359.69
382.409	370.69
382.634	365.69
382.86	372.69
383.085	318.69
383.31	263.69
383.535	282.69
383.761	292.69
383.986	275.69
384.211	329.69
384.436	309.69
384.662	259.69
384.887	228.69
385.112	233.69
385.337	256.69
385.562	248.69
385.787	280.69
386.013	273.69
386.238	297.69
386.463	255.69
386.688	257.69
386.913	239.69
387.138	221.69
387.363	225.69
387.588	246.69
387.813	243.69
388.038	271.69
388.263	240.69
388.488	231.69
388.713	281.69
388.938	289.69
389.163	235.69
389.387	218.69
389.612	234.69
389.837	243.69
390.062	222.69
390.287	227.69
390.512	235.69
390.736	223.69
390.961	212.69
391.186	208.69
391.411	221.69
391.636	211.69
391.86	223.69
392.085	263.69
392.31	257.69
392.534	242.69
392.759	247.69
392.984	244.69
393.208	237.69
393.433	219.69
393.658	208.69
393.882	216.69
394.107	195.69
394.331	211.69
394.556	227.69
394.78	219.69
395.005	216.69
395.229	221.69
395.454	224.69
395.678	226.69
395.903	237.69
396.127	235.69
396.352	220.69
396.576	232.69
396.801	245.69
397.025	239.69
397.249	265.69
397.474	245.69
397.698	241.69
397.922	249.69
398.147	227.69
398.371	237.69
398.595	242.69
398.82	235.69
399.044	227.69
399.268	267.69
399.492	263.69
399.717	310.69
399.941	297.69
400.165	285.69
400.389	264.69
400.613	250.69
400.837	266.69
401.062	229.69
401.286	220.69
401.51	225.69
401.734	226.69
401.958	242.69
402.182	258.69
402.406	252.69
402.63	236.69
402.854	258.69
403.078	293.69
403.302	376.69
403.526	413.69
403.75	351.69
403.974	276.69
404.198	291.69
404.422	320.69
404.645	355.69
404.869	358.69
405.093	294.69
405.317	257.69
405.541	255.69
405.765	269.69
405.988	251.69
406.212	283.69
406.436	297.69
406.66	337.69
406.883	277.69
407.107	289.69
407.331	326.69
407.555	305.69
407.778	297.69
408.002	296.69
408.226	302.69
408.449	275.69
408.673	256.69
408.896	250.69
409.12	242.69
409.344	251.69
409.567	247.69
409.791	229.69
410.014	262.69
410.238	234.69
410.461	258.69
410.685	250.69
410.908	230.69
411.132	224.69
411.355	239.69
411.578	249.69
411.802	238.69
412.025	247.69
412.249	250.69
412.472	255.69
412.695	242.69
412.919	243.69
413.142	243.69
413.365	245.69
413.589	259.69
413.812	241.69
414.035	226.69
414.258	241.69
414.482	267.69
414.705	277.69
414.928	249.69
415.151	227.69
415.374	221.69
415.597	224.69
415.821	245.69
416.044	237.69
416.267	240.69
416.49	233.69
416.713	235.69
416.936	210.69
417.159	237.69
417.382	224.69
417.605	224.69
417.828	250.69
418.051	253.69
418.274	243.69
418.497	249.69
418.72	238.69
418.943	259.69
419.166	271.69
419.389	262.69
419.611	259.69
419.834	258.69
420.057	270.69
420.28	267.69
420.503	283.69
420.726	240.69
420.948	216.69
421.171	235.69
421.394	203.69
421.617	234.69
421.839	229.69
422.062	238.69
422.285	246.69
422.507	256.69
422.73	255.69
422.953	250.69
423.175	258.69
423.398	256.69
423.621	272.69
423.843	283.69
424.066	246.69
424.288	242.69
424.511	240.69
424.733	262.69
424.956	259.69
425.178	273.69
425.401	299.69
425.623	347.69
425.846	305.69
426.068	254.69
426.291	261.69
426.513	285.69
426.735	257.69
426.958	268.69
427.18	277.69
427.402	338.69
427.625	377.69
427.847	334.69
428.069	232.69
428.292	229.69
428.514	225.69
428.736	258.69
428.958	265.69
429.181	310.69
429.403	267.69
429.625	228.69
429.847	216.69
430.069	230.69
430.292	232.69
430.514	212.69
430.736	219.69
430.958	296.69
431.18	274.69
431.402	226.69
431.624	241.69
431.846	216.69
432.068	237.69
432.29	232.69
432.512	252.69
432.734	296.69
432.956	272.69
433.178	238.69
433.4	212.69
433.622	226.69
433.844	237.69
434.066	249.69
434.287	263.69
434.509	262.69
434.731	264.69
434.953	243.69
435.175	259.69
435.397	273.69
435.618	241.69
435.84	227.69
436.062	217.69
436.284	226.69
436.505	215.69
436.727	209.69
436.949	216.69
437.17	226.69
437.392	223.69
437.614	234.69
437.835	231.69
438.057	244.69
438.278	255.69
438.5	315.69
438.721	325.69
438.943	246.69
439.165	216.69
439.386	230.69
439.608	218.69
439.829	216.69
440.05	223.69
440.272	219.69
440.493	264.69
440.715	293.69
440.936	256.69
441.158	229.69
441.379	231.69
441.6	252.69
441.822	276.69
442.043	253.69
442.264	217.69
442.486	246.69
442.707	237.69
442.928	240.69
443.149	264.69
443.371	244.69
443.592	232.69
443.813	238.69
444.034	245.69
444.255	242.69
444.476	246.69
444.698	251.69
444.919	254.69
445.14	365.69
445.361	293.69
445.582	259.69
445.803	252.69
446.024	266.69
446.245	267.69
446.466	243.69
446.687	238.69
446.908	225.69
447.129	213.69
447.35	231.69
447.571	225.69
447.792	205.69
448.013	218.69
448.234	210.69
448.455	223.69
448.675	198.69
448.896	208.69
449.117	197.69
449.338	211.69
449.559	203.69
449.779	226.69
450	241.69
450.221	225.69
450.442	231.69
450.662	208.69
450.883	212.69
451.104	219.69
451.324	217.69
451.545	215.69
451.766	230.69
451.986	226.69
452.207	209.69
452.428	210.69
452.648	206.69
452.869	248.69
453.089	224.69
453.31	227.69
453.53	235.69
453.751	214.69
453.971	215.69
454.192	220.69
454.412	214.69
454.633	202.69
454.853	214.69
455.073	216.69
455.294	202.69
455.514	199.69
455.734	211.69
455.955	213.69
456.175	206.69
456.395	199.69
456.616	202.69
456.836	193.69
457.056	198.69
457.276	201.69
457.497	209.69
457.717	191.69
457.937	209.69
458.157	207.69
458.377	207.69
458.598	208.69
458.818	224.69
459.038	218.69
459.258	251.69
459.478	246.69
459.698	249.69
459.918	246.69
460.138	258.69
460.358	260.69
460.578	258.69
460.798	242.69
461.018	238.69
461.238	248.69
461.458	246.69
461.678	245.69
461.898	256.69
462.118	253.69
462.338	239.69
462.558	263.69
462.777	271.69
462.997	285.69
463.217	286.69
463.437	296.69
463.657	292.69
463.876	280.69
464.096	265.69
464.316	266.69
464.536	247.69
464.755	285.69
464.975	266.69
465.195	260.69
465.414	278.69
465.634	234.69
465.854	244.69
466.073	234.69
466.293	226.69
466.512	234.69
466.732	263.69
466.951	265.69
467.171	232.69
467.391	226.69
467.61	214.69
467.829	235.69
468.049	242.69
468.268	221.69
468.488	229.69
468.707	234.69
468.927	283.69
469.146	285.69
469.365	264.69
469.585	242.69
469.804	253.69
470.023	266.69
470.243	252.69
470.462	223.69
470.681	241.69
470.901	235.69
471.12	267.69
471.339	258.69
471.558	257.69
471.777	250.69
471.997	260.69
472.216	297.69
472.435	269.69
472.654	243.69
472.873	226.69
473.092	255.69
473.311	285.69
473.53	238.69
473.749	244.69
473.968	259.69
474.187	232.69
474.406	237.69
474.625	243.69
474.844	241.69
475.063	251.69
475.282	259.69
475.501	287.69
475.72	281.69
475.939	269.69
476.158	261.69
476.377	290.69
476.596	348.69
476.814	350.69
477.033	323.69
477.252	265.69
477.471	247.69
477.69	258.69
477.908	269.69
478.127	289.69
478.346	283.69
478.564	301.69
478.783	273.69
479.002	280.69
479.22	302.69
479.439	357.69
479.658	287.69
479.876	273.69
480.095	287.69
480.313	310.69
480.532	285.69
480.751	270.69
480.969	281.69
481.188	298.69
481.406	326.69
481.624	308.69
481.843	271.69
482.061	259.69
482.28	296.69
482.498	346.69
482.717	318.69
482.935	278.69
483.153	263.69
483.372	271.69
483.59	264.69
483.808	259.69
484.027	267.69
484.245	242.69
484.463	253.69
484.681	230.69
484.9	265.69
485.118	307.69
485.336	261.69
485.554	270.69
485.772	279.69
485.99	289.69
486.209	302.69
486.427	301.69
486.645	292.69
486.863	290.69
487.081	295.69
487.299	333.69
487.517	329.69
487.735	287.69
487.953	285.69
488.171	313.69
488.389	268.69
488.607	256.69
488.825	273.69
489.043	305.69
489.261	327.69
489.479	342.69
489.696	292.69
489.914	291.69
490.132	269.69
490.35	258.69
490.568	263.69
490.786	280.69
491.003	278.69
491.221	274.69
491.439	262.69
491.657	298.69
491.874	283.69
492.092	319.69
492.31	369.69
492.527	375.69
492.745	321.69
492.963	301.69
493.18	298.69
493.398	309.69
493.615	305.69
493.833	294.69
494.05	277.69
494.268	304.69
494.485	299.69
494.703	278.69
494.92	298.69
495.138	289.69
495.355	280.69
495.573	290.69
495.79	313.69
496.008	384.69
496.225	328.69
496.442	303.69
496.66	318.69
496.877	334.69
497.094	325.69
497.312	291.69
497.529	297.69
497.746	305.69
497.963	303.69
498.181	323.69
498.398	359.69
498.615	381.69
498.832	392.69
499.049	401.69
499.267	387.69
499.484	380.69
499.701	406.69
499.918	445.69
500.135	494.69
500.352	544.69
500.569	562.69
500.786	575.69
501.003	543.69
501.22	473.69
501.437	439.69
501.654	407.69
501.871	391.69
502.088	377.69
502.305	365.69
502.522	362.69
