Data from NickelSpatula.Lamp.E5.5.P2_HRD10591_11-53-01-551.txt Node
Date: Tue Jul 23 11:53:01 EDT 2019
User: cochatt
Spectrometer: HR+D1059
Trigger mode: 1
Integration Time (sec): 1.000000E-1
Scans to average: 1
Electric dark correction enabled: true
Nonlinearity correction enabled: false
Boxcar width: 0
XAxis mode: Wavelengths
Number of Pixels in Spectrum: 2048
>>>>>Begin Spectral Data<<<<<
223.165	-18.12
223.4	-18.12
223.635	-18.12
223.869	-18.12
224.104	-17.12
224.338	-15.12
224.573	-12.12
224.808	-17.12
225.042	1.88
225.277	0.88
225.511	-4.12
225.746	-5.12
225.98	-0.12
226.215	8.88
226.449	-0.12
226.683	22.88
226.918	33.88
227.152	38.88
227.387	32.88
227.621	33.88
227.856	51.88
228.09	34.88
228.324	48.88
228.559	50.88
228.793	58.88
229.027	86.88
229.262	79.88
229.496	87.88
229.73	79.88
229.964	79.88
230.199	110.88
230.433	107.88
230.667	87.88
230.901	107.88
231.136	86.88
231.37	93.88
231.604	96.88
231.838	87.88
232.072	126.88
232.306	111.88
232.541	107.88
232.775	109.88
233.009	111.88
233.243	110.88
233.477	98.88
233.711	139.88
233.945	109.88
234.179	109.88
234.413	124.88
234.647	128.88
234.881	157.88
235.115	127.88
235.349	121.88
235.583	136.88
235.817	120.88
236.051	98.88
236.285	139.88
236.519	143.88
236.753	140.88
236.987	135.88
237.221	146.88
237.455	135.88
237.689	124.88
237.922	138.88
238.156	132.88
238.39	131.88
238.624	178.88
238.858	160.88
239.091	145.88
239.325	146.88
239.559	137.88
239.793	141.88
240.027	166.88
240.26	162.88
240.494	160.88
240.728	136.88
240.961	179.88
241.195	167.88
241.429	175.88
241.662	179.88
241.896	138.88
242.13	130.88
242.363	143.88
242.597	132.88
242.83	149.88
243.064	169.88
243.298	154.88
243.531	159.88
243.765	164.88
243.998	153.88
244.232	153.88
244.465	136.88
244.699	165.88
244.932	176.88
245.166	179.88
245.399	151.88
245.633	147.88
245.866	142.88
246.099	169.88
246.333	191.88
246.566	183.88
246.8	170.88
247.033	203.88
247.266	180.88
247.5	160.88
247.733	178.88
247.966	169.88
248.2	181.88
248.433	201.88
248.666	196.88
248.899	200.88
249.133	191.88
249.366	223.88
249.599	242.88
249.832	223.88
250.066	215.88
250.299	193.88
250.532	202.88
250.765	188.88
250.998	192.88
251.231	182.88
251.465	198.88
251.698	198.88
251.931	198.88
252.164	195.88
252.397	226.88
252.63	233.88
252.863	264.88
253.096	247.88
253.329	260.88
253.562	240.88
253.795	267.88
254.028	299.88
254.261	313.88
254.494	271.88
254.727	269.88
254.96	241.88
255.193	253.88
255.426	245.88
255.659	198.88
255.892	205.88
256.124	205.88
256.357	235.88
256.59	264.88
256.823	246.88
257.056	221.88
257.289	217.88
257.521	225.88
257.754	263.88
257.987	311.88
258.22	265.88
258.452	238.88
258.685	243.88
258.918	270.88
259.151	258.88
259.383	306.88
259.616	339.88
259.849	362.88
260.081	345.88
260.314	390.88
260.547	331.88
260.779	344.88
261.012	373.88
261.244	352.88
261.477	353.88
261.71	344.88
261.942	281.88
262.175	289.88
262.407	281.88
262.64	272.88
262.872	300.88
263.105	340.88
263.337	343.88
263.57	339.88
263.802	246.88
264.035	236.88
264.267	209.88
264.499	206.88
264.732	181.88
264.964	176.88
265.197	171.88
265.429	194.88
265.661	201.88
265.894	200.88
266.126	229.88
266.358	226.88
266.591	291.88
266.823	338.88
267.055	305.88
267.287	286.88
267.52	296.88
267.752	297.88
267.984	320.88
268.216	312.88
268.448	269.88
268.681	263.88
268.913	276.88
269.145	285.88
269.377	309.88
269.609	283.88
269.841	283.88
270.073	300.88
270.306	309.88
270.538	325.88
270.77	324.88
271.002	321.88
271.234	329.88
271.466	352.88
271.698	311.88
271.93	299.88
272.162	286.88
272.394	299.88
272.626	281.88
272.858	299.88
273.09	307.88
273.322	281.88
273.553	250.88
273.785	295.88
274.017	374.88
274.249	464.88
274.481	507.88
274.713	520.88
274.945	612.88
275.176	626.88
275.408	557.88
275.64	527.88
275.872	524.88
276.104	441.88
276.335	416.88
276.567	405.88
276.799	416.88
277.031	417.88
277.262	342.88
277.494	266.88
277.726	260.88
277.957	281.88
278.189	310.88
278.421	307.88
278.652	315.88
278.884	280.88
279.115	278.88
279.347	260.88
279.579	280.88
279.81	281.88
280.042	275.88
280.273	275.88
280.505	273.88
280.736	229.88
280.968	226.88
281.199	229.88
281.431	277.88
281.662	286.88
281.894	271.88
282.125	267.88
282.356	281.88
282.588	300.88
282.819	276.88
283.051	285.88
283.282	363.88
283.513	394.88
283.745	453.88
283.976	451.88
284.207	406.88
284.439	408.88
284.67	402.88
284.901	372.88
285.132	383.88
285.364	414.88
285.595	407.88
285.826	404.88
286.057	406.88
286.288	406.88
286.52	409.88
286.751	433.88
286.982	432.88
287.213	375.88
287.444	360.88
287.675	389.88
287.906	399.88
288.138	334.88
288.369	286.88
288.6	279.88
288.831	291.88
289.062	322.88
289.293	359.88
289.524	341.88
289.755	346.88
289.986	363.88
290.217	336.88
290.448	262.88
290.679	238.88
290.91	236.88
291.141	217.88
291.371	226.88
291.602	225.88
291.833	223.88
292.064	241.88
292.295	255.88
292.526	291.88
292.757	317.88
292.987	324.88
293.218	343.88
293.449	368.88
293.68	379.88
293.91	342.88
294.141	369.88
294.372	343.88
294.603	325.88
294.833	336.88
295.064	403.88
295.295	399.88
295.525	290.88
295.756	263.88
295.987	236.88
296.217	230.88
296.448	228.88
296.679	235.88
296.909	239.88
297.14	270.88
297.37	294.88
297.601	305.88
297.831	261.88
298.062	280.88
298.292	292.88
298.523	322.88
298.753	368.88
298.984	336.88
299.214	263.88
299.445	241.88
299.675	232.88
299.905	218.88
300.136	243.88
300.366	253.88
300.597	261.88
300.827	251.88
301.057	231.88
301.288	239.88
301.518	235.88
301.748	275.88
301.979	296.88
302.209	331.88
302.439	309.88
302.669	279.88
302.9	284.88
303.13	288.88
303.36	254.88
303.59	239.88
303.82	252.88
304.051	282.88
304.281	302.88
304.511	306.88
304.741	257.88
304.971	264.88
305.201	272.88
305.431	304.88
305.661	251.88
305.891	226.88
306.121	249.88
306.352	235.88
306.582	192.88
306.812	206.88
307.042	195.88
307.272	203.88
307.502	181.88
307.731	192.88
307.961	212.88
308.191	213.88
308.421	187.88
308.651	194.88
308.881	202.88
309.111	194.88
309.341	203.88
309.571	200.88
309.8	206.88
310.03	198.88
310.26	204.88
310.49	224.88
310.72	209.88
310.949	198.88
311.179	208.88
311.409	212.88
311.639	238.88
311.868	281.88
312.098	363.88
312.328	393.88
312.557	372.88
312.787	384.88
313.017	341.88
313.246	371.88
313.476	405.88
313.706	341.88
313.935	265.88
314.165	231.88
314.394	218.88
314.624	235.88
314.853	239.88
315.083	242.88
315.312	221.88
315.542	228.88
315.771	219.88
316.001	200.88
316.23	199.88
316.46	193.88
316.689	200.88
316.919	195.88
317.148	200.88
317.377	192.88
317.607	213.88
317.836	215.88
318.065	227.88
318.295	259.88
318.524	247.88
318.753	231.88
318.983	203.88
319.212	200.88
319.441	219.88
319.67	237.88
319.9	239.88
320.129	235.88
320.358	217.88
320.587	209.88
320.816	220.88
321.046	246.88
321.275	263.88
321.504	263.88
321.733	256.88
321.962	251.88
322.191	225.88
322.42	244.88
322.649	235.88
322.878	262.88
323.108	269.88
323.337	237.88
323.566	232.88
323.795	215.88
324.024	229.88
324.253	227.88
324.482	227.88
324.71	227.88
324.939	259.88
325.168	249.88
325.397	217.88
325.626	221.88
325.855	206.88
326.084	199.88
326.313	208.88
326.542	187.88
326.77	214.88
326.999	209.88
327.228	219.88
327.457	227.88
327.686	231.88
327.914	209.88
328.143	202.88
328.372	195.88
328.6	185.88
328.829	197.88
329.058	186.88
329.287	222.88
329.515	208.88
329.744	212.88
329.972	189.88
330.201	187.88
330.43	199.88
330.658	218.88
330.887	240.88
331.115	218.88
331.344	207.88
331.572	227.88
331.801	212.88
332.03	213.88
332.258	217.88
332.486	210.88
332.715	232.88
332.943	224.88
333.172	204.88
333.4	223.88
333.629	251.88
333.857	270.88
334.085	263.88
334.314	243.88
334.542	240.88
334.771	223.88
334.999	224.88
335.227	214.88
335.455	206.88
335.684	251.88
335.912	257.88
336.14	296.88
336.369	274.88
336.597	275.88
336.825	293.88
337.053	325.88
337.281	262.88
337.51	246.88
337.738	229.88
337.966	232.88
338.194	247.88
338.422	233.88
338.65	209.88
338.878	220.88
339.106	218.88
339.334	227.88
339.562	231.88
339.79	219.88
340.018	213.88
340.246	237.88
340.474	261.88
340.702	278.88
340.93	265.88
341.158	266.88
341.386	240.88
341.614	230.88
341.842	234.88
342.07	221.88
342.298	273.88
342.526	302.88
342.754	251.88
342.981	231.88
343.209	247.88
343.437	235.88
343.665	261.88
343.893	283.88
344.12	308.88
344.348	339.88
344.576	308.88
344.804	259.88
345.031	231.88
345.259	227.88
345.487	225.88
345.714	216.88
345.942	263.88
346.17	251.88
346.397	248.88
346.625	236.88
346.853	204.88
347.08	223.88
347.308	229.88
347.535	256.88
347.763	257.88
347.99	226.88
348.218	224.88
348.445	238.88
348.673	231.88
348.9	231.88
349.128	242.88
349.355	251.88
349.583	241.88
349.81	229.88
350.037	218.88
350.265	194.88
350.492	183.88
350.72	184.88
350.947	187.88
351.174	206.88
351.402	201.88
351.629	240.88
351.856	193.88
352.083	214.88
352.311	230.88
352.538	233.88
352.765	243.88
352.992	238.88
353.22	206.88
353.447	232.88
353.674	220.88
353.901	207.88
354.128	193.88
354.355	225.88
354.583	230.88
354.81	228.88
355.037	220.88
355.264	237.88
355.491	221.88
355.718	230.88
355.945	237.88
356.172	231.88
356.399	249.88
356.626	269.88
356.853	326.88
357.08	342.88
357.307	348.88
357.534	302.88
357.761	283.88
357.988	345.88
358.215	381.88
358.441	373.88
358.668	329.88
358.895	298.88
359.122	265.88
359.349	292.88
359.576	311.88
359.802	259.88
360.029	223.88
360.256	222.88
360.483	278.88
360.709	322.88
360.936	333.88
361.163	292.88
361.39	252.88
361.616	223.88
361.843	263.88
362.07	307.88
362.296	270.88
362.523	230.88
362.749	211.88
362.976	227.88
363.203	265.88
363.429	280.88
363.656	251.88
363.882	227.88
364.109	221.88
364.335	203.88
364.562	224.88
364.788	246.88
365.015	269.88
365.241	244.88
365.468	202.88
365.694	202.88
365.92	206.88
366.147	196.88
366.373	195.88
366.599	195.88
366.826	205.88
367.052	198.88
367.278	189.88
367.505	198.88
367.731	211.88
367.957	225.88
368.184	238.88
368.41	211.88
368.636	222.88
368.862	211.88
369.089	215.88
369.315	206.88
369.541	209.88
369.767	203.88
369.993	197.88
370.219	200.88
370.445	213.88
370.672	229.88
370.898	240.88
371.124	259.88
371.35	217.88
371.576	213.88
371.802	211.88
372.028	260.88
372.254	285.88
372.48	267.88
372.706	227.88
372.932	225.88
373.158	246.88
373.384	282.88
373.61	347.88
373.835	368.88
374.061	283.88
374.287	249.88
374.513	296.88
374.739	327.88
374.965	332.88
375.191	352.88
375.416	264.88
375.642	235.88
375.868	271.88
376.094	294.88
376.319	273.88
376.545	271.88
376.771	277.88
376.997	247.88
377.222	200.88
377.448	198.88
377.674	183.88
377.899	193.88
378.125	196.88
378.35	183.88
378.576	180.88
378.802	211.88
379.027	219.88
379.253	219.88
379.478	213.88
379.704	235.88
379.929	235.88
380.155	235.88
380.38	213.88
380.606	211.88
380.831	258.88
381.057	238.88
381.282	229.88
381.507	251.88
381.733	302.88
381.958	310.88
382.184	358.88
382.409	338.88
382.634	337.88
382.86	352.88
383.085	300.88
383.31	269.88
383.535	270.88
383.761	277.88
383.986	265.88
384.211	296.88
384.436	293.88
384.662	254.88
384.887	228.88
385.112	237.88
385.337	248.88
385.562	249.88
385.787	260.88
386.013	275.88
386.238	289.88
386.463	248.88
386.688	244.88
386.913	226.88
387.138	194.88
387.363	217.88
387.588	248.88
387.813	230.88
388.038	235.88
388.263	237.88
388.488	239.88
388.713	251.88
388.938	269.88
389.163	225.88
389.387	240.88
389.612	216.88
389.837	244.88
390.062	241.88
390.287	242.88
390.512	230.88
390.736	222.88
390.961	205.88
391.186	214.88
391.411	216.88
391.636	214.88
391.86	237.88
392.085	250.88
392.31	242.88
392.534	225.88
392.759	231.88
392.984	208.88
393.208	240.88
393.433	204.88
393.658	207.88
393.882	194.88
394.107	199.88
394.331	189.88
394.556	210.88
394.78	224.88
395.005	215.88
395.229	214.88
395.454	219.88
395.678	196.88
395.903	215.88
396.127	219.88
396.352	221.88
396.576	217.88
396.801	231.88
397.025	238.88
397.249	271.88
397.474	252.88
397.698	222.88
397.922	227.88
398.147	205.88
398.371	216.88
398.595	232.88
398.82	237.88
399.044	227.88
399.268	243.88
399.492	254.88
399.717	280.88
399.941	289.88
400.165	271.88
400.389	255.88
400.613	226.88
400.837	244.88
401.062	220.88
401.286	207.88
401.51	215.88
401.734	231.88
401.958	231.88
402.182	228.88
402.406	223.88
402.63	223.88
402.854	232.88
403.078	303.88
403.302	327.88
403.526	387.88
403.75	329.88
403.974	267.88
404.198	263.88
404.422	292.88
404.645	311.88
404.869	340.88
405.093	304.88
405.317	267.88
405.541	253.88
405.765	263.88
405.988	255.88
406.212	254.88
406.436	275.88
406.66	307.88
406.883	269.88
407.107	264.88
407.331	308.88
407.555	299.88
407.778	280.88
408.002	281.88
408.226	271.88
408.449	257.88
408.673	264.88
408.896	238.88
409.12	256.88
409.344	237.88
409.567	239.88
409.791	238.88
410.014	243.88
410.238	225.88
410.461	221.88
410.685	242.88
410.908	237.88
411.132	243.88
411.355	224.88
411.578	244.88
411.802	239.88
412.025	226.88
412.249	243.88
412.472	231.88
412.695	215.88
412.919	228.88
413.142	231.88
413.365	247.88
413.589	258.88
413.812	217.88
414.035	231.88
414.258	244.88
414.482	245.88
414.705	260.88
414.928	216.88
415.151	234.88
415.374	212.88
415.597	221.88
415.821	227.88
416.044	233.88
416.267	232.88
416.49	212.88
416.713	212.88
416.936	221.88
417.159	209.88
417.382	225.88
417.605	237.88
417.828	220.88
418.051	227.88
418.274	253.88
418.497	228.88
418.72	248.88
418.943	239.88
419.166	233.88
419.389	275.88
419.611	248.88
419.834	252.88
420.057	254.88
420.28	239.88
420.503	253.88
420.726	221.88
420.948	237.88
421.171	227.88
421.394	225.88
421.617	219.88
421.839	227.88
422.062	241.88
422.285	221.88
422.507	218.88
422.73	249.88
422.953	250.88
423.175	233.88
423.398	240.88
423.621	245.88
423.843	242.88
424.066	243.88
424.288	238.88
424.511	249.88
424.733	230.88
424.956	246.88
425.178	263.88
425.401	301.88
425.623	355.88
425.846	311.88
426.068	262.88
426.291	239.88
426.513	247.88
426.735	222.88
426.958	240.88
427.18	259.88
427.402	325.88
427.625	368.88
427.847	307.88
428.069	215.88
428.292	227.88
428.514	210.88
428.736	235.88
428.958	255.88
429.181	309.88
429.403	247.88
429.625	216.88
429.847	224.88
430.069	229.88
430.292	226.88
430.514	212.88
430.736	227.88
430.958	267.88
431.18	253.88
431.402	221.88
431.624	213.88
431.846	196.88
432.068	196.88
432.29	210.88
432.512	231.88
432.734	266.88
432.956	263.88
433.178	216.88
433.4	216.88
433.622	209.88
433.844	249.88
434.066	229.88
434.287	219.88
434.509	228.88
434.731	224.88
434.953	232.88
435.175	242.88
435.397	274.88
435.618	242.88
435.84	217.88
436.062	212.88
436.284	208.88
436.505	207.88
436.727	203.88
436.949	215.88
437.17	220.88
437.392	211.88
437.614	218.88
437.835	222.88
438.057	209.88
438.278	225.88
438.5	300.88
438.721	313.88
438.943	238.88
439.165	213.88
439.386	213.88
439.608	214.88
439.829	194.88
440.05	187.88
440.272	222.88
440.493	238.88
440.715	274.88
440.936	256.88
441.158	226.88
441.379	231.88
441.6	254.88
441.822	243.88
442.043	225.88
442.264	224.88
442.486	219.88
442.707	239.88
442.928	223.88
443.149	220.88
443.371	226.88
443.592	237.88
443.813	231.88
444.034	210.88
444.255	240.88
444.476	241.88
444.698	237.88
444.919	252.88
445.14	354.88
445.361	292.88
445.582	245.88
445.803	252.88
446.024	237.88
446.245	246.88
446.466	247.88
446.687	226.88
446.908	237.88
447.129	219.88
447.35	192.88
447.571	187.88
447.792	200.88
448.013	196.88
448.234	215.88
448.455	210.88
448.675	215.88
448.896	199.88
449.117	217.88
449.338	197.88
449.559	216.88
449.779	211.88
450	219.88
450.221	240.88
450.442	212.88
450.662	200.88
450.883	228.88
451.104	211.88
451.324	211.88
451.545	208.88
451.766	208.88
451.986	198.88
452.207	198.88
452.428	199.88
452.648	200.88
452.869	219.88
453.089	207.88
453.31	203.88
453.53	209.88
453.751	214.88
453.971	192.88
454.192	207.88
454.412	206.88
454.633	200.88
454.853	213.88
455.073	195.88
455.294	184.88
455.514	195.88
455.734	200.88
455.955	199.88
456.175	203.88
456.395	187.88
456.616	203.88
456.836	189.88
457.056	205.88
457.276	178.88
457.497	196.88
457.717	197.88
457.937	179.88
458.157	199.88
458.377	183.88
458.598	189.88
458.818	196.88
459.038	221.88
459.258	222.88
459.478	220.88
459.698	220.88
459.918	238.88
460.138	222.88
460.358	243.88
460.578	232.88
460.798	225.88
461.018	240.88
461.238	218.88
461.458	197.88
461.678	223.88
461.898	232.88
462.118	233.88
462.338	248.88
462.558	247.88
462.777	242.88
462.997	271.88
463.217	284.88
463.437	306.88
463.657	271.88
463.876	260.88
464.096	261.88
464.316	258.88
464.536	263.88
464.755	284.88
464.975	255.88
465.195	252.88
465.414	251.88
465.634	239.88
465.854	240.88
466.073	223.88
466.293	212.88
466.512	216.88
466.732	229.88
466.951	246.88
467.171	230.88
467.391	214.88
467.61	217.88
467.829	229.88
468.049	221.88
468.268	219.88
468.488	217.88
468.707	217.88
468.927	248.88
469.146	270.88
469.365	235.88
469.585	233.88
469.804	265.88
470.023	269.88
470.243	231.88
470.462	242.88
470.681	227.88
470.901	238.88
471.12	251.88
471.339	244.88
471.558	222.88
471.777	245.88
471.997	220.88
472.216	267.88
472.435	266.88
472.654	225.88
472.873	251.88
473.092	235.88
473.311	256.88
473.53	225.88
473.749	217.88
473.968	247.88
474.187	238.88
474.406	237.88
474.625	232.88
474.844	233.88
475.063	248.88
475.282	229.88
475.501	249.88
475.72	275.88
475.939	248.88
476.158	251.88
476.377	309.88
476.596	321.88
476.814	346.88
477.033	307.88
477.252	239.88
477.471	238.88
477.69	227.88
477.908	253.88
478.127	279.88
478.346	269.88
478.564	293.88
478.783	267.88
479.002	259.88
479.22	272.88
479.439	327.88
479.658	279.88
479.876	275.88
480.095	288.88
480.313	285.88
480.532	277.88
480.751	266.88
480.969	274.88
481.188	291.88
481.406	284.88
481.624	303.88
481.843	257.88
482.061	245.88
482.28	298.88
482.498	320.88
482.717	325.88
482.935	290.88
483.153	264.88
483.372	251.88
483.59	258.88
483.808	265.88
484.027	264.88
484.245	243.88
484.463	243.88
484.681	237.88
484.9	255.88
485.118	279.88
485.336	264.88
485.554	246.88
485.772	285.88
485.99	288.88
486.209	299.88
486.427	301.88
486.645	275.88
486.863	279.88
487.081	286.88
487.299	296.88
487.517	291.88
487.735	272.88
487.953	286.88
488.171	290.88
488.389	273.88
488.607	262.88
488.825	264.88
489.043	282.88
489.261	287.88
489.479	341.88
489.696	300.88
489.914	280.88
490.132	264.88
490.35	282.88
490.568	262.88
490.786	277.88
491.003	267.88
491.221	270.88
491.439	261.88
491.657	241.88
491.874	272.88
492.092	330.88
492.31	367.88
492.527	365.88
492.745	317.88
492.963	293.88
493.18	288.88
493.398	295.88
493.615	287.88
493.833	265.88
494.05	290.88
494.268	265.88
494.485	272.88
494.703	265.88
494.92	270.88
495.138	259.88
495.355	278.88
495.573	269.88
495.79	284.88
496.008	349.88
496.225	303.88
496.442	297.88
496.66	280.88
496.877	300.88
497.094	314.88
497.312	291.88
497.529	294.88
497.746	291.88
497.963	299.88
498.181	337.88
498.398	332.88
498.615	347.88
498.832	369.88
499.049	397.88
499.267	357.88
499.484	356.88
499.701	411.88
499.918	429.88
500.135	475.88
500.352	485.88
500.569	537.88
500.786	533.88
501.003	513.88
501.22	465.88
501.437	411.88
501.654	385.88
501.871	365.88
502.088	367.88
502.305	324.88
502.522	337.88
