Data from NickelSpatula_HRD10591_16-35-47-125.txt Node
Date: Mon Jul 22 16:35:47 EDT 2019
User: cochatt
Spectrometer: HR+D1059
Trigger mode: 1
Integration Time (sec): 1.000000E-1
Scans to average: 1
Electric dark correction enabled: true
Nonlinearity correction enabled: false
Boxcar width: 0
XAxis mode: Wavelengths
Number of Pixels in Spectrum: 2048
>>>>>Begin Spectral Data<<<<<
223.165	-20.25
223.4	-20.25
223.635	-20.25
223.869	-12.25
224.104	-22.25
224.338	-16.25
224.573	-18.25
224.808	-12.25
225.042	-0.25
225.277	-11.25
225.511	-9.25
225.746	7.75
225.98	3.75
226.215	24.75
226.449	21.75
226.683	18.75
226.918	2.75
227.152	42.75
227.387	30.75
227.621	41.75
227.856	56.75
228.09	53.75
228.324	51.75
228.559	63.75
228.793	63.75
229.027	84.75
229.262	79.75
229.496	65.75
229.73	85.75
229.964	74.75
230.199	95.75
230.433	100.75
230.667	87.75
230.901	90.75
231.136	92.75
231.37	99.75
231.604	106.75
231.838	103.75
232.072	92.75
232.306	114.75
232.541	88.75
232.775	102.75
233.009	98.75
233.243	110.75
233.477	116.75
233.711	115.75
233.945	114.75
234.179	116.75
234.413	99.75
234.647	123.75
234.881	123.75
235.115	113.75
235.349	127.75
235.583	101.75
235.817	111.75
236.051	95.75
236.285	114.75
236.519	131.75
236.753	110.75
236.987	126.75
237.221	119.75
237.455	123.75
237.689	125.75
237.922	127.75
238.156	123.75
238.39	143.75
238.624	134.75
238.858	136.75
239.091	123.75
239.325	125.75
239.559	126.75
239.793	126.75
240.027	145.75
240.26	136.75
240.494	111.75
240.728	129.75
240.961	156.75
241.195	145.75
241.429	141.75
241.662	128.75
241.896	114.75
242.13	119.75
242.363	112.75
242.597	115.75
242.83	131.75
243.064	124.75
243.298	126.75
243.531	138.75
243.765	132.75
243.998	145.75
244.232	136.75
244.465	141.75
244.699	127.75
244.932	141.75
245.166	121.75
245.399	126.75
245.633	141.75
245.866	140.75
246.099	143.75
246.333	159.75
246.566	157.75
246.8	153.75
247.033	145.75
247.266	139.75
247.5	152.75
247.733	135.75
247.966	154.75
248.2	143.75
248.433	146.75
248.666	175.75
248.899	191.75
249.133	180.75
249.366	178.75
249.599	179.75
249.832	165.75
250.066	174.75
250.299	175.75
250.532	196.75
250.765	169.75
250.998	147.75
251.231	145.75
251.465	156.75
251.698	163.75
251.931	177.75
252.164	161.75
252.397	167.75
252.63	198.75
252.863	188.75
253.096	201.75
253.329	207.75
253.562	205.75
253.795	196.75
254.028	231.75
254.261	222.75
254.494	203.75
254.727	209.75
254.96	192.75
255.193	197.75
255.426	203.75
255.659	171.75
255.892	146.75
256.124	189.75
256.357	184.75
256.59	183.75
256.823	206.75
257.056	181.75
257.289	160.75
257.521	176.75
257.754	197.75
257.987	218.75
258.22	199.75
258.452	185.75
258.685	197.75
258.918	220.75
259.151	229.75
259.383	228.75
259.616	238.75
259.849	232.75
260.081	253.75
260.314	275.75
260.547	210.75
260.779	204.75
261.012	257.75
261.244	248.75
261.477	254.75
261.71	233.75
261.942	206.75
262.175	216.75
262.407	213.75
262.64	200.75
262.872	225.75
263.105	259.75
263.337	259.75
263.57	242.75
263.802	185.75
264.035	181.75
264.267	173.75
264.499	152.75
264.732	147.75
264.964	135.75
265.197	140.75
265.429	152.75
265.661	158.75
265.894	172.75
266.126	172.75
266.358	167.75
266.591	208.75
266.823	229.75
267.055	227.75
267.287	221.75
267.52	197.75
267.752	219.75
267.984	231.75
268.216	231.75
268.448	195.75
268.681	193.75
268.913	214.75
269.145	212.75
269.377	212.75
269.609	215.75
269.841	212.75
270.073	215.75
270.306	229.75
270.538	238.75
270.77	213.75
271.002	241.75
271.234	253.75
271.466	239.75
271.698	221.75
271.93	221.75
272.162	248.75
272.394	234.75
272.626	227.75
272.858	228.75
273.09	223.75
273.322	213.75
273.553	203.75
273.785	228.75
274.017	286.75
274.249	348.75
274.481	368.75
274.713	381.75
274.945	382.75
275.176	415.75
275.408	378.75
275.64	355.75
275.872	366.75
276.104	318.75
276.335	291.75
276.567	278.75
276.799	298.75
277.031	308.75
277.262	239.75
277.494	230.75
277.726	197.75
277.957	212.75
278.189	237.75
278.421	234.75
278.652	218.75
278.884	219.75
279.115	186.75
279.347	201.75
279.579	209.75
279.81	200.75
280.042	215.75
280.273	207.75
280.505	194.75
280.736	195.75
280.968	175.75
281.199	199.75
281.431	209.75
281.662	212.75
281.894	209.75
282.125	211.75
282.356	217.75
282.588	206.75
282.819	202.75
283.051	217.75
283.282	265.75
283.513	270.75
283.745	305.75
283.976	297.75
284.207	292.75
284.439	302.75
284.67	303.75
284.901	257.75
285.132	288.75
285.364	315.75
285.595	296.75
285.826	267.75
286.057	294.75
286.288	282.75
286.52	307.75
286.751	314.75
286.982	322.75
287.213	290.75
287.444	269.75
287.675	283.75
287.906	268.75
288.138	241.75
288.369	213.75
288.6	198.75
288.831	213.75
289.062	265.75
289.293	281.75
289.524	252.75
289.755	246.75
289.986	263.75
290.217	237.75
290.448	196.75
290.679	166.75
290.91	157.75
291.141	156.75
291.371	166.75
291.602	152.75
291.833	187.75
292.064	180.75
292.295	190.75
292.526	217.75
292.757	225.75
292.987	235.75
293.218	246.75
293.449	260.75
293.68	266.75
293.91	255.75
294.141	275.75
294.372	236.75
294.603	210.75
294.833	257.75
295.064	297.75
295.295	276.75
295.525	206.75
295.756	191.75
295.987	172.75
296.217	170.75
296.448	165.75
296.679	180.75
296.909	198.75
297.14	207.75
297.37	217.75
297.601	202.75
297.831	197.75
298.062	209.75
298.292	217.75
298.523	243.75
298.753	257.75
298.984	246.75
299.214	205.75
299.445	188.75
299.675	179.75
299.905	177.75
300.136	180.75
300.366	194.75
300.597	173.75
300.827	163.75
301.057	177.75
301.288	174.75
301.518	193.75
301.748	202.75
301.979	209.75
302.209	220.75
302.439	213.75
302.669	202.75
302.9	204.75
303.13	194.75
303.36	183.75
303.59	159.75
303.82	181.75
304.051	200.75
304.281	212.75
304.511	212.75
304.741	195.75
304.971	197.75
305.201	211.75
305.431	195.75
305.661	184.75
305.891	168.75
306.121	174.75
306.352	162.75
306.582	160.75
306.812	159.75
307.042	168.75
307.272	154.75
307.502	149.75
307.731	162.75
307.961	172.75
308.191	155.75
308.421	143.75
308.651	149.75
308.881	136.75
309.111	135.75
309.341	158.75
309.571	161.75
309.8	173.75
310.03	155.75
310.26	161.75
310.49	161.75
310.72	157.75
310.949	154.75
311.179	156.75
311.409	167.75
311.639	183.75
311.868	230.75
312.098	263.75
312.328	288.75
312.557	280.75
312.787	292.75
313.017	247.75
313.246	273.75
313.476	289.75
313.706	245.75
313.935	206.75
314.165	173.75
314.394	159.75
314.624	172.75
314.853	174.75
315.083	194.75
315.312	194.75
315.542	167.75
315.771	157.75
316.001	136.75
316.23	140.75
316.46	133.75
316.689	141.75
316.919	148.75
317.148	159.75
317.377	156.75
317.607	154.75
317.836	164.75
318.065	183.75
318.295	202.75
318.524	181.75
318.753	159.75
318.983	153.75
319.212	167.75
319.441	166.75
319.67	188.75
319.9	177.75
320.129	182.75
320.358	143.75
320.587	153.75
320.816	150.75
321.046	201.75
321.275	203.75
321.504	194.75
321.733	189.75
321.962	187.75
322.191	186.75
322.42	163.75
322.649	163.75
322.878	205.75
323.108	196.75
323.337	200.75
323.566	174.75
323.795	181.75
324.024	167.75
324.253	161.75
324.482	150.75
324.71	168.75
324.939	162.75
325.168	193.75
325.397	169.75
325.626	155.75
325.855	158.75
326.084	154.75
326.313	158.75
326.542	149.75
326.77	141.75
326.999	150.75
327.228	147.75
327.457	164.75
327.686	141.75
327.914	158.75
328.143	150.75
328.372	140.75
328.6	139.75
328.829	162.75
329.058	149.75
329.287	159.75
329.515	162.75
329.744	157.75
329.972	139.75
330.201	147.75
330.43	130.75
330.658	149.75
330.887	171.75
331.115	170.75
331.344	165.75
331.572	167.75
331.801	151.75
332.03	152.75
332.258	143.75
332.486	148.75
332.715	166.75
332.943	151.75
333.172	165.75
333.4	163.75
333.629	171.75
333.857	184.75
334.085	181.75
334.314	177.75
334.542	163.75
334.771	163.75
334.999	155.75
335.227	147.75
335.455	142.75
335.684	173.75
335.912	174.75
336.14	197.75
336.369	191.75
336.597	192.75
336.825	211.75
337.053	226.75
337.281	187.75
337.51	156.75
337.738	157.75
337.966	179.75
338.194	191.75
338.422	196.75
338.65	159.75
338.878	141.75
339.106	164.75
339.334	162.75
339.562	164.75
339.79	168.75
340.018	164.75
340.246	160.75
340.474	183.75
340.702	201.75
340.93	198.75
341.158	218.75
341.386	173.75
341.614	166.75
341.842	174.75
342.07	164.75
342.298	200.75
342.526	213.75
342.754	175.75
342.981	182.75
343.209	168.75
343.437	179.75
343.665	186.75
343.893	187.75
344.12	225.75
344.348	233.75
344.576	226.75
344.804	179.75
345.031	149.75
345.259	143.75
345.487	158.75
345.714	147.75
345.942	163.75
346.17	179.75
346.397	168.75
346.625	171.75
346.853	163.75
347.08	159.75
347.308	165.75
347.535	186.75
347.763	181.75
347.99	165.75
348.218	167.75
348.445	148.75
348.673	163.75
348.9	160.75
349.128	162.75
349.355	185.75
349.583	181.75
349.81	164.75
350.037	153.75
350.265	151.75
350.492	138.75
350.72	130.75
350.947	138.75
351.174	157.75
351.402	152.75
351.629	163.75
351.856	173.75
352.083	161.75
352.311	152.75
352.538	179.75
352.765	195.75
352.992	159.75
353.22	181.75
353.447	167.75
353.674	164.75
353.901	164.75
354.128	171.75
354.355	163.75
354.583	149.75
354.81	179.75
355.037	195.75
355.264	157.75
355.491	184.75
355.718	183.75
355.945	189.75
356.172	181.75
356.399	171.75
356.626	202.75
356.853	241.75
357.08	252.75
357.307	236.75
357.534	207.75
357.761	219.75
357.988	253.75
358.215	290.75
358.441	267.75
358.668	244.75
358.895	227.75
359.122	195.75
359.349	205.75
359.576	208.75
359.802	184.75
360.029	166.75
360.256	185.75
360.483	199.75
360.709	233.75
360.936	257.75
361.163	229.75
361.39	181.75
361.616	171.75
361.843	205.75
362.07	223.75
362.296	187.75
362.523	180.75
362.749	151.75
362.976	156.75
363.203	195.75
363.429	197.75
363.656	174.75
363.882	158.75
364.109	180.75
364.335	169.75
364.562	169.75
364.788	169.75
365.015	174.75
365.241	172.75
365.468	164.75
365.694	134.75
365.92	146.75
366.147	142.75
366.373	154.75
366.599	135.75
366.826	149.75
367.052	150.75
367.278	151.75
367.505	145.75
367.731	153.75
367.957	180.75
368.184	162.75
368.41	167.75
368.636	186.75
368.862	164.75
369.089	173.75
369.315	143.75
369.541	162.75
369.767	151.75
369.993	157.75
370.219	138.75
370.445	158.75
370.672	150.75
370.898	171.75
371.124	173.75
371.35	162.75
371.576	164.75
371.802	153.75
372.028	182.75
372.254	207.75
372.48	181.75
372.706	157.75
372.932	165.75
373.158	185.75
373.384	226.75
373.61	242.75
373.835	260.75
374.061	207.75
374.287	194.75
374.513	201.75
374.739	233.75
374.965	237.75
375.191	235.75
375.416	186.75
375.642	169.75
375.868	200.75
376.094	212.75
376.319	195.75
376.545	201.75
376.771	208.75
376.997	173.75
377.222	142.75
377.448	140.75
377.674	138.75
377.899	135.75
378.125	140.75
378.35	136.75
378.576	132.75
378.802	130.75
379.027	164.75
379.253	166.75
379.478	175.75
379.704	175.75
379.929	178.75
380.155	181.75
380.38	155.75
380.606	163.75
380.831	191.75
381.057	168.75
381.282	155.75
381.507	187.75
381.733	215.75
381.958	226.75
382.184	241.75
382.409	254.75
382.634	244.75
382.86	273.75
383.085	199.75
383.31	169.75
383.535	207.75
383.761	191.75
383.986	197.75
384.211	202.75
384.436	228.75
384.662	178.75
384.887	174.75
385.112	159.75
385.337	186.75
385.562	166.75
385.787	197.75
386.013	193.75
386.238	191.75
386.463	163.75
386.688	164.75
386.913	153.75
387.138	142.75
387.363	166.75
387.588	154.75
387.813	174.75
388.038	173.75
388.263	183.75
388.488	166.75
388.713	167.75
388.938	207.75
389.163	178.75
389.387	154.75
389.612	153.75
389.837	157.75
390.062	166.75
390.287	177.75
390.512	173.75
390.736	171.75
390.961	165.75
391.186	157.75
391.411	147.75
391.636	161.75
391.86	157.75
392.085	170.75
392.31	188.75
392.534	158.75
392.759	161.75
392.984	168.75
393.208	162.75
393.433	158.75
393.658	144.75
393.882	144.75
394.107	142.75
394.331	137.75
394.556	146.75
394.78	120.75
395.005	129.75
395.229	150.75
395.454	153.75
395.678	154.75
395.903	156.75
396.127	160.75
396.352	167.75
396.576	159.75
396.801	164.75
397.025	193.75
397.249	199.75
397.474	162.75
397.698	164.75
397.922	162.75
398.147	154.75
398.371	147.75
398.595	183.75
398.82	165.75
399.044	151.75
399.268	181.75
399.492	167.75
399.717	192.75
399.941	173.75
400.165	167.75
400.389	157.75
400.613	160.75
400.837	154.75
401.062	150.75
401.286	151.75
401.51	151.75
401.734	166.75
401.958	157.75
402.182	171.75
402.406	146.75
402.63	150.75
402.854	158.75
403.078	194.75
403.302	218.75
403.526	214.75
403.75	200.75
403.974	187.75
404.198	181.75
404.422	194.75
404.645	223.75
404.869	222.75
405.093	174.75
405.317	157.75
405.541	174.75
405.765	174.75
405.988	194.75
406.212	182.75
406.436	195.75
406.66	217.75
406.883	184.75
407.107	213.75
407.331	193.75
407.555	198.75
407.778	183.75
408.002	175.75
408.226	173.75
408.449	173.75
408.673	170.75
408.896	160.75
409.12	156.75
409.344	162.75
409.567	148.75
409.791	158.75
410.014	163.75
410.238	159.75
410.461	147.75
410.685	158.75
410.908	151.75
411.132	158.75
411.355	168.75
411.578	155.75
411.802	170.75
412.025	169.75
412.249	157.75
412.472	172.75
412.695	149.75
412.919	157.75
413.142	157.75
413.365	168.75
413.589	178.75
413.812	168.75
414.035	166.75
414.258	146.75
414.482	162.75
414.705	193.75
414.928	156.75
415.151	156.75
415.374	139.75
415.597	172.75
415.821	165.75
416.044	137.75
416.267	152.75
416.49	147.75
416.713	146.75
416.936	141.75
417.159	156.75
417.382	161.75
417.605	150.75
417.828	144.75
418.051	152.75
418.274	171.75
418.497	169.75
418.72	169.75
418.943	168.75
419.166	174.75
419.389	168.75
419.611	165.75
419.834	178.75
420.057	179.75
420.28	199.75
420.503	155.75
420.726	158.75
420.948	159.75
421.171	145.75
421.394	164.75
421.617	143.75
421.839	155.75
422.062	157.75
422.285	139.75
422.507	172.75
422.73	157.75
422.953	143.75
423.175	157.75
423.398	168.75
423.621	185.75
423.843	177.75
424.066	170.75
424.288	169.75
424.511	144.75
424.733	165.75
424.956	163.75
425.178	172.75
425.401	211.75
425.623	231.75
425.846	192.75
426.068	181.75
426.291	180.75
426.513	169.75
426.735	165.75
426.958	162.75
427.18	203.75
427.402	250.75
427.625	243.75
427.847	213.75
428.069	144.75
428.292	166.75
428.514	158.75
428.736	137.75
428.958	167.75
429.181	179.75
429.403	165.75
429.625	155.75
429.847	173.75
430.069	163.75
430.292	162.75
430.514	167.75
430.736	156.75
430.958	194.75
431.18	165.75
431.402	161.75
431.624	155.75
431.846	149.75
432.068	156.75
432.29	147.75
432.512	161.75
432.734	199.75
432.956	186.75
433.178	168.75
433.4	149.75
433.622	152.75
433.844	163.75
434.066	179.75
434.287	158.75
434.509	172.75
434.731	165.75
434.953	158.75
435.175	155.75
435.397	197.75
435.618	169.75
435.84	161.75
436.062	156.75
436.284	154.75
436.505	140.75
436.727	129.75
436.949	139.75
437.17	143.75
437.392	161.75
437.614	157.75
437.835	147.75
438.057	152.75
438.278	162.75
438.5	213.75
438.721	207.75
438.943	167.75
439.165	143.75
439.386	123.75
439.608	156.75
439.829	133.75
440.05	162.75
440.272	156.75
440.493	171.75
440.715	204.75
440.936	179.75
441.158	164.75
441.379	150.75
441.6	176.75
441.822	183.75
442.043	149.75
442.264	167.75
442.486	157.75
442.707	143.75
442.928	165.75
443.149	151.75
443.371	162.75
443.592	157.75
443.813	167.75
444.034	161.75
444.255	168.75
444.476	174.75
444.698	165.75
444.919	165.75
445.14	289.75
445.361	227.75
445.582	178.75
445.803	165.75
446.024	179.75
446.245	183.75
446.466	165.75
446.687	171.75
446.908	157.75
447.129	160.75
447.35	167.75
447.571	168.75
447.792	144.75
448.013	164.75
448.234	149.75
448.455	136.75
448.675	150.75
448.896	138.75
449.117	149.75
449.338	142.75
449.559	161.75
449.779	153.75
450	154.75
450.221	159.75
450.442	144.75
450.662	145.75
450.883	151.75
451.104	149.75
451.324	162.75
451.545	151.75
451.766	139.75
451.986	149.75
452.207	152.75
452.428	148.75
452.648	154.75
452.869	156.75
453.089	156.75
453.31	160.75
453.53	150.75
453.751	156.75
453.971	142.75
454.192	138.75
454.412	155.75
454.633	134.75
454.853	149.75
455.073	154.75
455.294	145.75
455.514	145.75
455.734	131.75
455.955	160.75
456.175	148.75
456.395	134.75
456.616	126.75
456.836	140.75
457.056	139.75
457.276	147.75
457.497	141.75
457.717	141.75
457.937	126.75
458.157	125.75
458.377	141.75
458.598	141.75
458.818	148.75
459.038	158.75
459.258	162.75
459.478	163.75
459.698	165.75
459.918	175.75
460.138	158.75
460.358	174.75
460.578	158.75
460.798	156.75
461.018	167.75
461.238	150.75
461.458	175.75
461.678	173.75
461.898	173.75
462.118	170.75
462.338	166.75
462.558	165.75
462.777	171.75
462.997	177.75
463.217	171.75
463.437	164.75
463.657	188.75
463.876	162.75
464.096	161.75
464.316	157.75
464.536	172.75
464.755	181.75
464.975	183.75
465.195	166.75
465.414	179.75
465.634	181.75
465.854	161.75
466.073	152.75
466.293	149.75
466.512	161.75
466.732	188.75
466.951	175.75
467.171	157.75
467.391	166.75
467.61	143.75
467.829	162.75
468.049	157.75
468.268	165.75
468.488	178.75
468.707	163.75
468.927	185.75
469.146	198.75
469.365	179.75
469.585	159.75
469.804	187.75
470.023	183.75
470.243	158.75
470.462	151.75
470.681	164.75
470.901	170.75
471.12	151.75
471.339	164.75
471.558	161.75
471.777	172.75
471.997	193.75
472.216	201.75
472.435	191.75
472.654	178.75
472.873	173.75
473.092	174.75
473.311	169.75
473.53	170.75
473.749	155.75
473.968	166.75
474.187	168.75
474.406	161.75
474.625	159.75
474.844	157.75
475.063	165.75
475.282	177.75
475.501	186.75
475.72	218.75
475.939	217.75
476.158	198.75
476.377	198.75
476.596	234.75
476.814	242.75
477.033	232.75
477.252	190.75
477.471	161.75
477.69	172.75
477.908	179.75
478.127	174.75
478.346	166.75
478.564	220.75
478.783	195.75
479.002	184.75
479.22	197.75
479.439	220.75
479.658	195.75
479.876	188.75
480.095	199.75
480.313	188.75
480.532	186.75
480.751	189.75
480.969	188.75
481.188	188.75
481.406	199.75
481.624	195.75
481.843	176.75
482.061	173.75
482.28	198.75
482.498	241.75
482.717	236.75
482.935	188.75
483.153	181.75
483.372	171.75
483.59	167.75
483.808	206.75
484.027	170.75
484.245	181.75
484.463	165.75
484.681	187.75
484.9	177.75
485.118	174.75
485.336	177.75
485.554	159.75
485.772	167.75
485.99	209.75
486.209	206.75
486.427	209.75
486.645	187.75
486.863	196.75
487.081	189.75
487.299	212.75
487.517	217.75
487.735	196.75
487.953	205.75
488.171	201.75
488.389	168.75
488.607	172.75
488.825	186.75
489.043	211.75
489.261	253.75
489.479	243.75
489.696	198.75
489.914	207.75
490.132	170.75
490.35	181.75
490.568	187.75
490.786	195.75
491.003	169.75
491.221	186.75
491.439	170.75
491.657	174.75
491.874	200.75
492.092	241.75
492.31	277.75
492.527	258.75
492.745	224.75
492.963	212.75
493.18	192.75
493.398	200.75
493.615	214.75
493.833	203.75
494.05	204.75
494.268	214.75
494.485	203.75
494.703	181.75
494.92	187.75
495.138	204.75
495.355	171.75
495.573	191.75
495.79	218.75
496.008	283.75
496.225	233.75
496.442	217.75
496.66	210.75
496.877	204.75
497.094	220.75
497.312	207.75
497.529	193.75
497.746	206.75
497.963	209.75
498.181	211.75
498.398	228.75
498.615	254.75
498.832	255.75
499.049	242.75
499.267	233.75
499.484	207.75
499.701	235.75
499.918	269.75
500.135	278.75
500.352	274.75
500.569	269.75
500.786	289.75
501.003	300.75
501.22	277.75
501.437	275.75
501.654	243.75
501.871	253.75
502.088	236.75
502.305	220.75
502.522	215.75
502.739	214.75
