Data from NickelSpatula.Lamp.E10.P2_HRD10591_11-56-55-534.txt Node
Date: Tue Jul 23 11:56:55 EDT 2019
User: cochatt
Spectrometer: HR+D1059
Trigger mode: 1
Integration Time (sec): 1.000000E-1
Scans to average: 1
Electric dark correction enabled: true
Nonlinearity correction enabled: false
Boxcar width: 0
XAxis mode: Wavelengths
Number of Pixels in Spectrum: 2048
>>>>>Begin Spectral Data<<<<<
223.165	-8.31
223.4	-8.31
223.635	-8.31
223.869	-25.31
224.104	-14.31
224.338	-13.31
224.573	-12.31
224.808	-16.31
225.042	2.69
225.277	-1.31
225.511	-20.31
225.746	13.69
225.98	2.69
226.215	-0.31
226.449	10.69
226.683	25.69
226.918	36.69
227.152	19.69
227.387	51.69
227.621	43.69
227.856	38.69
228.09	41.69
228.324	53.69
228.559	53.69
228.793	89.69
229.027	136.69
229.262	154.69
229.496	162.69
229.73	160.69
229.964	178.69
230.199	207.69
230.433	206.69
230.667	191.69
230.901	182.69
231.136	189.69
231.37	184.69
231.604	212.69
231.838	225.69
232.072	241.69
232.306	236.69
232.541	229.69
232.775	242.69
233.009	244.69
233.243	284.69
233.477	290.69
233.711	315.69
233.945	306.69
234.179	298.69
234.413	340.69
234.647	366.69
234.881	435.69
235.115	401.69
235.349	374.69
235.583	336.69
235.817	342.69
236.051	348.69
236.285	392.69
236.519	431.69
236.753	418.69
236.987	415.69
237.221	383.69
237.455	414.69
237.689	397.69
237.922	446.69
238.156	451.69
238.39	524.69
238.624	620.69
238.858	553.69
239.091	468.69
239.325	482.69
239.559	452.69
239.793	503.69
240.027	617.69
240.26	572.69
240.494	535.69
240.728	566.69
240.961	650.69
241.195	595.69
241.429	591.69
241.662	569.69
241.896	509.69
242.13	444.69
242.363	442.69
242.597	457.69
242.83	532.69
243.064	529.69
243.298	546.69
243.531	587.69
243.765	601.69
243.998	603.69
244.232	559.69
244.465	566.69
244.699	530.69
244.932	631.69
245.166	603.69
245.399	531.69
245.633	507.69
245.866	553.69
246.099	603.69
246.333	686.69
246.566	706.69
246.8	733.69
247.033	706.69
247.266	635.69
247.5	640.69
247.733	632.69
247.966	648.69
248.2	633.69
248.433	698.69
248.666	760.69
248.899	755.69
249.133	792.69
249.366	906.69
249.599	960.69
249.832	905.69
250.066	777.69
250.299	791.69
250.532	768.69
250.765	762.69
250.998	716.69
251.231	683.69
251.465	735.69
251.698	774.69
251.931	762.69
252.164	773.69
252.397	864.69
252.63	967.69
252.863	1064.69
253.096	1101.69
253.329	1047.69
253.562	1010.69
253.795	1154.69
254.028	1260.69
254.261	1307.69
254.494	1168.69
254.727	1058.69
254.96	1039.69
255.193	1099.69
255.426	1108.69
255.659	816.69
255.892	772.69
256.124	842.69
256.357	980.69
256.59	1121.69
256.823	1075.69
257.056	917.69
257.289	876.69
257.521	931.69
257.754	1060.69
257.987	1241.69
258.22	1062.69
258.452	937.69
258.685	1084.69
258.918	1247.69
259.151	1170.69
259.383	1267.69
259.616	1456.69
259.849	1494.69
260.081	1605.69
260.314	1790.69
260.547	1370.69
260.779	1408.69
261.012	1621.69
261.244	1510.69
261.477	1543.69
261.71	1410.69
261.942	1193.69
262.175	1249.69
262.407	1170.69
262.64	1190.69
262.872	1376.69
263.105	1531.69
263.337	1666.69
263.57	1472.69
263.802	1003.69
264.035	886.69
264.267	868.69
264.499	732.69
264.732	686.69
264.964	637.69
265.197	677.69
265.429	728.69
265.661	785.69
265.894	836.69
266.126	891.69
266.358	987.69
266.591	1214.69
266.823	1422.69
267.055	1370.69
267.287	1234.69
267.52	1205.69
267.752	1265.69
267.984	1364.69
268.216	1359.69
268.448	1091.69
268.681	1046.69
268.913	1159.69
269.145	1246.69
269.377	1271.69
269.609	1254.69
269.841	1190.69
270.073	1265.69
270.306	1337.69
270.538	1339.69
270.77	1363.69
271.002	1374.69
271.234	1441.69
271.466	1401.69
271.698	1355.69
271.93	1290.69
272.162	1312.69
272.394	1268.69
272.626	1305.69
272.858	1363.69
273.09	1382.69
273.322	1208.69
273.553	1172.69
273.785	1342.69
274.017	1783.69
274.249	2237.69
274.481	2316.69
274.713	2538.69
274.945	2893.69
275.176	3010.69
275.408	2637.69
275.64	2464.69
275.872	2414.69
276.104	2075.69
276.335	1812.69
276.567	1807.69
276.799	1885.69
277.031	1918.69
277.262	1507.69
277.494	1198.69
277.726	1160.69
277.957	1233.69
278.189	1414.69
278.421	1380.69
278.652	1361.69
278.884	1309.69
279.115	1213.69
279.347	1149.69
279.579	1115.69
279.81	1154.69
280.042	1148.69
280.273	1191.69
280.505	1072.69
280.736	979.69
280.968	995.69
281.199	1052.69
281.431	1214.69
281.662	1202.69
281.894	1146.69
282.125	1226.69
282.356	1319.69
282.588	1327.69
282.819	1180.69
283.051	1320.69
283.282	1622.69
283.513	1863.69
283.745	2097.69
283.976	2096.69
284.207	1898.69
284.439	1975.69
284.67	1904.69
284.901	1682.69
285.132	1841.69
285.364	1940.69
285.595	1756.69
285.826	1892.69
286.057	1898.69
286.288	1846.69
286.52	1891.69
286.751	2007.69
286.982	1998.69
287.213	1726.69
287.444	1657.69
287.675	1776.69
287.906	1753.69
288.138	1502.69
288.369	1329.69
288.6	1242.69
288.831	1330.69
289.062	1534.69
289.293	1663.69
289.524	1584.69
289.755	1529.69
289.986	1606.69
290.217	1387.69
290.448	1068.69
290.679	923.69
290.91	894.69
291.141	888.69
291.371	906.69
291.602	927.69
291.833	936.69
292.064	987.69
292.295	1170.69
292.526	1323.69
292.757	1366.69
292.987	1496.69
293.218	1526.69
293.449	1562.69
293.68	1640.69
293.91	1548.69
294.141	1591.69
294.372	1477.69
294.603	1370.69
294.833	1534.69
295.064	1827.69
295.295	1664.69
295.525	1246.69
295.756	1062.69
295.987	921.69
296.217	963.69
296.448	951.69
296.679	979.69
296.909	1097.69
297.14	1195.69
297.37	1294.69
297.601	1255.69
297.831	1078.69
298.062	1169.69
298.292	1315.69
298.523	1402.69
298.753	1562.69
298.984	1424.69
299.214	1150.69
299.445	992.69
299.675	937.69
299.905	922.69
300.136	930.69
300.366	1013.69
300.597	1019.69
300.827	909.69
301.057	892.69
301.288	902.69
301.518	953.69
301.748	1072.69
301.979	1156.69
302.209	1216.69
302.439	1219.69
302.669	1062.69
302.9	1119.69
303.13	1051.69
303.36	1017.69
303.59	1000.69
303.82	1049.69
304.051	1152.69
304.281	1239.69
304.511	1218.69
304.741	1076.69
304.971	1092.69
305.201	1182.69
305.431	1116.69
305.661	935.69
305.891	949.69
306.121	919.69
306.352	874.69
306.582	794.69
306.812	782.69
307.042	791.69
307.272	748.69
307.502	739.69
307.731	789.69
307.961	852.69
308.191	781.69
308.421	740.69
308.651	755.69
308.881	726.69
309.111	764.69
309.341	778.69
309.571	822.69
309.8	890.69
310.03	860.69
310.26	869.69
310.49	839.69
310.72	823.69
310.949	849.69
311.179	833.69
311.409	898.69
311.639	1030.69
311.868	1296.69
312.098	1689.69
312.328	1842.69
312.557	1734.69
312.787	1763.69
313.017	1560.69
313.246	1678.69
313.476	1855.69
313.706	1540.69
313.935	1228.69
314.165	1029.69
314.394	908.69
314.624	878.69
314.853	970.69
315.083	975.69
315.312	930.69
315.542	942.69
315.771	852.69
316.001	803.69
316.23	779.69
316.46	762.69
316.689	808.69
316.919	822.69
317.148	821.69
317.377	827.69
317.607	830.69
317.836	875.69
318.065	1031.69
318.295	1167.69
318.524	1074.69
318.753	913.69
318.983	868.69
319.212	840.69
319.441	916.69
319.67	991.69
319.9	1079.69
320.129	1074.69
320.358	898.69
320.587	872.69
320.816	923.69
321.046	1050.69
321.275	1161.69
321.504	1108.69
321.733	1106.69
321.962	1061.69
322.191	1008.69
322.42	927.69
322.649	969.69
322.878	1042.69
323.108	1048.69
323.337	987.69
323.566	984.69
323.795	946.69
324.024	903.69
324.253	900.69
324.482	878.69
324.71	932.69
324.939	1021.69
325.168	971.69
325.397	873.69
325.626	826.69
325.855	820.69
326.084	873.69
326.313	815.69
326.542	780.69
326.77	825.69
326.999	821.69
327.228	894.69
327.457	907.69
327.686	891.69
327.914	836.69
328.143	758.69
328.372	756.69
328.6	780.69
328.829	793.69
329.058	823.69
329.287	843.69
329.515	844.69
329.744	815.69
329.972	768.69
330.201	778.69
330.43	786.69
330.658	880.69
330.887	969.69
331.115	935.69
331.344	932.69
331.572	891.69
331.801	854.69
332.03	805.69
332.258	822.69
332.486	910.69
332.715	906.69
332.943	854.69
333.172	874.69
333.4	923.69
333.629	994.69
333.857	1054.69
334.085	1042.69
334.314	1050.69
334.542	985.69
334.771	926.69
334.999	883.69
335.227	872.69
335.455	883.69
335.684	962.69
335.912	1142.69
336.14	1215.69
336.369	1186.69
336.597	1147.69
336.825	1281.69
337.053	1404.69
337.281	1159.69
337.51	912.69
337.738	886.69
337.966	984.69
338.194	1063.69
338.422	1016.69
338.65	903.69
338.878	822.69
339.106	842.69
339.334	939.69
339.562	961.69
339.79	966.69
340.018	872.69
340.246	954.69
340.474	1063.69
340.702	1150.69
340.93	1183.69
341.158	1154.69
341.386	976.69
341.614	968.69
341.842	959.69
342.07	1057.69
342.298	1225.69
342.526	1250.69
342.754	1060.69
342.981	946.69
343.209	926.69
343.437	998.69
343.665	1057.69
343.893	1081.69
344.12	1203.69
344.348	1379.69
344.576	1282.69
344.804	1066.69
345.031	903.69
345.259	904.69
345.487	899.69
345.714	929.69
345.942	1002.69
346.17	1104.69
346.397	1043.69
346.625	903.69
346.853	847.69
347.08	857.69
347.308	919.69
347.535	1015.69
347.763	1020.69
347.99	914.69
348.218	859.69
348.445	895.69
348.673	898.69
348.9	885.69
349.128	926.69
349.355	938.69
349.583	927.69
349.81	891.69
350.037	854.69
350.265	779.69
350.492	748.69
350.72	727.69
350.947	743.69
351.174	787.69
351.402	835.69
351.629	881.69
351.856	842.69
352.083	782.69
352.311	854.69
352.538	924.69
352.765	939.69
352.992	883.69
353.22	847.69
353.447	869.69
353.674	841.69
353.901	807.69
354.128	855.69
354.355	864.69
354.583	885.69
354.81	870.69
355.037	912.69
355.264	884.69
355.491	899.69
355.718	949.69
355.945	966.69
356.172	934.69
356.399	920.69
356.626	1100.69
356.853	1298.69
357.08	1372.69
357.307	1410.69
357.534	1106.69
357.761	1162.69
357.988	1420.69
358.215	1593.69
358.441	1523.69
358.668	1283.69
358.895	1230.69
359.122	992.69
359.349	1006.69
359.576	1092.69
359.802	933.69
360.029	828.69
360.256	898.69
360.483	1065.69
360.709	1265.69
360.936	1330.69
361.163	1165.69
361.39	960.69
361.616	878.69
361.843	1016.69
362.07	1214.69
362.296	1116.69
362.523	912.69
362.749	807.69
362.976	888.69
363.203	987.69
363.429	1079.69
363.656	915.69
363.882	864.69
364.109	842.69
364.335	858.69
364.562	863.69
364.788	951.69
365.015	1060.69
365.241	1000.69
365.468	832.69
365.694	786.69
365.92	747.69
366.147	734.69
366.373	726.69
366.599	738.69
366.826	720.69
367.052	742.69
367.278	743.69
367.505	724.69
367.731	799.69
367.957	885.69
368.184	880.69
368.41	880.69
368.636	886.69
368.862	910.69
369.089	875.69
369.315	781.69
369.541	798.69
369.767	769.69
369.993	757.69
370.219	781.69
370.445	820.69
370.672	865.69
370.898	908.69
371.124	924.69
371.35	842.69
371.576	824.69
371.802	856.69
372.028	994.69
372.254	1078.69
372.48	986.69
372.706	855.69
372.932	936.69
373.158	962.69
373.384	1112.69
373.61	1436.69
373.835	1422.69
374.061	1106.69
374.287	978.69
374.513	1137.69
374.739	1303.69
374.965	1360.69
375.191	1336.69
375.416	997.69
375.642	878.69
375.868	986.69
376.094	1090.69
376.319	1000.69
376.545	1055.69
376.771	1119.69
376.997	982.69
377.222	790.69
377.448	694.69
377.674	719.69
377.899	715.69
378.125	727.69
378.35	704.69
378.576	726.69
378.802	734.69
379.027	827.69
379.253	796.69
379.478	835.69
379.704	872.69
379.929	930.69
380.155	942.69
380.38	823.69
380.606	898.69
380.831	938.69
381.057	902.69
381.282	850.69
381.507	989.69
381.733	1150.69
381.958	1229.69
382.184	1337.69
382.409	1334.69
382.634	1332.69
382.86	1369.69
383.085	1160.69
383.31	955.69
383.535	1030.69
383.761	1053.69
383.986	968.69
384.211	1136.69
384.436	1121.69
384.662	899.69
384.887	867.69
385.112	884.69
385.337	926.69
385.562	879.69
385.787	947.69
386.013	1032.69
386.238	1036.69
386.463	919.69
386.688	879.69
386.913	864.69
387.138	830.69
387.363	856.69
387.588	882.69
387.813	869.69
388.038	938.69
388.263	882.69
388.488	892.69
388.713	972.69
388.938	1027.69
389.163	905.69
389.387	851.69
389.612	822.69
389.837	843.69
390.062	886.69
390.287	916.69
390.512	918.69
390.736	843.69
390.961	835.69
391.186	806.69
391.411	806.69
391.636	814.69
391.86	856.69
392.085	893.69
392.31	890.69
392.534	879.69
392.759	883.69
392.984	863.69
393.208	890.69
393.433	790.69
393.658	766.69
393.882	750.69
394.107	760.69
394.331	764.69
394.556	753.69
394.78	777.69
395.005	784.69
395.229	817.69
395.454	807.69
395.678	798.69
395.903	862.69
396.127	803.69
396.352	823.69
396.576	892.69
396.801	897.69
397.025	955.69
397.249	977.69
397.474	875.69
397.698	872.69
397.922	896.69
398.147	867.69
398.371	879.69
398.595	898.69
398.82	895.69
399.044	923.69
399.268	928.69
399.492	999.69
399.717	1006.69
399.941	1066.69
400.165	1034.69
400.389	986.69
400.613	976.69
400.837	946.69
401.062	889.69
401.286	851.69
401.51	874.69
401.734	888.69
401.958	872.69
402.182	868.69
402.406	864.69
402.63	872.69
402.854	899.69
403.078	992.69
403.302	1204.69
403.526	1216.69
403.75	1136.69
403.974	986.69
404.198	999.69
404.422	1129.69
404.645	1232.69
404.869	1323.69
405.093	1059.69
405.317	968.69
405.541	908.69
405.765	963.69
405.988	947.69
406.212	1009.69
406.436	1157.69
406.66	1228.69
406.883	1034.69
407.107	1084.69
407.331	1213.69
407.555	1164.69
407.778	1018.69
408.002	1008.69
408.226	1032.69
408.449	1018.69
408.673	962.69
408.896	911.69
409.12	886.69
409.344	875.69
409.567	870.69
409.791	887.69
410.014	884.69
410.238	850.69
410.461	866.69
410.685	891.69
410.908	885.69
411.132	883.69
411.355	892.69
411.578	933.69
411.802	900.69
412.025	913.69
412.249	943.69
412.472	902.69
412.695	916.69
412.919	901.69
413.142	902.69
413.365	955.69
413.589	996.69
413.812	935.69
414.035	896.69
414.258	888.69
414.482	964.69
414.705	982.69
414.928	884.69
415.151	849.69
415.374	842.69
415.597	851.69
415.821	886.69
416.044	858.69
416.267	835.69
416.49	859.69
416.713	835.69
416.936	823.69
417.159	821.69
417.382	840.69
417.605	866.69
417.828	874.69
418.051	863.69
418.274	870.69
418.497	888.69
418.72	880.69
418.943	879.69
419.166	917.69
419.389	957.69
419.611	943.69
419.834	937.69
420.057	1008.69
420.28	1003.69
420.503	920.69
420.726	862.69
420.948	876.69
421.171	856.69
421.394	871.69
421.617	821.69
421.839	870.69
422.062	855.69
422.285	875.69
422.507	881.69
422.73	895.69
422.953	907.69
423.175	880.69
423.398	878.69
423.621	940.69
423.843	963.69
424.066	893.69
424.288	929.69
424.511	855.69
424.733	842.69
424.956	895.69
425.178	956.69
425.401	1066.69
425.623	1216.69
425.846	1022.69
426.068	936.69
426.291	977.69
426.513	959.69
426.735	907.69
426.958	913.69
427.18	1060.69
427.402	1289.69
427.625	1269.69
427.847	1079.69
428.069	873.69
428.292	865.69
428.514	860.69
428.736	846.69
428.958	895.69
429.181	1000.69
429.403	855.69
429.625	842.69
429.847	807.69
430.069	854.69
430.292	857.69
430.514	833.69
430.736	871.69
430.958	1034.69
431.18	986.69
431.402	809.69
431.624	782.69
431.846	810.69
432.068	744.69
432.29	790.69
432.512	837.69
432.734	1064.69
432.956	1026.69
433.178	845.69
433.4	824.69
433.622	822.69
433.844	822.69
434.066	897.69
434.287	881.69
434.509	836.69
434.731	830.69
434.953	815.69
435.175	850.69
435.397	979.69
435.618	869.69
435.84	826.69
436.062	801.69
436.284	816.69
436.505	766.69
436.727	770.69
436.949	791.69
437.17	834.69
437.392	849.69
437.614	820.69
437.835	801.69
438.057	804.69
438.278	884.69
438.5	1176.69
438.721	1174.69
438.943	875.69
439.165	806.69
439.386	779.69
439.608	781.69
439.829	766.69
440.05	778.69
440.272	807.69
440.493	915.69
440.715	1058.69
440.936	921.69
441.158	857.69
441.379	822.69
441.6	908.69
441.822	965.69
442.043	849.69
442.264	839.69
442.486	851.69
442.707	841.69
442.928	852.69
443.149	842.69
443.371	889.69
443.592	893.69
443.813	907.69
444.034	868.69
444.255	866.69
444.476	911.69
444.698	891.69
444.919	944.69
445.14	1018.69
445.361	1004.69
445.582	937.69
445.803	931.69
446.024	893.69
446.245	888.69
446.466	883.69
446.687	832.69
446.908	851.69
447.129	807.69
447.35	796.69
447.571	778.69
447.792	758.69
448.013	755.69
448.234	748.69
448.455	768.69
448.675	769.69
448.896	796.69
449.117	786.69
449.338	773.69
449.559	810.69
449.779	834.69
450	833.69
450.221	807.69
450.442	788.69
450.662	787.69
450.883	770.69
451.104	801.69
451.324	785.69
451.545	771.69
451.766	779.69
451.986	760.69
452.207	747.69
452.428	740.69
452.648	737.69
452.869	771.69
453.089	780.69
453.31	788.69
453.53	701.69
453.751	728.69
453.971	723.69
454.192	740.69
454.412	751.69
454.633	739.69
454.853	735.69
455.073	710.69
455.294	728.69
455.514	732.69
455.734	739.69
455.955	775.69
456.175	804.69
456.395	717.69
456.616	686.69
456.836	682.69
457.056	688.69
457.276	712.69
457.497	692.69
457.717	704.69
457.937	683.69
458.157	722.69
458.377	728.69
458.598	726.69
458.818	760.69
459.038	769.69
459.258	787.69
459.478	826.69
459.698	882.69
459.918	849.69
460.138	820.69
460.358	860.69
460.578	831.69
460.798	883.69
461.018	871.69
461.238	842.69
461.458	824.69
461.678	867.69
461.898	916.69
462.118	890.69
462.338	908.69
462.558	907.69
462.777	963.69
462.997	996.69
463.217	994.69
463.437	995.69
463.657	983.69
463.876	903.69
464.096	915.69
464.316	931.69
464.536	959.69
464.755	982.69
464.975	952.69
465.195	914.69
465.414	944.69
465.634	932.69
465.854	902.69
466.073	839.69
466.293	822.69
466.512	902.69
466.732	978.69
466.951	960.69
467.171	908.69
467.391	842.69
467.61	815.69
467.829	884.69
468.049	879.69
468.268	838.69
468.488	840.69
468.707	895.69
468.927	1028.69
469.146	1084.69
469.365	955.69
469.585	873.69
469.804	964.69
470.023	1064.69
470.243	918.69
470.462	898.69
470.681	896.69
470.901	858.69
471.12	917.69
471.339	918.69
471.558	880.69
471.777	916.69
471.997	931.69
472.216	1056.69
472.435	998.69
472.654	942.69
472.873	908.69
473.092	954.69
473.311	981.69
473.53	918.69
473.749	905.69
473.968	915.69
474.187	941.69
474.406	908.69
474.625	898.69
474.844	928.69
475.063	982.69
475.282	988.69
475.501	1045.69
475.72	1057.69
475.939	1014.69
476.158	1034.69
476.377	1200.69
476.596	1355.69
476.814	1422.69
477.033	1165.69
477.252	1024.69
477.471	954.69
477.69	966.69
477.908	1090.69
478.127	1147.69
478.346	1050.69
478.564	1102.69
478.783	1059.69
479.002	1055.69
479.22	1211.69
479.439	1353.69
479.658	1177.69
479.876	1082.69
480.095	1152.69
480.313	1191.69
480.532	1050.69
480.751	1050.69
480.969	1057.69
481.188	1234.69
481.406	1267.69
481.624	1194.69
481.843	1046.69
482.061	1047.69
482.28	1139.69
482.498	1409.69
482.717	1304.69
482.935	1123.69
483.153	1055.69
483.372	1022.69
483.59	1020.69
483.808	1024.69
484.027	979.69
484.245	962.69
484.463	961.69
484.681	993.69
484.9	1107.69
485.118	1137.69
485.336	1060.69
485.554	1009.69
485.772	1026.69
485.99	1132.69
486.209	1186.69
486.427	1170.69
486.645	1141.69
486.863	1191.69
487.081	1179.69
487.299	1238.69
487.517	1221.69
487.735	1144.69
487.953	1179.69
488.171	1193.69
488.389	1148.69
488.607	1070.69
488.825	1104.69
489.043	1138.69
489.261	1308.69
489.479	1328.69
489.696	1226.69
489.914	1120.69
490.132	1060.69
490.35	1111.69
490.568	1076.69
490.786	1103.69
491.003	1091.69
491.221	1108.69
491.439	1106.69
491.657	1093.69
491.874	1138.69
492.092	1354.69
492.31	1521.69
492.527	1525.69
492.745	1394.69
492.963	1218.69
493.18	1206.69
493.398	1248.69
493.615	1228.69
493.833	1171.69
494.05	1167.69
494.268	1180.69
494.485	1189.69
494.703	1153.69
494.92	1157.69
495.138	1161.69
495.355	1151.69
495.573	1164.69
495.79	1199.69
496.008	1488.69
496.225	1380.69
496.442	1294.69
