Data from NickelSpatula_HRD10591_16-33-45-126.txt Node
Date: Mon Jul 22 16:33:45 EDT 2019
User: cochatt
Spectrometer: HR+D1059
Trigger mode: 1
Integration Time (sec): 1.000000E-1
Scans to average: 1
Electric dark correction enabled: true
Nonlinearity correction enabled: false
Boxcar width: 0
XAxis mode: Wavelengths
Number of Pixels in Spectrum: 2048
>>>>>Begin Spectral Data<<<<<
223.165	-14.25
223.4	-14.25
223.635	-14.25
223.869	-24.25
224.104	-25.25
224.338	-13.25
224.573	-3.25
224.808	-11.25
225.042	-1.25
225.277	-6.25
225.511	1.75
225.746	1.75
225.98	4.75
226.215	9.75
226.449	15.75
226.683	16.75
226.918	28.75
227.152	19.75
227.387	38.75
227.621	48.75
227.856	47.75
228.09	52.75
228.324	58.75
228.559	68.75
228.793	65.75
229.027	57.75
229.262	75.75
229.496	83.75
229.73	86.75
229.964	87.75
230.199	86.75
230.433	100.75
230.667	100.75
230.901	75.75
231.136	97.75
231.37	83.75
231.604	105.75
231.838	111.75
232.072	112.75
232.306	111.75
232.541	104.75
232.775	97.75
233.009	100.75
233.243	113.75
233.477	113.75
233.711	128.75
233.945	107.75
234.179	109.75
234.413	124.75
234.647	136.75
234.881	138.75
235.115	136.75
235.349	131.75
235.583	117.75
235.817	117.75
236.051	116.75
236.285	123.75
236.519	146.75
236.753	146.75
236.987	115.75
237.221	130.75
237.455	134.75
237.689	144.75
237.922	131.75
238.156	125.75
238.39	127.75
238.624	166.75
238.858	155.75
239.091	149.75
239.325	142.75
239.559	141.75
239.793	152.75
240.027	166.75
240.26	150.75
240.494	142.75
240.728	147.75
240.961	163.75
241.195	165.75
241.429	144.75
241.662	150.75
241.896	142.75
242.13	135.75
242.363	142.75
242.597	136.75
242.83	142.75
243.064	159.75
243.298	143.75
243.531	164.75
243.765	180.75
243.998	178.75
244.232	164.75
244.465	152.75
244.699	157.75
244.932	186.75
245.166	162.75
245.399	148.75
245.633	148.75
245.866	160.75
246.099	168.75
246.333	175.75
246.566	182.75
246.8	176.75
247.033	194.75
247.266	156.75
247.5	180.75
247.733	172.75
247.966	168.75
248.2	177.75
248.433	184.75
248.666	202.75
248.899	204.75
249.133	191.75
249.366	226.75
249.599	233.75
249.832	227.75
250.066	196.75
250.299	214.75
250.532	208.75
250.765	185.75
250.998	185.75
251.231	172.75
251.465	179.75
251.698	209.75
251.931	205.75
252.164	207.75
252.397	232.75
252.63	236.75
252.863	267.75
253.096	253.75
253.329	248.75
253.562	247.75
253.795	270.75
254.028	290.75
254.261	308.75
254.494	280.75
254.727	271.75
254.96	269.75
255.193	267.75
255.426	266.75
255.659	198.75
255.892	194.75
256.124	218.75
256.357	259.75
256.59	280.75
256.823	255.75
257.056	236.75
257.289	222.75
257.521	227.75
257.754	250.75
257.987	321.75
258.22	258.75
258.452	249.75
258.685	261.75
258.918	270.75
259.151	280.75
259.383	303.75
259.616	331.75
259.849	354.75
260.081	359.75
260.314	387.75
260.547	321.75
260.779	334.75
261.012	380.75
261.244	351.75
261.477	365.75
261.71	339.75
261.942	285.75
262.175	289.75
262.407	266.75
262.64	277.75
262.872	325.75
263.105	352.75
263.337	354.75
263.57	339.75
263.802	229.75
264.035	224.75
264.267	214.75
264.499	188.75
264.732	179.75
264.964	188.75
265.197	177.75
265.429	205.75
265.661	203.75
265.894	200.75
266.126	216.75
266.358	255.75
266.591	279.75
266.823	314.75
267.055	328.75
267.287	284.75
267.52	294.75
267.752	329.75
267.984	328.75
268.216	309.75
268.448	269.75
268.681	244.75
268.913	275.75
269.145	289.75
269.377	296.75
269.609	299.75
269.841	268.75
270.073	305.75
270.306	332.75
270.538	323.75
270.77	326.75
271.002	338.75
271.234	330.75
271.466	332.75
271.698	320.75
271.93	307.75
272.162	296.75
272.394	320.75
272.626	301.75
272.858	309.75
273.09	324.75
273.322	280.75
273.553	252.75
273.785	282.75
274.017	371.75
274.249	460.75
274.481	479.75
274.713	526.75
274.945	595.75
275.176	618.75
275.408	541.75
275.64	515.75
275.872	495.75
276.104	466.75
276.335	385.75
276.567	401.75
276.799	408.75
277.031	442.75
277.262	346.75
277.494	293.75
277.726	256.75
277.957	276.75
278.189	315.75
278.421	322.75
278.652	317.75
278.884	294.75
279.115	288.75
279.347	272.75
279.579	293.75
279.81	269.75
280.042	293.75
280.273	280.75
280.505	264.75
280.736	241.75
280.968	221.75
281.199	261.75
281.431	272.75
281.662	268.75
281.894	272.75
282.125	267.75
282.356	285.75
282.588	331.75
282.819	276.75
283.051	292.75
283.282	331.75
283.513	404.75
283.745	437.75
283.976	439.75
284.207	427.75
284.439	427.75
284.67	380.75
284.901	365.75
285.132	389.75
285.364	409.75
285.595	397.75
285.826	401.75
286.057	422.75
286.288	401.75
286.52	407.75
286.751	436.75
286.982	445.75
287.213	402.75
287.444	381.75
287.675	380.75
287.906	379.75
288.138	342.75
288.369	316.75
288.6	276.75
288.831	300.75
289.062	344.75
289.293	369.75
289.524	360.75
289.755	344.75
289.986	365.75
290.217	312.75
290.448	263.75
290.679	244.75
290.91	210.75
291.141	215.75
291.371	218.75
291.602	242.75
291.833	223.75
292.064	242.75
292.295	263.75
292.526	289.75
292.757	311.75
292.987	341.75
293.218	343.75
293.449	355.75
293.68	376.75
293.91	359.75
294.141	367.75
294.372	356.75
294.603	314.75
294.833	333.75
295.064	404.75
295.295	410.75
295.525	304.75
295.756	251.75
295.987	217.75
296.217	241.75
296.448	214.75
296.679	248.75
296.909	234.75
297.14	279.75
297.37	290.75
297.601	284.75
297.831	258.75
298.062	261.75
298.292	281.75
298.523	312.75
298.753	361.75
298.984	339.75
299.214	279.75
299.445	246.75
299.675	216.75
299.905	233.75
300.136	234.75
300.366	233.75
300.597	243.75
300.827	214.75
301.057	227.75
301.288	221.75
301.518	223.75
301.748	269.75
301.979	277.75
302.209	279.75
302.439	299.75
302.669	263.75
302.9	261.75
303.13	264.75
303.36	254.75
303.59	236.75
303.82	250.75
304.051	268.75
304.281	286.75
304.511	277.75
304.741	255.75
304.971	252.75
305.201	286.75
305.431	262.75
305.661	247.75
305.891	218.75
306.121	220.75
306.352	200.75
306.582	197.75
306.812	199.75
307.042	206.75
307.272	189.75
307.502	202.75
307.731	186.75
307.961	200.75
308.191	210.75
308.421	189.75
308.651	180.75
308.881	163.75
309.111	177.75
309.341	187.75
309.571	201.75
309.8	214.75
310.03	203.75
310.26	208.75
310.49	218.75
310.72	187.75
310.949	185.75
311.179	193.75
311.409	217.75
311.639	233.75
311.868	287.75
312.098	378.75
312.328	399.75
312.557	391.75
312.787	391.75
313.017	337.75
313.246	367.75
313.476	401.75
313.706	330.75
313.935	277.75
314.165	239.75
314.394	217.75
314.624	205.75
314.853	219.75
315.083	227.75
315.312	211.75
315.542	215.75
315.771	204.75
316.001	191.75
316.23	184.75
316.46	207.75
316.689	199.75
316.919	202.75
317.148	198.75
317.377	186.75
317.607	187.75
317.836	214.75
318.065	230.75
318.295	267.75
318.524	236.75
318.753	214.75
318.983	196.75
319.212	189.75
319.441	202.75
319.67	221.75
319.9	265.75
320.129	233.75
320.358	210.75
320.587	208.75
320.816	207.75
321.046	259.75
321.275	273.75
321.504	244.75
321.733	242.75
321.962	254.75
322.191	221.75
322.42	213.75
322.649	227.75
322.878	259.75
323.108	237.75
323.337	242.75
323.566	241.75
323.795	221.75
324.024	216.75
324.253	217.75
324.482	209.75
324.71	220.75
324.939	236.75
325.168	232.75
325.397	201.75
325.626	195.75
325.855	186.75
326.084	205.75
326.313	195.75
326.542	187.75
326.77	181.75
326.999	200.75
327.228	198.75
327.457	211.75
327.686	196.75
327.914	175.75
328.143	171.75
328.372	179.75
328.6	201.75
328.829	188.75
329.058	195.75
329.287	195.75
329.515	195.75
329.744	189.75
329.972	177.75
330.201	189.75
330.43	191.75
330.658	187.75
330.887	215.75
331.115	244.75
331.344	220.75
331.572	220.75
331.801	199.75
332.03	200.75
332.258	202.75
332.486	199.75
332.715	225.75
332.943	214.75
333.172	200.75
333.4	224.75
333.629	238.75
333.857	245.75
334.085	242.75
334.314	236.75
334.542	242.75
334.771	215.75
334.999	209.75
335.227	226.75
335.455	204.75
335.684	224.75
335.912	232.75
336.14	285.75
336.369	265.75
336.597	257.75
336.825	275.75
337.053	307.75
337.281	268.75
337.51	216.75
337.738	223.75
337.966	223.75
338.194	236.75
338.422	211.75
338.65	205.75
338.878	207.75
339.106	209.75
339.334	228.75
339.562	230.75
339.79	215.75
340.018	199.75
340.246	222.75
340.474	245.75
340.702	268.75
340.93	268.75
341.158	261.75
341.386	231.75
341.614	199.75
341.842	215.75
342.07	239.75
342.298	264.75
342.526	278.75
342.754	250.75
342.981	221.75
343.209	215.75
343.437	223.75
343.665	250.75
343.893	254.75
344.12	275.75
344.348	320.75
344.576	283.75
344.804	239.75
345.031	211.75
345.259	205.75
345.487	217.75
345.714	205.75
345.942	233.75
346.17	264.75
346.397	244.75
346.625	211.75
346.853	202.75
347.08	195.75
347.308	211.75
347.535	241.75
347.763	243.75
347.99	209.75
348.218	211.75
348.445	222.75
348.673	213.75
348.9	205.75
349.128	225.75
349.355	218.75
349.583	206.75
349.81	216.75
350.037	195.75
350.265	177.75
350.492	187.75
350.72	165.75
350.947	187.75
351.174	195.75
351.402	200.75
351.629	207.75
351.856	194.75
352.083	184.75
352.311	211.75
352.538	205.75
352.765	232.75
352.992	216.75
353.22	205.75
353.447	200.75
353.674	204.75
353.901	182.75
354.128	199.75
354.355	212.75
354.583	199.75
354.81	212.75
355.037	245.75
355.264	226.75
355.491	213.75
355.718	223.75
355.945	233.75
356.172	218.75
356.399	229.75
356.626	232.75
356.853	284.75
357.08	316.75
357.307	321.75
357.534	267.75
357.761	284.75
357.988	311.75
358.215	351.75
358.441	325.75
358.668	310.75
358.895	272.75
359.122	230.75
359.349	234.75
359.576	269.75
359.802	220.75
360.029	192.75
360.256	191.75
360.483	238.75
360.709	296.75
360.936	309.75
361.163	268.75
361.39	213.75
361.616	189.75
361.843	225.75
362.07	260.75
362.296	245.75
362.523	194.75
362.749	185.75
362.976	208.75
363.203	204.75
363.429	245.75
363.656	191.75
363.882	209.75
364.109	210.75
364.335	214.75
364.562	203.75
364.788	217.75
365.015	236.75
365.241	241.75
365.468	205.75
365.694	189.75
365.92	176.75
366.147	158.75
366.373	181.75
366.599	185.75
366.826	179.75
367.052	186.75
367.278	187.75
367.505	173.75
367.731	193.75
367.957	207.75
368.184	201.75
368.41	196.75
368.636	205.75
368.862	193.75
369.089	204.75
369.315	182.75
369.541	187.75
369.767	182.75
369.993	171.75
370.219	192.75
370.445	195.75
370.672	205.75
370.898	219.75
371.124	228.75
371.35	204.75
371.576	188.75
371.802	200.75
372.028	208.75
372.254	245.75
372.48	205.75
372.706	211.75
372.932	215.75
373.158	211.75
373.384	240.75
373.61	298.75
373.835	305.75
374.061	226.75
374.287	205.75
374.513	230.75
374.739	282.75
374.965	307.75
375.191	308.75
375.416	228.75
375.642	215.75
375.868	219.75
376.094	233.75
376.319	227.75
376.545	228.75
376.771	243.75
376.997	240.75
377.222	199.75
377.448	169.75
377.674	170.75
377.899	171.75
378.125	161.75
378.35	166.75
378.576	169.75
378.802	186.75
379.027	199.75
379.253	190.75
379.478	202.75
379.704	213.75
379.929	220.75
380.155	196.75
380.38	196.75
380.606	182.75
380.831	230.75
381.057	227.75
381.282	209.75
381.507	205.75
381.733	263.75
381.958	258.75
382.184	284.75
382.409	282.75
382.634	295.75
382.86	312.75
383.085	288.75
383.31	232.75
383.535	241.75
383.761	263.75
383.986	242.75
384.211	262.75
384.436	265.75
384.662	216.75
384.887	218.75
385.112	210.75
385.337	209.75
385.562	201.75
385.787	222.75
386.013	245.75
386.238	248.75
386.463	227.75
386.688	216.75
386.913	211.75
387.138	191.75
387.363	201.75
387.588	217.75
387.813	209.75
388.038	229.75
388.263	214.75
388.488	201.75
388.713	220.75
388.938	236.75
389.163	208.75
389.387	199.75
389.612	206.75
389.837	198.75
390.062	223.75
390.287	220.75
390.512	200.75
390.736	219.75
390.961	188.75
391.186	195.75
391.411	189.75
391.636	196.75
391.86	198.75
392.085	222.75
392.31	222.75
392.534	199.75
392.759	204.75
392.984	215.75
393.208	195.75
393.433	195.75
393.658	186.75
393.882	171.75
394.107	171.75
394.331	178.75
394.556	173.75
394.78	191.75
395.005	195.75
395.229	189.75
395.454	171.75
395.678	193.75
395.903	208.75
396.127	191.75
396.352	191.75
396.576	211.75
396.801	234.75
397.025	220.75
397.249	245.75
397.474	187.75
397.698	193.75
397.922	201.75
398.147	208.75
398.371	212.75
398.595	208.75
398.82	216.75
399.044	205.75
399.268	224.75
399.492	214.75
399.717	251.75
399.941	238.75
400.165	253.75
400.389	213.75
400.613	222.75
400.837	219.75
401.062	204.75
401.286	221.75
401.51	200.75
401.734	198.75
401.958	209.75
402.182	205.75
402.406	203.75
402.63	194.75
402.854	206.75
403.078	235.75
403.302	293.75
403.526	303.75
403.75	280.75
403.974	243.75
404.198	233.75
404.422	267.75
404.645	264.75
404.869	300.75
405.093	247.75
405.317	234.75
405.541	219.75
405.765	225.75
405.988	212.75
406.212	227.75
406.436	245.75
406.66	293.75
406.883	236.75
407.107	237.75
407.331	285.75
407.555	265.75
407.778	244.75
408.002	245.75
408.226	261.75
408.449	240.75
408.673	233.75
408.896	205.75
409.12	209.75
409.344	199.75
409.567	215.75
409.791	192.75
410.014	192.75
410.238	201.75
410.461	199.75
410.685	191.75
410.908	207.75
411.132	209.75
411.355	213.75
411.578	205.75
411.802	197.75
412.025	213.75
412.249	215.75
412.472	211.75
412.695	211.75
412.919	205.75
413.142	221.75
413.365	243.75
413.589	246.75
413.812	204.75
414.035	199.75
414.258	199.75
414.482	189.75
414.705	225.75
414.928	199.75
415.151	204.75
415.374	191.75
415.597	193.75
415.821	205.75
416.044	191.75
416.267	198.75
416.49	203.75
416.713	190.75
416.936	201.75
417.159	212.75
417.382	208.75
417.605	188.75
417.828	210.75
418.051	207.75
418.274	205.75
418.497	188.75
418.72	201.75
418.943	217.75
419.166	213.75
419.389	207.75
419.611	214.75
419.834	213.75
420.057	236.75
420.28	219.75
420.503	211.75
420.726	185.75
420.948	198.75
421.171	201.75
421.394	201.75
421.617	189.75
421.839	188.75
422.062	188.75
422.285	194.75
422.507	199.75
422.73	214.75
422.953	215.75
423.175	218.75
423.398	231.75
423.621	227.75
423.843	240.75
424.066	210.75
424.288	190.75
424.511	203.75
424.733	198.75
424.956	197.75
425.178	218.75
425.401	251.75
425.623	292.75
425.846	239.75
426.068	200.75
426.291	244.75
426.513	205.75
426.735	202.75
426.958	220.75
427.18	231.75
427.402	308.75
427.625	279.75
427.847	247.75
428.069	196.75
428.292	197.75
428.514	202.75
428.736	200.75
428.958	224.75
429.181	257.75
429.403	220.75
429.625	201.75
429.847	197.75
430.069	203.75
430.292	188.75
430.514	200.75
430.736	200.75
430.958	221.75
431.18	211.75
431.402	184.75
431.624	182.75
431.846	181.75
432.068	165.75
432.29	178.75
432.512	195.75
432.734	249.75
432.956	235.75
433.178	201.75
433.4	195.75
433.622	191.75
433.844	189.75
434.066	217.75
434.287	211.75
434.509	199.75
434.731	216.75
434.953	201.75
435.175	208.75
435.397	244.75
435.618	186.75
435.84	191.75
436.062	197.75
436.284	197.75
436.505	178.75
436.727	175.75
436.949	195.75
437.17	180.75
437.392	212.75
437.614	191.75
437.835	199.75
438.057	198.75
438.278	198.75
438.5	256.75
438.721	270.75
438.943	212.75
439.165	175.75
439.386	185.75
439.608	179.75
439.829	171.75
440.05	173.75
440.272	196.75
440.493	195.75
440.715	239.75
440.936	215.75
441.158	185.75
441.379	203.75
441.6	213.75
441.822	217.75
442.043	201.75
442.264	187.75
442.486	202.75
442.707	182.75
442.928	183.75
443.149	196.75
443.371	205.75
443.592	191.75
443.813	204.75
444.034	203.75
444.255	212.75
444.476	216.75
444.698	216.75
444.919	231.75
445.14	333.75
445.361	289.75
445.582	210.75
445.803	217.75
446.024	216.75
446.245	226.75
446.466	204.75
446.687	195.75
446.908	205.75
447.129	179.75
447.35	181.75
447.571	156.75
447.792	191.75
448.013	176.75
448.234	175.75
448.455	177.75
448.675	180.75
448.896	182.75
449.117	167.75
449.338	175.75
449.559	183.75
449.779	193.75
450	198.75
450.221	191.75
450.442	194.75
450.662	191.75
450.883	194.75
451.104	184.75
451.324	177.75
451.545	180.75
451.766	171.75
451.986	188.75
452.207	193.75
452.428	189.75
452.648	180.75
452.869	168.75
453.089	181.75
453.31	192.75
453.53	179.75
453.751	181.75
453.971	191.75
454.192	184.75
454.412	202.75
454.633	183.75
454.853	167.75
455.073	164.75
455.294	168.75
455.514	176.75
455.734	181.75
455.955	183.75
456.175	193.75
456.395	177.75
456.616	175.75
456.836	166.75
457.056	160.75
457.276	162.75
457.497	167.75
457.717	172.75
457.937	156.75
458.157	182.75
458.377	164.75
458.598	165.75
458.818	157.75
459.038	183.75
459.258	192.75
459.478	188.75
459.698	197.75
459.918	197.75
460.138	189.75
460.358	204.75
460.578	200.75
460.798	207.75
461.018	203.75
461.238	195.75
461.458	205.75
461.678	213.75
461.898	228.75
462.118	221.75
462.338	213.75
462.558	224.75
462.777	240.75
462.997	235.75
463.217	236.75
463.437	241.75
463.657	225.75
463.876	215.75
464.096	232.75
464.316	232.75
464.536	228.75
464.755	236.75
464.975	220.75
465.195	214.75
465.414	215.75
465.634	219.75
465.854	206.75
466.073	200.75
466.293	187.75
466.512	216.75
466.732	214.75
466.951	205.75
467.171	221.75
467.391	201.75
467.61	183.75
467.829	208.75
468.049	213.75
468.268	199.75
468.488	198.75
468.707	167.75
468.927	207.75
469.146	234.75
469.365	218.75
469.585	202.75
469.804	208.75
470.023	235.75
470.243	195.75
470.462	202.75
470.681	188.75
470.901	198.75
471.12	210.75
471.339	218.75
471.558	203.75
471.777	214.75
471.997	202.75
472.216	237.75
472.435	240.75
472.654	201.75
472.873	226.75
473.092	231.75
473.311	219.75
473.53	202.75
473.749	210.75
473.968	217.75
474.187	216.75
474.406	204.75
474.625	195.75
474.844	190.75
475.063	213.75
475.282	232.75
475.501	241.75
475.72	259.75
475.939	241.75
476.158	228.75
476.377	256.75
476.596	308.75
476.814	311.75
477.033	271.75
477.252	211.75
477.471	204.75
477.69	224.75
477.908	219.75
478.127	251.75
478.346	211.75
478.564	270.75
478.783	244.75
479.002	223.75
479.22	265.75
479.439	272.75
479.658	250.75
479.876	242.75
480.095	236.75
480.313	265.75
480.532	247.75
480.751	234.75
480.969	232.75
481.188	263.75
481.406	277.75
481.624	269.75
481.843	233.75
482.061	204.75
482.28	245.75
482.498	315.75
482.717	298.75
482.935	231.75
483.153	244.75
483.372	225.75
483.59	202.75
483.808	223.75
484.027	219.75
484.245	225.75
484.463	216.75
484.681	219.75
484.9	226.75
485.118	245.75
485.336	225.75
485.554	231.75
485.772	234.75
485.99	239.75
486.209	258.75
486.427	252.75
486.645	263.75
486.863	233.75
487.081	241.75
487.299	290.75
487.517	271.75
487.735	261.75
487.953	257.75
488.171	257.75
488.389	230.75
488.607	234.75
488.825	231.75
489.043	252.75
489.261	281.75
489.479	305.75
489.696	256.75
489.914	221.75
490.132	230.75
490.35	221.75
490.568	229.75
490.786	242.75
491.003	211.75
491.221	234.75
491.439	228.75
491.657	218.75
491.874	245.75
492.092	299.75
492.31	355.75
492.527	311.75
492.745	283.75
492.963	249.75
493.18	232.75
493.398	256.75
493.615	257.75
493.833	254.75
494.05	231.75
494.268	261.75
494.485	253.75
494.703	232.75
494.92	246.75
495.138	225.75
495.355	240.75
495.573	264.75
495.79	268.75
496.008	336.75
496.225	294.75
496.442	258.75
496.66	263.75
496.877	269.75
497.094	286.75
497.312	255.75
497.529	263.75
497.746	246.75
497.963	264.75
498.181	285.75
498.398	296.75
498.615	320.75
498.832	327.75
499.049	347.75
499.267	315.75
499.484	309.75
499.701	338.75
499.918	355.75
500.135	388.75
500.352	395.75
500.569	424.75
500.786	456.75
501.003	432.75
501.22	385.75
501.437	359.75
501.654	341.75
501.871	327.75
502.088	313.75
502.305	289.75
502.522	293.75
502.739	302.75
