Data from NickelSpatula_HRD10591_16-35-25-126.txt Node
Date: Mon Jul 22 16:35:25 EDT 2019
User: cochatt
Spectrometer: HR+D1059
Trigger mode: 1
Integration Time (sec): 1.000000E-1
Scans to average: 1
Electric dark correction enabled: true
Nonlinearity correction enabled: false
Boxcar width: 0
XAxis mode: Wavelengths
Number of Pixels in Spectrum: 2048
>>>>>Begin Spectral Data<<<<<
223.165	-26.81
223.4	-26.81
223.635	-26.81
223.869	-24.81
224.104	-17.81
224.338	-13.81
224.573	-13.81
224.808	-1.81
225.042	-7.81
225.277	-3.81
225.511	-4.81
225.746	2.19
225.98	15.19
226.215	9.19
226.449	25.19
226.683	13.19
226.918	19.19
227.152	31.19
227.387	19.19
227.621	34.19
227.856	58.19
228.09	48.19
228.324	55.19
228.559	55.19
228.793	63.19
229.027	80.19
229.262	79.19
229.496	75.19
229.73	85.19
229.964	75.19
230.199	75.19
230.433	95.19
230.667	74.19
230.901	95.19
231.136	92.19
231.37	99.19
231.604	91.19
231.838	100.19
232.072	96.19
232.306	99.19
232.541	114.19
232.775	97.19
233.009	116.19
233.243	112.19
233.477	110.19
233.711	110.19
233.945	119.19
234.179	116.19
234.413	117.19
234.647	134.19
234.881	139.19
235.115	119.19
235.349	138.19
235.583	126.19
235.817	117.19
236.051	136.19
236.285	139.19
236.519	144.19
236.753	143.19
236.987	140.19
237.221	134.19
237.455	135.19
237.689	134.19
237.922	134.19
238.156	148.19
238.39	144.19
238.624	176.19
238.858	151.19
239.091	143.19
239.325	139.19
239.559	123.19
239.793	148.19
240.027	161.19
240.26	156.19
240.494	165.19
240.728	146.19
240.961	178.19
241.195	165.19
241.429	169.19
241.662	175.19
241.896	140.19
242.13	146.19
242.363	145.19
242.597	140.19
242.83	141.19
243.064	155.19
243.298	180.19
243.531	188.19
243.765	166.19
243.998	178.19
244.232	170.19
244.465	174.19
244.699	163.19
244.932	159.19
245.166	180.19
245.399	168.19
245.633	153.19
245.866	156.19
246.099	169.19
246.333	178.19
246.566	202.19
246.8	208.19
247.033	196.19
247.266	171.19
247.5	181.19
247.733	164.19
247.966	195.19
248.2	172.19
248.433	199.19
248.666	197.19
248.899	188.19
249.133	209.19
249.366	249.19
249.599	246.19
249.832	226.19
250.066	203.19
250.299	192.19
250.532	182.19
250.765	206.19
250.998	170.19
251.231	167.19
251.465	204.19
251.698	209.19
251.931	201.19
252.164	199.19
252.397	223.19
252.63	227.19
252.863	280.19
253.096	268.19
253.329	253.19
253.562	250.19
253.795	284.19
254.028	320.19
254.261	308.19
254.494	286.19
254.727	279.19
254.96	256.19
255.193	283.19
255.426	284.19
255.659	223.19
255.892	170.19
256.124	216.19
256.357	238.19
256.59	283.19
256.823	256.19
257.056	213.19
257.289	214.19
257.521	216.19
257.754	279.19
257.987	297.19
258.22	256.19
258.452	240.19
258.685	267.19
258.918	286.19
259.151	270.19
259.383	294.19
259.616	327.19
259.849	316.19
260.081	355.19
260.314	376.19
260.547	322.19
260.779	322.19
261.012	365.19
261.244	326.19
261.477	340.19
261.71	326.19
261.942	296.19
262.175	294.19
262.407	280.19
262.64	279.19
262.872	320.19
263.105	338.19
263.337	345.19
263.57	322.19
263.802	259.19
264.035	218.19
264.267	202.19
264.499	167.19
264.732	176.19
264.964	189.19
265.197	178.19
265.429	180.19
265.661	204.19
265.894	210.19
266.126	208.19
266.358	230.19
266.591	270.19
266.823	326.19
267.055	331.19
267.287	289.19
267.52	264.19
267.752	297.19
267.984	312.19
268.216	308.19
268.448	272.19
268.681	259.19
268.913	274.19
269.145	284.19
269.377	288.19
269.609	316.19
269.841	295.19
270.073	294.19
270.306	307.19
270.538	314.19
270.77	309.19
271.002	297.19
271.234	326.19
271.466	331.19
271.698	310.19
271.93	318.19
272.162	304.19
272.394	312.19
272.626	311.19
272.858	314.19
273.09	325.19
273.322	292.19
273.553	266.19
273.785	291.19
274.017	372.19
274.249	474.19
274.481	492.19
274.713	528.19
274.945	601.19
275.176	614.19
275.408	570.19
275.64	530.19
275.872	520.19
276.104	457.19
276.335	408.19
276.567	400.19
276.799	402.19
277.031	433.19
277.262	329.19
277.494	261.19
277.726	269.19
277.957	290.19
278.189	331.19
278.421	320.19
278.652	301.19
278.884	299.19
279.115	264.19
279.347	278.19
279.579	259.19
279.81	260.19
280.042	275.19
280.273	279.19
280.505	278.19
280.736	238.19
280.968	230.19
281.199	227.19
281.431	261.19
281.662	267.19
281.894	245.19
282.125	290.19
282.356	286.19
282.588	297.19
282.819	277.19
283.051	294.19
283.282	347.19
283.513	378.19
283.745	434.19
283.976	431.19
284.207	403.19
284.439	422.19
284.67	406.19
284.901	358.19
285.132	401.19
285.364	414.19
285.595	372.19
285.826	410.19
286.057	425.19
286.288	378.19
286.52	372.19
286.751	438.19
286.982	438.19
287.213	379.19
287.444	348.19
287.675	376.19
287.906	387.19
288.138	336.19
288.369	293.19
288.6	276.19
288.831	282.19
289.062	344.19
289.293	336.19
289.524	343.19
289.755	334.19
289.986	334.19
290.217	318.19
290.448	250.19
290.679	201.19
290.91	198.19
291.141	217.19
291.371	228.19
291.602	225.19
291.833	225.19
292.064	234.19
292.295	269.19
292.526	289.19
292.757	289.19
292.987	324.19
293.218	318.19
293.449	349.19
293.68	339.19
293.91	299.19
294.141	332.19
294.372	322.19
294.603	298.19
294.833	326.19
295.064	394.19
295.295	348.19
295.525	268.19
295.756	268.19
295.987	209.19
296.217	213.19
296.448	228.19
296.679	238.19
296.909	248.19
297.14	276.19
297.37	309.19
297.601	306.19
297.831	258.19
298.062	256.19
298.292	292.19
298.523	318.19
298.753	355.19
298.984	326.19
299.214	258.19
299.445	229.19
299.675	224.19
299.905	231.19
300.136	235.19
300.366	245.19
300.597	244.19
300.827	210.19
301.057	197.19
301.288	215.19
301.518	220.19
301.748	253.19
301.979	284.19
302.209	283.19
302.439	272.19
302.669	253.19
302.9	255.19
303.13	246.19
303.36	231.19
303.59	229.19
303.82	224.19
304.051	250.19
304.281	285.19
304.511	289.19
304.741	242.19
304.971	230.19
305.201	262.19
305.431	258.19
305.661	210.19
305.891	212.19
306.121	208.19
306.352	187.19
306.582	186.19
306.812	178.19
307.042	192.19
307.272	165.19
307.502	185.19
307.731	171.19
307.961	204.19
308.191	189.19
308.421	178.19
308.651	168.19
308.881	174.19
309.111	184.19
309.341	176.19
309.571	177.19
309.8	209.19
310.03	201.19
310.26	206.19
310.49	199.19
310.72	186.19
310.949	196.19
311.179	178.19
311.409	203.19
311.639	218.19
311.868	309.19
312.098	347.19
312.328	379.19
312.557	356.19
312.787	353.19
313.017	331.19
313.246	348.19
313.476	354.19
313.706	319.19
313.935	246.19
314.165	230.19
314.394	211.19
314.624	208.19
314.853	202.19
315.083	226.19
315.312	226.19
315.542	203.19
315.771	203.19
316.001	192.19
316.23	159.19
316.46	180.19
316.689	174.19
316.919	176.19
317.148	192.19
317.377	189.19
317.607	187.19
317.836	192.19
318.065	219.19
318.295	251.19
318.524	216.19
318.753	214.19
318.983	193.19
319.212	188.19
319.441	209.19
319.67	224.19
319.9	223.19
320.129	231.19
320.358	196.19
320.587	193.19
320.816	207.19
321.046	232.19
321.275	262.19
321.504	251.19
321.733	243.19
321.962	232.19
322.191	231.19
322.42	200.19
322.649	220.19
322.878	215.19
323.108	235.19
323.337	234.19
323.566	210.19
323.795	219.19
324.024	196.19
324.253	213.19
324.482	202.19
324.71	210.19
324.939	222.19
325.168	226.19
325.397	202.19
325.626	191.19
325.855	178.19
326.084	189.19
326.313	195.19
326.542	189.19
326.77	204.19
326.999	188.19
327.228	210.19
327.457	205.19
327.686	187.19
327.914	191.19
328.143	182.19
328.372	174.19
328.6	188.19
328.829	187.19
329.058	193.19
329.287	179.19
329.515	197.19
329.744	186.19
329.972	162.19
330.201	163.19
330.43	196.19
330.658	178.19
330.887	208.19
331.115	212.19
331.344	193.19
331.572	214.19
331.801	202.19
332.03	176.19
332.258	174.19
332.486	188.19
332.715	199.19
332.943	198.19
333.172	200.19
333.4	205.19
333.629	214.19
333.857	216.19
334.085	214.19
334.314	223.19
334.542	214.19
334.771	185.19
334.999	183.19
335.227	191.19
335.455	194.19
335.684	197.19
335.912	232.19
336.14	274.19
336.369	252.19
336.597	228.19
336.825	279.19
337.053	295.19
337.281	248.19
337.51	192.19
337.738	190.19
337.966	197.19
338.194	220.19
338.422	204.19
338.65	187.19
338.878	183.19
339.106	189.19
339.334	209.19
339.562	198.19
339.79	194.19
340.018	190.19
340.246	205.19
340.474	231.19
340.702	246.19
340.93	221.19
341.158	266.19
341.386	222.19
341.614	197.19
341.842	195.19
342.07	218.19
342.298	258.19
342.526	264.19
342.754	217.19
342.981	214.19
343.209	217.19
343.437	225.19
343.665	239.19
343.893	238.19
344.12	274.19
344.348	302.19
344.576	284.19
344.804	231.19
345.031	213.19
345.259	202.19
345.487	208.19
345.714	219.19
345.942	235.19
346.17	240.19
346.397	214.19
346.625	190.19
346.853	198.19
347.08	191.19
347.308	206.19
347.535	228.19
347.763	218.19
347.99	200.19
348.218	204.19
348.445	196.19
348.673	196.19
348.9	208.19
349.128	198.19
349.355	206.19
349.583	221.19
349.81	184.19
350.037	206.19
350.265	174.19
350.492	167.19
350.72	166.19
350.947	172.19
351.174	179.19
351.402	198.19
351.629	188.19
351.856	178.19
352.083	175.19
352.311	193.19
352.538	198.19
352.765	242.19
352.992	199.19
353.22	209.19
353.447	212.19
353.674	183.19
353.901	198.19
354.128	203.19
354.355	191.19
354.583	209.19
354.81	203.19
355.037	208.19
355.264	219.19
355.491	201.19
355.718	226.19
355.945	219.19
356.172	212.19
356.399	187.19
356.626	246.19
356.853	294.19
357.08	327.19
357.307	332.19
357.534	268.19
357.761	261.19
357.988	320.19
358.215	359.19
358.441	344.19
358.668	296.19
358.895	286.19
359.122	257.19
359.349	247.19
359.576	262.19
359.802	236.19
360.029	215.19
360.256	221.19
360.483	257.19
360.709	302.19
360.936	315.19
361.163	266.19
361.39	232.19
361.616	204.19
361.843	231.19
362.07	263.19
362.296	258.19
362.523	213.19
362.749	176.19
362.976	182.19
363.203	215.19
363.429	252.19
363.656	218.19
363.882	204.19
364.109	202.19
364.335	198.19
364.562	188.19
364.788	220.19
365.015	238.19
365.241	222.19
365.468	185.19
365.694	178.19
365.92	177.19
366.147	169.19
366.373	180.19
366.599	146.19
366.826	165.19
367.052	184.19
367.278	170.19
367.505	156.19
367.731	186.19
367.957	198.19
368.184	183.19
368.41	207.19
368.636	197.19
368.862	202.19
369.089	201.19
369.315	188.19
369.541	179.19
369.767	175.19
369.993	180.19
370.219	178.19
370.445	180.19
370.672	187.19
370.898	224.19
371.124	224.19
371.35	198.19
371.576	175.19
371.802	182.19
372.028	221.19
372.254	236.19
372.48	228.19
372.706	219.19
372.932	202.19
373.158	222.19
373.384	260.19
373.61	302.19
373.835	316.19
374.061	252.19
374.287	228.19
374.513	262.19
374.739	300.19
374.965	298.19
375.191	298.19
375.416	217.19
375.642	195.19
375.868	223.19
376.094	235.19
376.319	212.19
376.545	250.19
376.771	250.19
376.997	223.19
377.222	176.19
377.448	166.19
377.674	158.19
377.899	155.19
378.125	151.19
378.35	145.19
378.576	177.19
378.802	165.19
379.027	183.19
379.253	185.19
379.478	181.19
379.704	206.19
379.929	203.19
380.155	223.19
380.38	193.19
380.606	216.19
380.831	215.19
381.057	213.19
381.282	200.19
381.507	228.19
381.733	243.19
381.958	270.19
382.184	274.19
382.409	291.19
382.634	293.19
382.86	306.19
383.085	270.19
383.31	225.19
383.535	227.19
383.761	232.19
383.986	217.19
384.211	262.19
384.436	280.19
384.662	225.19
384.887	209.19
385.112	214.19
385.337	216.19
385.562	214.19
385.787	213.19
386.013	242.19
386.238	242.19
386.463	203.19
386.688	199.19
386.913	192.19
387.138	175.19
387.363	182.19
387.588	189.19
387.813	208.19
388.038	218.19
388.263	198.19
388.488	200.19
388.713	220.19
388.938	236.19
389.163	207.19
389.387	200.19
389.612	204.19
389.837	195.19
390.062	184.19
390.287	201.19
390.512	197.19
390.736	204.19
390.961	190.19
391.186	176.19
391.411	174.19
391.636	181.19
391.86	203.19
392.085	213.19
392.31	212.19
392.534	181.19
392.759	203.19
392.984	209.19
393.208	209.19
393.433	178.19
393.658	172.19
393.882	165.19
394.107	170.19
394.331	158.19
394.556	156.19
394.78	165.19
395.005	174.19
395.229	179.19
395.454	166.19
395.678	183.19
395.903	178.19
396.127	193.19
396.352	198.19
396.576	197.19
396.801	203.19
397.025	215.19
397.249	216.19
397.474	202.19
397.698	196.19
397.922	208.19
398.147	180.19
398.371	192.19
398.595	182.19
398.82	185.19
399.044	168.19
399.268	190.19
399.492	206.19
399.717	214.19
399.941	216.19
400.165	216.19
400.389	203.19
400.613	217.19
400.837	211.19
401.062	177.19
401.286	182.19
401.51	196.19
401.734	190.19
401.958	187.19
402.182	196.19
402.406	195.19
402.63	191.19
402.854	198.19
403.078	207.19
403.302	249.19
403.526	274.19
403.75	276.19
403.974	215.19
404.198	232.19
404.422	231.19
404.645	267.19
404.869	296.19
405.093	244.19
405.317	197.19
405.541	198.19
405.765	201.19
405.988	217.19
406.212	215.19
406.436	224.19
406.66	250.19
406.883	200.19
407.107	223.19
407.331	267.19
407.555	240.19
407.778	225.19
408.002	200.19
408.226	208.19
408.449	228.19
408.673	213.19
408.896	182.19
409.12	163.19
409.344	186.19
409.567	195.19
409.791	181.19
410.014	180.19
410.238	191.19
410.461	198.19
410.685	185.19
410.908	185.19
411.132	193.19
411.355	183.19
411.578	199.19
411.802	204.19
412.025	183.19
412.249	195.19
412.472	210.19
412.695	194.19
412.919	192.19
413.142	185.19
413.365	221.19
413.589	220.19
413.812	196.19
414.035	198.19
414.258	188.19
414.482	197.19
414.705	202.19
414.928	180.19
415.151	193.19
415.374	179.19
415.597	188.19
415.821	179.19
416.044	193.19
416.267	176.19
416.49	182.19
416.713	183.19
416.936	194.19
417.159	178.19
417.382	193.19
417.605	180.19
417.828	190.19
418.051	189.19
418.274	204.19
418.497	192.19
418.72	167.19
418.943	192.19
419.166	192.19
419.389	206.19
419.611	227.19
419.834	208.19
420.057	228.19
420.28	241.19
420.503	204.19
420.726	193.19
420.948	181.19
421.171	178.19
421.394	182.19
421.617	164.19
421.839	178.19
422.062	205.19
422.285	194.19
422.507	196.19
422.73	199.19
422.953	199.19
423.175	188.19
423.398	194.19
423.621	222.19
423.843	224.19
424.066	197.19
424.288	211.19
424.511	176.19
424.733	183.19
424.956	200.19
425.178	216.19
425.401	254.19
425.623	259.19
425.846	226.19
426.068	200.19
426.291	224.19
426.513	201.19
426.735	205.19
426.958	196.19
427.18	243.19
427.402	299.19
427.625	270.19
427.847	258.19
428.069	202.19
428.292	184.19
428.514	187.19
428.736	192.19
428.958	200.19
429.181	234.19
429.403	199.19
429.625	192.19
429.847	178.19
430.069	195.19
430.292	179.19
430.514	177.19
430.736	185.19
430.958	220.19
431.18	214.19
431.402	177.19
431.624	176.19
431.846	174.19
432.068	164.19
432.29	168.19
432.512	192.19
432.734	220.19
432.956	242.19
433.178	184.19
433.4	178.19
433.622	191.19
433.844	190.19
434.066	211.19
434.287	203.19
434.509	197.19
434.731	195.19
434.953	201.19
435.175	205.19
435.397	218.19
435.618	186.19
435.84	174.19
436.062	169.19
436.284	173.19
436.505	178.19
436.727	165.19
436.949	163.19
437.17	174.19
437.392	187.19
437.614	170.19
437.835	182.19
438.057	164.19
438.278	203.19
438.5	254.19
438.721	262.19
438.943	197.19
439.165	185.19
439.386	175.19
439.608	167.19
439.829	157.19
440.05	169.19
440.272	154.19
440.493	208.19
440.715	240.19
440.936	191.19
441.158	192.19
441.379	191.19
441.6	209.19
441.822	223.19
442.043	190.19
442.264	191.19
442.486	197.19
442.707	189.19
442.928	194.19
443.149	210.19
443.371	188.19
443.592	204.19
443.813	191.19
444.034	203.19
444.255	191.19
444.476	203.19
444.698	186.19
444.919	206.19
445.14	316.19
445.361	270.19
445.582	201.19
445.803	210.19
446.024	214.19
446.245	211.19
446.466	202.19
446.687	187.19
446.908	185.19
447.129	177.19
447.35	183.19
447.571	177.19
447.792	164.19
448.013	168.19
448.234	161.19
448.455	164.19
448.675	160.19
448.896	182.19
449.117	169.19
449.338	184.19
449.559	160.19
449.779	190.19
450	192.19
450.221	179.19
450.442	176.19
450.662	170.19
450.883	168.19
451.104	176.19
451.324	176.19
451.545	175.19
451.766	157.19
451.986	174.19
452.207	178.19
452.428	171.19
452.648	155.19
452.869	178.19
453.089	158.19
453.31	178.19
453.53	158.19
453.751	168.19
453.971	159.19
454.192	175.19
454.412	167.19
454.633	171.19
454.853	171.19
455.073	159.19
455.294	153.19
455.514	164.19
455.734	168.19
455.955	189.19
456.175	177.19
456.395	168.19
456.616	153.19
456.836	167.19
457.056	154.19
457.276	163.19
457.497	147.19
457.717	169.19
457.937	165.19
458.157	148.19
458.377	167.19
458.598	155.19
458.818	155.19
459.038	167.19
459.258	180.19
459.478	178.19
459.698	196.19
459.918	203.19
460.138	188.19
460.358	201.19
460.578	184.19
460.798	204.19
461.018	192.19
461.238	197.19
461.458	184.19
461.678	175.19
461.898	198.19
462.118	193.19
462.338	195.19
462.558	194.19
462.777	228.19
462.997	220.19
463.217	214.19
463.437	212.19
463.657	214.19
463.876	199.19
464.096	217.19
464.316	198.19
464.536	207.19
464.755	212.19
464.975	241.19
465.195	206.19
465.414	212.19
465.634	200.19
465.854	195.19
466.073	182.19
466.293	183.19
466.512	213.19
466.732	220.19
466.951	212.19
467.171	201.19
467.391	178.19
467.61	178.19
467.829	207.19
468.049	180.19
468.268	186.19
468.488	186.19
468.707	189.19
468.927	214.19
469.146	239.19
469.365	218.19
469.585	198.19
469.804	208.19
470.023	222.19
470.243	217.19
470.462	211.19
470.681	193.19
470.901	195.19
471.12	210.19
471.339	208.19
471.558	190.19
471.777	201.19
471.997	220.19
472.216	232.19
472.435	227.19
472.654	201.19
472.873	198.19
473.092	204.19
473.311	223.19
473.53	190.19
473.749	194.19
473.968	218.19
474.187	203.19
474.406	195.19
474.625	213.19
474.844	201.19
475.063	198.19
475.282	197.19
475.501	218.19
475.72	250.19
475.939	226.19
476.158	239.19
476.377	242.19
476.596	296.19
476.814	293.19
477.033	258.19
477.252	211.19
477.471	196.19
477.69	204.19
477.908	215.19
478.127	214.19
478.346	214.19
478.564	250.19
478.783	245.19
479.002	234.19
479.22	256.19
479.439	273.19
479.658	256.19
479.876	214.19
480.095	244.19
480.313	237.19
480.532	234.19
480.751	226.19
480.969	225.19
481.188	238.19
481.406	239.19
481.624	240.19
481.843	235.19
482.061	227.19
482.28	247.19
482.498	306.19
482.717	294.19
482.935	254.19
483.153	233.19
483.372	188.19
483.59	206.19
483.808	210.19
484.027	201.19
484.245	196.19
484.463	196.19
484.681	223.19
484.9	207.19
485.118	228.19
485.336	221.19
485.554	210.19
485.772	216.19
485.99	233.19
486.209	263.19
486.427	238.19
486.645	232.19
486.863	258.19
487.081	236.19
487.299	279.19
487.517	282.19
487.735	244.19
487.953	227.19
488.171	249.19
488.389	233.19
488.607	222.19
488.825	234.19
489.043	248.19
489.261	275.19
489.479	299.19
489.696	243.19
489.914	238.19
490.132	203.19
490.35	208.19
490.568	222.19
490.786	214.19
491.003	232.19
491.221	225.19
491.439	209.19
491.657	233.19
491.874	244.19
492.092	282.19
492.31	372.19
492.527	338.19
492.745	283.19
492.963	258.19
493.18	256.19
493.398	248.19
493.615	249.19
493.833	257.19
494.05	260.19
494.268	238.19
494.485	241.19
494.703	215.19
494.92	235.19
495.138	219.19
495.355	225.19
495.573	231.19
495.79	276.19
496.008	366.19
496.225	304.19
496.442	276.19
496.66	266.19
496.877	277.19
497.094	250.19
497.312	248.19
497.529	260.19
497.746	253.19
497.963	248.19
498.181	280.19
498.398	291.19
498.615	321.19
498.832	317.19
499.049	331.19
499.267	283.19
499.484	292.19
499.701	306.19
499.918	332.19
500.135	359.19
500.352	374.19
500.569	391.19
500.786	400.19
501.003	372.19
501.22	337.19
501.437	338.19
501.654	323.19
501.871	295.19
502.088	297.19
502.305	274.19
502.522	302.19
502.739	295.19
