Data from NickelSpatula_HRD10591_16-35-37-126.txt Node
Date: Mon Jul 22 16:35:37 EDT 2019
User: cochatt
Spectrometer: HR+D1059
Trigger mode: 1
Integration Time (sec): 1.000000E-1
Scans to average: 1
Electric dark correction enabled: true
Nonlinearity correction enabled: false
Boxcar width: 0
XAxis mode: Wavelengths
Number of Pixels in Spectrum: 2048
>>>>>Begin Spectral Data<<<<<
223.165	-8.69
223.4	-8.69
223.635	-8.69
223.869	-21.69
224.104	-22.69
224.338	-14.69
224.573	-16.69
224.808	-17.69
225.042	-18.69
225.277	2.31
225.511	0.31
225.746	10.31
225.98	14.31
226.215	1.31
226.449	26.31
226.683	22.31
226.918	13.31
227.152	30.31
227.387	47.31
227.621	39.31
227.856	37.31
228.09	43.31
228.324	61.31
228.559	75.31
228.793	55.31
229.027	80.31
229.262	78.31
229.496	80.31
229.73	77.31
229.964	81.31
230.199	98.31
230.433	89.31
230.667	96.31
230.901	91.31
231.136	89.31
231.37	96.31
231.604	98.31
231.838	108.31
232.072	102.31
232.306	106.31
232.541	111.31
232.775	104.31
233.009	90.31
233.243	105.31
233.477	109.31
233.711	126.31
233.945	129.31
234.179	124.31
234.413	121.31
234.647	124.31
234.881	130.31
235.115	116.31
235.349	136.31
235.583	119.31
235.817	127.31
236.051	112.31
236.285	127.31
236.519	136.31
236.753	139.31
236.987	143.31
237.221	122.31
237.455	129.31
237.689	136.31
237.922	127.31
238.156	125.31
238.39	131.31
238.624	152.31
238.858	145.31
239.091	140.31
239.325	143.31
239.559	135.31
239.793	112.31
240.027	140.31
240.26	146.31
240.494	135.31
240.728	144.31
240.961	152.31
241.195	160.31
241.429	161.31
241.662	147.31
241.896	144.31
242.13	141.31
242.363	140.31
242.597	130.31
242.83	157.31
243.064	145.31
243.298	143.31
243.531	173.31
243.765	146.31
243.998	153.31
244.232	142.31
244.465	145.31
244.699	138.31
244.932	165.31
245.166	148.31
245.399	147.31
245.633	132.31
245.866	139.31
246.099	164.31
246.333	177.31
246.566	175.31
246.8	177.31
247.033	201.31
247.266	162.31
247.5	169.31
247.733	165.31
247.966	156.31
248.2	156.31
248.433	170.31
248.666	172.31
248.899	179.31
249.133	168.31
249.366	180.31
249.599	197.31
249.832	200.31
250.066	183.31
250.299	181.31
250.532	174.31
250.765	169.31
250.998	158.31
251.231	163.31
251.465	172.31
251.698	194.31
251.931	175.31
252.164	189.31
252.397	177.31
252.63	224.31
252.863	217.31
253.096	229.31
253.329	220.31
253.562	210.31
253.795	247.31
254.028	260.31
254.261	281.31
254.494	249.31
254.727	209.31
254.96	217.31
255.193	238.31
255.426	229.31
255.659	177.31
255.892	168.31
256.124	174.31
256.357	217.31
256.59	229.31
256.823	233.31
257.056	199.31
257.289	194.31
257.521	200.31
257.754	220.31
257.987	246.31
258.22	226.31
258.452	204.31
258.685	231.31
258.918	246.31
259.151	233.31
259.383	247.31
259.616	276.31
259.849	259.31
260.081	289.31
260.314	313.31
260.547	269.31
260.779	277.31
261.012	301.31
261.244	286.31
261.477	303.31
261.71	263.31
261.942	230.31
262.175	227.31
262.407	226.31
262.64	227.31
262.872	276.31
263.105	277.31
263.337	294.31
263.57	278.31
263.802	208.31
264.035	194.31
264.267	166.31
264.499	165.31
264.732	166.31
264.964	173.31
265.197	163.31
265.429	177.31
265.661	163.31
265.894	189.31
266.126	192.31
266.358	204.31
266.591	246.31
266.823	287.31
267.055	257.31
267.287	249.31
267.52	248.31
267.752	250.31
267.984	267.31
268.216	244.31
268.448	228.31
268.681	216.31
268.913	239.31
269.145	234.31
269.377	265.31
269.609	253.31
269.841	237.31
270.073	240.31
270.306	255.31
270.538	281.31
270.77	256.31
271.002	264.31
271.234	282.31
271.466	280.31
271.698	260.31
271.93	258.31
272.162	248.31
272.394	258.31
272.626	244.31
272.858	268.31
273.09	260.31
273.322	219.31
273.553	233.31
273.785	274.31
274.017	320.31
274.249	374.31
274.481	386.31
274.713	416.31
274.945	470.31
275.176	496.31
275.408	444.31
275.64	417.31
275.872	415.31
276.104	356.31
276.335	337.31
276.567	338.31
276.799	359.31
277.031	348.31
277.262	274.31
277.494	232.31
277.726	216.31
277.957	243.31
278.189	274.31
278.421	257.31
278.652	264.31
278.884	235.31
279.115	235.31
279.347	220.31
279.579	250.31
279.81	223.31
280.042	222.31
280.273	228.31
280.505	224.31
280.736	206.31
280.968	196.31
281.199	211.31
281.431	226.31
281.662	234.31
281.894	244.31
282.125	253.31
282.356	251.31
282.588	259.31
282.819	219.31
283.051	266.31
283.282	294.31
283.513	328.31
283.745	340.31
283.976	333.31
284.207	333.31
284.439	330.31
284.67	332.31
284.901	285.31
285.132	304.31
285.364	338.31
285.595	310.31
285.826	328.31
286.057	340.31
286.288	322.31
286.52	330.31
286.751	354.31
286.982	352.31
287.213	297.31
287.444	301.31
287.675	301.31
287.906	295.31
288.138	271.31
288.369	248.31
288.6	245.31
288.831	249.31
289.062	280.31
289.293	295.31
289.524	290.31
289.755	280.31
289.986	286.31
290.217	274.31
290.448	207.31
290.679	199.31
290.91	185.31
291.141	176.31
291.371	190.31
291.602	199.31
291.833	174.31
292.064	204.31
292.295	224.31
292.526	258.31
292.757	241.31
292.987	274.31
293.218	271.31
293.449	285.31
293.68	308.31
293.91	293.31
294.141	280.31
294.372	276.31
294.603	257.31
294.833	277.31
295.064	329.31
295.295	281.31
295.525	238.31
295.756	218.31
295.987	201.31
296.217	192.31
296.448	175.31
296.679	185.31
296.909	212.31
297.14	222.31
297.37	244.31
297.601	235.31
297.831	205.31
298.062	234.31
298.292	246.31
298.523	264.31
298.753	303.31
298.984	281.31
299.214	225.31
299.445	189.31
299.675	195.31
299.905	171.31
300.136	203.31
300.366	192.31
300.597	216.31
300.827	182.31
301.057	192.31
301.288	186.31
301.518	194.31
301.748	226.31
301.979	214.31
302.209	236.31
302.439	239.31
302.669	212.31
302.9	222.31
303.13	210.31
303.36	208.31
303.59	195.31
303.82	205.31
304.051	209.31
304.281	229.31
304.511	231.31
304.741	224.31
304.971	225.31
305.201	234.31
305.431	215.31
305.661	189.31
305.891	189.31
306.121	197.31
306.352	194.31
306.582	186.31
306.812	157.31
307.042	156.31
307.272	151.31
307.502	166.31
307.731	167.31
307.961	165.31
308.191	166.31
308.421	152.31
308.651	156.31
308.881	164.31
309.111	178.31
309.341	168.31
309.571	165.31
309.8	186.31
310.03	168.31
310.26	186.31
310.49	180.31
310.72	190.31
310.949	165.31
311.179	171.31
311.409	169.31
311.639	191.31
311.868	221.31
312.098	296.31
312.328	308.31
312.557	312.31
312.787	309.31
313.017	266.31
313.246	283.31
313.476	327.31
313.706	281.31
313.935	229.31
314.165	195.31
314.394	174.31
314.624	189.31
314.853	188.31
315.083	189.31
315.312	179.31
315.542	166.31
315.771	183.31
316.001	161.31
316.23	158.31
316.46	172.31
316.689	165.31
316.919	160.31
317.148	173.31
317.377	158.31
317.607	170.31
317.836	186.31
318.065	201.31
318.295	209.31
318.524	208.31
318.753	187.31
318.983	185.31
319.212	176.31
319.441	185.31
319.67	196.31
319.9	227.31
320.129	199.31
320.358	176.31
320.587	163.31
320.816	170.31
321.046	198.31
321.275	201.31
321.504	210.31
321.733	223.31
321.962	214.31
322.191	193.31
322.42	178.31
322.649	187.31
322.878	206.31
323.108	224.31
323.337	202.31
323.566	190.31
323.795	171.31
324.024	184.31
324.253	190.31
324.482	184.31
324.71	190.31
324.939	185.31
325.168	198.31
325.397	162.31
325.626	169.31
325.855	154.31
326.084	181.31
326.313	173.31
326.542	172.31
326.77	157.31
326.999	159.31
327.228	165.31
327.457	169.31
327.686	172.31
327.914	152.31
328.143	174.31
328.372	165.31
328.6	169.31
328.829	160.31
329.058	159.31
329.287	151.31
329.515	161.31
329.744	180.31
329.972	160.31
330.201	155.31
330.43	161.31
330.658	172.31
330.887	194.31
331.115	176.31
331.344	180.31
331.572	180.31
331.801	160.31
332.03	154.31
332.258	159.31
332.486	165.31
332.715	177.31
332.943	172.31
333.172	175.31
333.4	183.31
333.629	188.31
333.857	198.31
334.085	198.31
334.314	204.31
334.542	201.31
334.771	165.31
334.999	175.31
335.227	165.31
335.455	177.31
335.684	184.31
335.912	228.31
336.14	220.31
336.369	219.31
336.597	216.31
336.825	220.31
337.053	268.31
337.281	208.31
337.51	174.31
337.738	181.31
337.966	184.31
338.194	193.31
338.422	201.31
338.65	180.31
338.878	159.31
339.106	158.31
339.334	197.31
339.562	185.31
339.79	188.31
340.018	169.31
340.246	177.31
340.474	210.31
340.702	216.31
340.93	206.31
341.158	205.31
341.386	191.31
341.614	206.31
341.842	175.31
342.07	194.31
342.298	220.31
342.526	217.31
342.754	201.31
342.981	190.31
343.209	193.31
343.437	197.31
343.665	192.31
343.893	198.31
344.12	216.31
344.348	248.31
344.576	229.31
344.804	205.31
345.031	160.31
345.259	163.31
345.487	166.31
345.714	173.31
345.942	193.31
346.17	205.31
346.397	186.31
346.625	172.31
346.853	178.31
347.08	165.31
347.308	183.31
347.535	210.31
347.763	193.31
347.99	185.31
348.218	169.31
348.445	191.31
348.673	152.31
348.9	192.31
349.128	187.31
349.355	189.31
349.583	185.31
349.81	173.31
350.037	178.31
350.265	152.31
350.492	150.31
350.72	146.31
350.947	158.31
351.174	136.31
351.402	175.31
351.629	170.31
351.856	178.31
352.083	172.31
352.311	188.31
352.538	191.31
352.765	197.31
352.992	190.31
353.22	180.31
353.447	190.31
353.674	162.31
353.901	161.31
354.128	165.31
354.355	178.31
354.583	175.31
354.81	197.31
355.037	192.31
355.264	186.31
355.491	185.31
355.718	199.31
355.945	200.31
356.172	195.31
356.399	186.31
356.626	209.31
356.853	270.31
357.08	270.31
357.307	244.31
357.534	217.31
357.761	224.31
357.988	261.31
358.215	284.31
358.441	282.31
358.668	255.31
358.895	243.31
359.122	192.31
359.349	187.31
359.576	196.31
359.802	182.31
360.029	175.31
360.256	183.31
360.483	200.31
360.709	251.31
360.936	252.31
361.163	234.31
361.39	186.31
361.616	176.31
361.843	201.31
362.07	228.31
362.296	213.31
362.523	180.31
362.749	170.31
362.976	170.31
363.203	183.31
363.429	197.31
363.656	186.31
363.882	172.31
364.109	180.31
364.335	197.31
364.562	196.31
364.788	182.31
365.015	213.31
365.241	180.31
365.468	182.31
365.694	166.31
365.92	150.31
366.147	156.31
366.373	152.31
366.599	149.31
366.826	142.31
367.052	142.31
367.278	154.31
367.505	146.31
367.731	155.31
367.957	180.31
368.184	174.31
368.41	181.31
368.636	198.31
368.862	182.31
369.089	180.31
369.315	159.31
369.541	161.31
369.767	144.31
369.993	158.31
370.219	184.31
370.445	157.31
370.672	174.31
370.898	180.31
371.124	184.31
371.35	164.31
371.576	154.31
371.802	172.31
372.028	187.31
372.254	222.31
372.48	192.31
372.706	180.31
372.932	186.31
373.158	186.31
373.384	212.31
373.61	236.31
373.835	265.31
374.061	199.31
374.287	178.31
374.513	213.31
374.739	246.31
374.965	225.31
375.191	236.31
375.416	200.31
375.642	175.31
375.868	206.31
376.094	186.31
376.319	178.31
376.545	191.31
376.771	223.31
376.997	172.31
377.222	143.31
377.448	148.31
377.674	150.31
377.899	151.31
378.125	169.31
378.35	144.31
378.576	145.31
378.802	147.31
379.027	158.31
379.253	164.31
379.478	158.31
379.704	172.31
379.929	194.31
380.155	196.31
380.38	183.31
380.606	191.31
380.831	195.31
381.057	193.31
381.282	175.31
381.507	191.31
381.733	231.31
381.958	225.31
382.184	253.31
382.409	252.31
382.634	244.31
382.86	261.31
383.085	223.31
383.31	202.31
383.535	207.31
383.761	215.31
383.986	198.31
384.211	207.31
384.436	209.31
384.662	181.31
384.887	175.31
385.112	184.31
385.337	183.31
385.562	181.31
385.787	184.31
386.013	192.31
386.238	206.31
386.463	194.31
386.688	185.31
386.913	168.31
387.138	172.31
387.363	176.31
387.588	181.31
387.813	198.31
388.038	198.31
388.263	177.31
388.488	165.31
388.713	197.31
388.938	206.31
389.163	190.31
389.387	174.31
389.612	182.31
389.837	169.31
390.062	174.31
390.287	159.31
390.512	166.31
390.736	191.31
390.961	168.31
391.186	176.31
391.411	161.31
391.636	175.31
391.86	170.31
392.085	181.31
392.31	184.31
392.534	170.31
392.759	181.31
392.984	184.31
393.208	169.31
393.433	142.31
393.658	169.31
393.882	150.31
394.107	163.31
394.331	164.31
394.556	166.31
394.78	166.31
395.005	165.31
395.229	173.31
395.454	153.31
395.678	167.31
395.903	169.31
396.127	161.31
396.352	169.31
396.576	173.31
396.801	184.31
397.025	188.31
397.249	210.31
397.474	150.31
397.698	181.31
397.922	176.31
398.147	165.31
398.371	165.31
398.595	197.31
398.82	181.31
399.044	193.31
399.268	184.31
399.492	197.31
399.717	191.31
399.941	184.31
400.165	189.31
400.389	205.31
400.613	190.31
400.837	181.31
401.062	165.31
401.286	176.31
401.51	162.31
401.734	171.31
401.958	174.31
402.182	160.31
402.406	167.31
402.63	182.31
402.854	173.31
403.078	199.31
403.302	236.31
403.526	264.31
403.75	226.31
403.974	204.31
404.198	204.31
404.422	224.31
404.645	220.31
404.869	234.31
405.093	205.31
405.317	177.31
405.541	169.31
405.765	194.31
405.988	187.31
406.212	188.31
406.436	216.31
406.66	227.31
406.883	200.31
407.107	209.31
407.331	212.31
407.555	224.31
407.778	202.31
408.002	190.31
408.226	200.31
408.449	202.31
408.673	190.31
408.896	177.31
409.12	171.31
409.344	175.31
409.567	167.31
409.791	166.31
410.014	171.31
410.238	164.31
410.461	162.31
410.685	177.31
410.908	153.31
411.132	177.31
411.355	188.31
411.578	177.31
411.802	172.31
412.025	183.31
412.249	184.31
412.472	162.31
412.695	163.31
412.919	169.31
413.142	177.31
413.365	207.31
413.589	193.31
413.812	176.31
414.035	175.31
414.258	184.31
414.482	197.31
414.705	209.31
414.928	184.31
415.151	190.31
415.374	165.31
415.597	196.31
415.821	169.31
416.044	174.31
416.267	170.31
416.49	155.31
416.713	169.31
416.936	173.31
417.159	171.31
417.382	177.31
417.605	165.31
417.828	168.31
418.051	181.31
418.274	191.31
418.497	171.31
418.72	180.31
418.943	187.31
419.166	185.31
419.389	193.31
419.611	205.31
419.834	184.31
420.057	190.31
420.28	212.31
420.503	186.31
420.726	160.31
420.948	164.31
421.171	182.31
421.394	182.31
421.617	164.31
421.839	175.31
422.062	177.31
422.285	187.31
422.507	171.31
422.73	172.31
422.953	172.31
423.175	177.31
423.398	184.31
423.621	193.31
423.843	204.31
424.066	186.31
424.288	175.31
424.511	186.31
424.733	177.31
424.956	188.31
425.178	202.31
425.401	226.31
425.623	245.31
425.846	215.31
426.068	197.31
426.291	222.31
426.513	190.31
426.735	181.31
426.958	194.31
427.18	185.31
427.402	250.31
427.625	233.31
427.847	212.31
428.069	176.31
428.292	162.31
428.514	178.31
428.736	166.31
428.958	185.31
429.181	211.31
429.403	188.31
429.625	172.31
429.847	190.31
430.069	185.31
430.292	177.31
430.514	170.31
430.736	184.31
430.958	194.31
431.18	198.31
431.402	162.31
431.624	168.31
431.846	164.31
432.068	164.31
432.29	166.31
432.512	185.31
432.734	225.31
432.956	201.31
433.178	154.31
433.4	166.31
433.622	166.31
433.844	170.31
434.066	182.31
434.287	172.31
434.509	165.31
434.731	191.31
434.953	175.31
435.175	195.31
435.397	211.31
435.618	192.31
435.84	154.31
436.062	164.31
436.284	177.31
436.505	163.31
436.727	170.31
436.949	162.31
437.17	174.31
437.392	178.31
437.614	171.31
437.835	176.31
438.057	174.31
438.278	188.31
438.5	226.31
438.721	226.31
438.943	184.31
439.165	169.31
439.386	173.31
439.608	152.31
439.829	154.31
440.05	169.31
440.272	163.31
440.493	173.31
440.715	210.31
440.936	190.31
441.158	178.31
441.379	164.31
441.6	186.31
441.822	195.31
442.043	175.31
442.264	172.31
442.486	185.31
442.707	162.31
442.928	178.31
443.149	174.31
443.371	180.31
443.592	187.31
443.813	171.31
444.034	166.31
444.255	188.31
444.476	181.31
444.698	189.31
444.919	177.31
445.14	299.31
445.361	245.31
445.582	209.31
445.803	176.31
446.024	198.31
446.245	182.31
446.466	178.31
446.687	185.31
446.908	184.31
447.129	172.31
447.35	160.31
447.571	173.31
447.792	169.31
448.013	164.31
448.234	158.31
448.455	154.31
448.675	155.31
448.896	163.31
449.117	161.31
449.338	168.31
449.559	167.31
449.779	177.31
450	174.31
450.221	183.31
450.442	163.31
450.662	156.31
450.883	165.31
451.104	171.31
451.324	160.31
451.545	180.31
451.766	158.31
451.986	170.31
452.207	148.31
452.428	165.31
452.648	164.31
452.869	171.31
453.089	187.31
453.31	159.31
453.53	153.31
453.751	155.31
453.971	147.31
454.192	160.31
454.412	159.31
454.633	152.31
454.853	173.31
455.073	169.31
455.294	155.31
455.514	164.31
455.734	152.31
455.955	168.31
456.175	170.31
456.395	159.31
456.616	149.31
456.836	154.31
457.056	146.31
457.276	138.31
457.497	146.31
457.717	138.31
457.937	152.31
458.157	147.31
458.377	157.31
458.598	153.31
458.818	157.31
459.038	151.31
459.258	160.31
459.478	161.31
459.698	177.31
459.918	166.31
460.138	169.31
460.358	189.31
460.578	165.31
460.798	174.31
461.018	166.31
461.238	167.31
461.458	175.31
461.678	188.31
461.898	189.31
462.118	166.31
462.338	192.31
462.558	174.31
462.777	194.31
462.997	193.31
463.217	207.31
463.437	200.31
463.657	204.31
463.876	210.31
464.096	204.31
464.316	183.31
464.536	195.31
464.755	204.31
464.975	199.31
465.195	202.31
465.414	202.31
465.634	193.31
465.854	182.31
466.073	176.31
466.293	158.31
466.512	178.31
466.732	189.31
466.951	196.31
467.171	178.31
467.391	180.31
467.61	161.31
467.829	188.31
468.049	177.31
468.268	170.31
468.488	161.31
468.707	169.31
468.927	190.31
469.146	207.31
469.365	201.31
469.585	173.31
469.804	194.31
470.023	197.31
470.243	192.31
470.462	188.31
470.681	187.31
470.901	167.31
471.12	188.31
471.339	179.31
471.558	180.31
471.777	200.31
471.997	201.31
472.216	215.31
472.435	192.31
472.654	195.31
472.873	191.31
473.092	195.31
473.311	206.31
473.53	170.31
473.749	187.31
473.968	198.31
474.187	187.31
474.406	172.31
474.625	188.31
474.844	171.31
475.063	177.31
475.282	201.31
475.501	202.31
475.72	240.31
475.939	220.31
476.158	197.31
476.377	236.31
476.596	257.31
476.814	264.31
477.033	241.31
477.252	209.31
477.471	183.31
477.69	172.31
477.908	200.31
478.127	208.31
478.346	205.31
478.564	238.31
478.783	223.31
479.002	206.31
479.22	223.31
479.439	242.31
479.658	218.31
479.876	206.31
480.095	241.31
480.313	235.31
480.532	213.31
480.751	209.31
480.969	202.31
481.188	219.31
481.406	225.31
481.624	218.31
481.843	194.31
482.061	186.31
482.28	208.31
482.498	272.31
482.717	256.31
482.935	212.31
483.153	206.31
483.372	198.31
483.59	197.31
483.808	204.31
484.027	196.31
484.245	180.31
484.463	174.31
484.681	205.31
484.9	205.31
485.118	211.31
485.336	182.31
485.554	205.31
485.772	189.31
485.99	212.31
486.209	248.31
486.427	217.31
486.645	209.31
486.863	222.31
487.081	199.31
487.299	248.31
487.517	242.31
487.735	199.31
487.953	224.31
488.171	227.31
488.389	204.31
488.607	196.31
488.825	227.31
489.043	228.31
489.261	245.31
489.479	260.31
489.696	214.31
489.914	212.31
490.132	208.31
490.35	196.31
490.568	207.31
490.786	198.31
491.003	194.31
491.221	196.31
491.439	207.31
491.657	214.31
491.874	216.31
492.092	246.31
492.31	297.31
492.527	290.31
492.745	246.31
492.963	233.31
493.18	221.31
493.398	231.31
493.615	245.31
493.833	214.31
494.05	220.31
494.268	216.31
494.485	203.31
494.703	224.31
494.92	206.31
495.138	221.31
495.355	213.31
495.573	208.31
495.79	240.31
496.008	308.31
496.225	269.31
496.442	223.31
496.66	238.31
496.877	239.31
497.094	236.31
497.312	233.31
497.529	225.31
497.746	216.31
497.963	241.31
498.181	231.31
498.398	256.31
498.615	281.31
498.832	282.31
499.049	286.31
499.267	258.31
499.484	276.31
499.701	282.31
499.918	296.31
500.135	316.31
500.352	332.31
500.569	335.31
500.786	348.31
501.003	343.31
501.22	311.31
501.437	292.31
501.654	266.31
501.871	270.31
502.088	260.31
502.305	245.31
502.522	263.31
502.739	257.31
