Data from NickelSpatula.Lamp.E5.5.P2_HRD10591_11-53-04-551.txt Node
Date: Tue Jul 23 11:53:04 EDT 2019
User: cochatt
Spectrometer: HR+D1059
Trigger mode: 1
Integration Time (sec): 1.000000E-1
Scans to average: 1
Electric dark correction enabled: true
Nonlinearity correction enabled: false
Boxcar width: 0
XAxis mode: Wavelengths
Number of Pixels in Spectrum: 2048
>>>>>Begin Spectral Data<<<<<
223.165	-24.06
223.4	-24.06
223.635	-24.06
223.869	-15.06
224.104	-21.06
224.338	-8.06
224.573	-17.06
224.808	-17.06
225.042	4.94
225.277	-3.06
225.511	12.94
225.746	-14.06
225.98	13.94
226.215	9.94
226.449	1.94
226.683	22.94
226.918	18.94
227.152	33.94
227.387	45.94
227.621	41.94
227.856	54.94
228.09	38.94
228.324	66.94
228.559	52.94
228.793	53.94
229.027	65.94
229.262	73.94
229.496	86.94
229.73	72.94
229.964	78.94
230.199	87.94
230.433	87.94
230.667	84.94
230.901	93.94
231.136	98.94
231.37	97.94
231.604	98.94
231.838	114.94
232.072	104.94
232.306	106.94
232.541	104.94
232.775	104.94
233.009	104.94
233.243	112.94
233.477	113.94
233.711	122.94
233.945	118.94
234.179	120.94
234.413	131.94
234.647	140.94
234.881	150.94
235.115	124.94
235.349	136.94
235.583	128.94
235.817	111.94
236.051	120.94
236.285	132.94
236.519	139.94
236.753	138.94
236.987	131.94
237.221	134.94
237.455	145.94
237.689	137.94
237.922	131.94
238.156	142.94
238.39	161.94
238.624	173.94
238.858	157.94
239.091	149.94
239.325	144.94
239.559	142.94
239.793	143.94
240.027	170.94
240.26	165.94
240.494	161.94
240.728	177.94
240.961	200.94
241.195	154.94
241.429	182.94
241.662	170.94
241.896	159.94
242.13	145.94
242.363	128.94
242.597	132.94
242.83	174.94
243.064	146.94
243.298	170.94
243.531	168.94
243.765	174.94
243.998	158.94
244.232	172.94
244.465	153.94
244.699	153.94
244.932	183.94
245.166	171.94
245.399	149.94
245.633	151.94
245.866	160.94
246.099	156.94
246.333	179.94
246.566	184.94
246.8	186.94
247.033	174.94
247.266	157.94
247.5	185.94
247.733	176.94
247.966	179.94
248.2	155.94
248.433	190.94
248.666	194.94
248.899	186.94
249.133	210.94
249.366	229.94
249.599	239.94
249.832	219.94
250.066	197.94
250.299	213.94
250.532	211.94
250.765	192.94
250.998	183.94
251.231	177.94
251.465	183.94
251.698	206.94
251.931	194.94
252.164	196.94
252.397	219.94
252.63	241.94
252.863	258.94
253.096	274.94
253.329	261.94
253.562	248.94
253.795	266.94
254.028	304.94
254.261	305.94
254.494	290.94
254.727	265.94
254.96	252.94
255.193	268.94
255.426	255.94
255.659	216.94
255.892	193.94
256.124	212.94
256.357	247.94
256.59	285.94
256.823	257.94
257.056	222.94
257.289	211.94
257.521	223.94
257.754	269.94
257.987	305.94
258.22	283.94
258.452	248.94
258.685	267.94
258.918	281.94
259.151	280.94
259.383	314.94
259.616	359.94
259.849	345.94
260.081	363.94
260.314	409.94
260.547	345.94
260.779	346.94
261.012	377.94
261.244	358.94
261.477	368.94
261.71	344.94
261.942	283.94
262.175	285.94
262.407	279.94
262.64	285.94
262.872	348.94
263.105	350.94
263.337	367.94
263.57	337.94
263.802	235.94
264.035	211.94
264.267	222.94
264.499	206.94
264.732	186.94
264.964	182.94
265.197	172.94
265.429	207.94
265.661	202.94
265.894	227.94
266.126	221.94
266.358	252.94
266.591	287.94
266.823	323.94
267.055	310.94
267.287	280.94
267.52	294.94
267.752	319.94
267.984	329.94
268.216	309.94
268.448	271.94
268.681	253.94
268.913	287.94
269.145	294.94
269.377	304.94
269.609	287.94
269.841	273.94
270.073	281.94
270.306	291.94
270.538	321.94
270.77	335.94
271.002	325.94
271.234	342.94
271.466	331.94
271.698	305.94
271.93	302.94
272.162	303.94
272.394	319.94
272.626	311.94
272.858	319.94
273.09	322.94
273.322	270.94
273.553	267.94
273.785	320.94
274.017	411.94
274.249	488.94
274.481	471.94
274.713	531.94
274.945	611.94
275.176	640.94
275.408	549.94
275.64	528.94
275.872	555.94
276.104	478.94
276.335	413.94
276.567	416.94
276.799	403.94
277.031	433.94
277.262	356.94
277.494	278.94
277.726	262.94
277.957	282.94
278.189	313.94
278.421	333.94
278.652	320.94
278.884	281.94
279.115	282.94
279.347	276.94
279.579	290.94
279.81	277.94
280.042	281.94
280.273	290.94
280.505	262.94
280.736	246.94
280.968	238.94
281.199	257.94
281.431	281.94
281.662	259.94
281.894	257.94
282.125	267.94
282.356	316.94
282.588	313.94
282.819	284.94
283.051	291.94
283.282	352.94
283.513	405.94
283.745	447.94
283.976	426.94
284.207	416.94
284.439	430.94
284.67	414.94
284.901	362.94
285.132	396.94
285.364	419.94
285.595	387.94
285.826	406.94
286.057	395.94
286.288	417.94
286.52	411.94
286.751	440.94
286.982	443.94
287.213	378.94
287.444	374.94
287.675	370.94
287.906	386.94
288.138	337.94
288.369	301.94
288.6	282.94
288.831	303.94
289.062	372.94
289.293	373.94
289.524	365.94
289.755	337.94
289.986	371.94
290.217	322.94
290.448	270.94
290.679	254.94
290.91	213.94
291.141	214.94
291.371	242.94
291.602	214.94
291.833	239.94
292.064	253.94
292.295	273.94
292.526	302.94
292.757	327.94
292.987	335.94
293.218	353.94
293.449	345.94
293.68	397.94
293.91	341.94
294.141	383.94
294.372	381.94
294.603	322.94
294.833	357.94
295.064	416.94
295.295	395.94
295.525	285.94
295.756	258.94
295.987	245.94
296.217	237.94
296.448	231.94
296.679	258.94
296.909	265.94
297.14	283.94
297.37	308.94
297.601	305.94
297.831	271.94
298.062	280.94
298.292	312.94
298.523	331.94
298.753	374.94
298.984	339.94
299.214	265.94
299.445	242.94
299.675	250.94
299.905	226.94
300.136	234.94
300.366	280.94
300.597	249.94
300.827	220.94
301.057	230.94
301.288	239.94
301.518	240.94
301.748	278.94
301.979	297.94
302.209	319.94
302.439	323.94
302.669	272.94
302.9	268.94
303.13	274.94
303.36	250.94
303.59	237.94
303.82	273.94
304.051	294.94
304.281	281.94
304.511	293.94
304.741	266.94
304.971	270.94
305.201	290.94
305.431	265.94
305.661	242.94
305.891	235.94
306.121	235.94
306.352	212.94
306.582	214.94
306.812	190.94
307.042	193.94
307.272	198.94
307.502	209.94
307.731	214.94
307.961	223.94
308.191	200.94
308.421	208.94
308.651	190.94
308.881	193.94
309.111	201.94
309.341	202.94
309.571	202.94
309.8	212.94
310.03	225.94
310.26	226.94
310.49	239.94
310.72	208.94
310.949	212.94
311.179	207.94
311.409	222.94
311.639	238.94
311.868	278.94
312.098	357.94
312.328	417.94
312.557	371.94
312.787	406.94
313.017	340.94
313.246	362.94
313.476	405.94
313.706	338.94
313.935	285.94
314.165	237.94
314.394	222.94
314.624	214.94
314.853	235.94
315.083	248.94
315.312	243.94
315.542	239.94
315.771	216.94
316.001	201.94
316.23	211.94
316.46	199.94
316.689	214.94
316.919	194.94
317.148	207.94
317.377	218.94
317.607	199.94
317.836	225.94
318.065	229.94
318.295	256.94
318.524	256.94
318.753	227.94
318.983	221.94
319.212	215.94
319.441	209.94
319.67	217.94
319.9	242.94
320.129	253.94
320.358	220.94
320.587	214.94
320.816	216.94
321.046	237.94
321.275	276.94
321.504	287.94
321.733	276.94
321.962	258.94
322.191	248.94
322.42	225.94
322.649	243.94
322.878	244.94
323.108	277.94
323.337	237.94
323.566	247.94
323.795	231.94
324.024	223.94
324.253	227.94
324.482	208.94
324.71	238.94
324.939	260.94
325.168	242.94
325.397	227.94
325.626	222.94
325.855	216.94
326.084	227.94
326.313	201.94
326.542	211.94
326.77	219.94
326.999	213.94
327.228	224.94
327.457	234.94
327.686	219.94
327.914	217.94
328.143	210.94
328.372	196.94
328.6	202.94
328.829	204.94
329.058	210.94
329.287	217.94
329.515	211.94
329.744	222.94
329.972	203.94
330.201	207.94
330.43	203.94
330.658	211.94
330.887	226.94
331.115	214.94
331.344	238.94
331.572	223.94
331.801	203.94
332.03	203.94
332.258	219.94
332.486	222.94
332.715	220.94
332.943	225.94
333.172	233.94
333.4	225.94
333.629	254.94
333.857	245.94
334.085	256.94
334.314	255.94
334.542	249.94
334.771	214.94
334.999	226.94
335.227	221.94
335.455	223.94
335.684	248.94
335.912	257.94
336.14	281.94
336.369	278.94
336.597	281.94
336.825	285.94
337.053	305.94
337.281	287.94
337.51	219.94
337.738	253.94
337.966	243.94
338.194	246.94
338.422	251.94
338.65	218.94
338.878	208.94
339.106	224.94
339.334	224.94
339.562	240.94
339.79	238.94
340.018	218.94
340.246	233.94
340.474	238.94
340.702	250.94
340.93	278.94
341.158	290.94
341.386	244.94
341.614	266.94
341.842	249.94
342.07	256.94
342.298	297.94
342.526	287.94
342.754	250.94
342.981	233.94
343.209	229.94
343.437	254.94
343.665	261.94
343.893	257.94
344.12	312.94
344.348	363.94
344.576	317.94
344.804	262.94
345.031	228.94
345.259	208.94
345.487	231.94
345.714	233.94
345.942	231.94
346.17	270.94
346.397	247.94
346.625	211.94
346.853	233.94
347.08	236.94
347.308	234.94
347.535	234.94
347.763	274.94
347.99	234.94
348.218	255.94
348.445	219.94
348.673	217.94
348.9	231.94
349.128	243.94
349.355	242.94
349.583	241.94
349.81	232.94
350.037	227.94
350.265	216.94
350.492	187.94
350.72	190.94
350.947	187.94
351.174	195.94
351.402	226.94
351.629	215.94
351.856	215.94
352.083	211.94
352.311	210.94
352.538	233.94
352.765	243.94
352.992	243.94
353.22	221.94
353.447	224.94
353.674	225.94
353.901	224.94
354.128	223.94
354.355	227.94
354.583	221.94
354.81	234.94
355.037	225.94
355.264	224.94
355.491	233.94
355.718	249.94
355.945	239.94
356.172	234.94
356.399	218.94
356.626	283.94
356.853	319.94
357.08	331.94
357.307	363.94
357.534	271.94
357.761	309.94
357.988	357.94
358.215	403.94
358.441	375.94
358.668	320.94
358.895	314.94
359.122	275.94
359.349	263.94
359.576	296.94
359.802	251.94
360.029	227.94
360.256	240.94
360.483	282.94
360.709	351.94
360.936	333.94
361.163	295.94
361.39	234.94
361.616	236.94
361.843	249.94
362.07	282.94
362.296	281.94
362.523	237.94
362.749	210.94
362.976	219.94
363.203	266.94
363.429	273.94
363.656	239.94
363.882	230.94
364.109	233.94
364.335	235.94
364.562	213.94
364.788	245.94
365.015	258.94
365.241	246.94
365.468	217.94
365.694	213.94
365.92	192.94
366.147	192.94
366.373	184.94
366.599	190.94
366.826	215.94
367.052	198.94
367.278	209.94
367.505	201.94
367.731	204.94
367.957	245.94
368.184	236.94
368.41	232.94
368.636	234.94
368.862	238.94
369.089	216.94
369.315	197.94
369.541	215.94
369.767	214.94
369.993	201.94
370.219	197.94
370.445	220.94
370.672	222.94
370.898	245.94
371.124	228.94
371.35	221.94
371.576	205.94
371.802	219.94
372.028	233.94
372.254	294.94
372.48	267.94
372.706	240.94
372.932	255.94
373.158	237.94
373.384	301.94
373.61	350.94
373.835	367.94
374.061	306.94
374.287	259.94
374.513	293.94
374.739	345.94
374.965	368.94
375.191	351.94
375.416	281.94
375.642	244.94
375.868	251.94
376.094	301.94
376.319	254.94
376.545	268.94
376.771	285.94
376.997	274.94
377.222	205.94
377.448	193.94
377.674	191.94
377.899	196.94
378.125	209.94
378.35	183.94
378.576	187.94
378.802	200.94
379.027	203.94
379.253	203.94
379.478	221.94
379.704	234.94
379.929	233.94
380.155	248.94
380.38	226.94
380.606	238.94
380.831	247.94
381.057	253.94
381.282	245.94
381.507	257.94
381.733	284.94
381.958	298.94
382.184	323.94
382.409	367.94
382.634	335.94
382.86	333.94
383.085	310.94
383.31	267.94
383.535	277.94
383.761	281.94
383.986	280.94
384.211	305.94
384.436	309.94
384.662	240.94
384.887	231.94
385.112	254.94
385.337	239.94
385.562	236.94
385.787	271.94
386.013	282.94
386.238	291.94
386.463	230.94
386.688	224.94
386.913	219.94
387.138	209.94
387.363	236.94
387.588	234.94
387.813	235.94
388.038	268.94
388.263	229.94
388.488	231.94
388.713	273.94
388.938	261.94
389.163	262.94
389.387	214.94
389.612	210.94
389.837	230.94
390.062	237.94
390.287	236.94
390.512	223.94
390.736	218.94
390.961	230.94
391.186	212.94
391.411	206.94
391.636	205.94
391.86	224.94
392.085	230.94
392.31	246.94
392.534	230.94
392.759	224.94
392.984	237.94
393.208	239.94
393.433	229.94
393.658	205.94
393.882	203.94
394.107	197.94
394.331	216.94
394.556	200.94
394.78	199.94
395.005	203.94
395.229	210.94
395.454	225.94
395.678	222.94
395.903	232.94
396.127	202.94
396.352	246.94
396.576	242.94
396.801	241.94
397.025	245.94
397.249	244.94
397.474	239.94
397.698	207.94
397.922	240.94
398.147	223.94
398.371	221.94
398.595	217.94
398.82	240.94
399.044	210.94
399.268	261.94
399.492	266.94
399.717	287.94
399.941	278.94
400.165	266.94
400.389	231.94
400.613	240.94
400.837	234.94
401.062	224.94
401.286	237.94
401.51	233.94
401.734	234.94
401.958	210.94
402.182	240.94
402.406	221.94
402.63	222.94
402.854	240.94
403.078	291.94
403.302	359.94
403.526	390.94
403.75	323.94
403.974	291.94
404.198	285.94
404.422	309.94
404.645	325.94
404.869	357.94
405.093	287.94
405.317	245.94
405.541	245.94
405.765	266.94
405.988	257.94
406.212	273.94
406.436	297.94
406.66	321.94
406.883	261.94
407.107	273.94
407.331	300.94
407.555	311.94
407.778	267.94
408.002	258.94
408.226	293.94
408.449	276.94
408.673	256.94
408.896	243.94
409.12	234.94
409.344	234.94
409.567	237.94
409.791	247.94
410.014	231.94
410.238	244.94
410.461	227.94
410.685	227.94
410.908	233.94
411.132	230.94
411.355	213.94
411.578	229.94
411.802	237.94
412.025	240.94
412.249	228.94
412.472	228.94
412.695	231.94
412.919	231.94
413.142	238.94
413.365	265.94
413.589	245.94
413.812	217.94
414.035	220.94
414.258	230.94
414.482	244.94
414.705	237.94
414.928	245.94
415.151	221.94
415.374	229.94
415.597	238.94
415.821	215.94
416.044	227.94
416.267	244.94
416.49	221.94
416.713	223.94
416.936	210.94
417.159	223.94
417.382	217.94
417.605	231.94
417.828	238.94
418.051	241.94
418.274	243.94
418.497	239.94
418.72	222.94
418.943	232.94
419.166	242.94
419.389	261.94
419.611	240.94
419.834	238.94
420.057	267.94
420.28	277.94
420.503	265.94
420.726	223.94
420.948	234.94
421.171	219.94
421.394	223.94
421.617	227.94
421.839	224.94
422.062	217.94
422.285	215.94
422.507	237.94
422.73	232.94
422.953	232.94
423.175	247.94
423.398	240.94
423.621	243.94
423.843	244.94
424.066	246.94
424.288	254.94
424.511	237.94
424.733	234.94
424.956	249.94
425.178	260.94
425.401	293.94
425.623	352.94
425.846	289.94
426.068	247.94
426.291	263.94
426.513	246.94
426.735	240.94
426.958	254.94
427.18	280.94
427.402	323.94
427.625	363.94
427.847	304.94
428.069	232.94
428.292	240.94
428.514	218.94
428.736	214.94
428.958	233.94
429.181	292.94
429.403	237.94
429.625	219.94
429.847	200.94
430.069	245.94
430.292	224.94
430.514	218.94
430.736	219.94
430.958	258.94
431.18	253.94
431.402	211.94
431.624	206.94
431.846	214.94
432.068	202.94
432.29	218.94
432.512	227.94
432.734	266.94
432.956	270.94
433.178	224.94
433.4	226.94
433.622	221.94
433.844	230.94
434.066	227.94
434.287	245.94
434.509	224.94
434.731	233.94
434.953	246.94
435.175	253.94
435.397	278.94
435.618	239.94
435.84	218.94
436.062	208.94
436.284	226.94
436.505	203.94
436.727	189.94
436.949	219.94
437.17	216.94
437.392	219.94
437.614	221.94
437.835	212.94
438.057	239.94
438.278	225.94
438.5	301.94
438.721	285.94
438.943	242.94
439.165	210.94
439.386	197.94
439.608	211.94
439.829	206.94
440.05	226.94
440.272	211.94
440.493	246.94
440.715	277.94
440.936	233.94
441.158	211.94
441.379	226.94
441.6	265.94
441.822	266.94
442.043	243.94
442.264	225.94
442.486	224.94
442.707	226.94
442.928	219.94
443.149	231.94
443.371	217.94
443.592	258.94
443.813	260.94
444.034	240.94
444.255	228.94
444.476	253.94
444.698	245.94
444.919	251.94
445.14	365.94
445.361	295.94
445.582	249.94
445.803	243.94
446.024	253.94
446.245	222.94
446.466	217.94
446.687	224.94
446.908	232.94
447.129	214.94
447.35	217.94
447.571	210.94
447.792	218.94
448.013	221.94
448.234	173.94
448.455	198.94
448.675	195.94
448.896	213.94
449.117	206.94
449.338	215.94
449.559	217.94
449.779	232.94
450	213.94
450.221	210.94
450.442	217.94
450.662	217.94
450.883	205.94
451.104	229.94
451.324	221.94
451.545	207.94
451.766	228.94
451.986	222.94
452.207	211.94
452.428	223.94
452.648	205.94
452.869	214.94
453.089	223.94
453.31	238.94
453.53	210.94
453.751	212.94
453.971	209.94
454.192	206.94
454.412	205.94
454.633	213.94
454.853	212.94
455.073	205.94
455.294	209.94
455.514	201.94
455.734	198.94
455.955	205.94
456.175	213.94
456.395	192.94
456.616	195.94
456.836	190.94
457.056	204.94
457.276	193.94
457.497	197.94
457.717	185.94
457.937	201.94
458.157	184.94
458.377	188.94
458.598	178.94
458.818	210.94
459.038	209.94
459.258	232.94
459.478	215.94
459.698	229.94
459.918	220.94
460.138	226.94
460.358	243.94
460.578	226.94
460.798	227.94
461.018	236.94
461.238	249.94
461.458	240.94
461.678	237.94
461.898	249.94
462.118	229.94
462.338	259.94
462.558	240.94
462.777	270.94
462.997	275.94
463.217	275.94
463.437	284.94
463.657	290.94
463.876	261.94
464.096	245.94
464.316	255.94
464.536	267.94
464.755	259.94
464.975	283.94
465.195	257.94
465.414	239.94
465.634	256.94
465.854	232.94
466.073	221.94
466.293	210.94
466.512	232.94
466.732	243.94
466.951	251.94
467.171	227.94
467.391	217.94
467.61	229.94
467.829	229.94
468.049	237.94
468.268	212.94
468.488	235.94
468.707	213.94
468.927	250.94
469.146	271.94
469.365	245.94
469.585	241.94
469.804	252.94
470.023	265.94
470.243	247.94
470.462	229.94
470.681	219.94
470.901	228.94
471.12	239.94
471.339	221.94
471.558	231.94
471.777	215.94
471.997	237.94
472.216	263.94
472.435	271.94
472.654	243.94
472.873	252.94
473.092	253.94
473.311	253.94
473.53	232.94
473.749	229.94
473.968	265.94
474.187	243.94
474.406	233.94
474.625	210.94
474.844	224.94
475.063	235.94
475.282	246.94
475.501	264.94
475.72	267.94
475.939	258.94
476.158	262.94
476.377	293.94
476.596	309.94
476.814	319.94
477.033	301.94
477.252	261.94
477.471	230.94
477.69	243.94
477.908	262.94
478.127	273.94
478.346	264.94
478.564	282.94
478.783	283.94
479.002	267.94
479.22	305.94
479.439	348.94
479.658	295.94
479.876	283.94
480.095	299.94
480.313	308.94
480.532	285.94
480.751	285.94
480.969	261.94
481.188	290.94
481.406	311.94
481.624	313.94
481.843	258.94
482.061	245.94
482.28	280.94
482.498	313.94
482.717	328.94
482.935	278.94
483.153	271.94
483.372	247.94
483.59	244.94
483.808	256.94
484.027	254.94
484.245	251.94
484.463	260.94
484.681	232.94
484.9	277.94
485.118	274.94
485.336	269.94
485.554	251.94
485.772	263.94
485.99	293.94
486.209	302.94
486.427	259.94
486.645	297.94
486.863	283.94
487.081	287.94
487.299	301.94
487.517	296.94
487.735	279.94
487.953	292.94
488.171	302.94
488.389	283.94
488.607	245.94
488.825	245.94
489.043	282.94
489.261	327.94
489.479	334.94
489.696	293.94
489.914	283.94
490.132	243.94
490.35	268.94
490.568	253.94
490.786	258.94
491.003	267.94
491.221	254.94
491.439	269.94
491.657	250.94
491.874	272.94
492.092	315.94
492.31	350.94
492.527	362.94
492.745	319.94
492.963	303.94
493.18	305.94
493.398	301.94
493.615	294.94
493.833	274.94
494.05	265.94
494.268	275.94
494.485	287.94
494.703	262.94
494.92	277.94
495.138	273.94
495.355	290.94
495.573	273.94
495.79	295.94
496.008	351.94
496.225	329.94
496.442	301.94
496.66	294.94
496.877	313.94
497.094	298.94
497.312	290.94
497.529	295.94
497.746	307.94
497.963	301.94
498.181	320.94
498.398	336.94
498.615	348.94
498.832	392.94
499.049	389.94
499.267	368.94
499.484	367.94
499.701	397.94
499.918	431.94
500.135	490.94
500.352	544.94
500.569	533.94
500.786	543.94
501.003	515.94
501.22	459.94
501.437	425.94
501.654	399.94
501.871	364.94
502.088	389.94
502.305	346.94
502.522	321.94
