Data from NickelSpatula.Lamp.E10.P2_HRD10591_11-57-11-534.txt Node
Date: Tue Jul 23 11:57:11 EDT 2019
User: cochatt
Spectrometer: HR+D1059
Trigger mode: 1
Integration Time (sec): 1.000000E-1
Scans to average: 1
Electric dark correction enabled: true
Nonlinearity correction enabled: false
Boxcar width: 0
XAxis mode: Wavelengths
Number of Pixels in Spectrum: 2048
>>>>>Begin Spectral Data<<<<<
223.165	-17.44
223.4	-17.44
223.635	-17.44
223.869	-29.44
224.104	-27.44
224.338	-19.44
224.573	-16.44
224.808	-17.44
225.042	-2.44
225.277	9.56
225.511	10.56
225.746	-1.44
225.98	-0.44
226.215	19.56
226.449	13.56
226.683	20.56
226.918	27.56
227.152	30.56
227.387	32.56
227.621	38.56
227.856	42.56
228.09	41.56
228.324	53.56
228.559	56.56
228.793	87.56
229.027	140.56
229.262	159.56
229.496	161.56
229.73	158.56
229.964	205.56
230.199	223.56
230.433	214.56
230.667	209.56
230.901	203.56
231.136	201.56
231.37	194.56
231.604	214.56
231.838	241.56
232.072	235.56
232.306	257.56
232.541	236.56
232.775	250.56
233.009	272.56
233.243	311.56
233.477	317.56
233.711	342.56
233.945	340.56
234.179	333.56
234.413	336.56
234.647	382.56
234.881	442.56
235.115	403.56
235.349	390.56
235.583	351.56
235.817	343.56
236.051	383.56
236.285	420.56
236.519	455.56
236.753	421.56
236.987	400.56
237.221	404.56
237.455	418.56
237.689	422.56
237.922	466.56
238.156	484.56
238.39	530.56
238.624	643.56
238.858	582.56
239.091	482.56
239.325	502.56
239.559	498.56
239.793	542.56
240.027	618.56
240.26	596.56
240.494	600.56
240.728	587.56
240.961	691.56
241.195	635.56
241.429	615.56
241.662	630.56
241.896	518.56
242.13	480.56
242.363	464.56
242.597	467.56
242.83	536.56
243.064	537.56
243.298	607.56
243.531	633.56
243.765	628.56
243.998	620.56
244.232	594.56
244.465	581.56
244.699	593.56
244.932	654.56
245.166	597.56
245.399	551.56
245.633	544.56
245.866	592.56
246.099	619.56
246.333	696.56
246.566	795.56
246.8	751.56
247.033	739.56
247.266	656.56
247.5	666.56
247.733	675.56
247.966	664.56
248.2	684.56
248.433	779.56
248.666	798.56
248.899	823.56
249.133	844.56
249.366	970.56
249.599	1058.56
249.832	939.56
250.066	793.56
250.299	841.56
250.532	816.56
250.765	797.56
250.998	734.56
251.231	720.56
251.465	747.56
251.698	817.56
251.931	787.56
252.164	820.56
252.397	913.56
252.63	1012.56
252.863	1170.56
253.096	1198.56
253.329	1127.56
253.562	1106.56
253.795	1247.56
254.028	1364.56
254.261	1360.56
254.494	1221.56
254.727	1107.56
254.96	1087.56
255.193	1153.56
255.426	1118.56
255.659	820.56
255.892	773.56
256.124	866.56
256.357	1010.56
256.59	1168.56
256.823	1141.56
257.056	959.56
257.289	919.56
257.521	976.56
257.754	1148.56
257.987	1276.56
258.22	1113.56
258.452	1008.56
258.685	1121.56
258.918	1265.56
259.151	1240.56
259.383	1332.56
259.616	1503.56
259.849	1553.56
260.081	1692.56
260.314	1866.56
260.547	1452.56
260.779	1461.56
261.012	1730.56
261.244	1589.56
261.477	1597.56
261.71	1500.56
261.942	1261.56
262.175	1272.56
262.407	1204.56
262.64	1254.56
262.872	1502.56
263.105	1648.56
263.337	1692.56
263.57	1515.56
263.802	1032.56
264.035	903.56
264.267	864.56
264.499	758.56
264.732	723.56
264.964	690.56
265.197	747.56
265.429	789.56
265.661	802.56
265.894	818.56
266.126	891.56
266.358	1011.56
266.591	1211.56
266.823	1455.56
267.055	1444.56
267.287	1265.56
267.52	1236.56
267.752	1328.56
267.984	1455.56
268.216	1370.56
268.448	1126.56
268.681	1102.56
268.913	1208.56
269.145	1275.56
269.377	1319.56
269.609	1286.56
269.841	1203.56
270.073	1286.56
270.306	1376.56
270.538	1434.56
270.77	1402.56
271.002	1433.56
271.234	1463.56
271.466	1512.56
271.698	1410.56
271.93	1408.56
272.162	1429.56
272.394	1381.56
272.626	1339.56
272.858	1443.56
273.09	1448.56
273.322	1287.56
273.553	1275.56
273.785	1474.56
274.017	1889.56
274.249	2364.56
274.481	2436.56
274.713	2646.56
274.945	3040.56
275.176	3236.56
275.408	2839.56
275.64	2613.56
275.872	2530.56
276.104	2131.56
276.335	1908.56
276.567	1882.56
276.799	1901.56
277.031	2027.56
277.262	1599.56
277.494	1213.56
277.726	1197.56
277.957	1317.56
278.189	1474.56
278.421	1456.56
278.652	1420.56
278.884	1392.56
279.115	1259.56
279.347	1188.56
279.579	1187.56
279.81	1203.56
280.042	1162.56
280.273	1232.56
280.505	1134.56
280.736	979.56
280.968	972.56
281.199	1080.56
281.431	1229.56
281.662	1226.56
281.894	1211.56
282.125	1255.56
282.356	1304.56
282.588	1379.56
282.819	1250.56
283.051	1360.56
283.282	1683.56
283.513	1910.56
283.745	2167.56
283.976	2140.56
284.207	1981.56
284.439	2068.56
284.67	2001.56
284.901	1795.56
285.132	1930.56
285.364	1977.56
285.595	1820.56
285.826	1945.56
286.057	2007.56
286.288	1921.56
286.52	2016.56
286.751	2079.56
286.982	2100.56
287.213	1815.56
287.444	1771.56
287.675	1842.56
287.906	1840.56
288.138	1561.56
288.369	1363.56
288.6	1267.56
288.831	1377.56
289.062	1555.56
289.293	1702.56
289.524	1600.56
289.755	1598.56
289.986	1634.56
290.217	1424.56
290.448	1107.56
290.679	987.56
290.91	901.56
291.141	924.56
291.371	958.56
291.602	998.56
291.833	976.56
292.064	1044.56
292.295	1211.56
292.526	1386.56
292.757	1457.56
292.987	1541.56
293.218	1538.56
293.449	1611.56
293.68	1680.56
293.91	1627.56
294.141	1664.56
294.372	1544.56
294.603	1424.56
294.833	1572.56
295.064	1816.56
295.295	1727.56
295.525	1314.56
295.756	1136.56
295.987	987.56
296.217	1006.56
296.448	1046.56
296.679	1071.56
296.909	1202.56
297.14	1276.56
297.37	1427.56
297.601	1330.56
297.831	1130.56
298.062	1243.56
298.292	1414.56
298.523	1534.56
298.753	1729.56
298.984	1528.56
299.214	1218.56
299.445	1046.56
299.675	1003.56
299.905	1002.56
300.136	1040.56
300.366	1153.56
300.597	1103.56
300.827	1019.56
301.057	956.56
301.288	980.56
301.518	1078.56
301.748	1189.56
301.979	1285.56
302.209	1386.56
302.439	1375.56
302.669	1226.56
302.9	1234.56
303.13	1131.56
303.36	1075.56
303.59	1034.56
303.82	1078.56
304.051	1204.56
304.281	1324.56
304.511	1286.56
304.741	1143.56
304.971	1178.56
305.201	1283.56
305.431	1175.56
305.661	1026.56
305.891	1040.56
306.121	1050.56
306.352	950.56
306.582	884.56
306.812	854.56
307.042	840.56
307.272	795.56
307.502	792.56
307.731	863.56
307.961	896.56
308.191	859.56
308.421	776.56
308.651	813.56
308.881	774.56
309.111	766.56
309.341	795.56
309.571	874.56
309.8	906.56
310.03	913.56
310.26	971.56
310.49	927.56
310.72	854.56
310.949	850.56
311.179	871.56
311.409	929.56
311.639	1070.56
311.868	1355.56
312.098	1799.56
312.328	1910.56
312.557	1874.56
312.787	1893.56
313.017	1658.56
313.246	1800.56
313.476	1946.56
313.706	1600.56
313.935	1273.56
314.165	1056.56
314.394	964.56
314.624	982.56
314.853	1002.56
315.083	1009.56
315.312	997.56
315.542	982.56
315.771	935.56
316.001	862.56
316.23	838.56
316.46	833.56
316.689	844.56
316.919	867.56
317.148	899.56
317.377	855.56
317.607	877.56
317.836	948.56
318.065	1074.56
318.295	1221.56
318.524	1093.56
318.753	978.56
318.983	909.56
319.212	919.56
319.441	976.56
319.67	1095.56
319.9	1175.56
320.129	1064.56
320.358	963.56
320.587	934.56
320.816	1008.56
321.046	1138.56
321.275	1283.56
321.504	1280.56
321.733	1229.56
321.962	1174.56
322.191	1153.56
322.42	1054.56
322.649	1095.56
322.878	1152.56
323.108	1154.56
323.337	1060.56
323.566	1074.56
323.795	1022.56
324.024	984.56
324.253	969.56
324.482	982.56
324.71	1035.56
324.939	1171.56
325.168	1081.56
325.397	915.56
325.626	916.56
325.855	902.56
326.084	908.56
326.313	892.56
326.542	842.56
326.77	867.56
326.999	885.56
327.228	954.56
327.457	984.56
327.686	974.56
327.914	888.56
328.143	825.56
328.372	809.56
328.6	807.56
328.829	883.56
329.058	878.56
329.287	881.56
329.515	903.56
329.744	888.56
329.972	844.56
330.201	834.56
330.43	841.56
330.658	933.56
330.887	1022.56
331.115	1017.56
331.344	999.56
331.572	942.56
331.801	884.56
332.03	821.56
332.258	883.56
332.486	967.56
332.715	959.56
332.943	894.56
333.172	891.56
333.4	924.56
333.629	1024.56
333.857	1084.56
334.085	1118.56
334.314	1127.56
334.542	1015.56
334.771	984.56
334.999	967.56
335.227	922.56
335.455	958.56
335.684	1020.56
335.912	1168.56
336.14	1330.56
336.369	1249.56
336.597	1245.56
336.825	1360.56
337.053	1501.56
337.281	1190.56
337.51	1001.56
337.738	968.56
337.966	1057.56
338.194	1154.56
338.422	1086.56
338.65	961.56
338.878	874.56
339.106	904.56
339.334	982.56
339.562	1064.56
339.79	970.56
340.018	958.56
340.246	1008.56
340.474	1159.56
340.702	1242.56
340.93	1290.56
341.158	1265.56
341.386	1115.56
341.614	1080.56
341.842	1067.56
342.07	1136.56
342.298	1334.56
342.526	1372.56
342.754	1162.56
342.981	1081.56
343.209	1034.56
343.437	1118.56
343.665	1152.56
343.893	1137.56
344.12	1336.56
344.348	1568.56
344.576	1410.56
344.804	1165.56
345.031	987.56
345.259	954.56
345.487	978.56
345.714	1019.56
345.942	1112.56
346.17	1162.56
346.397	1136.56
346.625	980.56
346.853	946.56
347.08	899.56
347.308	992.56
347.535	1085.56
347.763	1120.56
347.99	969.56
348.218	882.56
348.445	981.56
348.673	980.56
348.9	974.56
349.128	1026.56
349.355	1061.56
349.583	1016.56
349.81	1006.56
350.037	939.56
350.265	810.56
350.492	806.56
350.72	806.56
350.947	819.56
351.174	884.56
351.402	939.56
351.629	1003.56
351.856	905.56
352.083	872.56
352.311	922.56
352.538	1048.56
352.765	1101.56
352.992	1014.56
353.22	943.56
353.447	978.56
353.674	920.56
353.901	940.56
354.128	933.56
354.355	964.56
354.583	955.56
354.81	968.56
355.037	1010.56
355.264	979.56
355.491	1029.56
355.718	1117.56
355.945	1089.56
356.172	1071.56
356.399	1051.56
356.626	1268.56
356.853	1519.56
357.08	1618.56
357.307	1703.56
357.534	1308.56
357.761	1340.56
357.988	1656.56
358.215	1958.56
358.441	1794.56
358.668	1540.56
358.895	1438.56
359.122	1154.56
359.349	1128.56
359.576	1271.56
359.802	1048.56
360.029	902.56
360.256	1001.56
360.483	1205.56
360.709	1545.56
360.936	1580.56
361.163	1372.56
361.39	1059.56
361.616	1025.56
361.843	1166.56
362.07	1428.56
362.296	1301.56
362.523	1011.56
362.749	904.56
362.976	939.56
363.203	1155.56
363.429	1292.56
363.656	1050.56
363.882	960.56
364.109	964.56
364.335	983.56
364.562	965.56
364.788	1061.56
365.015	1243.56
365.241	1104.56
365.468	914.56
365.694	855.56
365.92	824.56
366.147	777.56
366.373	750.56
366.599	766.56
366.826	803.56
367.052	818.56
367.278	829.56
367.505	790.56
367.731	913.56
367.957	994.56
368.184	1009.56
368.41	975.56
368.636	1007.56
368.862	1028.56
369.089	999.56
369.315	885.56
369.541	855.56
369.767	877.56
369.993	830.56
370.219	867.56
370.445	898.56
370.672	977.56
370.898	1051.56
371.124	1054.56
371.35	934.56
371.576	889.56
371.802	940.56
372.028	1141.56
372.254	1255.56
372.48	1064.56
372.706	1001.56
372.932	1063.56
373.158	1087.56
373.384	1243.56
373.61	1703.56
373.835	1710.56
374.061	1290.56
374.287	1127.56
374.513	1317.56
374.739	1554.56
374.965	1584.56
375.191	1555.56
375.416	1128.56
375.642	972.56
375.868	1132.56
376.094	1289.56
376.319	1093.56
376.545	1192.56
376.771	1296.56
376.997	1119.56
377.222	834.56
377.448	737.56
377.674	776.56
377.899	758.56
378.125	765.56
378.35	743.56
378.576	764.56
378.802	863.56
379.027	903.56
379.253	874.56
379.478	884.56
379.704	999.56
379.929	1024.56
380.155	1027.56
380.38	937.56
380.606	968.56
380.831	1045.56
381.057	1006.56
381.282	948.56
381.507	1110.56
381.733	1360.56
381.958	1438.56
382.184	1542.56
382.409	1588.56
382.634	1582.56
382.86	1648.56
383.085	1361.56
383.31	1118.56
383.535	1180.56
383.761	1171.56
383.986	1111.56
384.211	1341.56
384.436	1320.56
384.662	1024.56
384.887	983.56
385.112	992.56
385.337	1023.56
385.562	971.56
385.787	1051.56
386.013	1159.56
386.238	1211.56
386.463	998.56
386.688	959.56
386.913	929.56
387.138	867.56
387.363	938.56
387.588	983.56
387.813	969.56
388.038	1090.56
388.263	946.56
388.488	925.56
388.713	1053.56
388.938	1148.56
389.163	991.56
389.387	910.56
389.612	897.56
389.837	920.56
390.062	930.56
390.287	958.56
390.512	970.56
390.736	919.56
390.961	889.56
391.186	863.56
391.411	836.56
391.636	863.56
391.86	881.56
392.085	990.56
392.31	1001.56
392.534	926.56
392.759	926.56
392.984	974.56
393.208	954.56
393.433	847.56
393.658	792.56
393.882	800.56
394.107	824.56
394.331	808.56
394.556	799.56
394.78	802.56
395.005	830.56
395.229	859.56
395.454	861.56
395.678	895.56
395.903	898.56
396.127	863.56
396.352	878.56
396.576	962.56
396.801	947.56
397.025	1081.56
397.249	1086.56
397.474	937.56
397.698	932.56
397.922	994.56
398.147	927.56
398.371	932.56
398.595	954.56
398.82	950.56
399.044	945.56
399.268	1014.56
399.492	1035.56
399.717	1062.56
399.941	1103.56
400.165	1075.56
400.389	1044.56
400.613	1021.56
400.837	1076.56
401.062	935.56
401.286	897.56
401.51	902.56
401.734	902.56
401.958	927.56
402.182	928.56
402.406	883.56
402.63	922.56
402.854	933.56
403.078	1069.56
403.302	1255.56
403.526	1308.56
403.75	1184.56
403.974	1070.56
404.198	1080.56
404.422	1234.56
404.645	1390.56
404.869	1518.56
405.093	1147.56
405.317	1016.56
405.541	992.56
405.765	1014.56
405.988	1008.56
406.212	1112.56
406.436	1254.56
406.66	1402.56
406.883	1118.56
407.107	1163.56
407.331	1342.56
407.555	1251.56
407.778	1095.56
408.002	1034.56
408.226	1040.56
408.449	1082.56
408.673	1033.56
408.896	943.56
409.12	914.56
409.344	905.56
409.567	889.56
409.791	905.56
410.014	897.56
410.238	892.56
410.461	897.56
410.685	899.56
410.908	923.56
411.132	943.56
411.355	922.56
411.578	955.56
411.802	950.56
412.025	993.56
412.249	979.56
412.472	948.56
412.695	976.56
412.919	951.56
413.142	979.56
413.365	1052.56
413.589	1031.56
413.812	949.56
414.035	934.56
414.258	956.56
414.482	1016.56
414.705	1063.56
414.928	939.56
415.151	883.56
415.374	870.56
415.597	925.56
415.821	922.56
416.044	890.56
416.267	883.56
416.49	878.56
416.713	869.56
416.936	836.56
417.159	856.56
417.382	894.56
417.605	900.56
417.828	923.56
418.051	904.56
418.274	957.56
418.497	921.56
418.72	926.56
418.943	982.56
419.166	987.56
419.389	1033.56
419.611	994.56
419.834	1029.56
420.057	1093.56
420.28	1066.56
420.503	1020.56
420.726	912.56
420.948	890.56
421.171	888.56
421.394	905.56
421.617	880.56
421.839	885.56
422.062	932.56
422.285	928.56
422.507	947.56
422.73	970.56
422.953	1008.56
423.175	935.56
423.398	939.56
423.621	1026.56
423.843	1034.56
424.066	977.56
424.288	922.56
424.511	909.56
424.733	922.56
424.956	952.56
425.178	1040.56
425.401	1197.56
425.623	1350.56
425.846	1138.56
426.068	994.56
426.291	1080.56
426.513	1013.56
426.735	958.56
426.958	986.56
427.18	1147.56
427.402	1451.56
427.625	1444.56
427.847	1175.56
428.069	921.56
428.292	887.56
428.514	918.56
428.736	872.56
428.958	972.56
429.181	1057.56
429.403	952.56
429.625	874.56
429.847	866.56
430.069	893.56
430.292	918.56
430.514	866.56
430.736	963.56
430.958	1117.56
431.18	1076.56
431.402	829.56
431.624	798.56
431.846	802.56
432.068	789.56
432.29	825.56
432.512	912.56
432.734	1158.56
432.956	1094.56
433.178	884.56
433.4	831.56
433.622	842.56
433.844	891.56
434.066	886.56
434.287	931.56
434.509	883.56
434.731	908.56
434.953	864.56
435.175	916.56
435.397	995.56
435.618	880.56
435.84	822.56
436.062	830.56
436.284	849.56
436.505	814.56
436.727	782.56
436.949	796.56
437.17	831.56
437.392	838.56
437.614	837.56
437.835	815.56
438.057	841.56
438.278	948.56
438.5	1318.56
438.721	1334.56
438.943	961.56
439.165	824.56
439.386	771.56
439.608	791.56
439.829	801.56
440.05	825.56
440.272	814.56
440.493	991.56
440.715	1172.56
440.936	959.56
441.158	841.56
441.379	853.56
441.6	980.56
441.822	1025.56
442.043	893.56
442.264	890.56
442.486	879.56
442.707	861.56
442.928	854.56
443.149	899.56
443.371	885.56
443.592	934.56
443.813	928.56
444.034	903.56
444.255	944.56
444.476	946.56
444.698	947.56
444.919	962.56
445.14	1062.56
445.361	1009.56
445.582	971.56
445.803	954.56
446.024	949.56
446.245	958.56
446.466	900.56
446.687	869.56
446.908	883.56
447.129	851.56
447.35	832.56
447.571	832.56
447.792	801.56
448.013	814.56
448.234	780.56
448.455	771.56
448.675	803.56
448.896	820.56
449.117	800.56
449.338	788.56
449.559	821.56
449.779	861.56
450	866.56
450.221	850.56
450.442	808.56
450.662	807.56
450.883	795.56
451.104	808.56
451.324	807.56
451.545	790.56
451.766	799.56
451.986	809.56
452.207	763.56
452.428	788.56
452.648	780.56
452.869	836.56
453.089	829.56
453.31	834.56
453.53	746.56
453.751	746.56
453.971	742.56
454.192	779.56
454.412	786.56
454.633	779.56
454.853	763.56
455.073	744.56
455.294	745.56
455.514	768.56
455.734	792.56
455.955	807.56
456.175	831.56
456.395	748.56
456.616	720.56
456.836	715.56
457.056	706.56
457.276	686.56
457.497	711.56
457.717	705.56
457.937	714.56
458.157	729.56
458.377	727.56
458.598	740.56
458.818	762.56
459.038	799.56
459.258	818.56
459.478	864.56
459.698	915.56
459.918	907.56
460.138	877.56
460.358	909.56
460.578	890.56
460.798	866.56
461.018	908.56
461.238	873.56
461.458	878.56
461.678	903.56
461.898	943.56
462.118	925.56
462.338	923.56
462.558	955.56
462.777	988.56
462.997	1012.56
463.217	1034.56
463.437	1074.56
463.657	1009.56
463.876	975.56
464.096	992.56
464.316	984.56
464.536	981.56
464.755	1060.56
464.975	1010.56
465.195	963.56
465.414	989.56
465.634	960.56
465.854	935.56
466.073	872.56
466.293	857.56
466.512	917.56
466.732	1028.56
466.951	1062.56
467.171	918.56
467.391	870.56
467.61	886.56
467.829	920.56
468.049	948.56
468.268	871.56
468.488	869.56
468.707	916.56
468.927	1048.56
469.146	1119.56
469.365	1045.56
469.585	958.56
469.804	1007.56
470.023	1081.56
470.243	982.56
470.462	912.56
470.681	917.56
470.901	931.56
471.12	984.56
471.339	967.56
471.558	926.56
471.777	932.56
471.997	1001.56
472.216	1122.56
472.435	1068.56
472.654	980.56
472.873	967.56
473.092	989.56
473.311	1033.56
473.53	934.56
473.749	939.56
473.968	980.56
474.187	972.56
474.406	946.56
474.625	936.56
474.844	951.56
475.063	1039.56
475.282	1042.56
475.501	1063.56
475.72	1164.56
475.939	1064.56
476.158	1116.56
476.377	1191.56
476.596	1445.56
476.814	1487.56
477.033	1225.56
477.252	1070.56
477.471	1010.56
477.69	1012.56
477.908	1099.56
478.127	1148.56
478.346	1020.56
478.564	1143.56
478.783	1098.56
479.002	1132.56
479.22	1302.56
479.439	1427.56
479.658	1242.56
479.876	1122.56
480.095	1218.56
480.313	1263.56
480.532	1148.56
480.751	1104.56
480.969	1096.56
481.188	1265.56
481.406	1316.56
481.624	1208.56
481.843	1127.56
482.061	1076.56
482.28	1202.56
482.498	1432.56
482.717	1371.56
482.935	1232.56
483.153	1136.56
483.372	1073.56
483.59	1053.56
483.808	1048.56
484.027	1028.56
484.245	1028.56
484.463	1003.56
484.681	1030.56
484.9	1098.56
485.118	1174.56
485.336	1123.56
485.554	1052.56
485.772	1094.56
485.99	1147.56
486.209	1247.56
486.427	1224.56
486.645	1186.56
486.863	1245.56
487.081	1193.56
487.299	1348.56
487.517	1322.56
487.735	1218.56
487.953	1255.56
488.171	1265.56
488.389	1190.56
488.607	1108.56
488.825	1161.56
489.043	1247.56
489.261	1427.56
489.479	1504.56
489.696	1267.56
489.914	1161.56
490.132	1092.56
490.35	1142.56
490.568	1104.56
490.786	1126.56
491.003	1142.56
491.221	1137.56
491.439	1147.56
491.657	1136.56
491.874	1222.56
492.092	1441.56
492.31	1692.56
492.527	1723.56
492.745	1524.56
492.963	1299.56
493.18	1279.56
493.398	1298.56
493.615	1278.56
493.833	1243.56
494.05	1243.56
494.268	1270.56
494.485	1251.56
