Data from NickelSpatula.Lamp.E5.5.P2_HRD10591_11-51-39-559.txt Node
Date: Tue Jul 23 11:51:39 EDT 2019
User: cochatt
Spectrometer: HR+D1059
Trigger mode: 1
Integration Time (sec): 1.000000E-1
Scans to average: 1
Electric dark correction enabled: true
Nonlinearity correction enabled: false
Boxcar width: 0
XAxis mode: Wavelengths
Number of Pixels in Spectrum: 2048
>>>>>Begin Spectral Data<<<<<
223.165	-21.81
223.4	-21.81
223.635	-21.81
223.869	-27.81
224.104	-15.81
224.338	-13.81
224.573	-7.81
224.808	-3.81
225.042	-7.81
225.277	-9.81
225.511	-17.81
225.746	2.19
225.98	10.19
226.215	13.19
226.449	7.19
226.683	22.19
226.918	24.19
227.152	47.19
227.387	44.19
227.621	28.19
227.856	47.19
228.09	38.19
228.324	60.19
228.559	72.19
228.793	59.19
229.027	69.19
229.262	69.19
229.496	90.19
229.73	70.19
229.964	100.19
230.199	108.19
230.433	98.19
230.667	116.19
230.901	114.19
231.136	106.19
231.37	93.19
231.604	89.19
231.838	96.19
232.072	106.19
232.306	113.19
232.541	105.19
232.775	103.19
233.009	112.19
233.243	106.19
233.477	124.19
233.711	128.19
233.945	114.19
234.179	127.19
234.413	130.19
234.647	124.19
234.881	148.19
235.115	116.19
235.349	126.19
235.583	122.19
235.817	124.19
236.051	133.19
236.285	126.19
236.519	138.19
236.753	150.19
236.987	130.19
237.221	126.19
237.455	129.19
237.689	131.19
237.922	153.19
238.156	138.19
238.39	152.19
238.624	174.19
238.858	156.19
239.091	140.19
239.325	133.19
239.559	142.19
239.793	141.19
240.027	177.19
240.26	149.19
240.494	166.19
240.728	168.19
240.961	189.19
241.195	187.19
241.429	170.19
241.662	172.19
241.896	152.19
242.13	154.19
242.363	140.19
242.597	138.19
242.83	147.19
243.064	134.19
243.298	158.19
243.531	170.19
243.765	170.19
243.998	181.19
244.232	162.19
244.465	163.19
244.699	161.19
244.932	174.19
245.166	151.19
245.399	148.19
245.633	154.19
245.866	161.19
246.099	164.19
246.333	186.19
246.566	194.19
246.8	183.19
247.033	192.19
247.266	172.19
247.5	166.19
247.733	177.19
247.966	165.19
248.2	190.19
248.433	184.19
248.666	199.19
248.899	204.19
249.133	193.19
249.366	217.19
249.599	232.19
249.832	203.19
250.066	200.19
250.299	182.19
250.532	204.19
250.765	200.19
250.998	187.19
251.231	200.19
251.465	199.19
251.698	200.19
251.931	208.19
252.164	209.19
252.397	208.19
252.63	222.19
252.863	244.19
253.096	261.19
253.329	270.19
253.562	262.19
253.795	256.19
254.028	294.19
254.261	295.19
254.494	249.19
254.727	244.19
254.96	262.19
255.193	266.19
255.426	260.19
255.659	222.19
255.892	202.19
256.124	219.19
256.357	234.19
256.59	275.19
256.823	251.19
257.056	231.19
257.289	202.19
257.521	233.19
257.754	265.19
257.987	310.19
258.22	270.19
258.452	242.19
258.685	244.19
258.918	283.19
259.151	285.19
259.383	310.19
259.616	347.19
259.849	332.19
260.081	350.19
260.314	369.19
260.547	312.19
260.779	320.19
261.012	351.19
261.244	341.19
261.477	348.19
261.71	302.19
261.942	286.19
262.175	283.19
262.407	273.19
262.64	287.19
262.872	312.19
263.105	334.19
263.337	353.19
263.57	341.19
263.802	239.19
264.035	221.19
264.267	227.19
264.499	208.19
264.732	195.19
264.964	194.19
265.197	191.19
265.429	197.19
265.661	210.19
265.894	228.19
266.126	230.19
266.358	252.19
266.591	284.19
266.823	317.19
267.055	306.19
267.287	292.19
267.52	293.19
267.752	314.19
267.984	328.19
268.216	329.19
268.448	282.19
268.681	252.19
268.913	266.19
269.145	287.19
269.377	314.19
269.609	293.19
269.841	271.19
270.073	293.19
270.306	320.19
270.538	330.19
270.77	313.19
271.002	314.19
271.234	305.19
271.466	324.19
271.698	326.19
271.93	304.19
272.162	308.19
272.394	333.19
272.626	292.19
272.858	322.19
273.09	333.19
273.322	274.19
273.553	274.19
273.785	307.19
274.017	389.19
274.249	468.19
274.481	450.19
274.713	512.19
274.945	585.19
275.176	577.19
275.408	528.19
275.64	496.19
275.872	502.19
276.104	438.19
276.335	392.19
276.567	388.19
276.799	389.19
277.031	400.19
277.262	347.19
277.494	285.19
277.726	263.19
277.957	291.19
278.189	299.19
278.421	296.19
278.652	299.19
278.884	302.19
279.115	287.19
279.347	281.19
279.579	284.19
279.81	271.19
280.042	273.19
280.273	290.19
280.505	260.19
280.736	257.19
280.968	240.19
281.199	242.19
281.431	267.19
281.662	290.19
281.894	267.19
282.125	289.19
282.356	315.19
282.588	309.19
282.819	282.19
283.051	295.19
283.282	330.19
283.513	406.19
283.745	412.19
283.976	433.19
284.207	392.19
284.439	430.19
284.67	402.19
284.901	368.19
285.132	388.19
285.364	424.19
285.595	354.19
285.826	406.19
286.057	408.19
286.288	393.19
286.52	407.19
286.751	406.19
286.982	397.19
287.213	371.19
287.444	376.19
287.675	368.19
287.906	388.19
288.138	326.19
288.369	296.19
288.6	274.19
288.831	301.19
289.062	342.19
289.293	378.19
289.524	338.19
289.755	335.19
289.986	346.19
290.217	344.19
290.448	260.19
290.679	226.19
290.91	226.19
291.141	236.19
291.371	243.19
291.602	223.19
291.833	235.19
292.064	250.19
292.295	276.19
292.526	302.19
292.757	304.19
292.987	336.19
293.218	351.19
293.449	363.19
293.68	371.19
293.91	342.19
294.141	374.19
294.372	340.19
294.603	309.19
294.833	329.19
295.064	404.19
295.295	394.19
295.525	310.19
295.756	269.19
295.987	243.19
296.217	239.19
296.448	242.19
296.679	243.19
296.909	268.19
297.14	298.19
297.37	322.19
297.601	302.19
297.831	270.19
298.062	282.19
298.292	311.19
298.523	322.19
298.753	374.19
298.984	348.19
299.214	283.19
299.445	268.19
299.675	230.19
299.905	225.19
300.136	235.19
300.366	263.19
300.597	250.19
300.827	246.19
301.057	246.19
301.288	253.19
301.518	261.19
301.748	297.19
301.979	306.19
302.209	322.19
302.439	329.19
302.669	288.19
302.9	286.19
303.13	276.19
303.36	271.19
303.59	252.19
303.82	252.19
304.051	287.19
304.281	315.19
304.511	299.19
304.741	268.19
304.971	288.19
305.201	287.19
305.431	284.19
305.661	262.19
305.891	265.19
306.121	268.19
306.352	243.19
306.582	219.19
306.812	203.19
307.042	207.19
307.272	206.19
307.502	206.19
307.731	215.19
307.961	211.19
308.191	219.19
308.421	192.19
308.651	206.19
308.881	198.19
309.111	207.19
309.341	200.19
309.571	204.19
309.8	205.19
310.03	230.19
310.26	252.19
310.49	211.19
310.72	210.19
310.949	211.19
311.179	219.19
311.409	220.19
311.639	238.19
311.868	292.19
312.098	374.19
312.328	418.19
312.557	376.19
312.787	392.19
313.017	341.19
313.246	355.19
313.476	400.19
313.706	349.19
313.935	289.19
314.165	241.19
314.394	236.19
314.624	244.19
314.853	242.19
315.083	252.19
315.312	232.19
315.542	240.19
315.771	226.19
316.001	211.19
316.23	198.19
316.46	214.19
316.689	213.19
316.919	212.19
317.148	215.19
317.377	226.19
317.607	214.19
317.836	225.19
318.065	240.19
318.295	280.19
318.524	263.19
318.753	215.19
318.983	203.19
319.212	217.19
319.441	227.19
319.67	256.19
319.9	279.19
320.129	239.19
320.358	221.19
320.587	224.19
320.816	236.19
321.046	254.19
321.275	290.19
321.504	272.19
321.733	276.19
321.962	250.19
322.191	250.19
322.42	238.19
322.649	260.19
322.878	274.19
323.108	244.19
323.337	234.19
323.566	258.19
323.795	248.19
324.024	245.19
324.253	229.19
324.482	241.19
324.71	257.19
324.939	263.19
325.168	233.19
325.397	222.19
325.626	212.19
325.855	216.19
326.084	217.19
326.313	217.19
326.542	206.19
326.77	214.19
326.999	225.19
327.228	230.19
327.457	239.19
327.686	231.19
327.914	216.19
328.143	216.19
328.372	218.19
328.6	231.19
328.829	199.19
329.058	204.19
329.287	211.19
329.515	211.19
329.744	226.19
329.972	201.19
330.201	209.19
330.43	202.19
330.658	219.19
330.887	256.19
331.115	246.19
331.344	251.19
331.572	234.19
331.801	225.19
332.03	208.19
332.258	223.19
332.486	254.19
332.715	240.19
332.943	246.19
333.172	231.19
333.4	260.19
333.629	271.19
333.857	277.19
334.085	276.19
334.314	264.19
334.542	254.19
334.771	251.19
334.999	239.19
335.227	226.19
335.455	230.19
335.684	228.19
335.912	288.19
336.14	298.19
336.369	280.19
336.597	268.19
336.825	302.19
337.053	309.19
337.281	281.19
337.51	240.19
337.738	242.19
337.966	237.19
338.194	274.19
338.422	246.19
338.65	229.19
338.878	221.19
339.106	225.19
339.334	243.19
339.562	250.19
339.79	223.19
340.018	232.19
340.246	253.19
340.474	244.19
340.702	279.19
340.93	285.19
341.158	285.19
341.386	257.19
341.614	242.19
341.842	255.19
342.07	256.19
342.298	288.19
342.526	282.19
342.754	272.19
342.981	266.19
343.209	240.19
343.437	268.19
343.665	274.19
343.893	296.19
344.12	326.19
344.348	346.19
344.576	324.19
344.804	273.19
345.031	231.19
345.259	235.19
345.487	233.19
345.714	222.19
345.942	252.19
346.17	279.19
346.397	265.19
346.625	242.19
346.853	230.19
347.08	208.19
347.308	248.19
347.535	281.19
347.763	267.19
347.99	240.19
348.218	229.19
348.445	224.19
348.673	240.19
348.9	233.19
349.128	250.19
349.355	244.19
349.583	256.19
349.81	238.19
350.037	242.19
350.265	211.19
350.492	192.19
350.72	211.19
350.947	208.19
351.174	216.19
351.402	211.19
351.629	243.19
351.856	239.19
352.083	238.19
352.311	224.19
352.538	251.19
352.765	272.19
352.992	258.19
353.22	235.19
353.447	259.19
353.674	226.19
353.901	247.19
354.128	220.19
354.355	236.19
354.583	234.19
354.81	246.19
355.037	265.19
355.264	260.19
355.491	260.19
355.718	265.19
355.945	275.19
356.172	258.19
356.399	259.19
356.626	280.19
356.853	338.19
357.08	361.19
357.307	380.19
357.534	311.19
357.761	310.19
357.988	368.19
358.215	436.19
358.441	411.19
358.668	340.19
358.895	331.19
359.122	298.19
359.349	294.19
359.576	326.19
359.802	272.19
360.029	238.19
360.256	235.19
360.483	292.19
360.709	366.19
360.936	370.19
361.163	316.19
361.39	244.19
361.616	240.19
361.843	242.19
362.07	298.19
362.296	295.19
362.523	250.19
362.749	241.19
362.976	230.19
363.203	275.19
363.429	287.19
363.656	238.19
363.882	220.19
364.109	246.19
364.335	247.19
364.562	227.19
364.788	250.19
365.015	304.19
365.241	242.19
365.468	230.19
365.694	215.19
365.92	216.19
366.147	204.19
366.373	193.19
366.599	210.19
366.826	198.19
367.052	190.19
367.278	213.19
367.505	184.19
367.731	227.19
367.957	249.19
368.184	240.19
368.41	223.19
368.636	213.19
368.862	252.19
369.089	250.19
369.315	233.19
369.541	208.19
369.767	223.19
369.993	226.19
370.219	209.19
370.445	218.19
370.672	262.19
370.898	268.19
371.124	275.19
371.35	222.19
371.576	214.19
371.802	234.19
372.028	278.19
372.254	295.19
372.48	260.19
372.706	242.19
372.932	269.19
373.158	256.19
373.384	289.19
373.61	378.19
373.835	400.19
374.061	294.19
374.287	258.19
374.513	319.19
374.739	359.19
374.965	382.19
375.191	384.19
375.416	287.19
375.642	254.19
375.868	289.19
376.094	317.19
376.319	282.19
376.545	294.19
376.771	326.19
376.997	279.19
377.222	219.19
377.448	199.19
377.674	203.19
377.899	189.19
378.125	204.19
378.35	192.19
378.576	190.19
378.802	222.19
379.027	230.19
379.253	222.19
379.478	231.19
379.704	234.19
379.929	266.19
380.155	260.19
380.38	220.19
380.606	226.19
380.831	260.19
381.057	273.19
381.282	253.19
381.507	267.19
381.733	312.19
381.958	315.19
382.184	358.19
382.409	374.19
382.634	386.19
382.86	371.19
383.085	311.19
383.31	277.19
383.535	292.19
383.761	295.19
383.986	266.19
384.211	311.19
384.436	312.19
384.662	244.19
384.887	268.19
385.112	260.19
385.337	294.19
385.562	256.19
385.787	274.19
386.013	286.19
386.238	312.19
386.463	270.19
386.688	259.19
386.913	255.19
387.138	230.19
387.363	262.19
387.588	251.19
387.813	258.19
388.038	257.19
388.263	263.19
388.488	245.19
388.713	260.19
388.938	291.19
389.163	245.19
389.387	239.19
389.612	216.19
389.837	240.19
390.062	247.19
390.287	241.19
390.512	244.19
390.736	231.19
390.961	227.19
391.186	224.19
391.411	226.19
391.636	219.19
391.86	247.19
392.085	247.19
392.31	261.19
392.534	268.19
392.759	240.19
392.984	243.19
393.208	264.19
393.433	226.19
393.658	208.19
393.882	220.19
394.107	206.19
394.331	211.19
394.556	211.19
394.78	203.19
395.005	199.19
395.229	222.19
395.454	209.19
395.678	228.19
395.903	242.19
396.127	223.19
396.352	218.19
396.576	250.19
396.801	233.19
397.025	263.19
397.249	271.19
397.474	231.19
397.698	239.19
397.922	260.19
398.147	226.19
398.371	228.19
398.595	243.19
398.82	250.19
399.044	244.19
399.268	261.19
399.492	283.19
399.717	291.19
399.941	295.19
400.165	268.19
400.389	260.19
400.613	276.19
400.837	273.19
401.062	244.19
401.286	227.19
401.51	217.19
401.734	228.19
401.958	246.19
402.182	235.19
402.406	237.19
402.63	250.19
402.854	251.19
403.078	305.19
403.302	384.19
403.526	410.19
403.75	358.19
403.974	295.19
404.198	292.19
404.422	311.19
404.645	338.19
404.869	373.19
405.093	300.19
405.317	254.19
405.541	260.19
405.765	277.19
405.988	283.19
406.212	283.19
406.436	307.19
406.66	334.19
406.883	295.19
407.107	296.19
407.331	333.19
407.555	332.19
407.778	287.19
408.002	297.19
408.226	283.19
408.449	278.19
408.673	286.19
408.896	271.19
409.12	253.19
409.344	272.19
409.567	246.19
409.791	242.19
410.014	253.19
410.238	249.19
410.461	263.19
410.685	234.19
410.908	249.19
411.132	254.19
411.355	258.19
411.578	237.19
411.802	232.19
412.025	242.19
412.249	265.19
412.472	256.19
412.695	258.19
412.919	257.19
413.142	251.19
413.365	263.19
413.589	271.19
413.812	239.19
414.035	244.19
414.258	245.19
414.482	262.19
414.705	265.19
414.928	244.19
415.151	210.19
415.374	235.19
415.597	252.19
415.821	232.19
416.044	244.19
416.267	240.19
416.49	231.19
416.713	229.19
416.936	239.19
417.159	254.19
417.382	252.19
417.605	248.19
417.828	251.19
418.051	236.19
418.274	238.19
418.497	246.19
418.72	233.19
418.943	263.19
419.166	260.19
419.389	282.19
419.611	258.19
419.834	268.19
420.057	278.19
420.28	304.19
420.503	254.19
420.726	216.19
420.948	236.19
421.171	243.19
421.394	248.19
421.617	235.19
421.839	230.19
422.062	246.19
422.285	251.19
422.507	252.19
422.73	264.19
422.953	275.19
423.175	258.19
423.398	251.19
423.621	267.19
423.843	280.19
424.066	263.19
424.288	252.19
424.511	246.19
424.733	245.19
424.956	238.19
425.178	272.19
425.401	322.19
425.623	385.19
425.846	326.19
426.068	254.19
426.291	271.19
426.513	255.19
426.735	243.19
426.958	262.19
427.18	286.19
427.402	342.19
427.625	355.19
427.847	333.19
428.069	243.19
428.292	264.19
428.514	238.19
428.736	242.19
428.958	274.19
429.181	336.19
429.403	273.19
429.625	254.19
429.847	239.19
430.069	227.19
430.292	235.19
430.514	235.19
430.736	243.19
430.958	306.19
431.18	271.19
431.402	231.19
431.624	231.19
431.846	212.19
432.068	224.19
432.29	224.19
432.512	249.19
432.734	279.19
432.956	269.19
433.178	234.19
433.4	225.19
433.622	228.19
433.844	238.19
434.066	267.19
434.287	254.19
434.509	265.19
434.731	268.19
434.953	269.19
435.175	255.19
435.397	271.19
435.618	252.19
435.84	212.19
436.062	233.19
436.284	233.19
436.505	208.19
436.727	225.19
436.949	230.19
437.17	223.19
437.392	222.19
437.614	219.19
437.835	238.19
438.057	223.19
438.278	239.19
438.5	305.19
438.721	342.19
438.943	248.19
439.165	227.19
439.386	214.19
439.608	211.19
439.829	212.19
440.05	217.19
440.272	222.19
440.493	254.19
440.715	292.19
440.936	249.19
441.158	230.19
441.379	233.19
441.6	267.19
441.822	272.19
442.043	252.19
442.264	255.19
442.486	246.19
442.707	233.19
442.928	231.19
443.149	243.19
443.371	263.19
443.592	252.19
443.813	249.19
444.034	256.19
444.255	246.19
444.476	245.19
444.698	267.19
444.919	263.19
445.14	339.19
445.361	298.19
445.582	258.19
445.803	247.19
446.024	260.19
446.245	266.19
446.466	248.19
446.687	235.19
446.908	230.19
447.129	224.19
447.35	210.19
447.571	234.19
447.792	205.19
448.013	231.19
448.234	205.19
448.455	192.19
448.675	211.19
448.896	210.19
449.117	212.19
449.338	221.19
449.559	232.19
449.779	230.19
450	216.19
450.221	225.19
450.442	223.19
450.662	229.19
450.883	230.19
451.104	234.19
451.324	222.19
451.545	225.19
451.766	241.19
451.986	228.19
452.207	212.19
452.428	222.19
452.648	219.19
452.869	228.19
453.089	252.19
453.31	231.19
453.53	221.19
453.751	206.19
453.971	204.19
454.192	220.19
454.412	216.19
454.633	222.19
454.853	223.19
455.073	213.19
455.294	212.19
455.514	223.19
455.734	217.19
455.955	225.19
456.175	242.19
456.395	199.19
456.616	219.19
456.836	207.19
457.056	211.19
457.276	205.19
457.497	200.19
457.717	204.19
457.937	199.19
458.157	209.19
458.377	213.19
458.598	220.19
458.818	199.19
459.038	215.19
459.258	225.19
459.478	231.19
459.698	240.19
459.918	249.19
460.138	259.19
460.358	252.19
460.578	252.19
460.798	257.19
461.018	246.19
461.238	238.19
461.458	245.19
461.678	251.19
461.898	278.19
462.118	275.19
462.338	266.19
462.558	253.19
462.777	287.19
462.997	290.19
463.217	294.19
463.437	316.19
463.657	301.19
463.876	264.19
464.096	255.19
464.316	303.19
464.536	297.19
464.755	284.19
464.975	294.19
465.195	260.19
465.414	286.19
465.634	257.19
465.854	239.19
466.073	239.19
466.293	263.19
466.512	236.19
466.732	256.19
466.951	234.19
467.171	257.19
467.391	242.19
467.61	215.19
467.829	237.19
468.049	229.19
468.268	219.19
468.488	222.19
468.707	252.19
468.927	263.19
469.146	267.19
469.365	255.19
469.585	223.19
469.804	257.19
470.023	247.19
470.243	260.19
470.462	244.19
470.681	222.19
470.901	255.19
471.12	248.19
471.339	259.19
471.558	234.19
471.777	237.19
471.997	252.19
472.216	265.19
472.435	272.19
472.654	236.19
472.873	236.19
473.092	248.19
473.311	243.19
473.53	251.19
473.749	249.19
473.968	255.19
474.187	249.19
474.406	248.19
474.625	238.19
474.844	234.19
475.063	246.19
475.282	238.19
475.501	268.19
475.72	281.19
475.939	289.19
476.158	280.19
476.377	303.19
476.596	357.19
476.814	347.19
477.033	315.19
477.252	250.19
477.471	253.19
477.69	265.19
477.908	272.19
478.127	274.19
478.346	284.19
478.564	315.19
478.783	305.19
479.002	295.19
479.22	314.19
479.439	328.19
479.658	296.19
479.876	279.19
480.095	293.19
480.313	315.19
480.532	283.19
480.751	288.19
480.969	302.19
481.188	303.19
481.406	304.19
481.624	288.19
481.843	271.19
482.061	265.19
482.28	304.19
482.498	354.19
482.717	347.19
482.935	299.19
483.153	286.19
483.372	268.19
483.59	272.19
483.808	264.19
484.027	265.19
484.245	258.19
484.463	257.19
484.681	244.19
484.9	278.19
485.118	282.19
485.336	279.19
485.554	266.19
485.772	279.19
485.99	270.19
486.209	297.19
486.427	300.19
486.645	276.19
486.863	288.19
487.081	287.19
487.299	327.19
487.517	299.19
487.735	301.19
487.953	301.19
488.171	308.19
488.389	277.19
488.607	270.19
488.825	304.19
489.043	288.19
489.261	320.19
489.479	340.19
489.696	294.19
489.914	280.19
490.132	269.19
490.35	276.19
490.568	266.19
490.786	269.19
491.003	269.19
491.221	284.19
491.439	290.19
491.657	278.19
491.874	295.19
492.092	335.19
492.31	380.19
492.527	366.19
492.745	358.19
492.963	299.19
493.18	293.19
493.398	297.19
493.615	294.19
493.833	293.19
494.05	288.19
494.268	302.19
494.485	302.19
494.703	291.19
494.92	302.19
495.138	282.19
495.355	289.19
495.573	277.19
495.79	317.19
496.008	400.19
496.225	320.19
496.442	285.19
496.66	319.19
496.877	320.19
497.094	319.19
497.312	306.19
497.529	331.19
497.746	353.19
497.963	327.19
498.181	343.19
498.398	346.19
498.615	361.19
498.832	396.19
499.049	396.19
499.267	382.19
499.484	421.19
499.701	432.19
499.918	441.19
500.135	506.19
500.352	510.19
500.569	574.19
500.786	563.19
501.003	567.19
501.22	474.19
501.437	454.19
501.654	411.19
501.871	389.19
502.088	380.19
502.305	376.19
502.522	347.19
