Data from NickelSpatula.Lamp.E10.P2_HRD10591_11-56-48-534.txt Node
Date: Tue Jul 23 11:56:48 EDT 2019
User: cochatt
Spectrometer: HR+D1059
Trigger mode: 1
Integration Time (sec): 1.000000E-1
Scans to average: 1
Electric dark correction enabled: true
Nonlinearity correction enabled: false
Boxcar width: 0
XAxis mode: Wavelengths
Number of Pixels in Spectrum: 2048
>>>>>Begin Spectral Data<<<<<
223.165	-17.38
223.4	-17.38
223.635	-17.38
223.869	-29.38
224.104	-22.38
224.338	-7.38
224.573	-1.38
224.808	-14.38
225.042	-16.38
225.277	6.62
225.511	-4.38
225.746	-0.38
225.98	6.62
226.215	7.62
226.449	17.62
226.683	17.62
226.918	21.62
227.152	35.62
227.387	28.62
227.621	32.62
227.856	44.62
228.09	41.62
228.324	45.62
228.559	45.62
228.793	84.62
229.027	123.62
229.262	160.62
229.496	147.62
229.73	146.62
229.964	164.62
230.199	196.62
230.433	191.62
230.667	162.62
230.901	182.62
231.136	198.62
231.37	189.62
231.604	195.62
231.838	206.62
232.072	227.62
232.306	215.62
232.541	215.62
232.775	211.62
233.009	224.62
233.243	257.62
233.477	269.62
233.711	304.62
233.945	291.62
234.179	308.62
234.413	323.62
234.647	342.62
234.881	429.62
235.115	364.62
235.349	367.62
235.583	305.62
235.817	328.62
236.051	317.62
236.285	347.62
236.519	410.62
236.753	376.62
236.987	356.62
237.221	351.62
237.455	366.62
237.689	374.62
237.922	393.62
238.156	421.62
238.39	471.62
238.624	570.62
238.858	542.62
239.091	439.62
239.325	431.62
239.559	409.62
239.793	479.62
240.027	536.62
240.26	527.62
240.494	491.62
240.728	545.62
240.961	606.62
241.195	546.62
241.429	547.62
241.662	550.62
241.896	469.62
242.13	409.62
242.363	408.62
242.597	414.62
242.83	498.62
243.064	481.62
243.298	529.62
243.531	549.62
243.765	572.62
243.998	546.62
244.232	536.62
244.465	530.62
244.699	509.62
244.932	583.62
245.166	559.62
245.399	507.62
245.633	481.62
245.866	516.62
246.099	564.62
246.333	626.62
246.566	664.62
246.8	661.62
247.033	645.62
247.266	613.62
247.5	590.62
247.733	590.62
247.966	597.62
248.2	588.62
248.433	633.62
248.666	700.62
248.899	693.62
249.133	705.62
249.366	815.62
249.599	883.62
249.832	801.62
250.066	727.62
250.299	728.62
250.532	695.62
250.765	697.62
250.998	639.62
251.231	649.62
251.465	679.62
251.698	757.62
251.931	700.62
252.164	718.62
252.397	825.62
252.63	891.62
252.863	981.62
253.096	993.62
253.329	965.62
253.562	947.62
253.795	1059.62
254.028	1162.62
254.261	1160.62
254.494	1056.62
254.727	962.62
254.96	956.62
255.193	996.62
255.426	955.62
255.659	779.62
255.892	697.62
256.124	786.62
256.357	917.62
256.59	1043.62
256.823	1014.62
257.056	840.62
257.289	797.62
257.521	870.62
257.754	1022.62
257.987	1177.62
258.22	1003.62
258.452	917.62
258.685	1007.62
258.918	1129.62
259.151	1108.62
259.383	1202.62
259.616	1399.62
259.849	1429.62
260.081	1508.62
260.314	1628.62
260.547	1303.62
260.779	1344.62
261.012	1561.62
261.244	1439.62
261.477	1417.62
261.71	1323.62
261.942	1116.62
262.175	1098.62
262.407	1083.62
262.64	1083.62
262.872	1305.62
263.105	1383.62
263.337	1496.62
263.57	1356.62
263.802	951.62
264.035	835.62
264.267	825.62
264.499	754.62
264.732	654.62
264.964	640.62
265.197	653.62
265.429	729.62
265.661	738.62
265.894	792.62
266.126	851.62
266.358	959.62
266.591	1125.62
266.823	1316.62
267.055	1275.62
267.287	1143.62
267.52	1190.62
267.752	1257.62
267.984	1345.62
268.216	1296.62
268.448	1055.62
268.681	1029.62
268.913	1093.62
269.145	1176.62
269.377	1202.62
269.609	1233.62
269.841	1127.62
270.073	1179.62
270.306	1263.62
270.538	1296.62
270.77	1291.62
271.002	1266.62
271.234	1341.62
271.466	1327.62
271.698	1242.62
271.93	1246.62
272.162	1236.62
272.394	1208.62
272.626	1203.62
272.858	1226.62
273.09	1280.62
273.322	1126.62
273.553	1056.62
273.785	1237.62
274.017	1627.62
274.249	1973.62
274.481	2101.62
274.713	2263.62
274.945	2613.62
275.176	2734.62
275.408	2431.62
275.64	2199.62
275.872	2195.62
276.104	1944.62
276.335	1709.62
276.567	1661.62
276.799	1735.62
277.031	1815.62
277.262	1400.62
277.494	1107.62
277.726	1077.62
277.957	1182.62
278.189	1308.62
278.421	1305.62
278.652	1262.62
278.884	1216.62
279.115	1158.62
279.347	1088.62
279.579	1084.62
279.81	1068.62
280.042	1098.62
280.273	1074.62
280.505	1058.62
280.736	941.62
280.968	959.62
281.199	1022.62
281.431	1144.62
281.662	1137.62
281.894	1105.62
282.125	1145.62
282.356	1244.62
282.588	1251.62
282.819	1154.62
283.051	1263.62
283.282	1527.62
283.513	1758.62
283.745	1940.62
283.976	1961.62
284.207	1776.62
284.439	1884.62
284.67	1776.62
284.901	1581.62
285.132	1699.62
285.364	1771.62
285.595	1654.62
285.826	1767.62
286.057	1794.62
286.288	1684.62
286.52	1801.62
286.751	1841.62
286.982	1865.62
287.213	1612.62
287.444	1615.62
287.675	1646.62
287.906	1669.62
288.138	1439.62
288.369	1245.62
288.6	1219.62
288.831	1259.62
289.062	1493.62
289.293	1584.62
289.524	1494.62
289.755	1471.62
289.986	1494.62
290.217	1336.62
290.448	1028.62
290.679	909.62
290.91	837.62
291.141	847.62
291.371	887.62
291.602	908.62
291.833	896.62
292.064	952.62
292.295	1107.62
292.526	1257.62
292.757	1340.62
292.987	1393.62
293.218	1429.62
293.449	1511.62
293.68	1575.62
293.91	1454.62
294.141	1500.62
294.372	1409.62
294.603	1316.62
294.833	1443.62
295.064	1672.62
295.295	1617.62
295.525	1236.62
295.756	1007.62
295.987	891.62
296.217	917.62
296.448	914.62
296.679	956.62
296.909	1026.62
297.14	1109.62
297.37	1251.62
297.601	1154.62
297.831	1031.62
298.062	1101.62
298.292	1245.62
298.523	1318.62
298.753	1444.62
298.984	1349.62
299.214	1082.62
299.445	930.62
299.675	869.62
299.905	863.62
300.136	872.62
300.366	926.62
300.597	927.62
300.827	830.62
301.057	819.62
301.288	829.62
301.518	885.62
301.748	971.62
301.979	1022.62
302.209	1088.62
302.439	1091.62
302.669	1027.62
302.9	1038.62
303.13	975.62
303.36	935.62
303.59	912.62
303.82	990.62
304.051	1075.62
304.281	1156.62
304.511	1118.62
304.741	1021.62
304.971	1010.62
305.201	1140.62
305.431	1062.62
305.661	916.62
305.891	858.62
306.121	873.62
306.352	814.62
306.582	776.62
306.812	758.62
307.042	724.62
307.272	732.62
307.502	723.62
307.731	756.62
307.961	770.62
308.191	771.62
308.421	731.62
308.651	719.62
308.881	700.62
309.111	707.62
309.341	738.62
309.571	770.62
309.8	813.62
310.03	801.62
310.26	812.62
310.49	781.62
310.72	742.62
310.949	775.62
311.179	797.62
311.409	827.62
311.639	951.62
311.868	1206.62
312.098	1551.62
312.328	1683.62
312.557	1647.62
312.787	1622.62
313.017	1488.62
313.246	1577.62
313.476	1710.62
313.706	1413.62
313.935	1147.62
314.165	947.62
314.394	876.62
314.624	877.62
314.853	876.62
315.083	934.62
315.312	887.62
315.542	885.62
315.771	811.62
316.001	751.62
316.23	751.62
316.46	755.62
316.689	772.62
316.919	803.62
317.148	799.62
317.377	781.62
317.607	800.62
317.836	827.62
318.065	927.62
318.295	1069.62
318.524	985.62
318.753	890.62
318.983	811.62
319.212	781.62
319.441	860.62
319.67	929.62
319.9	988.62
320.129	957.62
320.358	868.62
320.587	793.62
320.816	851.62
321.046	945.62
321.275	1025.62
321.504	1021.62
321.733	990.62
321.962	1016.62
322.191	924.62
322.42	869.62
322.649	895.62
322.878	918.62
323.108	931.62
323.337	917.62
323.566	911.62
323.795	876.62
324.024	871.62
324.253	825.62
324.482	782.62
324.71	866.62
324.939	928.62
325.168	891.62
325.397	799.62
325.626	790.62
325.855	796.62
326.084	808.62
326.313	787.62
326.542	763.62
326.77	785.62
326.999	809.62
327.228	828.62
327.457	817.62
327.686	825.62
327.914	768.62
328.143	736.62
328.372	713.62
328.6	738.62
328.829	767.62
329.058	767.62
329.287	780.62
329.515	811.62
329.744	810.62
329.972	766.62
330.201	734.62
330.43	766.62
330.658	839.62
330.887	925.62
331.115	915.62
331.344	900.62
331.572	849.62
331.801	804.62
332.03	773.62
332.258	801.62
332.486	868.62
332.715	891.62
332.943	864.62
333.172	830.62
333.4	867.62
333.629	941.62
333.857	1007.62
334.085	1008.62
334.314	986.62
334.542	945.62
334.771	869.62
334.999	867.62
335.227	863.62
335.455	854.62
335.684	936.62
335.912	1071.62
336.14	1165.62
336.369	1147.62
336.597	1083.62
336.825	1161.62
337.053	1311.62
337.281	1043.62
337.51	872.62
337.738	852.62
337.966	922.62
338.194	991.62
338.422	949.62
338.65	850.62
338.878	789.62
339.106	832.62
339.334	865.62
339.562	901.62
339.79	892.62
340.018	842.62
340.246	893.62
340.474	971.62
340.702	1062.62
340.93	1089.62
341.158	1096.62
341.386	939.62
341.614	891.62
341.842	916.62
342.07	971.62
342.298	1116.62
342.526	1115.62
342.754	956.62
342.981	896.62
343.209	890.62
343.437	952.62
343.665	969.62
343.893	1004.62
344.12	1132.62
344.348	1287.62
344.576	1184.62
344.804	965.62
345.031	867.62
345.259	818.62
345.487	855.62
345.714	870.62
345.942	939.62
346.17	1007.62
346.397	962.62
346.625	839.62
346.853	823.62
347.08	792.62
347.308	850.62
347.535	945.62
347.763	961.62
347.99	852.62
348.218	835.62
348.445	848.62
348.673	869.62
348.9	857.62
349.128	889.62
349.355	885.62
349.583	900.62
349.81	843.62
350.037	798.62
350.265	733.62
350.492	723.62
350.72	717.62
350.947	722.62
351.174	756.62
351.402	801.62
351.629	767.62
351.856	754.62
352.083	731.62
352.311	778.62
352.538	845.62
352.765	850.62
352.992	833.62
353.22	798.62
353.447	823.62
353.674	788.62
353.901	783.62
354.128	784.62
354.355	809.62
354.583	816.62
354.81	786.62
355.037	828.62
355.264	787.62
355.491	829.62
355.718	879.62
355.945	862.62
356.172	855.62
356.399	836.62
356.626	985.62
356.853	1121.62
357.08	1173.62
357.307	1223.62
357.534	1021.62
357.761	1023.62
357.988	1239.62
358.215	1401.62
358.441	1322.62
358.668	1115.62
358.895	1080.62
359.122	941.62
359.349	927.62
359.576	1015.62
359.802	864.62
360.029	778.62
360.256	838.62
360.483	947.62
360.709	1150.62
360.936	1155.62
361.163	1076.62
361.39	881.62
361.616	826.62
361.843	919.62
362.07	1061.62
362.296	988.62
362.523	825.62
362.749	753.62
362.976	808.62
363.203	909.62
363.429	962.62
363.656	850.62
363.882	791.62
364.109	786.62
364.335	791.62
364.562	786.62
364.788	886.62
365.015	948.62
365.241	878.62
365.468	795.62
365.694	727.62
365.92	707.62
366.147	680.62
366.373	686.62
366.599	683.62
366.826	694.62
367.052	696.62
367.278	710.62
367.505	699.62
367.731	754.62
367.957	804.62
368.184	817.62
368.41	793.62
368.636	827.62
368.862	815.62
369.089	769.62
369.315	713.62
369.541	720.62
369.767	720.62
369.993	688.62
370.219	720.62
370.445	767.62
370.672	803.62
370.898	821.62
371.124	839.62
371.35	800.62
371.576	796.62
371.802	780.62
372.028	900.62
372.254	939.62
372.48	855.62
372.706	782.62
372.932	849.62
373.158	846.62
373.384	985.62
373.61	1199.62
373.835	1247.62
374.061	987.62
374.287	901.62
374.513	999.62
374.739	1144.62
374.965	1179.62
375.191	1127.62
375.416	899.62
375.642	830.62
375.868	931.62
376.094	1011.62
376.319	885.62
376.545	947.62
376.771	1001.62
376.997	876.62
377.222	757.62
377.448	711.62
377.674	667.62
377.899	685.62
378.125	683.62
378.35	653.62
378.576	686.62
378.802	699.62
379.027	763.62
379.253	727.62
379.478	775.62
379.704	827.62
379.929	840.62
380.155	844.62
380.38	756.62
380.606	829.62
380.831	854.62
381.057	843.62
381.282	783.62
381.507	901.62
381.733	1039.62
381.958	1063.62
382.184	1171.62
382.409	1199.62
382.634	1178.62
382.86	1222.62
383.085	1025.62
383.31	906.62
383.535	933.62
383.761	921.62
383.986	895.62
384.211	1024.62
384.436	998.62
384.662	881.62
384.887	814.62
385.112	843.62
385.337	858.62
385.562	850.62
385.787	878.62
386.013	961.62
386.238	985.62
386.463	871.62
386.688	830.62
386.913	828.62
387.138	797.62
387.363	821.62
387.588	833.62
387.813	840.62
388.038	884.62
388.263	837.62
388.488	801.62
388.713	885.62
388.938	912.62
389.163	842.62
389.387	805.62
389.612	783.62
389.837	795.62
390.062	808.62
390.287	827.62
390.512	830.62
390.736	823.62
390.961	778.62
391.186	775.62
391.411	783.62
391.636	780.62
391.86	823.62
392.085	876.62
392.31	861.62
392.534	831.62
392.759	788.62
392.984	829.62
393.208	823.62
393.433	764.62
393.658	772.62
393.882	712.62
394.107	718.62
394.331	756.62
394.556	715.62
394.78	744.62
395.005	779.62
395.229	757.62
395.454	771.62
395.678	807.62
395.903	801.62
396.127	788.62
396.352	799.62
396.576	835.62
396.801	844.62
397.025	915.62
397.249	933.62
397.474	846.62
397.698	846.62
397.922	867.62
398.147	854.62
398.371	856.62
398.595	862.62
398.82	852.62
399.044	896.62
399.268	927.62
399.492	960.62
399.717	1012.62
399.941	1009.62
400.165	981.62
400.389	975.62
400.613	913.62
400.837	920.62
401.062	856.62
401.286	860.62
401.51	845.62
401.734	846.62
401.958	881.62
402.182	843.62
402.406	833.62
402.63	848.62
402.854	881.62
403.078	985.62
403.302	1147.62
403.526	1197.62
403.75	1086.62
403.974	967.62
404.198	972.62
404.422	1055.62
404.645	1158.62
404.869	1219.62
405.093	1007.62
405.317	923.62
405.541	960.62
405.765	945.62
405.988	928.62
406.212	979.62
406.436	1059.62
406.66	1145.62
406.883	983.62
407.107	1019.62
407.331	1104.62
407.555	1079.62
407.778	997.62
408.002	982.62
408.226	986.62
408.449	982.62
408.673	929.62
408.896	889.62
409.12	882.62
409.344	889.62
409.567	847.62
409.791	880.62
410.014	841.62
410.238	873.62
410.461	856.62
410.685	860.62
410.908	852.62
411.132	881.62
411.355	860.62
411.578	889.62
411.802	899.62
412.025	899.62
412.249	900.62
412.472	884.62
412.695	869.62
412.919	888.62
413.142	864.62
413.365	922.62
413.589	929.62
413.812	860.62
414.035	862.62
414.258	866.62
414.482	912.62
414.705	924.62
414.928	833.62
415.151	843.62
415.374	831.62
415.597	848.62
415.821	841.62
416.044	795.62
416.267	806.62
416.49	791.62
416.713	810.62
416.936	809.62
417.159	813.62
417.382	835.62
417.605	835.62
417.828	851.62
418.051	825.62
418.274	840.62
418.497	856.62
418.72	831.62
418.943	820.62
419.166	885.62
419.389	953.62
419.611	908.62
419.834	893.62
420.057	963.62
420.28	918.62
420.503	882.62
420.726	822.62
420.948	829.62
421.171	830.62
421.394	828.62
421.617	819.62
421.839	811.62
422.062	875.62
422.285	823.62
422.507	836.62
422.73	864.62
422.953	858.62
423.175	857.62
423.398	864.62
423.621	899.62
423.843	926.62
424.066	875.62
424.288	832.62
424.511	853.62
424.733	853.62
424.956	842.62
425.178	915.62
425.401	1009.62
425.623	1093.62
425.846	955.62
426.068	885.62
426.291	906.62
426.513	887.62
426.735	833.62
426.958	883.62
427.18	991.62
427.402	1159.62
427.625	1158.62
427.847	994.62
428.069	838.62
428.292	837.62
428.514	820.62
428.736	799.62
428.958	870.62
429.181	979.62
429.403	861.62
429.625	811.62
429.847	779.62
430.069	799.62
430.292	837.62
430.514	806.62
430.736	846.62
430.958	936.62
431.18	907.62
431.402	793.62
431.624	770.62
431.846	779.62
432.068	755.62
432.29	796.62
432.512	815.62
432.734	993.62
432.956	961.62
433.178	829.62
433.4	822.62
433.622	802.62
433.844	807.62
434.066	892.62
434.287	853.62
434.509	833.62
434.731	868.62
434.953	832.62
435.175	883.62
435.397	941.62
435.618	849.62
435.84	785.62
436.062	764.62
436.284	792.62
436.505	782.62
436.727	739.62
436.949	771.62
437.17	790.62
437.392	793.62
437.614	757.62
437.835	787.62
438.057	790.62
438.278	814.62
438.5	1053.62
438.721	1069.62
438.943	827.62
439.165	750.62
439.386	736.62
439.608	742.62
439.829	742.62
440.05	735.62
440.272	775.62
440.493	866.62
440.715	950.62
440.936	857.62
441.158	781.62
441.379	819.62
441.6	865.62
441.822	905.62
442.043	832.62
442.264	824.62
442.486	824.62
442.707	834.62
442.928	804.62
443.149	867.62
443.371	854.62
443.592	890.62
443.813	895.62
444.034	861.62
444.255	856.62
444.476	886.62
444.698	892.62
444.919	906.62
445.14	969.62
445.361	969.62
445.582	885.62
445.803	874.62
446.024	868.62
446.245	880.62
446.466	863.62
446.687	817.62
446.908	836.62
447.129	783.62
447.35	789.62
447.571	766.62
447.792	775.62
448.013	748.62
448.234	733.62
448.455	726.62
448.675	749.62
448.896	791.62
449.117	784.62
449.338	735.62
449.559	798.62
449.779	815.62
450	796.62
450.221	797.62
450.442	755.62
450.662	755.62
450.883	755.62
451.104	748.62
451.324	755.62
451.545	785.62
451.766	762.62
451.986	767.62
452.207	725.62
452.428	723.62
452.648	719.62
452.869	755.62
453.089	750.62
453.31	749.62
453.53	690.62
453.751	693.62
453.971	700.62
454.192	728.62
454.412	743.62
454.633	710.62
454.853	676.62
455.073	701.62
455.294	684.62
455.514	704.62
455.734	745.62
455.955	763.62
456.175	774.62
456.395	712.62
456.616	672.62
456.836	672.62
457.056	675.62
457.276	691.62
457.497	665.62
457.717	676.62
457.937	689.62
458.157	684.62
458.377	710.62
458.598	706.62
458.818	744.62
459.038	771.62
459.258	765.62
459.478	794.62
459.698	866.62
459.918	847.62
460.138	823.62
460.358	832.62
460.578	837.62
460.798	838.62
461.018	834.62
461.238	808.62
461.458	831.62
461.678	834.62
461.898	858.62
462.118	867.62
462.338	871.62
462.558	883.62
462.777	901.62
462.997	949.62
463.217	985.62
463.437	970.62
463.657	975.62
463.876	931.62
464.096	941.62
464.316	949.62
464.536	902.62
464.755	950.62
464.975	933.62
465.195	887.62
465.414	949.62
465.634	895.62
465.854	875.62
466.073	826.62
466.293	821.62
466.512	888.62
466.732	935.62
466.951	926.62
467.171	842.62
467.391	816.62
467.61	805.62
467.829	862.62
468.049	867.62
468.268	811.62
468.488	818.62
468.707	855.62
468.927	971.62
469.146	1023.62
469.365	932.62
469.585	866.62
469.804	934.62
470.023	1003.62
470.243	871.62
470.462	847.62
470.681	835.62
470.901	856.62
471.12	885.62
471.339	893.62
471.558	839.62
471.777	860.62
471.997	913.62
472.216	1007.62
472.435	978.62
472.654	897.62
472.873	873.62
473.092	911.62
473.311	940.62
473.53	873.62
473.749	846.62
473.968	873.62
474.187	888.62
474.406	879.62
474.625	856.62
474.844	879.62
475.063	934.62
475.282	959.62
475.501	955.62
475.72	1033.62
475.939	976.62
476.158	1029.62
476.377	1141.62
476.596	1277.62
476.814	1336.62
477.033	1112.62
477.252	978.62
477.471	912.62
477.69	937.62
477.908	1049.62
478.127	1067.62
478.346	967.62
478.564	1080.62
478.783	1023.62
479.002	1033.62
479.22	1146.62
479.439	1305.62
479.658	1139.62
479.876	1046.62
480.095	1151.62
480.313	1140.62
480.532	1067.62
480.751	1015.62
480.969	1043.62
481.188	1168.62
481.406	1203.62
481.624	1110.62
481.843	1030.62
482.061	973.62
482.28	1089.62
482.498	1314.62
482.717	1244.62
482.935	1081.62
483.153	1048.62
483.372	979.62
483.59	976.62
483.808	991.62
484.027	992.62
484.245	964.62
484.463	925.62
484.681	956.62
484.9	1027.62
485.118	1094.62
485.336	1032.62
485.554	982.62
485.772	996.62
485.99	1078.62
486.209	1087.62
486.427	1085.62
486.645	1077.62
486.863	1109.62
487.081	1108.62
487.299	1168.62
487.517	1128.62
487.735	1115.62
487.953	1151.62
488.171	1143.62
488.389	1080.62
488.607	1056.62
488.825	1048.62
489.043	1134.62
489.261	1203.62
489.479	1249.62
489.696	1162.62
489.914	1088.62
490.132	1031.62
490.35	1023.62
490.568	1029.62
490.786	1062.62
491.003	1045.62
491.221	1051.62
491.439	1068.62
491.657	1039.62
491.874	1122.62
492.092	1227.62
492.31	1370.62
492.527	1399.62
492.745	1323.62
492.963	1203.62
493.18	1176.62
493.398	1203.62
493.615	1161.62
493.833	1145.62
494.05	1171.62
494.268	1136.62
494.485	1159.62
494.703	1084.62
494.92	1115.62
495.138	1116.62
495.355	1114.62
495.573	1142.62
495.79	1176.62
496.008	1363.62
496.225	1216.62
496.442	1215.62
496.66	1184.62
496.877	1238.62
497.094	1259.62
497.312	1199.62
497.529	1205.62
497.746	1261.62
