Data from NickelSpatula_HRD10591_16-35-59-126.txt Node
Date: Mon Jul 22 16:35:59 EDT 2019
User: cochatt
Spectrometer: HR+D1059
Trigger mode: 1
Integration Time (sec): 1.000000E-1
Scans to average: 1
Electric dark correction enabled: true
Nonlinearity correction enabled: false
Boxcar width: 0
XAxis mode: Wavelengths
Number of Pixels in Spectrum: 2048
>>>>>Begin Spectral Data<<<<<
223.165	-14
223.4	-14
223.635	-14
223.869	-18
224.104	-15
224.338	-14
224.573	-16
224.808	-18
225.042	-5
225.277	-11
225.511	-7
225.746	5
225.98	8
226.215	20
226.449	4
226.683	21
226.918	35
227.152	25
227.387	36
227.621	44
227.856	56
228.09	60
228.324	44
228.559	58
228.793	58
229.027	71
229.262	81
229.496	81
229.73	73
229.964	73
230.199	84
230.433	102
230.667	82
230.901	90
231.136	97
231.37	97
231.604	92
231.838	98
232.072	85
232.306	100
232.541	94
232.775	95
233.009	97
233.243	106
233.477	112
233.711	110
233.945	104
234.179	111
234.413	110
234.647	117
234.881	122
235.115	103
235.349	111
235.583	112
235.817	102
236.051	125
236.285	111
236.519	120
236.753	112
236.987	113
237.221	119
237.455	105
237.689	111
237.922	110
238.156	109
238.39	116
238.624	130
238.858	118
239.091	117
239.325	125
239.559	128
239.793	122
240.027	137
240.26	121
240.494	112
240.728	124
240.961	111
241.195	127
241.429	120
241.662	128
241.896	126
242.13	110
242.363	109
242.597	117
242.83	118
243.064	131
243.298	130
243.531	126
243.765	138
243.998	127
244.232	125
244.465	134
244.699	134
244.932	130
245.166	122
245.399	124
245.633	128
245.866	121
246.099	134
246.333	142
246.566	145
246.8	138
247.033	140
247.266	140
247.5	131
247.733	109
247.966	121
248.2	134
248.433	130
248.666	138
248.899	137
249.133	155
249.366	156
249.599	177
249.832	170
250.066	142
250.299	136
250.532	159
250.765	138
250.998	130
251.231	130
251.465	134
251.698	134
251.931	133
252.164	154
252.397	161
252.63	161
252.863	156
253.096	192
253.329	177
253.562	176
253.795	157
254.028	202
254.261	197
254.494	169
254.727	153
254.96	170
255.193	174
255.426	172
255.659	141
255.892	147
256.124	169
256.357	164
256.59	160
256.823	166
257.056	150
257.289	159
257.521	164
257.754	169
257.987	185
258.22	169
258.452	144
258.685	177
258.918	184
259.151	193
259.383	178
259.616	208
259.849	207
260.081	220
260.314	214
260.547	202
260.779	214
261.012	218
261.244	217
261.477	210
261.71	198
261.942	176
262.175	186
262.407	187
262.64	170
262.872	203
263.105	204
263.337	205
263.57	183
263.802	147
264.035	146
264.267	146
264.499	135
264.732	126
264.964	132
265.197	141
265.429	144
265.661	137
265.894	151
266.126	160
266.358	164
266.591	167
266.823	210
267.055	186
267.287	190
267.52	173
267.752	186
267.984	211
268.216	204
268.448	174
268.681	181
268.913	195
269.145	180
269.377	200
269.609	196
269.841	178
270.073	206
270.306	190
270.538	185
270.77	187
271.002	204
271.234	190
271.466	206
271.698	210
271.93	182
272.162	188
272.394	194
272.626	182
272.858	189
273.09	205
273.322	177
273.553	184
273.785	202
274.017	225
274.249	260
274.481	261
274.713	327
274.945	321
275.176	331
275.408	317
275.64	287
275.872	306
276.104	271
276.335	234
276.567	234
276.799	255
277.031	233
277.262	213
277.494	168
277.726	169
277.957	185
278.189	190
278.421	189
278.652	197
278.884	186
279.115	174
279.347	166
279.579	161
279.81	158
280.042	172
280.273	175
280.505	166
280.736	152
280.968	167
281.199	164
281.431	169
281.662	169
281.894	173
282.125	187
282.356	188
282.588	193
282.819	175
283.051	180
283.282	224
283.513	233
283.745	246
283.976	264
284.207	248
284.439	271
284.67	226
284.901	219
285.132	230
285.364	238
285.595	229
285.826	231
286.057	247
286.288	251
286.52	225
286.751	259
286.982	257
287.213	241
287.444	202
287.675	226
287.906	233
288.138	217
288.369	181
288.6	196
288.831	190
289.062	204
289.293	218
289.524	200
289.755	201
289.986	203
290.217	201
290.448	184
290.679	144
290.91	136
291.141	154
291.371	155
291.602	152
291.833	169
292.064	166
292.295	170
292.526	185
292.757	190
292.987	208
293.218	204
293.449	210
293.68	216
293.91	210
294.141	221
294.372	200
294.603	200
294.833	213
295.064	236
295.295	212
295.525	166
295.756	172
295.987	152
296.217	172
296.448	160
296.679	164
296.909	184
297.14	172
297.37	207
297.601	180
297.831	156
298.062	171
298.292	182
298.523	209
298.753	221
298.984	208
299.214	180
299.445	153
299.675	148
299.905	166
300.136	156
300.366	167
300.597	172
300.827	135
301.057	155
301.288	162
301.518	180
301.748	188
301.979	184
302.209	176
302.439	185
302.669	180
302.9	185
303.13	162
303.36	159
303.59	138
303.82	158
304.051	178
304.281	196
304.511	186
304.741	177
304.971	173
305.201	182
305.431	174
305.661	152
305.891	159
306.121	176
306.352	127
306.582	136
306.812	144
307.042	137
307.272	141
307.502	143
307.731	143
307.961	145
308.191	132
308.421	139
308.651	140
308.881	133
309.111	119
309.341	136
309.571	147
309.8	144
310.03	168
310.26	156
310.49	141
310.72	142
310.949	132
311.179	151
311.409	153
311.639	161
311.868	185
312.098	207
312.328	226
312.557	234
312.787	223
313.017	204
313.246	219
313.476	238
313.706	206
313.935	167
314.165	154
314.394	145
314.624	157
314.853	159
315.083	155
315.312	153
315.542	157
315.771	150
316.001	146
316.23	146
316.46	125
316.689	127
316.919	146
317.148	144
317.377	142
317.607	150
317.836	165
318.065	174
318.295	165
318.524	176
318.753	138
318.983	152
319.212	140
319.441	155
319.67	157
319.9	162
320.129	158
320.358	161
320.587	157
320.816	145
321.046	158
321.275	186
321.504	181
321.733	167
321.962	186
322.191	164
322.42	164
322.649	177
322.878	177
323.108	172
323.337	169
323.566	158
323.795	164
324.024	148
324.253	136
324.482	170
324.71	170
324.939	149
325.168	154
325.397	148
325.626	150
325.855	154
326.084	142
326.313	150
326.542	126
326.77	130
326.999	146
327.228	148
327.457	160
327.686	154
327.914	137
328.143	139
328.372	140
328.6	133
328.829	145
329.058	146
329.287	141
329.515	136
329.744	128
329.972	132
330.201	142
330.43	139
330.658	153
330.887	159
331.115	150
331.344	138
331.572	153
331.801	132
332.03	136
332.258	146
332.486	156
332.715	150
332.943	136
333.172	132
333.4	155
333.629	164
333.857	180
334.085	172
334.314	173
334.542	155
334.771	151
334.999	155
335.227	137
335.455	141
335.684	157
335.912	182
336.14	170
336.369	174
336.597	178
336.825	185
337.053	193
337.281	150
337.51	141
337.738	136
337.966	153
338.194	151
338.422	162
338.65	156
338.878	144
339.106	150
339.334	161
339.562	161
339.79	150
340.018	153
340.246	138
340.474	182
340.702	169
340.93	169
341.158	184
341.386	159
341.614	166
341.842	161
342.07	166
342.298	169
342.526	188
342.754	170
342.981	150
343.209	168
343.437	169
343.665	157
343.893	164
344.12	184
344.348	201
344.576	203
344.804	185
345.031	160
345.259	169
345.487	152
345.714	145
345.942	157
346.17	176
346.397	158
346.625	161
346.853	157
347.08	139
347.308	154
347.535	163
347.763	168
347.99	160
348.218	152
348.445	137
348.673	136
348.9	145
349.128	161
349.355	158
349.583	165
349.81	160
350.037	153
350.265	146
350.492	131
350.72	129
350.947	143
351.174	146
351.402	139
351.629	158
351.856	143
352.083	147
352.311	144
352.538	138
352.765	158
352.992	173
353.22	160
353.447	162
353.674	160
353.901	139
354.128	157
354.355	161
354.583	168
354.81	172
355.037	170
355.264	169
355.491	169
355.718	165
355.945	172
356.172	167
356.399	157
356.626	203
356.853	215
357.08	220
357.307	229
357.534	188
357.761	199
357.988	230
358.215	249
358.441	253
358.668	214
358.895	192
359.122	185
359.349	174
359.576	192
359.802	177
360.029	144
360.256	156
360.483	196
360.709	217
360.936	233
361.163	185
361.39	178
361.616	145
361.843	181
362.07	207
362.296	176
362.523	166
362.749	135
362.976	154
363.203	166
363.429	188
363.656	163
363.882	156
364.109	167
364.335	153
364.562	153
364.788	164
365.015	189
365.241	163
365.468	152
365.694	143
365.92	144
366.147	119
366.373	126
366.599	125
366.826	125
367.052	138
367.278	149
367.505	140
367.731	140
367.957	160
368.184	148
368.41	169
368.636	155
368.862	151
369.089	160
369.315	150
369.541	152
369.767	152
369.993	140
370.219	129
370.445	137
370.672	161
370.898	167
371.124	159
371.35	168
371.576	152
371.802	150
372.028	171
372.254	186
372.48	168
372.706	164
372.932	159
373.158	162
373.384	209
373.61	228
373.835	233
374.061	186
374.287	192
374.513	199
374.739	214
374.965	227
375.191	205
375.416	185
375.642	166
375.868	167
376.094	181
376.319	169
376.545	176
376.771	169
376.997	190
377.222	157
377.448	139
377.674	144
377.899	136
378.125	131
378.35	128
378.576	149
378.802	136
379.027	161
379.253	140
379.478	170
379.704	177
379.929	180
380.155	173
380.38	157
380.606	161
380.831	171
381.057	154
381.282	158
381.507	167
381.733	186
381.958	209
382.184	203
382.409	229
382.634	226
382.86	237
383.085	196
383.31	172
383.535	188
383.761	169
383.986	176
384.211	196
384.436	207
384.662	153
384.887	158
385.112	156
385.337	160
385.562	161
385.787	162
386.013	201
386.238	173
386.463	168
386.688	157
386.913	136
387.138	152
387.363	150
387.588	159
387.813	167
388.038	180
388.263	163
388.488	165
388.713	175
388.938	188
389.163	156
389.387	145
389.612	144
389.837	150
390.062	147
390.287	171
390.512	162
390.736	138
390.961	136
391.186	146
391.411	123
391.636	139
391.86	156
392.085	166
392.31	171
392.534	147
392.759	161
392.984	150
393.208	153
393.433	157
393.658	134
393.882	139
394.107	160
394.331	144
394.556	134
394.78	126
395.005	138
395.229	144
395.454	163
395.678	150
395.903	145
396.127	143
396.352	156
396.576	153
396.801	158
397.025	185
397.249	175
397.474	151
397.698	153
397.922	172
398.147	145
398.371	148
398.595	164
398.82	146
399.044	158
399.268	169
399.492	157
399.717	150
399.941	160
400.165	164
400.389	168
400.613	160
400.837	161
401.062	126
401.286	142
401.51	146
401.734	156
401.958	162
402.182	142
402.406	138
402.63	149
402.854	150
403.078	162
403.302	202
403.526	204
403.75	191
403.974	173
404.198	193
404.422	200
404.645	213
404.869	216
405.093	168
405.317	159
405.541	178
405.765	162
405.988	161
406.212	162
406.436	176
406.66	205
406.883	176
407.107	181
407.331	198
407.555	177
407.778	166
408.002	176
408.226	170
408.449	167
408.673	173
408.896	157
409.12	143
409.344	155
409.567	142
409.791	159
410.014	150
410.238	140
410.461	144
410.685	145
410.908	149
411.132	154
411.355	160
411.578	163
411.802	164
412.025	157
412.249	159
412.472	160
412.695	160
412.919	167
413.142	157
413.365	191
413.589	170
413.812	154
414.035	148
414.258	144
414.482	173
414.705	163
414.928	139
415.151	148
415.374	140
415.597	168
415.821	153
416.044	155
416.267	146
416.49	142
416.713	149
416.936	163
417.159	149
417.382	140
417.605	152
417.828	160
418.051	154
418.274	153
418.497	144
418.72	156
418.943	157
419.166	173
419.389	171
419.611	167
419.834	157
420.057	174
420.28	160
420.503	149
420.726	154
420.948	154
421.171	150
421.394	152
421.617	134
421.839	143
422.062	142
422.285	150
422.507	158
422.73	168
422.953	173
423.175	161
423.398	153
423.621	171
423.843	194
424.066	158
424.288	160
424.511	158
424.733	160
424.956	166
425.178	156
425.401	196
425.623	212
425.846	191
426.068	162
426.291	173
426.513	162
426.735	146
426.958	163
427.18	200
427.402	217
427.625	230
427.847	200
428.069	152
428.292	155
428.514	151
428.736	154
428.958	165
429.181	183
429.403	160
429.625	150
429.847	146
430.069	151
430.292	144
430.514	138
430.736	151
430.958	176
431.18	176
431.402	140
431.624	157
431.846	131
432.068	145
432.29	131
432.512	144
432.734	173
432.956	174
433.178	140
433.4	136
433.622	148
433.844	148
434.066	149
434.287	159
434.509	169
434.731	172
434.953	149
435.175	151
435.397	164
435.618	173
435.84	156
436.062	161
436.284	152
436.505	137
436.727	136
436.949	137
437.17	147
437.392	147
437.614	148
437.835	160
438.057	159
438.278	152
438.5	189
438.721	189
438.943	163
439.165	150
439.386	136
439.608	140
439.829	135
440.05	136
440.272	150
440.493	157
440.715	189
440.936	151
441.158	152
441.379	141
441.6	155
441.822	155
442.043	150
442.264	158
442.486	152
442.707	158
442.928	153
443.149	148
443.371	167
443.592	161
443.813	185
444.034	157
444.255	153
444.476	145
444.698	164
444.919	156
445.14	302
445.361	223
445.582	159
445.803	162
446.024	157
446.245	166
446.466	159
446.687	158
446.908	140
447.129	159
447.35	136
447.571	132
447.792	142
448.013	142
448.234	138
448.455	142
448.675	141
448.896	150
449.117	152
449.338	145
449.559	144
449.779	152
450	155
450.221	160
450.442	153
450.662	149
450.883	133
451.104	153
451.324	151
451.545	135
451.766	140
451.986	136
452.207	141
452.428	149
452.648	143
452.869	154
453.089	152
453.31	153
453.53	147
453.751	143
453.971	131
454.192	137
454.412	145
454.633	139
454.853	133
455.073	127
455.294	137
455.514	142
455.734	145
455.955	139
456.175	130
456.395	145
456.616	146
456.836	127
457.056	125
457.276	122
457.497	137
457.717	138
457.937	117
458.157	136
458.377	130
458.598	141
458.818	148
459.038	140
459.258	151
459.478	150
459.698	156
459.918	148
460.138	148
460.358	143
460.578	144
460.798	142
461.018	146
461.238	166
461.458	151
461.678	146
461.898	170
462.118	160
462.338	151
462.558	156
462.777	171
462.997	164
463.217	159
463.437	160
463.657	152
463.876	159
464.096	157
464.316	172
464.536	143
464.755	182
464.975	167
465.195	168
465.414	175
465.634	156
465.854	156
466.073	140
466.293	152
466.512	172
466.732	180
466.951	166
467.171	170
467.391	143
467.61	162
467.829	159
468.049	157
468.268	157
468.488	161
468.707	161
468.927	160
469.146	171
469.365	160
469.585	160
469.804	167
470.023	167
470.243	156
470.462	153
470.681	154
470.901	159
471.12	160
471.339	160
471.558	164
471.777	151
471.997	166
472.216	170
472.435	166
472.654	171
472.873	168
473.092	169
473.311	157
473.53	165
473.749	160
473.968	164
474.187	146
474.406	150
474.625	164
474.844	165
475.063	154
475.282	167
475.501	193
475.72	203
475.939	178
476.158	176
476.377	199
476.596	225
476.814	214
477.033	186
477.252	158
477.471	170
477.69	166
477.908	170
478.127	170
478.346	180
478.564	185
478.783	188
479.002	165
479.22	183
479.439	200
479.658	181
479.876	168
480.095	164
480.313	172
480.532	177
480.751	177
480.969	170
481.188	177
481.406	181
481.624	161
481.843	157
482.061	173
482.28	176
482.498	219
482.717	205
482.935	174
483.153	154
483.372	164
483.59	164
483.808	168
484.027	168
484.245	181
484.463	176
484.681	168
484.9	153
485.118	163
485.336	173
485.554	151
485.772	160
485.99	175
486.209	171
486.427	176
486.645	185
486.863	178
487.081	166
487.299	205
487.517	189
487.735	176
487.953	182
488.171	188
488.389	182
488.607	173
488.825	174
489.043	193
489.261	206
489.479	223
489.696	199
489.914	188
490.132	174
490.35	164
490.568	156
490.786	171
491.003	176
491.221	176
491.439	173
491.657	156
491.874	184
492.092	225
492.31	254
492.527	234
492.745	207
492.963	183
493.18	203
493.398	193
493.615	191
493.833	187
494.05	176
494.268	189
494.485	184
494.703	171
494.92	192
495.138	174
495.355	177
495.573	186
495.79	190
496.008	254
496.225	202
496.442	186
496.66	216
496.877	199
497.094	203
497.312	182
497.529	187
497.746	186
497.963	183
498.181	195
498.398	216
498.615	221
498.832	230
499.049	208
499.267	217
499.484	209
499.701	214
499.918	234
500.135	241
500.352	247
500.569	283
500.786	262
501.003	258
501.22	239
501.437	247
501.654	233
501.871	212
502.088	218
502.305	205
502.522	211
502.739	226
502.956	184
503.172	191
503.389	196
503.606	180
503.823	198
504.04	185
504.256	184
504.473	197
504.69	189
504.907	204
505.123	191
505.34	201
505.557	192
505.773	176
505.99	162
506.207	180
506.423	192
506.64	173
506.856	184
507.073	186
507.289	198
507.506	175
507.722	197
507.939	193
508.155	200
508.372	170
508.588	180
508.805	165
509.021	170
509.238	188
509.454	174
509.67	195
509.887	184
510.103	188
510.319	200
510.536	164
510.752	169
510.968	151
511.184	161
511.401	178
511.617	168
511.833	154
512.049	166
512.265	185
512.481	170
512.698	189
512.914	196
513.13	175
513.346	172
513.562	177
513.778	186
513.994	167
514.21	191
514.426	195
514.642	178
514.858	177
515.074	177
515.29	183
515.506	198
515.721	184
515.937	184
516.153	186
516.369	181
516.585	179
516.801	205
517.016	245
517.232	235
517.448	211
517.664	192
517.879	184
518.095	186
518.311	200
518.527	188
518.742	199
518.958	217
519.173	205
519.389	214
519.605	212
519.82	203
520.036	256
520.251	218
520.467	230
520.682	359
520.898	436
521.113	408
521.329	242
521.544	205
521.76	213
521.975	211
522.19	193
522.406	211
522.621	222
522.836	226
523.052	219
523.267	209
523.482	201
523.698	210
523.913	193
524.128	178
524.343	186
524.559	177
524.774	168
524.989	192
525.204	185
525.419	186
525.634	183
525.849	188
526.064	190
526.28	200
526.495	210
526.71	253
526.925	236
527.14	221
527.355	213
527.57	187
527.785	207
527.999	190
528.214	179
528.429	174
528.644	186
528.859	162
529.074	160
529.289	176
529.503	167
529.718	172
529.933	212
530.148	214
530.363	184
530.577	161
530.792	157
531.007	136
531.221	166
531.436	145
531.651	170
531.865	159
532.08	172
532.295	155
532.509	185
532.724	193
532.938	206
533.153	250
533.367	188
533.582	178
533.796	161
534.011	175
534.225	168
534.44	172
534.654	189
534.868	212
535.083	188
535.297	164
535.511	161
535.726	190
535.94	168
536.154	160
536.369	157
536.583	174
536.797	178
537.011	183
537.225	175
537.44	206
537.654	182
537.868	155
538.082	162
538.296	154
538.51	186
538.724	168
538.938	162
539.153	182
539.367	173
539.581	167
539.795	191
540.009	178
540.222	153
540.436	172
540.65	198
540.864	196
541.078	208
541.292	223
541.506	187
541.72	184
541.934	166
542.147	162
542.361	153
542.575	173
542.789	178
543.002	153
543.216	185
543.43	171
543.644	154
543.857	152
544.071	152
544.285	171
544.498	156
544.712	164
544.925	178
545.139	161
545.352	151
545.566	161
545.779	176
545.993	168
546.206	139
546.42	154
546.633	168
546.847	144
547.06	154
547.274	161
547.487	166
547.7	158
547.914	177
548.127	178
548.34	180
548.554	152
548.767	157
548.98	174
549.193	157
549.407	162
549.62	177
549.833	168
550.046	180
550.259	183
550.473	165
550.686	162
550.899	178
551.112	163
551.325	172
551.538	154
551.751	162
551.964	148
552.177	145
552.39	170
552.603	164
552.816	159
553.029	158
553.242	157
553.455	158
553.667	168
553.88	181
554.093	160
554.306	150
554.519	150
554.732	135
554.944	150
555.157	163
555.37	150
555.583	149
555.795	154
556.008	146
556.221	168
556.433	135
556.646	153
556.859	146
557.071	161
557.284	154
557.496	141
557.709	152
557.921	156
558.134	146
558.346	147
558.559	142
558.771	151
558.984	156
559.196	155
559.409	131
559.621	156
559.833	169
560.046	142
560.258	138
560.47	143
560.683	128
560.895	142
561.107	129
561.32	151
561.532	138
561.744	148
561.956	163
562.168	152
562.381	133
562.593	154
562.805	141
563.017	144
563.229	132
563.441	112
563.653	134
563.865	137
564.077	144
564.289	130
564.501	137
