Data from NickelSpatula.Lamp.E10.P2_HRD10591_11-58-52-527.txt Node
Date: Tue Jul 23 11:58:52 EDT 2019
User: cochatt
Spectrometer: HR+D1059
Trigger mode: 1
Integration Time (sec): 1.000000E-1
Scans to average: 1
Electric dark correction enabled: true
Nonlinearity correction enabled: false
Boxcar width: 0
XAxis mode: Wavelengths
Number of Pixels in Spectrum: 2048
>>>>>Begin Spectral Data<<<<<
223.165	-18.38
223.4	-18.38
223.635	-18.38
223.869	-8.38
224.104	-7.38
224.338	-3.38
224.573	-21.38
224.808	-26.38
225.042	-9.38
225.277	0.62
225.511	-7.38
225.746	9.62
225.98	6.62
226.215	29.62
226.449	-9.38
226.683	25.62
226.918	10.62
227.152	28.62
227.387	22.62
227.621	25.62
227.856	54.62
228.09	41.62
228.324	48.62
228.559	56.62
228.793	72.62
229.027	141.62
229.262	162.62
229.496	167.62
229.73	161.62
229.964	192.62
230.199	219.62
230.433	221.62
230.667	226.62
230.901	203.62
231.136	183.62
231.37	200.62
231.604	230.62
231.838	232.62
232.072	264.62
232.306	248.62
232.541	243.62
232.775	241.62
233.009	269.62
233.243	299.62
233.477	322.62
233.711	348.62
233.945	314.62
234.179	334.62
234.413	359.62
234.647	359.62
234.881	468.62
235.115	438.62
235.349	402.62
235.583	357.62
235.817	359.62
236.051	376.62
236.285	430.62
236.519	460.62
236.753	442.62
236.987	452.62
237.221	409.62
237.455	425.62
237.689	430.62
237.922	466.62
238.156	478.62
238.39	566.62
238.624	668.62
238.858	604.62
239.091	482.62
239.325	508.62
239.559	498.62
239.793	583.62
240.027	665.62
240.26	630.62
240.494	590.62
240.728	596.62
240.961	691.62
241.195	646.62
241.429	667.62
241.662	624.62
241.896	526.62
242.13	480.62
242.363	440.62
242.597	492.62
242.83	524.62
243.064	561.62
243.298	558.62
243.531	616.62
243.765	654.62
243.998	632.62
244.232	592.62
244.465	602.62
244.699	584.62
244.932	670.62
245.166	637.62
245.399	562.62
245.633	564.62
245.866	608.62
246.099	606.62
246.333	723.62
246.566	785.62
246.8	770.62
247.033	752.62
247.266	685.62
247.5	715.62
247.733	693.62
247.966	674.62
248.2	701.62
248.433	769.62
248.666	854.62
248.899	877.62
249.133	850.62
249.366	970.62
249.599	1091.62
249.832	940.62
250.066	846.62
250.299	854.62
250.532	834.62
250.765	846.62
250.998	759.62
251.231	724.62
251.465	824.62
251.698	839.62
251.931	833.62
252.164	866.62
252.397	954.62
252.63	1055.62
252.863	1188.62
253.096	1194.62
253.329	1164.62
253.562	1150.62
253.795	1267.62
254.028	1378.62
254.261	1430.62
254.494	1292.62
254.727	1201.62
254.96	1137.62
255.193	1207.62
255.426	1143.62
255.659	898.62
255.892	824.62
256.124	864.62
256.357	1078.62
256.59	1238.62
256.823	1210.62
257.056	981.62
257.289	913.62
257.521	993.62
257.754	1137.62
257.987	1280.62
258.22	1118.62
258.452	991.62
258.685	1154.62
258.918	1308.62
259.151	1282.62
259.383	1313.62
259.616	1482.62
259.849	1564.62
260.081	1738.62
260.314	1925.62
260.547	1498.62
260.779	1517.62
261.012	1720.62
261.244	1630.62
261.477	1642.62
261.71	1561.62
261.942	1335.62
262.175	1322.62
262.407	1235.62
262.64	1276.62
262.872	1511.62
263.105	1656.62
263.337	1744.62
263.57	1549.62
263.802	1065.62
264.035	924.62
264.267	879.62
264.499	768.62
264.732	679.62
264.964	697.62
265.197	745.62
265.429	751.62
265.661	817.62
265.894	863.62
266.126	937.62
266.358	1033.62
266.591	1249.62
266.823	1526.62
267.055	1413.62
267.287	1261.62
267.52	1302.62
267.752	1342.62
267.984	1497.62
268.216	1403.62
268.448	1144.62
268.681	1115.62
268.913	1239.62
269.145	1288.62
269.377	1304.62
269.609	1316.62
269.841	1236.62
270.073	1369.62
270.306	1438.62
270.538	1394.62
270.77	1430.62
271.002	1401.62
271.234	1489.62
271.466	1536.62
271.698	1479.62
271.93	1452.62
272.162	1449.62
272.394	1448.62
272.626	1440.62
272.858	1495.62
273.09	1494.62
273.322	1353.62
273.553	1301.62
273.785	1541.62
274.017	2015.62
274.249	2471.62
274.481	2579.62
274.713	2904.62
274.945	3184.62
275.176	3325.62
275.408	2910.62
275.64	2692.62
275.872	2629.62
276.104	2270.62
276.335	1964.62
276.567	1928.62
276.799	2004.62
277.031	2094.62
277.262	1647.62
277.494	1254.62
277.726	1258.62
277.957	1357.62
278.189	1528.62
278.421	1495.62
278.652	1480.62
278.884	1405.62
279.115	1283.62
279.347	1202.62
279.579	1200.62
279.81	1236.62
280.042	1220.62
280.273	1264.62
280.505	1169.62
280.736	1044.62
280.968	1044.62
281.199	1095.62
281.431	1235.62
281.662	1259.62
281.894	1175.62
282.125	1287.62
282.356	1377.62
282.588	1385.62
282.819	1261.62
283.051	1427.62
283.282	1718.62
283.513	1976.62
283.745	2236.62
283.976	2204.62
284.207	2064.62
284.439	2123.62
284.67	2053.62
284.901	1829.62
285.132	1936.62
285.364	2054.62
285.595	1831.62
285.826	2033.62
286.057	2094.62
286.288	2009.62
286.52	2037.62
286.751	2138.62
286.982	2122.62
287.213	1839.62
287.444	1788.62
287.675	1889.62
287.906	1833.62
288.138	1560.62
288.369	1373.62
288.6	1318.62
288.831	1336.62
289.062	1586.62
289.293	1710.62
289.524	1609.62
289.755	1641.62
289.986	1681.62
290.217	1488.62
290.448	1142.62
290.679	982.62
290.91	918.62
291.141	965.62
291.371	972.62
291.602	985.62
291.833	967.62
292.064	1070.62
292.295	1256.62
292.526	1437.62
292.757	1466.62
292.987	1568.62
293.218	1597.62
293.449	1631.62
293.68	1682.62
293.91	1618.62
294.141	1654.62
294.372	1580.62
294.603	1467.62
294.833	1617.62
295.064	1891.62
295.295	1760.62
295.525	1343.62
295.756	1131.62
295.987	981.62
296.217	1012.62
296.448	1082.62
296.679	1145.62
296.909	1261.62
297.14	1327.62
297.37	1434.62
297.601	1388.62
297.831	1172.62
298.062	1290.62
298.292	1477.62
298.523	1635.62
298.753	1831.62
298.984	1603.62
299.214	1277.62
299.445	1089.62
299.675	1072.62
299.905	1045.62
300.136	1098.62
300.366	1208.62
300.597	1172.62
300.827	1048.62
301.057	1024.62
301.288	1005.62
301.518	1110.62
301.748	1240.62
301.979	1305.62
302.209	1464.62
302.439	1470.62
302.669	1260.62
302.9	1260.62
303.13	1157.62
303.36	1082.62
303.59	1038.62
303.82	1104.62
304.051	1272.62
304.281	1357.62
304.511	1285.62
304.741	1178.62
304.971	1211.62
305.201	1310.62
305.431	1229.62
305.661	1084.62
305.891	1070.62
306.121	1083.62
306.352	970.62
306.582	886.62
306.812	868.62
307.042	878.62
307.272	806.62
307.502	815.62
307.731	892.62
307.961	936.62
308.191	838.62
308.421	821.62
308.651	789.62
308.881	775.62
309.111	778.62
309.341	812.62
309.571	911.62
309.8	920.62
310.03	986.62
310.26	1041.62
310.49	1005.62
310.72	868.62
310.949	855.62
311.179	880.62
311.409	928.62
311.639	1122.62
311.868	1413.62
312.098	1834.62
312.328	1957.62
312.557	1895.62
312.787	1909.62
313.017	1701.62
313.246	1825.62
313.476	1997.62
313.706	1656.62
313.935	1280.62
314.165	1056.62
314.394	967.62
314.624	968.62
314.853	1022.62
315.083	1004.62
315.312	1010.62
315.542	1027.62
315.771	933.62
316.001	888.62
316.23	852.62
316.46	861.62
316.689	888.62
316.919	878.62
317.148	906.62
317.377	896.62
317.607	896.62
317.836	940.62
318.065	1145.62
318.295	1240.62
318.524	1196.62
318.753	1007.62
318.983	946.62
319.212	924.62
319.441	1022.62
319.67	1152.62
319.9	1223.62
320.129	1127.62
320.358	1008.62
320.587	990.62
320.816	1026.62
321.046	1181.62
321.275	1378.62
321.504	1391.62
321.733	1254.62
321.962	1257.62
322.191	1189.62
322.42	1130.62
322.649	1158.62
322.878	1215.62
323.108	1216.62
323.337	1125.62
323.566	1081.62
323.795	1060.62
324.024	1052.62
324.253	979.62
324.482	973.62
324.71	1112.62
324.939	1212.62
325.168	1134.62
325.397	935.62
325.626	922.62
325.855	914.62
326.084	942.62
326.313	893.62
326.542	840.62
326.77	884.62
326.999	908.62
327.228	946.62
327.457	1029.62
327.686	1022.62
327.914	905.62
328.143	848.62
328.372	834.62
328.6	839.62
328.829	868.62
329.058	925.62
329.287	925.62
329.515	901.62
329.744	900.62
329.972	839.62
330.201	823.62
330.43	849.62
330.658	933.62
330.887	1090.62
331.115	1054.62
331.344	1006.62
331.572	944.62
331.801	896.62
332.03	853.62
332.258	892.62
332.486	933.62
332.715	1008.62
332.943	932.62
333.172	897.62
333.4	970.62
333.629	1040.62
333.857	1118.62
334.085	1100.62
334.314	1114.62
334.542	1052.62
334.771	957.62
334.999	929.62
335.227	922.62
335.455	938.62
335.684	1056.62
335.912	1216.62
336.14	1346.62
336.369	1270.62
336.597	1235.62
336.825	1368.62
337.053	1526.62
337.281	1251.62
337.51	978.62
337.738	996.62
337.966	1086.62
338.194	1213.62
338.422	1098.62
338.65	979.62
338.878	887.62
339.106	938.62
339.334	1049.62
339.562	1103.62
339.79	1020.62
340.018	984.62
340.246	1073.62
340.474	1226.62
340.702	1282.62
340.93	1340.62
341.158	1345.62
341.386	1141.62
341.614	1096.62
341.842	1136.62
342.07	1164.62
342.298	1358.62
342.526	1393.62
342.754	1222.62
342.981	1114.62
343.209	1071.62
343.437	1148.62
343.665	1237.62
343.893	1184.62
344.12	1390.62
344.348	1634.62
344.576	1400.62
344.804	1186.62
345.031	1056.62
345.259	1010.62
345.487	1020.62
345.714	1039.62
345.942	1106.62
346.17	1232.62
346.397	1144.62
346.625	1015.62
346.853	981.62
347.08	967.62
347.308	1033.62
347.535	1138.62
347.763	1171.62
347.99	1010.62
348.218	917.62
348.445	975.62
348.673	1016.62
348.9	1000.62
349.128	1071.62
349.355	1062.62
349.583	1082.62
349.81	1018.62
350.037	955.62
350.265	831.62
350.492	793.62
350.72	772.62
350.947	850.62
351.174	910.62
351.402	933.62
351.629	994.62
351.856	950.62
352.083	909.62
352.311	989.62
352.538	1089.62
352.765	1168.62
352.992	1036.62
353.22	975.62
353.447	1008.62
353.674	989.62
353.901	990.62
354.128	1003.62
354.355	1029.62
354.583	964.62
354.81	1019.62
355.037	1030.62
355.264	1024.62
355.491	1076.62
355.718	1201.62
355.945	1162.62
356.172	1130.62
356.399	1118.62
356.626	1352.62
356.853	1622.62
357.08	1778.62
357.307	1818.62
357.534	1417.62
357.761	1422.62
357.988	1792.62
358.215	2116.62
358.441	1984.62
358.668	1701.62
358.895	1535.62
359.122	1244.62
359.349	1218.62
359.576	1336.62
359.802	1141.62
360.029	978.62
360.256	1032.62
360.483	1309.62
360.709	1650.62
360.936	1692.62
361.163	1459.62
361.39	1161.62
361.616	1065.62
361.843	1257.62
362.07	1539.62
362.296	1392.62
362.523	1100.62
362.749	946.62
362.976	1002.62
363.203	1221.62
363.429	1394.62
363.656	1082.62
363.882	1004.62
364.109	1004.62
364.335	1008.62
364.562	972.62
364.788	1147.62
365.015	1337.62
365.241	1196.62
365.468	986.62
365.694	842.62
365.92	803.62
366.147	784.62
366.373	778.62
366.599	793.62
366.826	808.62
367.052	838.62
367.278	832.62
367.505	806.62
367.731	892.62
367.957	992.62
368.184	1054.62
368.41	1034.62
368.636	1049.62
368.862	1083.62
369.089	1037.62
369.315	925.62
369.541	906.62
369.767	882.62
369.993	878.62
370.219	871.62
370.445	919.62
370.672	1023.62
370.898	1108.62
371.124	1089.62
371.35	972.62
371.576	908.62
371.802	995.62
372.028	1197.62
372.254	1369.62
372.48	1142.62
372.706	1039.62
372.932	1093.62
373.158	1142.62
373.384	1396.62
373.61	1896.62
373.835	1931.62
374.061	1400.62
374.287	1201.62
374.513	1388.62
374.739	1695.62
374.965	1758.62
375.191	1703.62
375.416	1184.62
375.642	997.62
375.868	1230.62
376.094	1392.62
376.319	1209.62
376.545	1336.62
376.771	1381.62
376.997	1202.62
377.222	894.62
377.448	768.62
377.674	758.62
377.899	731.62
378.125	748.62
378.35	753.62
378.576	796.62
378.802	883.62
379.027	966.62
379.253	927.62
379.478	933.62
379.704	1087.62
379.929	1154.62
380.155	1118.62
380.38	971.62
380.606	997.62
380.831	1131.62
381.057	1041.62
381.282	971.62
381.507	1188.62
381.733	1506.62
381.958	1588.62
382.184	1684.62
382.409	1749.62
382.634	1696.62
382.86	1760.62
383.085	1474.62
383.31	1143.62
383.535	1241.62
383.761	1258.62
383.986	1202.62
384.211	1456.62
384.436	1394.62
384.662	1068.62
384.887	1004.62
385.112	1030.62
385.337	1057.62
385.562	1031.62
385.787	1112.62
386.013	1248.62
386.238	1263.62
386.463	1040.62
386.688	985.62
386.913	991.62
387.138	918.62
387.363	956.62
387.588	1001.62
387.813	1015.62
388.038	1149.62
388.263	980.62
388.488	971.62
388.713	1125.62
388.938	1252.62
389.163	1057.62
389.387	918.62
389.612	919.62
389.837	931.62
390.062	978.62
390.287	1015.62
390.512	1004.62
390.736	969.62
390.961	899.62
391.186	862.62
391.411	857.62
391.636	858.62
391.86	931.62
392.085	1025.62
392.31	1020.62
392.534	945.62
392.759	952.62
392.984	1008.62
393.208	979.62
393.433	857.62
393.658	800.62
393.882	814.62
394.107	788.62
394.331	815.62
394.556	797.62
394.78	798.62
395.005	861.62
395.229	890.62
395.454	872.62
395.678	905.62
395.903	936.62
396.127	892.62
396.352	882.62
396.576	979.62
396.801	1004.62
397.025	1160.62
397.249	1150.62
397.474	961.62
397.698	922.62
397.922	953.62
398.147	898.62
398.371	941.62
398.595	986.62
398.82	971.62
399.044	928.62
399.268	1042.62
399.492	1010.62
399.717	1027.62
399.941	1112.62
400.165	1058.62
400.389	1018.62
400.613	1082.62
400.837	1057.62
401.062	920.62
401.286	912.62
401.51	932.62
401.734	938.62
401.958	919.62
402.182	922.62
402.406	913.62
402.63	925.62
402.854	951.62
403.078	1092.62
403.302	1335.62
403.526	1362.62
403.75	1241.62
403.974	1061.62
404.198	1104.62
404.422	1262.62
404.645	1449.62
404.869	1608.62
405.093	1188.62
405.317	978.62
405.541	983.62
405.765	1023.62
405.988	1027.62
406.212	1134.62
406.436	1339.62
406.66	1452.62
406.883	1160.62
407.107	1174.62
407.331	1406.62
407.555	1330.62
407.778	1108.62
408.002	1043.62
408.226	1076.62
408.449	1023.62
408.673	1038.62
408.896	944.62
409.12	929.62
409.344	918.62
409.567	896.62
409.791	911.62
410.014	892.62
410.238	890.62
410.461	873.62
410.685	894.62
410.908	952.62
411.132	930.62
411.355	929.62
411.578	937.62
411.802	949.62
412.025	1023.62
412.249	994.62
412.472	941.62
412.695	978.62
412.919	961.62
413.142	997.62
413.365	1065.62
413.589	1050.62
413.812	982.62
414.035	932.62
414.258	940.62
414.482	1045.62
414.705	1086.62
414.928	910.62
415.151	869.62
415.374	892.62
415.597	912.62
415.821	935.62
416.044	918.62
416.267	898.62
416.49	860.62
416.713	854.62
416.936	876.62
417.159	884.62
417.382	903.62
417.605	878.62
417.828	915.62
418.051	918.62
418.274	932.62
418.497	933.62
418.72	930.62
418.943	985.62
419.166	1008.62
419.389	1038.62
419.611	1039.62
419.834	1047.62
420.057	1148.62
420.28	1122.62
420.503	1068.62
420.726	909.62
420.948	887.62
421.171	900.62
421.394	897.62
421.617	869.62
421.839	868.62
422.062	952.62
422.285	924.62
422.507	937.62
422.73	956.62
422.953	994.62
423.175	931.62
423.398	967.62
423.621	1031.62
423.843	1076.62
424.066	1003.62
424.288	970.62
424.511	932.62
424.733	926.62
424.956	949.62
425.178	1087.62
425.401	1260.62
425.623	1420.62
425.846	1197.62
426.068	1020.62
426.291	1161.62
426.513	1038.62
426.735	943.62
426.958	994.62
427.18	1219.62
427.402	1556.62
427.625	1547.62
427.847	1209.62
428.069	922.62
428.292	916.62
428.514	906.62
428.736	892.62
428.958	980.62
429.181	1136.62
429.403	988.62
429.625	904.62
429.847	857.62
430.069	906.62
430.292	907.62
430.514	860.62
430.736	930.62
430.958	1216.62
431.18	1132.62
431.402	841.62
431.624	818.62
431.846	822.62
432.068	802.62
432.29	841.62
432.512	964.62
432.734	1232.62
432.956	1158.62
433.178	870.62
433.4	850.62
433.622	872.62
433.844	879.62
434.066	969.62
434.287	922.62
434.509	926.62
434.731	940.62
434.953	879.62
435.175	923.62
435.397	1056.62
435.618	918.62
435.84	820.62
436.062	816.62
436.284	853.62
436.505	812.62
436.727	796.62
436.949	798.62
437.17	843.62
437.392	848.62
437.614	839.62
437.835	851.62
438.057	866.62
438.278	1001.62
438.5	1440.62
438.721	1398.62
438.943	971.62
439.165	836.62
439.386	778.62
439.608	784.62
439.829	804.62
440.05	759.62
440.272	861.62
440.493	1042.62
440.715	1246.62
440.936	1000.62
441.158	857.62
441.379	841.62
441.6	1008.62
441.822	1040.62
442.043	889.62
442.264	890.62
442.486	878.62
442.707	905.62
442.928	880.62
443.149	880.62
443.371	881.62
443.592	945.62
443.813	910.62
444.034	909.62
444.255	897.62
444.476	926.62
444.698	928.62
444.919	961.62
445.14	1105.62
445.361	1049.62
445.582	990.62
445.803	932.62
446.024	950.62
446.245	926.62
446.466	893.62
446.687	862.62
446.908	887.62
447.129	850.62
447.35	852.62
447.571	818.62
447.792	782.62
448.013	804.62
448.234	775.62
448.455	803.62
448.675	801.62
448.896	819.62
449.117	790.62
449.338	821.62
449.559	834.62
449.779	926.62
450	871.62
450.221	858.62
450.442	828.62
450.662	799.62
450.883	805.62
451.104	803.62
451.324	787.62
451.545	778.62
451.766	808.62
451.986	773.62
452.207	773.62
452.428	766.62
452.648	782.62
452.869	801.62
453.089	856.62
453.31	844.62
453.53	752.62
453.751	748.62
453.971	740.62
454.192	778.62
454.412	832.62
454.633	774.62
454.853	763.62
455.073	752.62
455.294	724.62
455.514	742.62
455.734	777.62
455.955	818.62
456.175	842.62
456.395	740.62
456.616	722.62
456.836	702.62
457.056	685.62
457.276	718.62
457.497	728.62
457.717	713.62
457.937	717.62
458.157	717.62
458.377	724.62
458.598	750.62
458.818	790.62
459.038	793.62
459.258	829.62
459.478	829.62
459.698	879.62
459.918	894.62
460.138	899.62
460.358	908.62
460.578	886.62
460.798	889.62
461.018	916.62
461.238	839.62
461.458	854.62
461.678	906.62
461.898	953.62
462.118	913.62
462.338	926.62
462.558	979.62
462.777	1019.62
462.997	1033.62
463.217	1020.62
463.437	1031.62
463.657	1012.62
463.876	978.62
464.096	969.62
464.316	944.62
464.536	973.62
464.755	1043.62
464.975	1029.62
465.195	979.62
465.414	1010.62
465.634	958.62
465.854	956.62
466.073	878.62
466.293	871.62
466.512	940.62
466.732	1034.62
466.951	1074.62
467.171	948.62
467.391	863.62
467.61	892.62
467.829	961.62
468.049	949.62
468.268	914.62
468.488	891.62
468.707	924.62
468.927	1063.62
469.146	1156.62
469.365	1035.62
469.585	989.62
469.804	1004.62
470.023	1110.62
470.243	990.62
470.462	966.62
470.681	923.62
470.901	937.62
471.12	989.62
471.339	993.62
471.558	935.62
471.777	938.62
471.997	1029.62
472.216	1141.62
472.435	1079.62
472.654	982.62
472.873	944.62
473.092	1010.62
473.311	1058.62
473.53	967.62
473.749	927.62
473.968	996.62
474.187	1006.62
474.406	951.62
474.625	937.62
474.844	961.62
475.063	1030.62
475.282	1046.62
475.501	1093.62
475.72	1136.62
475.939	1101.62
476.158	1115.62
476.377	1288.62
476.596	1462.62
476.814	1497.62
477.033	1276.62
477.252	1094.62
477.471	1006.62
477.69	1029.62
477.908	1121.62
478.127	1142.62
478.346	1102.62
478.564	1158.62
478.783	1104.62
479.002	1168.62
479.22	1329.62
479.439	1450.62
479.658	1230.62
479.876	1140.62
480.095	1224.62
480.313	1257.62
480.532	1134.62
480.751	1117.62
480.969	1144.62
481.188	1269.62
481.406	1315.62
481.624	1237.62
481.843	1122.62
482.061	1065.62
482.28	1214.62
482.498	1476.62
482.717	1441.62
482.935	1176.62
483.153	1145.62
483.372	1106.62
483.59	1075.62
483.808	1055.62
484.027	1065.62
484.245	985.62
484.463	987.62
484.681	1003.62
484.9	1117.62
485.118	1206.62
485.336	1122.62
485.554	1054.62
485.772	1078.62
485.99	1215.62
486.209	1278.62
486.427	1219.62
486.645	1247.62
486.863	1254.62
487.081	1226.62
487.299	1425.62
487.517	1402.62
487.735	1239.62
487.953	1263.62
488.171	1284.62
488.389	1178.62
488.607	1154.62
488.825	1177.62
489.043	1294.62
489.261	1485.62
489.479	1590.62
489.696	1312.62
489.914	1202.62
490.132	1132.62
490.35	1150.62
490.568	1140.62
490.786	1116.62
491.003	1161.62
491.221	1160.62
491.439	1142.62
491.657	1158.62
491.874	1255.62
492.092	1540.62
492.31	1822.62
492.527	1800.62
492.745	1540.62
492.963	1329.62
493.18	1318.62
493.398	1338.62
493.615	1292.62
493.833	1292.62
