Data from NickelSpatula_HRD10591_16-35-06-125.txt Node
Date: Mon Jul 22 16:35:06 EDT 2019
User: cochatt
Spectrometer: HR+D1059
Trigger mode: 1
Integration Time (sec): 1.000000E-1
Scans to average: 1
Electric dark correction enabled: true
Nonlinearity correction enabled: false
Boxcar width: 0
XAxis mode: Wavelengths
Number of Pixels in Spectrum: 2048
>>>>>Begin Spectral Data<<<<<
223.165	-29.25
223.4	-29.25
223.635	-29.25
223.869	-26.25
224.104	-7.25
224.338	-29.25
224.573	-4.25
224.808	-18.25
225.042	-14.25
225.277	-10.25
225.511	3.75
225.746	-9.25
225.98	14.75
226.215	20.75
226.449	19.75
226.683	30.75
226.918	19.75
227.152	38.75
227.387	25.75
227.621	40.75
227.856	41.75
228.09	30.75
228.324	37.75
228.559	51.75
228.793	63.75
229.027	82.75
229.262	70.75
229.496	95.75
229.73	99.75
229.964	92.75
230.199	87.75
230.433	94.75
230.667	94.75
230.901	92.75
231.136	85.75
231.37	103.75
231.604	99.75
231.838	87.75
232.072	107.75
232.306	107.75
232.541	103.75
232.775	100.75
233.009	111.75
233.243	117.75
233.477	103.75
233.711	137.75
233.945	127.75
234.179	124.75
234.413	133.75
234.647	139.75
234.881	125.75
235.115	150.75
235.349	134.75
235.583	119.75
235.817	134.75
236.051	143.75
236.285	117.75
236.519	125.75
236.753	146.75
236.987	150.75
237.221	134.75
237.455	137.75
237.689	130.75
237.922	146.75
238.156	148.75
238.39	153.75
238.624	165.75
238.858	168.75
239.091	161.75
239.325	152.75
239.559	145.75
239.793	156.75
240.027	185.75
240.26	168.75
240.494	163.75
240.728	168.75
240.961	178.75
241.195	183.75
241.429	161.75
241.662	177.75
241.896	171.75
242.13	144.75
242.363	138.75
242.597	145.75
242.83	159.75
243.064	158.75
243.298	183.75
243.531	176.75
243.765	193.75
243.998	176.75
244.232	173.75
244.465	170.75
244.699	161.75
244.932	187.75
245.166	177.75
245.399	149.75
245.633	165.75
245.866	164.75
246.099	171.75
246.333	196.75
246.566	218.75
246.8	206.75
247.033	212.75
247.266	192.75
247.5	182.75
247.733	184.75
247.966	172.75
248.2	179.75
248.433	206.75
248.666	215.75
248.899	206.75
249.133	210.75
249.366	251.75
249.599	263.75
249.832	251.75
250.066	215.75
250.299	222.75
250.532	222.75
250.765	211.75
250.998	197.75
251.231	178.75
251.465	195.75
251.698	227.75
251.931	220.75
252.164	200.75
252.397	227.75
252.63	279.75
252.863	284.75
253.096	281.75
253.329	275.75
253.562	274.75
253.795	300.75
254.028	326.75
254.261	352.75
254.494	324.75
254.727	288.75
254.96	288.75
255.193	314.75
255.426	267.75
255.659	219.75
255.892	211.75
256.124	206.75
256.357	259.75
256.59	302.75
256.823	283.75
257.056	243.75
257.289	231.75
257.521	243.75
257.754	275.75
257.987	305.75
258.22	289.75
258.452	260.75
258.685	276.75
258.918	307.75
259.151	316.75
259.383	322.75
259.616	367.75
259.849	365.75
260.081	373.75
260.314	407.75
260.547	339.75
260.779	335.75
261.012	383.75
261.244	375.75
261.477	380.75
261.71	357.75
261.942	320.75
262.175	324.75
262.407	292.75
262.64	301.75
262.872	357.75
263.105	373.75
263.337	386.75
263.57	360.75
263.802	269.75
264.035	230.75
264.267	225.75
264.499	195.75
264.732	178.75
264.964	197.75
265.197	176.75
265.429	194.75
265.661	195.75
265.894	208.75
266.126	222.75
266.358	253.75
266.591	307.75
266.823	344.75
267.055	359.75
267.287	313.75
267.52	307.75
267.752	301.75
267.984	337.75
268.216	321.75
268.448	275.75
268.681	263.75
268.913	320.75
269.145	314.75
269.377	318.75
269.609	324.75
269.841	291.75
270.073	323.75
270.306	313.75
270.538	344.75
270.77	351.75
271.002	355.75
271.234	343.75
271.466	349.75
271.698	333.75
271.93	325.75
272.162	341.75
272.394	321.75
272.626	321.75
272.858	338.75
273.09	345.75
273.322	288.75
273.553	287.75
273.785	326.75
274.017	393.75
274.249	510.75
274.481	527.75
274.713	589.75
274.945	634.75
275.176	673.75
275.408	628.75
275.64	575.75
275.872	567.75
276.104	484.75
276.335	434.75
276.567	416.75
276.799	444.75
277.031	445.75
277.262	366.75
277.494	304.75
277.726	278.75
277.957	307.75
278.189	343.75
278.421	326.75
278.652	315.75
278.884	327.75
279.115	305.75
279.347	283.75
279.579	264.75
279.81	308.75
280.042	281.75
280.273	280.75
280.505	278.75
280.736	239.75
280.968	242.75
281.199	256.75
281.431	278.75
281.662	277.75
281.894	279.75
282.125	269.75
282.356	311.75
282.588	326.75
282.819	281.75
283.051	300.75
283.282	377.75
283.513	424.75
283.745	459.75
283.976	474.75
284.207	432.75
284.439	460.75
284.67	422.75
284.901	369.75
285.132	417.75
285.364	453.75
285.595	405.75
285.826	439.75
286.057	455.75
286.288	423.75
286.52	431.75
286.751	462.75
286.982	464.75
287.213	399.75
287.444	388.75
287.675	405.75
287.906	394.75
288.138	347.75
288.369	293.75
288.6	283.75
288.831	303.75
289.062	348.75
289.293	389.75
289.524	352.75
289.755	353.75
289.986	371.75
290.217	339.75
290.448	252.75
290.679	221.75
290.91	231.75
291.141	209.75
291.371	236.75
291.602	207.75
291.833	218.75
292.064	231.75
292.295	268.75
292.526	296.75
292.757	307.75
292.987	325.75
293.218	346.75
293.449	369.75
293.68	385.75
293.91	372.75
294.141	382.75
294.372	351.75
294.603	312.75
294.833	322.75
295.064	401.75
295.295	392.75
295.525	299.75
295.756	241.75
295.987	233.75
296.217	218.75
296.448	237.75
296.679	232.75
296.909	259.75
297.14	293.75
297.37	297.75
297.601	311.75
297.831	259.75
298.062	270.75
298.292	311.75
298.523	344.75
298.753	359.75
298.984	337.75
299.214	293.75
299.445	232.75
299.675	249.75
299.905	232.75
300.136	238.75
300.366	260.75
300.597	229.75
300.827	217.75
301.057	215.75
301.288	211.75
301.518	237.75
301.748	285.75
301.979	268.75
302.209	303.75
302.439	275.75
302.669	263.75
302.9	275.75
303.13	259.75
303.36	254.75
303.59	222.75
303.82	242.75
304.051	261.75
304.281	296.75
304.511	296.75
304.741	242.75
304.971	240.75
305.201	271.75
305.431	273.75
305.661	224.75
305.891	225.75
306.121	236.75
306.352	200.75
306.582	188.75
306.812	196.75
307.042	205.75
307.272	179.75
307.502	185.75
307.731	187.75
307.961	197.75
308.191	188.75
308.421	205.75
308.651	185.75
308.881	183.75
309.111	184.75
309.341	186.75
309.571	201.75
309.8	201.75
310.03	212.75
310.26	216.75
310.49	224.75
310.72	202.75
310.949	204.75
311.179	200.75
311.409	203.75
311.639	228.75
311.868	287.75
312.098	390.75
312.328	402.75
312.557	387.75
312.787	401.75
313.017	366.75
313.246	399.75
313.476	408.75
313.706	328.75
313.935	259.75
314.165	224.75
314.394	207.75
314.624	199.75
314.853	236.75
315.083	222.75
315.312	224.75
315.542	213.75
315.771	207.75
316.001	206.75
316.23	181.75
316.46	181.75
316.689	196.75
316.919	185.75
317.148	199.75
317.377	194.75
317.607	197.75
317.836	204.75
318.065	231.75
318.295	261.75
318.524	242.75
318.753	212.75
318.983	195.75
319.212	195.75
319.441	191.75
319.67	225.75
319.9	264.75
320.129	231.75
320.358	215.75
320.587	207.75
320.816	204.75
321.046	228.75
321.275	271.75
321.504	265.75
321.733	246.75
321.962	247.75
322.191	239.75
322.42	235.75
322.649	256.75
322.878	272.75
323.108	237.75
323.337	224.75
323.566	230.75
323.795	224.75
324.024	207.75
324.253	208.75
324.482	210.75
324.71	210.75
324.939	236.75
325.168	223.75
325.397	190.75
325.626	182.75
325.855	185.75
326.084	193.75
326.313	191.75
326.542	176.75
326.77	177.75
326.999	183.75
327.228	191.75
327.457	222.75
327.686	201.75
327.914	175.75
328.143	178.75
328.372	184.75
328.6	172.75
328.829	173.75
329.058	177.75
329.287	190.75
329.515	199.75
329.744	198.75
329.972	186.75
330.201	163.75
330.43	176.75
330.658	207.75
330.887	219.75
331.115	206.75
331.344	203.75
331.572	220.75
331.801	184.75
332.03	200.75
332.258	165.75
332.486	205.75
332.715	212.75
332.943	200.75
333.172	179.75
333.4	192.75
333.629	224.75
333.857	220.75
334.085	232.75
334.314	227.75
334.542	225.75
334.771	210.75
334.999	179.75
335.227	206.75
335.455	196.75
335.684	221.75
335.912	238.75
336.14	275.75
336.369	264.75
336.597	256.75
336.825	270.75
337.053	315.75
337.281	251.75
337.51	207.75
337.738	204.75
337.966	218.75
338.194	248.75
338.422	229.75
338.65	201.75
338.878	184.75
339.106	169.75
339.334	205.75
339.562	208.75
339.79	211.75
340.018	205.75
340.246	228.75
340.474	235.75
340.702	240.75
340.93	265.75
341.158	262.75
341.386	222.75
341.614	222.75
341.842	212.75
342.07	225.75
342.298	273.75
342.526	292.75
342.754	252.75
342.981	227.75
343.209	219.75
343.437	219.75
343.665	220.75
343.893	223.75
344.12	277.75
344.348	313.75
344.576	281.75
344.804	246.75
345.031	206.75
345.259	195.75
345.487	215.75
345.714	199.75
345.942	212.75
346.17	226.75
346.397	221.75
346.625	203.75
346.853	196.75
347.08	214.75
347.308	197.75
347.535	232.75
347.763	221.75
347.99	201.75
348.218	199.75
348.445	220.75
348.673	205.75
348.9	186.75
349.128	210.75
349.355	214.75
349.583	193.75
349.81	215.75
350.037	188.75
350.265	179.75
350.492	165.75
350.72	167.75
350.947	182.75
351.174	196.75
351.402	179.75
351.629	189.75
351.856	196.75
352.083	177.75
352.311	198.75
352.538	237.75
352.765	215.75
352.992	205.75
353.22	220.75
353.447	215.75
353.674	209.75
353.901	180.75
354.128	200.75
354.355	220.75
354.583	204.75
354.81	210.75
355.037	206.75
355.264	208.75
355.491	217.75
355.718	229.75
355.945	222.75
356.172	213.75
356.399	225.75
356.626	235.75
356.853	301.75
357.08	325.75
357.307	334.75
357.534	265.75
357.761	286.75
357.988	323.75
358.215	371.75
358.441	368.75
358.668	322.75
358.895	283.75
359.122	240.75
359.349	238.75
359.576	252.75
359.802	245.75
360.029	193.75
360.256	216.75
360.483	226.75
360.709	299.75
360.936	315.75
361.163	284.75
361.39	231.75
361.616	201.75
361.843	234.75
362.07	282.75
362.296	278.75
362.523	219.75
362.749	192.75
362.976	193.75
363.203	222.75
363.429	253.75
363.656	201.75
363.882	207.75
364.109	204.75
364.335	206.75
364.562	187.75
364.788	202.75
365.015	240.75
365.241	223.75
365.468	196.75
365.694	162.75
365.92	155.75
366.147	163.75
366.373	148.75
366.599	155.75
366.826	169.75
367.052	166.75
367.278	166.75
367.505	170.75
367.731	181.75
367.957	215.75
368.184	197.75
368.41	191.75
368.636	197.75
368.862	209.75
369.089	199.75
369.315	181.75
369.541	181.75
369.767	189.75
369.993	167.75
370.219	180.75
370.445	185.75
370.672	215.75
370.898	212.75
371.124	224.75
371.35	189.75
371.576	190.75
371.802	190.75
372.028	211.75
372.254	247.75
372.48	224.75
372.706	202.75
372.932	198.75
373.158	224.75
373.384	261.75
373.61	324.75
373.835	331.75
374.061	262.75
374.287	224.75
374.513	272.75
374.739	314.75
374.965	294.75
375.191	312.75
375.416	216.75
375.642	207.75
375.868	227.75
376.094	250.75
376.319	217.75
376.545	227.75
376.771	244.75
376.997	238.75
377.222	161.75
377.448	158.75
377.674	168.75
377.899	137.75
378.125	158.75
378.35	168.75
378.576	150.75
378.802	186.75
379.027	187.75
379.253	185.75
379.478	197.75
379.704	210.75
379.929	211.75
380.155	222.75
380.38	189.75
380.606	209.75
380.831	204.75
381.057	208.75
381.282	200.75
381.507	230.75
381.733	275.75
381.958	269.75
382.184	319.75
382.409	309.75
382.634	302.75
382.86	314.75
383.085	275.75
383.31	237.75
383.535	224.75
383.761	239.75
383.986	225.75
384.211	277.75
384.436	255.75
384.662	207.75
384.887	199.75
385.112	211.75
385.337	211.75
385.562	208.75
385.787	213.75
386.013	258.75
386.238	238.75
386.463	211.75
386.688	191.75
386.913	203.75
387.138	183.75
387.363	198.75
387.588	196.75
387.813	204.75
388.038	207.75
388.263	205.75
388.488	198.75
388.713	214.75
388.938	229.75
389.163	203.75
389.387	183.75
389.612	198.75
389.837	181.75
390.062	181.75
390.287	201.75
390.512	206.75
390.736	204.75
390.961	189.75
391.186	171.75
391.411	179.75
391.636	161.75
391.86	198.75
392.085	205.75
392.31	219.75
392.534	202.75
392.759	198.75
392.984	205.75
393.208	205.75
393.433	190.75
393.658	171.75
393.882	168.75
394.107	169.75
394.331	175.75
394.556	162.75
394.78	165.75
395.005	192.75
395.229	170.75
395.454	183.75
395.678	177.75
395.903	186.75
396.127	181.75
396.352	194.75
396.576	213.75
396.801	193.75
397.025	191.75
397.249	228.75
397.474	197.75
397.698	187.75
397.922	199.75
398.147	182.75
398.371	184.75
398.595	215.75
398.82	185.75
399.044	187.75
399.268	180.75
399.492	209.75
399.717	214.75
399.941	204.75
400.165	211.75
400.389	199.75
400.613	205.75
400.837	204.75
401.062	196.75
401.286	183.75
401.51	180.75
401.734	191.75
401.958	178.75
402.182	165.75
402.406	181.75
402.63	183.75
402.854	184.75
403.078	206.75
403.302	256.75
403.526	275.75
403.75	260.75
403.974	226.75
404.198	235.75
404.422	247.75
404.645	238.75
404.869	293.75
405.093	257.75
405.317	206.75
405.541	199.75
405.765	208.75
405.988	217.75
406.212	220.75
406.436	256.75
406.66	277.75
406.883	225.75
407.107	224.75
407.331	260.75
407.555	241.75
407.778	208.75
408.002	215.75
408.226	208.75
408.449	199.75
408.673	195.75
408.896	191.75
409.12	206.75
409.344	199.75
409.567	187.75
409.791	190.75
410.014	179.75
410.238	173.75
410.461	181.75
410.685	178.75
410.908	197.75
411.132	181.75
411.355	179.75
411.578	185.75
411.802	211.75
412.025	187.75
412.249	202.75
412.472	205.75
412.695	186.75
412.919	214.75
413.142	209.75
413.365	201.75
413.589	214.75
413.812	211.75
414.035	193.75
414.258	197.75
414.482	215.75
414.705	210.75
414.928	182.75
415.151	177.75
415.374	201.75
415.597	222.75
415.821	200.75
416.044	189.75
416.267	191.75
416.49	175.75
416.713	181.75
416.936	191.75
417.159	195.75
417.382	176.75
417.605	191.75
417.828	193.75
418.051	168.75
418.274	200.75
418.497	201.75
418.72	185.75
418.943	183.75
419.166	216.75
419.389	221.75
419.611	202.75
419.834	229.75
420.057	231.75
420.28	218.75
420.503	222.75
420.726	177.75
420.948	173.75
421.171	193.75
421.394	192.75
421.617	176.75
421.839	174.75
422.062	195.75
422.285	180.75
422.507	175.75
422.73	208.75
422.953	193.75
423.175	209.75
423.398	184.75
423.621	206.75
423.843	223.75
424.066	199.75
424.288	189.75
424.511	183.75
424.733	191.75
424.956	184.75
425.178	200.75
425.401	240.75
425.623	303.75
425.846	224.75
426.068	200.75
426.291	221.75
426.513	209.75
426.735	191.75
426.958	203.75
427.18	229.75
427.402	284.75
427.625	302.75
427.847	237.75
428.069	180.75
428.292	186.75
428.514	187.75
428.736	185.75
428.958	200.75
429.181	232.75
429.403	195.75
429.625	188.75
429.847	179.75
430.069	195.75
430.292	188.75
430.514	179.75
430.736	180.75
430.958	221.75
431.18	199.75
431.402	171.75
431.624	169.75
431.846	166.75
432.068	170.75
432.29	172.75
432.512	192.75
432.734	233.75
432.956	222.75
433.178	194.75
433.4	181.75
433.622	172.75
433.844	199.75
434.066	194.75
434.287	204.75
434.509	195.75
434.731	206.75
434.953	172.75
435.175	187.75
435.397	204.75
435.618	193.75
435.84	173.75
436.062	187.75
436.284	168.75
436.505	161.75
436.727	164.75
436.949	162.75
437.17	176.75
437.392	185.75
437.614	175.75
437.835	180.75
438.057	177.75
438.278	197.75
438.5	276.75
438.721	274.75
438.943	193.75
439.165	171.75
439.386	160.75
439.608	158.75
439.829	173.75
440.05	161.75
440.272	194.75
440.493	210.75
440.715	252.75
440.936	182.75
441.158	170.75
441.379	187.75
441.6	214.75
441.822	214.75
442.043	201.75
442.264	186.75
442.486	188.75
442.707	187.75
442.928	173.75
443.149	193.75
443.371	202.75
443.592	196.75
443.813	190.75
444.034	189.75
444.255	185.75
444.476	207.75
444.698	196.75
444.919	201.75
445.14	316.75
445.361	245.75
445.582	207.75
445.803	200.75
446.024	202.75
446.245	199.75
446.466	192.75
446.687	175.75
446.908	167.75
447.129	167.75
447.35	179.75
447.571	189.75
447.792	165.75
448.013	176.75
448.234	175.75
448.455	169.75
448.675	161.75
448.896	165.75
449.117	166.75
449.338	179.75
449.559	174.75
449.779	184.75
450	196.75
450.221	191.75
450.442	179.75
450.662	178.75
450.883	178.75
451.104	176.75
451.324	166.75
451.545	151.75
451.766	164.75
451.986	180.75
452.207	151.75
452.428	163.75
452.648	175.75
452.869	169.75
453.089	175.75
453.31	192.75
453.53	179.75
453.751	166.75
453.971	171.75
454.192	161.75
454.412	159.75
454.633	161.75
454.853	172.75
455.073	153.75
455.294	154.75
455.514	155.75
455.734	176.75
455.955	195.75
456.175	183.75
456.395	163.75
456.616	141.75
456.836	157.75
457.056	157.75
457.276	154.75
457.497	142.75
457.717	151.75
457.937	153.75
458.157	160.75
458.377	151.75
458.598	156.75
458.818	146.75
459.038	167.75
459.258	182.75
459.478	187.75
459.698	188.75
459.918	192.75
460.138	190.75
460.358	191.75
460.578	174.75
460.798	191.75
461.018	194.75
461.238	189.75
461.458	189.75
461.678	191.75
461.898	200.75
462.118	177.75
462.338	194.75
462.558	198.75
462.777	208.75
462.997	219.75
463.217	208.75
463.437	205.75
463.657	209.75
463.876	211.75
464.096	213.75
464.316	206.75
464.536	199.75
464.755	229.75
464.975	220.75
465.195	208.75
465.414	218.75
465.634	197.75
465.854	190.75
466.073	197.75
466.293	184.75
466.512	202.75
466.732	225.75
466.951	215.75
467.171	192.75
467.391	171.75
467.61	164.75
467.829	193.75
468.049	202.75
468.268	184.75
468.488	183.75
468.707	185.75
468.927	233.75
469.146	252.75
469.365	210.75
469.585	198.75
469.804	206.75
470.023	235.75
470.243	215.75
470.462	198.75
470.681	198.75
470.901	198.75
471.12	217.75
471.339	213.75
471.558	204.75
471.777	201.75
471.997	204.75
472.216	219.75
472.435	212.75
472.654	219.75
472.873	210.75
473.092	217.75
473.311	225.75
473.53	207.75
473.749	201.75
473.968	215.75
474.187	213.75
474.406	179.75
474.625	188.75
474.844	182.75
475.063	208.75
475.282	220.75
475.501	227.75
475.72	240.75
475.939	238.75
476.158	211.75
476.377	265.75
476.596	293.75
476.814	303.75
477.033	256.75
477.252	239.75
477.471	205.75
477.69	217.75
477.908	226.75
478.127	244.75
478.346	236.75
478.564	246.75
478.783	238.75
479.002	228.75
479.22	278.75
479.439	291.75
479.658	253.75
479.876	230.75
480.095	235.75
480.313	241.75
480.532	229.75
480.751	214.75
480.969	226.75
481.188	253.75
481.406	262.75
481.624	251.75
481.843	239.75
482.061	211.75
482.28	247.75
482.498	303.75
482.717	289.75
482.935	236.75
483.153	228.75
483.372	197.75
483.59	211.75
483.808	211.75
484.027	205.75
484.245	200.75
484.463	187.75
484.681	211.75
484.9	212.75
485.118	248.75
485.336	212.75
485.554	212.75
485.772	229.75
485.99	217.75
486.209	254.75
486.427	243.75
486.645	234.75
486.863	263.75
487.081	240.75
487.299	289.75
487.517	283.75
487.735	240.75
487.953	236.75
488.171	252.75
488.389	237.75
488.607	218.75
488.825	227.75
489.043	247.75
489.261	288.75
489.479	308.75
489.696	257.75
489.914	212.75
490.132	220.75
490.35	216.75
490.568	241.75
490.786	200.75
491.003	214.75
491.221	213.75
491.439	231.75
491.657	240.75
491.874	244.75
492.092	301.75
492.31	360.75
492.527	371.75
492.745	291.75
492.963	259.75
493.18	258.75
493.398	265.75
493.615	247.75
493.833	242.75
494.05	249.75
494.268	238.75
494.485	245.75
494.703	251.75
494.92	229.75
495.138	237.75
495.355	233.75
495.573	228.75
495.79	254.75
496.008	353.75
496.225	288.75
496.442	255.75
496.66	271.75
496.877	292.75
497.094	257.75
497.312	257.75
497.529	252.75
497.746	247.75
497.963	265.75
498.181	294.75
498.398	307.75
498.615	312.75
498.832	334.75
499.049	327.75
499.267	297.75
499.484	308.75
499.701	314.75
499.918	343.75
500.135	369.75
500.352	379.75
500.569	379.75
500.786	407.75
501.003	381.75
501.22	341.75
501.437	332.75
501.654	324.75
501.871	313.75
502.088	317.75
502.305	292.75
502.522	283.75
