Data from NickelSpatula_HRD10591_16-34-12-125.txt Node
Date: Mon Jul 22 16:34:12 EDT 2019
User: cochatt
Spectrometer: HR+D1059
Trigger mode: 1
Integration Time (sec): 1.000000E-1
Scans to average: 1
Electric dark correction enabled: true
Nonlinearity correction enabled: false
Boxcar width: 0
XAxis mode: Wavelengths
Number of Pixels in Spectrum: 2048
>>>>>Begin Spectral Data<<<<<
223.165	-11.38
223.4	-11.38
223.635	-11.38
223.869	-17.38
224.104	-9.38
224.338	-11.38
224.573	-10.38
224.808	-15.38
225.042	-8.38
225.277	-12.38
225.511	-1.38
225.746	-4.38
225.98	10.62
226.215	10.62
226.449	8.62
226.683	20.62
226.918	22.62
227.152	28.62
227.387	35.62
227.621	37.62
227.856	49.62
228.09	24.62
228.324	47.62
228.559	40.62
228.793	68.62
229.027	84.62
229.262	82.62
229.496	81.62
229.73	77.62
229.964	84.62
230.199	76.62
230.433	89.62
230.667	97.62
230.901	76.62
231.136	94.62
231.37	89.62
231.604	102.62
231.838	100.62
232.072	101.62
232.306	111.62
232.541	99.62
232.775	91.62
233.009	110.62
233.243	114.62
233.477	114.62
233.711	117.62
233.945	132.62
234.179	101.62
234.413	110.62
234.647	132.62
234.881	126.62
235.115	127.62
235.349	116.62
235.583	122.62
235.817	122.62
236.051	135.62
236.285	116.62
236.519	135.62
236.753	116.62
236.987	112.62
237.221	115.62
237.455	122.62
237.689	135.62
237.922	130.62
238.156	138.62
238.39	143.62
238.624	164.62
238.858	147.62
239.091	140.62
239.325	145.62
239.559	132.62
239.793	153.62
240.027	156.62
240.26	151.62
240.494	156.62
240.728	152.62
240.961	149.62
241.195	172.62
241.429	178.62
241.662	147.62
241.896	133.62
242.13	139.62
242.363	134.62
242.597	143.62
242.83	136.62
243.064	146.62
243.298	151.62
243.531	146.62
243.765	149.62
243.998	160.62
244.232	162.62
244.465	165.62
244.699	145.62
244.932	151.62
245.166	156.62
245.399	152.62
245.633	131.62
245.866	156.62
246.099	157.62
246.333	164.62
246.566	183.62
246.8	184.62
247.033	180.62
247.266	184.62
247.5	174.62
247.733	165.62
247.966	167.62
248.2	157.62
248.433	186.62
248.666	182.62
248.899	190.62
249.133	193.62
249.366	210.62
249.599	233.62
249.832	214.62
250.066	203.62
250.299	203.62
250.532	198.62
250.765	195.62
250.998	173.62
251.231	164.62
251.465	190.62
251.698	204.62
251.931	183.62
252.164	209.62
252.397	221.62
252.63	238.62
252.863	259.62
253.096	262.62
253.329	236.62
253.562	250.62
253.795	268.62
254.028	309.62
254.261	294.62
254.494	289.62
254.727	266.62
254.96	254.62
255.193	252.62
255.426	269.62
255.659	195.62
255.892	184.62
256.124	214.62
256.357	244.62
256.59	276.62
256.823	264.62
257.056	226.62
257.289	212.62
257.521	249.62
257.754	278.62
257.987	304.62
258.22	261.62
258.452	237.62
258.685	229.62
258.918	263.62
259.151	282.62
259.383	302.62
259.616	348.62
259.849	344.62
260.081	358.62
260.314	380.62
260.547	316.62
260.779	328.62
261.012	371.62
261.244	351.62
261.477	361.62
261.71	331.62
261.942	268.62
262.175	270.62
262.407	259.62
262.64	273.62
262.872	303.62
263.105	342.62
263.337	333.62
263.57	335.62
263.802	234.62
264.035	216.62
264.267	215.62
264.499	194.62
264.732	184.62
264.964	176.62
265.197	182.62
265.429	198.62
265.661	197.62
265.894	221.62
266.126	220.62
266.358	229.62
266.591	290.62
266.823	346.62
267.055	333.62
267.287	296.62
267.52	293.62
267.752	308.62
267.984	338.62
268.216	312.62
268.448	265.62
268.681	258.62
268.913	275.62
269.145	290.62
269.377	308.62
269.609	290.62
269.841	286.62
270.073	294.62
270.306	310.62
270.538	316.62
270.77	329.62
271.002	317.62
271.234	342.62
271.466	327.62
271.698	312.62
271.93	317.62
272.162	293.62
272.394	281.62
272.626	291.62
272.858	295.62
273.09	333.62
273.322	267.62
273.553	267.62
273.785	284.62
274.017	374.62
274.249	435.62
274.481	451.62
274.713	493.62
274.945	554.62
275.176	618.62
275.408	554.62
275.64	497.62
275.872	499.62
276.104	453.62
276.335	405.62
276.567	394.62
276.799	405.62
277.031	418.62
277.262	332.62
277.494	258.62
277.726	268.62
277.957	286.62
278.189	326.62
278.421	323.62
278.652	312.62
278.884	280.62
279.115	276.62
279.347	260.62
279.579	280.62
279.81	277.62
280.042	278.62
280.273	278.62
280.505	255.62
280.736	237.62
280.968	238.62
281.199	267.62
281.431	291.62
281.662	279.62
281.894	262.62
282.125	294.62
282.356	304.62
282.588	293.62
282.819	302.62
283.051	281.62
283.282	349.62
283.513	390.62
283.745	430.62
283.976	445.62
284.207	418.62
284.439	416.62
284.67	403.62
284.901	383.62
285.132	393.62
285.364	412.62
285.595	369.62
285.826	399.62
286.057	416.62
286.288	395.62
286.52	409.62
286.751	438.62
286.982	434.62
287.213	377.62
287.444	370.62
287.675	378.62
287.906	386.62
288.138	349.62
288.369	316.62
288.6	290.62
288.831	300.62
289.062	351.62
289.293	369.62
289.524	346.62
289.755	344.62
289.986	344.62
290.217	323.62
290.448	258.62
290.679	217.62
290.91	210.62
291.141	206.62
291.371	210.62
291.602	214.62
291.833	225.62
292.064	219.62
292.295	258.62
292.526	295.62
292.757	300.62
292.987	312.62
293.218	336.62
293.449	350.62
293.68	407.62
293.91	377.62
294.141	371.62
294.372	344.62
294.603	312.62
294.833	321.62
295.064	404.62
295.295	398.62
295.525	295.62
295.756	264.62
295.987	228.62
296.217	230.62
296.448	233.62
296.679	225.62
296.909	254.62
297.14	262.62
297.37	304.62
297.601	297.62
297.831	233.62
298.062	251.62
298.292	277.62
298.523	309.62
298.753	338.62
298.984	332.62
299.214	270.62
299.445	225.62
299.675	227.62
299.905	228.62
300.136	225.62
300.366	221.62
300.597	233.62
300.827	205.62
301.057	213.62
301.288	221.62
301.518	244.62
301.748	253.62
301.979	257.62
302.209	260.62
302.439	268.62
302.669	249.62
302.9	252.62
303.13	257.62
303.36	259.62
303.59	232.62
303.82	254.62
304.051	260.62
304.281	283.62
304.511	276.62
304.741	265.62
304.971	270.62
305.201	270.62
305.431	269.62
305.661	232.62
305.891	211.62
306.121	237.62
306.352	207.62
306.582	196.62
306.812	181.62
307.042	183.62
307.272	188.62
307.502	206.62
307.731	187.62
307.961	216.62
308.191	189.62
308.421	185.62
308.651	194.62
308.881	187.62
309.111	169.62
309.341	189.62
309.571	210.62
309.8	219.62
310.03	206.62
310.26	205.62
310.49	217.62
310.72	173.62
310.949	200.62
311.179	207.62
311.409	210.62
311.639	243.62
311.868	284.62
312.098	351.62
312.328	376.62
312.557	364.62
312.787	361.62
313.017	325.62
313.246	338.62
313.476	404.62
313.706	344.62
313.935	292.62
314.165	229.62
314.394	183.62
314.624	201.62
314.853	200.62
315.083	240.62
315.312	213.62
315.542	197.62
315.771	197.62
316.001	203.62
316.23	189.62
316.46	190.62
316.689	171.62
316.919	196.62
317.148	197.62
317.377	189.62
317.607	194.62
317.836	232.62
318.065	224.62
318.295	242.62
318.524	241.62
318.753	224.62
318.983	193.62
319.212	199.62
319.441	197.62
319.67	234.62
319.9	245.62
320.129	214.62
320.358	204.62
320.587	189.62
320.816	198.62
321.046	230.62
321.275	247.62
321.504	260.62
321.733	242.62
321.962	235.62
322.191	234.62
322.42	217.62
322.649	228.62
322.878	242.62
323.108	243.62
323.337	215.62
323.566	214.62
323.795	209.62
324.024	231.62
324.253	212.62
324.482	185.62
324.71	211.62
324.939	236.62
325.168	214.62
325.397	197.62
325.626	171.62
325.855	206.62
326.084	227.62
326.313	201.62
326.542	183.62
326.77	197.62
326.999	210.62
327.228	204.62
327.457	198.62
327.686	207.62
327.914	186.62
328.143	189.62
328.372	164.62
328.6	174.62
328.829	186.62
329.058	180.62
329.287	192.62
329.515	185.62
329.744	188.62
329.972	189.62
330.201	171.62
330.43	185.62
330.658	207.62
330.887	219.62
331.115	214.62
331.344	219.62
331.572	211.62
331.801	196.62
332.03	192.62
332.258	194.62
332.486	214.62
332.715	209.62
332.943	211.62
333.172	190.62
333.4	207.62
333.629	223.62
333.857	242.62
334.085	248.62
334.314	252.62
334.542	219.62
334.771	214.62
334.999	214.62
335.227	205.62
335.455	195.62
335.684	214.62
335.912	236.62
336.14	261.62
336.369	280.62
336.597	254.62
336.825	279.62
337.053	290.62
337.281	256.62
337.51	212.62
337.738	204.62
337.966	207.62
338.194	240.62
338.422	222.62
338.65	214.62
338.878	189.62
339.106	182.62
339.334	216.62
339.562	212.62
339.79	207.62
340.018	211.62
340.246	212.62
340.474	232.62
340.702	256.62
340.93	240.62
341.158	252.62
341.386	220.62
341.614	227.62
341.842	227.62
342.07	236.62
342.298	254.62
342.526	279.62
342.754	238.62
342.981	216.62
343.209	209.62
343.437	219.62
343.665	244.62
343.893	231.62
344.12	266.62
344.348	345.62
344.576	285.62
344.804	240.62
345.031	222.62
345.259	196.62
345.487	207.62
345.714	206.62
345.942	213.62
346.17	256.62
346.397	248.62
346.625	211.62
346.853	200.62
347.08	200.62
347.308	219.62
347.535	227.62
347.763	228.62
347.99	210.62
348.218	211.62
348.445	213.62
348.673	207.62
348.9	196.62
349.128	215.62
349.355	208.62
349.583	212.62
349.81	218.62
350.037	197.62
350.265	185.62
350.492	168.62
350.72	171.62
350.947	170.62
351.174	170.62
351.402	187.62
351.629	202.62
351.856	188.62
352.083	173.62
352.311	197.62
352.538	208.62
352.765	222.62
352.992	198.62
353.22	234.62
353.447	222.62
353.674	203.62
353.901	185.62
354.128	196.62
354.355	203.62
354.583	201.62
354.81	196.62
355.037	225.62
355.264	205.62
355.491	205.62
355.718	213.62
355.945	218.62
356.172	217.62
356.399	196.62
356.626	238.62
356.853	273.62
357.08	288.62
357.307	322.62
357.534	247.62
357.761	244.62
357.988	324.62
358.215	335.62
358.441	331.62
358.668	278.62
358.895	288.62
359.122	240.62
359.349	233.62
359.576	260.62
359.802	212.62
360.029	184.62
360.256	203.62
360.483	241.62
360.709	278.62
360.936	296.62
361.163	268.62
361.39	215.62
361.616	193.62
361.843	223.62
362.07	258.62
362.296	240.62
362.523	192.62
362.749	197.62
362.976	192.62
363.203	233.62
363.429	246.62
363.656	200.62
363.882	212.62
364.109	201.62
364.335	204.62
364.562	192.62
364.788	210.62
365.015	207.62
365.241	208.62
365.468	186.62
365.694	169.62
365.92	180.62
366.147	169.62
366.373	164.62
366.599	162.62
366.826	172.62
367.052	168.62
367.278	169.62
367.505	161.62
367.731	178.62
367.957	212.62
368.184	201.62
368.41	199.62
368.636	179.62
368.862	215.62
369.089	207.62
369.315	197.62
369.541	182.62
369.767	186.62
369.993	183.62
370.219	172.62
370.445	191.62
370.672	212.62
370.898	217.62
371.124	201.62
371.35	169.62
371.576	180.62
371.802	186.62
372.028	214.62
372.254	234.62
372.48	220.62
372.706	191.62
372.932	214.62
373.158	225.62
373.384	232.62
373.61	286.62
373.835	285.62
374.061	240.62
374.287	214.62
374.513	266.62
374.739	277.62
374.965	267.62
375.191	290.62
375.416	226.62
375.642	180.62
375.868	226.62
376.094	255.62
376.319	225.62
376.545	259.62
376.771	237.62
376.997	216.62
377.222	167.62
377.448	169.62
377.674	142.62
377.899	162.62
378.125	164.62
378.35	163.62
378.576	181.62
378.802	183.62
379.027	189.62
379.253	178.62
379.478	189.62
379.704	205.62
379.929	212.62
380.155	208.62
380.38	191.62
380.606	205.62
380.831	227.62
381.057	211.62
381.282	187.62
381.507	215.62
381.733	248.62
381.958	274.62
382.184	274.62
382.409	286.62
382.634	283.62
382.86	304.62
383.085	244.62
383.31	204.62
383.535	222.62
383.761	225.62
383.986	221.62
384.211	271.62
384.436	264.62
384.662	215.62
384.887	196.62
385.112	204.62
385.337	212.62
385.562	209.62
385.787	223.62
386.013	251.62
386.238	234.62
386.463	215.62
386.688	222.62
386.913	205.62
387.138	181.62
387.363	218.62
387.588	206.62
387.813	201.62
388.038	233.62
388.263	219.62
388.488	204.62
388.713	226.62
388.938	232.62
389.163	185.62
389.387	180.62
389.612	195.62
389.837	189.62
390.062	204.62
390.287	210.62
390.512	205.62
390.736	184.62
390.961	178.62
391.186	194.62
391.411	185.62
391.636	194.62
391.86	221.62
392.085	214.62
392.31	232.62
392.534	204.62
392.759	209.62
392.984	193.62
393.208	200.62
393.433	197.62
393.658	201.62
393.882	190.62
394.107	176.62
394.331	187.62
394.556	172.62
394.78	184.62
395.005	200.62
395.229	197.62
395.454	172.62
395.678	200.62
395.903	194.62
396.127	170.62
396.352	184.62
396.576	214.62
396.801	223.62
397.025	233.62
397.249	223.62
397.474	205.62
397.698	193.62
397.922	200.62
398.147	185.62
398.371	194.62
398.595	212.62
398.82	211.62
399.044	219.62
399.268	216.62
399.492	240.62
399.717	235.62
399.941	227.62
400.165	235.62
400.389	214.62
400.613	218.62
400.837	210.62
401.062	196.62
401.286	188.62
401.51	190.62
401.734	201.62
401.958	201.62
402.182	193.62
402.406	188.62
402.63	204.62
402.854	207.62
403.078	239.62
403.302	299.62
403.526	301.62
403.75	282.62
403.974	225.62
404.198	253.62
404.422	260.62
404.645	270.62
404.869	291.62
405.093	249.62
405.317	217.62
405.541	224.62
405.765	234.62
405.988	224.62
406.212	226.62
406.436	267.62
406.66	268.62
406.883	221.62
407.107	236.62
407.331	261.62
407.555	258.62
407.778	232.62
408.002	221.62
408.226	241.62
408.449	233.62
408.673	230.62
408.896	192.62
409.12	219.62
409.344	211.62
409.567	195.62
409.791	201.62
410.014	213.62
410.238	201.62
410.461	220.62
410.685	195.62
410.908	191.62
411.132	185.62
411.355	202.62
411.578	203.62
411.802	204.62
412.025	200.62
412.249	198.62
412.472	199.62
412.695	217.62
412.919	208.62
413.142	222.62
413.365	225.62
413.589	217.62
413.812	212.62
414.035	209.62
414.258	201.62
414.482	232.62
414.705	213.62
414.928	200.62
415.151	187.62
415.374	202.62
415.597	194.62
415.821	198.62
416.044	201.62
416.267	192.62
416.49	192.62
416.713	188.62
416.936	198.62
417.159	195.62
417.382	197.62
417.605	190.62
417.828	187.62
418.051	217.62
418.274	195.62
418.497	202.62
418.72	205.62
418.943	203.62
419.166	217.62
419.389	211.62
419.611	213.62
419.834	214.62
420.057	234.62
420.28	213.62
420.503	198.62
420.726	197.62
420.948	205.62
421.171	198.62
421.394	182.62
421.617	188.62
421.839	194.62
422.062	201.62
422.285	193.62
422.507	202.62
422.73	201.62
422.953	196.62
423.175	192.62
423.398	197.62
423.621	222.62
423.843	239.62
424.066	204.62
424.288	197.62
424.511	182.62
424.733	188.62
424.956	204.62
425.178	225.62
425.401	234.62
425.623	281.62
425.846	261.62
426.068	221.62
426.291	235.62
426.513	219.62
426.735	213.62
426.958	214.62
427.18	240.62
427.402	288.62
427.625	277.62
427.847	233.62
428.069	203.62
428.292	192.62
428.514	195.62
428.736	189.62
428.958	197.62
429.181	236.62
429.403	211.62
429.625	213.62
429.847	196.62
430.069	212.62
430.292	209.62
430.514	201.62
430.736	196.62
430.958	213.62
431.18	212.62
431.402	189.62
431.624	198.62
431.846	184.62
432.068	182.62
432.29	184.62
432.512	212.62
432.734	224.62
432.956	222.62
433.178	187.62
433.4	208.62
433.622	196.62
433.844	196.62
434.066	214.62
434.287	202.62
434.509	193.62
434.731	211.62
434.953	190.62
435.175	203.62
435.397	227.62
435.618	207.62
435.84	194.62
436.062	201.62
436.284	201.62
436.505	192.62
436.727	180.62
436.949	190.62
437.17	178.62
437.392	200.62
437.614	189.62
437.835	195.62
438.057	177.62
438.278	196.62
438.5	249.62
438.721	258.62
438.943	211.62
439.165	182.62
439.386	172.62
439.608	173.62
439.829	174.62
440.05	187.62
440.272	188.62
440.493	198.62
440.715	238.62
440.936	211.62
441.158	193.62
441.379	187.62
441.6	221.62
441.822	205.62
442.043	195.62
442.264	170.62
442.486	194.62
442.707	193.62
442.928	190.62
443.149	176.62
443.371	196.62
443.592	192.62
443.813	205.62
444.034	213.62
444.255	223.62
444.476	200.62
444.698	200.62
444.919	219.62
445.14	322.62
445.361	278.62
445.582	244.62
445.803	214.62
446.024	224.62
446.245	189.62
446.466	188.62
446.687	207.62
446.908	208.62
447.129	187.62
447.35	194.62
447.571	180.62
447.792	174.62
448.013	168.62
448.234	184.62
448.455	168.62
448.675	184.62
448.896	184.62
449.117	185.62
449.338	179.62
449.559	187.62
449.779	186.62
450	184.62
450.221	185.62
450.442	196.62
450.662	182.62
450.883	196.62
451.104	172.62
451.324	173.62
451.545	192.62
451.766	181.62
451.986	182.62
452.207	171.62
452.428	166.62
452.648	192.62
452.869	171.62
453.089	180.62
453.31	182.62
453.53	175.62
453.751	192.62
453.971	168.62
454.192	185.62
454.412	179.62
454.633	168.62
454.853	177.62
455.073	157.62
455.294	158.62
455.514	170.62
455.734	176.62
455.955	171.62
456.175	179.62
456.395	182.62
456.616	164.62
456.836	164.62
457.056	174.62
457.276	168.62
457.497	174.62
457.717	166.62
457.937	171.62
458.157	170.62
458.377	164.62
458.598	159.62
458.818	164.62
459.038	180.62
459.258	187.62
459.478	190.62
459.698	190.62
459.918	201.62
460.138	207.62
460.358	199.62
460.578	194.62
460.798	198.62
461.018	215.62
461.238	200.62
461.458	197.62
461.678	191.62
461.898	213.62
462.118	227.62
462.338	226.62
462.558	213.62
462.777	229.62
462.997	241.62
463.217	229.62
463.437	222.62
463.657	217.62
463.876	210.62
464.096	210.62
464.316	210.62
464.536	213.62
464.755	215.62
464.975	234.62
465.195	215.62
465.414	219.62
465.634	198.62
465.854	198.62
466.073	196.62
466.293	184.62
466.512	203.62
466.732	220.62
466.951	219.62
467.171	201.62
467.391	183.62
467.61	173.62
467.829	196.62
468.049	185.62
468.268	180.62
468.488	188.62
468.707	203.62
468.927	212.62
469.146	237.62
469.365	233.62
469.585	204.62
469.804	200.62
470.023	217.62
470.243	195.62
470.462	208.62
470.681	196.62
470.901	194.62
471.12	216.62
471.339	202.62
471.558	184.62
471.777	197.62
471.997	222.62
472.216	237.62
472.435	228.62
472.654	205.62
472.873	203.62
473.092	227.62
473.311	216.62
473.53	208.62
473.749	181.62
473.968	207.62
474.187	202.62
474.406	188.62
474.625	204.62
474.844	209.62
475.063	216.62
475.282	220.62
475.501	226.62
475.72	265.62
475.939	231.62
476.158	222.62
476.377	262.62
476.596	288.62
476.814	329.62
477.033	262.62
477.252	222.62
477.471	200.62
477.69	200.62
477.908	219.62
478.127	218.62
478.346	235.62
478.564	253.62
478.783	239.62
479.002	221.62
479.22	261.62
479.439	272.62
479.658	254.62
479.876	241.62
480.095	250.62
480.313	258.62
480.532	222.62
480.751	227.62
480.969	233.62
481.188	249.62
481.406	268.62
481.624	256.62
481.843	242.62
482.061	232.62
482.28	244.62
482.498	322.62
482.717	295.62
482.935	242.62
483.153	220.62
483.372	211.62
483.59	205.62
483.808	214.62
484.027	217.62
484.245	221.62
484.463	210.62
484.681	223.62
484.9	237.62
485.118	230.62
485.336	223.62
485.554	205.62
485.772	209.62
485.99	236.62
486.209	241.62
486.427	253.62
486.645	234.62
486.863	250.62
487.081	241.62
487.299	280.62
487.517	260.62
487.735	219.62
487.953	248.62
488.171	249.62
488.389	222.62
488.607	236.62
488.825	226.62
489.043	238.62
489.261	288.62
489.479	294.62
489.696	263.62
489.914	230.62
490.132	224.62
490.35	235.62
490.568	231.62
490.786	220.62
491.003	224.62
491.221	223.62
491.439	213.62
491.657	229.62
491.874	228.62
492.092	287.62
492.31	338.62
492.527	315.62
492.745	288.62
492.963	251.62
493.18	269.62
493.398	252.62
493.615	253.62
493.833	249.62
494.05	250.62
494.268	255.62
494.485	258.62
494.703	251.62
494.92	247.62
495.138	227.62
495.355	238.62
495.573	233.62
495.79	242.62
496.008	345.62
496.225	276.62
496.442	253.62
496.66	266.62
496.877	276.62
497.094	263.62
497.312	253.62
497.529	263.62
497.746	277.62
497.963	254.62
498.181	288.62
498.398	299.62
498.615	317.62
498.832	328.62
499.049	344.62
499.267	307.62
499.484	322.62
499.701	338.62
499.918	347.62
500.135	377.62
500.352	408.62
500.569	419.62
500.786	443.62
501.003	435.62
501.22	385.62
501.437	338.62
501.654	344.62
501.871	325.62
502.088	309.62
502.305	305.62
502.522	298.62
502.739	300.62
