Data from NickelSpatula.Lamp.E5.5.P2_HRD10591_11-52-38-553.txt Node
Date: Tue Jul 23 11:52:38 EDT 2019
User: cochatt
Spectrometer: HR+D1059
Trigger mode: 1
Integration Time (sec): 1.000000E-1
Scans to average: 1
Electric dark correction enabled: true
Nonlinearity correction enabled: false
Boxcar width: 0
XAxis mode: Wavelengths
Number of Pixels in Spectrum: 2048
>>>>>Begin Spectral Data<<<<<
223.165	-16.44
223.4	-16.44
223.635	-16.44
223.869	-14.44
224.104	-12.44
224.338	-9.44
224.573	-16.44
224.808	-12.44
225.042	0.56
225.277	-9.44
225.511	-8.44
225.746	2.56
225.98	0.56
226.215	12.56
226.449	4.56
226.683	11.56
226.918	27.56
227.152	39.56
227.387	27.56
227.621	40.56
227.856	54.56
228.09	39.56
228.324	47.56
228.559	58.56
228.793	59.56
229.027	79.56
229.262	73.56
229.496	80.56
229.73	75.56
229.964	86.56
230.199	102.56
230.433	104.56
230.667	95.56
230.901	105.56
231.136	89.56
231.37	95.56
231.604	109.56
231.838	121.56
232.072	105.56
232.306	105.56
232.541	89.56
232.775	100.56
233.009	112.56
233.243	113.56
233.477	122.56
233.711	128.56
233.945	111.56
234.179	123.56
234.413	125.56
234.647	134.56
234.881	146.56
235.115	143.56
235.349	117.56
235.583	124.56
235.817	116.56
236.051	129.56
236.285	130.56
236.519	129.56
236.753	133.56
236.987	151.56
237.221	130.56
237.455	134.56
237.689	127.56
237.922	130.56
238.156	136.56
238.39	150.56
238.624	179.56
238.858	159.56
239.091	154.56
239.325	144.56
239.559	139.56
239.793	154.56
240.027	156.56
240.26	154.56
240.494	169.56
240.728	160.56
240.961	175.56
241.195	154.56
241.429	162.56
241.662	169.56
241.896	146.56
242.13	145.56
242.363	139.56
242.597	149.56
242.83	141.56
243.064	174.56
243.298	157.56
243.531	181.56
243.765	179.56
243.998	173.56
244.232	159.56
244.465	156.56
244.699	168.56
244.932	177.56
245.166	167.56
245.399	153.56
245.633	146.56
245.866	149.56
246.099	176.56
246.333	195.56
246.566	181.56
246.8	203.56
247.033	203.56
247.266	169.56
247.5	170.56
247.733	169.56
247.966	161.56
248.2	167.56
248.433	188.56
248.666	187.56
248.899	197.56
249.133	199.56
249.366	232.56
249.599	243.56
249.832	234.56
250.066	211.56
250.299	216.56
250.532	200.56
250.765	182.56
250.998	193.56
251.231	179.56
251.465	198.56
251.698	198.56
251.931	206.56
252.164	207.56
252.397	214.56
252.63	258.56
252.863	273.56
253.096	275.56
253.329	261.56
253.562	243.56
253.795	271.56
254.028	309.56
254.261	310.56
254.494	286.56
254.727	261.56
254.96	247.56
255.193	267.56
255.426	260.56
255.659	207.56
255.892	200.56
256.124	221.56
256.357	253.56
256.59	284.56
256.823	253.56
257.056	237.56
257.289	224.56
257.521	235.56
257.754	272.56
257.987	309.56
258.22	274.56
258.452	221.56
258.685	278.56
258.918	273.56
259.151	273.56
259.383	307.56
259.616	317.56
259.849	347.56
260.081	349.56
260.314	367.56
260.547	314.56
260.779	342.56
261.012	379.56
261.244	358.56
261.477	353.56
261.71	319.56
261.942	291.56
262.175	293.56
262.407	266.56
262.64	272.56
262.872	322.56
263.105	355.56
263.337	375.56
263.57	331.56
263.802	241.56
264.035	220.56
264.267	229.56
264.499	210.56
264.732	177.56
264.964	179.56
265.197	198.56
265.429	209.56
265.661	195.56
265.894	211.56
266.126	216.56
266.358	249.56
266.591	278.56
266.823	331.56
267.055	324.56
267.287	303.56
267.52	275.56
267.752	308.56
267.984	345.56
268.216	311.56
268.448	270.56
268.681	271.56
268.913	273.56
269.145	296.56
269.377	309.56
269.609	302.56
269.841	296.56
270.073	309.56
270.306	310.56
270.538	332.56
270.77	318.56
271.002	314.56
271.234	340.56
271.466	352.56
271.698	294.56
271.93	315.56
272.162	323.56
272.394	305.56
272.626	305.56
272.858	306.56
273.09	312.56
273.322	281.56
273.553	262.56
273.785	317.56
274.017	388.56
274.249	483.56
274.481	482.56
274.713	511.56
274.945	599.56
275.176	621.56
275.408	561.56
275.64	509.56
275.872	505.56
276.104	457.56
276.335	388.56
276.567	373.56
276.799	407.56
277.031	417.56
277.262	357.56
277.494	274.56
277.726	270.56
277.957	297.56
278.189	329.56
278.421	323.56
278.652	298.56
278.884	291.56
279.115	254.56
279.347	284.56
279.579	272.56
279.81	274.56
280.042	285.56
280.273	283.56
280.505	266.56
280.736	241.56
280.968	244.56
281.199	265.56
281.431	271.56
281.662	273.56
281.894	271.56
282.125	285.56
282.356	303.56
282.588	303.56
282.819	279.56
283.051	288.56
283.282	346.56
283.513	417.56
283.745	431.56
283.976	454.56
284.207	448.56
284.439	429.56
284.67	421.56
284.901	367.56
285.132	386.56
285.364	428.56
285.595	402.56
285.826	382.56
286.057	422.56
286.288	389.56
286.52	395.56
286.751	438.56
286.982	431.56
287.213	403.56
287.444	389.56
287.675	402.56
287.906	400.56
288.138	345.56
288.369	307.56
288.6	301.56
288.831	314.56
289.062	348.56
289.293	372.56
289.524	361.56
289.755	346.56
289.986	358.56
290.217	322.56
290.448	256.56
290.679	229.56
290.91	217.56
291.141	226.56
291.371	224.56
291.602	218.56
291.833	224.56
292.064	233.56
292.295	268.56
292.526	305.56
292.757	317.56
292.987	321.56
293.218	339.56
293.449	369.56
293.68	373.56
293.91	354.56
294.141	375.56
294.372	337.56
294.603	305.56
294.833	346.56
295.064	391.56
295.295	387.56
295.525	307.56
295.756	289.56
295.987	256.56
296.217	229.56
296.448	238.56
296.679	251.56
296.909	266.56
297.14	285.56
297.37	332.56
297.601	290.56
297.831	250.56
298.062	295.56
298.292	302.56
298.523	336.56
298.753	360.56
298.984	331.56
299.214	293.56
299.445	259.56
299.675	248.56
299.905	224.56
300.136	258.56
300.366	250.56
300.597	259.56
300.827	257.56
301.057	234.56
301.288	241.56
301.518	237.56
301.748	262.56
301.979	297.56
302.209	321.56
302.439	321.56
302.669	278.56
302.9	295.56
303.13	266.56
303.36	265.56
303.59	247.56
303.82	272.56
304.051	266.56
304.281	313.56
304.511	297.56
304.741	262.56
304.971	292.56
305.201	304.56
305.431	282.56
305.661	252.56
305.891	260.56
306.121	249.56
306.352	217.56
306.582	219.56
306.812	198.56
307.042	215.56
307.272	202.56
307.502	206.56
307.731	195.56
307.961	221.56
308.191	207.56
308.421	193.56
308.651	201.56
308.881	188.56
309.111	193.56
309.341	200.56
309.571	207.56
309.8	223.56
310.03	227.56
310.26	232.56
310.49	224.56
310.72	212.56
310.949	206.56
311.179	199.56
311.409	205.56
311.639	253.56
311.868	304.56
312.098	373.56
312.328	402.56
312.557	405.56
312.787	395.56
313.017	334.56
313.246	373.56
313.476	423.56
313.706	347.56
313.935	285.56
314.165	245.56
314.394	247.56
314.624	218.56
314.853	241.56
315.083	224.56
315.312	232.56
315.542	235.56
315.771	219.56
316.001	210.56
316.23	217.56
316.46	200.56
316.689	206.56
316.919	194.56
317.148	209.56
317.377	205.56
317.607	219.56
317.836	202.56
318.065	223.56
318.295	271.56
318.524	242.56
318.753	225.56
318.983	204.56
319.212	216.56
319.441	210.56
319.67	238.56
319.9	262.56
320.129	255.56
320.358	223.56
320.587	219.56
320.816	223.56
321.046	256.56
321.275	265.56
321.504	279.56
321.733	268.56
321.962	231.56
322.191	257.56
322.42	237.56
322.649	238.56
322.878	252.56
323.108	268.56
323.337	234.56
323.566	241.56
323.795	234.56
324.024	230.56
324.253	235.56
324.482	219.56
324.71	241.56
324.939	264.56
325.168	259.56
325.397	224.56
325.626	211.56
325.855	222.56
326.084	234.56
326.313	211.56
326.542	207.56
326.77	213.56
326.999	219.56
327.228	217.56
327.457	238.56
327.686	234.56
327.914	202.56
328.143	210.56
328.372	207.56
328.6	189.56
328.829	198.56
329.058	226.56
329.287	205.56
329.515	223.56
329.744	227.56
329.972	210.56
330.201	192.56
330.43	187.56
330.658	214.56
330.887	231.56
331.115	240.56
331.344	221.56
331.572	243.56
331.801	234.56
332.03	212.56
332.258	225.56
332.486	234.56
332.715	234.56
332.943	230.56
333.172	197.56
333.4	235.56
333.629	250.56
333.857	271.56
334.085	264.56
334.314	255.56
334.542	230.56
334.771	222.56
334.999	222.56
335.227	234.56
335.455	230.56
335.684	229.56
335.912	264.56
336.14	282.56
336.369	285.56
336.597	258.56
336.825	297.56
337.053	330.56
337.281	279.56
337.51	228.56
337.738	231.56
337.966	240.56
338.194	259.56
338.422	270.56
338.65	224.56
338.878	203.56
339.106	206.56
339.334	221.56
339.562	251.56
339.79	225.56
340.018	213.56
340.246	227.56
340.474	265.56
340.702	258.56
340.93	282.56
341.158	283.56
341.386	236.56
341.614	249.56
341.842	226.56
342.07	246.56
342.298	275.56
342.526	295.56
342.754	265.56
342.981	221.56
343.209	234.56
343.437	243.56
343.665	249.56
343.893	275.56
344.12	296.56
344.348	371.56
344.576	333.56
344.804	265.56
345.031	249.56
345.259	209.56
345.487	227.56
345.714	243.56
345.942	243.56
346.17	260.56
346.397	275.56
346.625	229.56
346.853	230.56
347.08	240.56
347.308	243.56
347.535	264.56
347.763	272.56
347.99	221.56
348.218	216.56
348.445	233.56
348.673	229.56
348.9	221.56
349.128	259.56
349.355	259.56
349.583	252.56
349.81	237.56
350.037	213.56
350.265	199.56
350.492	190.56
350.72	182.56
350.947	192.56
351.174	210.56
351.402	205.56
351.629	222.56
351.856	214.56
352.083	218.56
352.311	215.56
352.538	228.56
352.765	254.56
352.992	226.56
353.22	220.56
353.447	219.56
353.674	215.56
353.901	205.56
354.128	237.56
354.355	226.56
354.583	222.56
354.81	219.56
355.037	229.56
355.264	218.56
355.491	238.56
355.718	261.56
355.945	271.56
356.172	248.56
356.399	248.56
356.626	291.56
356.853	321.56
357.08	354.56
357.307	349.56
357.534	292.56
357.761	307.56
357.988	367.56
358.215	407.56
358.441	387.56
358.668	340.56
358.895	333.56
359.122	261.56
359.349	273.56
359.576	318.56
359.802	253.56
360.029	227.56
360.256	222.56
360.483	285.56
360.709	333.56
360.936	358.56
361.163	309.56
361.39	254.56
361.616	233.56
361.843	264.56
362.07	309.56
362.296	290.56
362.523	246.56
362.749	214.56
362.976	249.56
363.203	261.56
363.429	283.56
363.656	235.56
363.882	224.56
364.109	224.56
364.335	234.56
364.562	233.56
364.788	226.56
365.015	264.56
365.241	244.56
365.468	221.56
365.694	199.56
365.92	185.56
366.147	179.56
366.373	193.56
366.599	203.56
366.826	206.56
367.052	202.56
367.278	194.56
367.505	194.56
367.731	212.56
367.957	218.56
368.184	228.56
368.41	240.56
368.636	241.56
368.862	243.56
369.089	223.56
369.315	212.56
369.541	217.56
369.767	208.56
369.993	205.56
370.219	213.56
370.445	212.56
370.672	237.56
370.898	253.56
371.124	251.56
371.35	220.56
371.576	203.56
371.802	233.56
372.028	248.56
372.254	296.56
372.48	249.56
372.706	263.56
372.932	248.56
373.158	265.56
373.384	285.56
373.61	374.56
373.835	387.56
374.061	295.56
374.287	261.56
374.513	306.56
374.739	354.56
374.965	375.56
375.191	342.56
375.416	261.56
375.642	237.56
375.868	267.56
376.094	299.56
376.319	238.56
376.545	283.56
376.771	285.56
376.997	256.56
377.222	210.56
377.448	186.56
377.674	194.56
377.899	185.56
378.125	177.56
378.35	190.56
378.576	193.56
378.802	217.56
379.027	212.56
379.253	214.56
379.478	219.56
379.704	235.56
379.929	266.56
380.155	258.56
380.38	230.56
380.606	237.56
380.831	256.56
381.057	234.56
381.282	231.56
381.507	264.56
381.733	307.56
381.958	321.56
382.184	337.56
382.409	353.56
382.634	352.56
382.86	366.56
383.085	307.56
383.31	264.56
383.535	275.56
383.761	287.56
383.986	250.56
384.211	317.56
384.436	313.56
384.662	264.56
384.887	233.56
385.112	247.56
385.337	249.56
385.562	245.56
385.787	279.56
386.013	281.56
386.238	283.56
386.463	248.56
386.688	252.56
386.913	226.56
387.138	209.56
387.363	228.56
387.588	230.56
387.813	234.56
388.038	254.56
388.263	242.56
388.488	244.56
388.713	273.56
388.938	267.56
389.163	237.56
389.387	229.56
389.612	218.56
389.837	233.56
390.062	218.56
390.287	248.56
390.512	212.56
390.736	219.56
390.961	209.56
391.186	220.56
391.411	219.56
391.636	223.56
391.86	226.56
392.085	255.56
392.31	259.56
392.534	229.56
392.759	223.56
392.984	255.56
393.208	230.56
393.433	224.56
393.658	212.56
393.882	207.56
394.107	222.56
394.331	207.56
394.556	210.56
394.78	216.56
395.005	220.56
395.229	215.56
395.454	217.56
395.678	226.56
395.903	209.56
396.127	202.56
396.352	218.56
396.576	235.56
396.801	230.56
397.025	262.56
397.249	270.56
397.474	229.56
397.698	213.56
397.922	232.56
398.147	237.56
398.371	231.56
398.595	238.56
398.82	252.56
399.044	218.56
399.268	275.56
399.492	280.56
399.717	309.56
399.941	296.56
400.165	267.56
400.389	259.56
400.613	259.56
400.837	246.56
401.062	243.56
401.286	221.56
401.51	227.56
401.734	228.56
401.958	241.56
402.182	237.56
402.406	247.56
402.63	237.56
402.854	259.56
403.078	301.56
403.302	358.56
403.526	361.56
403.75	335.56
403.974	301.56
404.198	254.56
404.422	285.56
404.645	319.56
404.869	375.56
405.093	301.56
405.317	266.56
405.541	246.56
405.765	255.56
405.988	267.56
406.212	262.56
406.436	290.56
406.66	320.56
406.883	289.56
407.107	282.56
407.331	313.56
407.555	317.56
407.778	283.56
408.002	280.56
408.226	251.56
408.449	268.56
408.673	284.56
408.896	243.56
409.12	245.56
409.344	227.56
409.567	226.56
409.791	248.56
410.014	244.56
410.238	251.56
410.461	239.56
410.685	229.56
410.908	251.56
411.132	243.56
411.355	250.56
411.578	240.56
411.802	255.56
412.025	240.56
412.249	242.56
412.472	237.56
412.695	227.56
412.919	242.56
413.142	247.56
413.365	277.56
413.589	254.56
413.812	233.56
414.035	245.56
414.258	242.56
414.482	260.56
414.705	264.56
414.928	226.56
415.151	243.56
415.374	234.56
415.597	219.56
415.821	238.56
416.044	225.56
416.267	232.56
416.49	214.56
416.713	228.56
416.936	223.56
417.159	234.56
417.382	239.56
417.605	229.56
417.828	237.56
418.051	228.56
418.274	239.56
418.497	242.56
418.72	240.56
418.943	249.56
419.166	259.56
419.389	263.56
419.611	254.56
419.834	241.56
420.057	283.56
420.28	257.56
420.503	239.56
420.726	257.56
420.948	234.56
421.171	241.56
421.394	230.56
421.617	227.56
421.839	233.56
422.062	223.56
422.285	224.56
422.507	235.56
422.73	234.56
422.953	244.56
423.175	232.56
423.398	253.56
423.621	254.56
423.843	266.56
424.066	251.56
424.288	255.56
424.511	237.56
424.733	238.56
424.956	254.56
425.178	275.56
425.401	314.56
425.623	361.56
425.846	301.56
426.068	254.56
426.291	271.56
426.513	257.56
426.735	228.56
426.958	235.56
427.18	265.56
427.402	336.56
427.625	344.56
427.847	297.56
428.069	248.56
428.292	217.56
428.514	216.56
428.736	233.56
428.958	259.56
429.181	302.56
429.403	270.56
429.625	229.56
429.847	241.56
430.069	222.56
430.292	218.56
430.514	227.56
430.736	232.56
430.958	253.56
431.18	255.56
431.402	226.56
431.624	232.56
431.846	226.56
432.068	227.56
432.29	218.56
432.512	237.56
432.734	276.56
432.956	239.56
433.178	225.56
433.4	210.56
433.622	224.56
433.844	214.56
434.066	269.56
434.287	246.56
434.509	237.56
434.731	252.56
434.953	248.56
435.175	269.56
435.397	274.56
435.618	237.56
435.84	229.56
436.062	223.56
436.284	214.56
436.505	215.56
436.727	216.56
436.949	219.56
437.17	214.56
437.392	235.56
437.614	212.56
437.835	227.56
438.057	212.56
438.278	230.56
438.5	318.56
438.721	321.56
438.943	242.56
439.165	207.56
439.386	203.56
439.608	227.56
439.829	207.56
440.05	204.56
440.272	212.56
440.493	238.56
440.715	297.56
440.936	252.56
441.158	238.56
441.379	220.56
441.6	242.56
441.822	271.56
442.043	239.56
442.264	232.56
442.486	221.56
442.707	225.56
442.928	229.56
443.149	240.56
443.371	238.56
443.592	238.56
443.813	229.56
444.034	233.56
444.255	233.56
444.476	256.56
444.698	229.56
444.919	261.56
445.14	360.56
445.361	305.56
445.582	242.56
445.803	252.56
446.024	227.56
446.245	239.56
446.466	251.56
446.687	219.56
446.908	222.56
447.129	211.56
447.35	197.56
447.571	207.56
447.792	201.56
448.013	204.56
448.234	212.56
448.455	206.56
448.675	217.56
448.896	206.56
449.117	212.56
449.338	221.56
449.559	216.56
449.779	229.56
450	226.56
450.221	227.56
450.442	219.56
450.662	223.56
450.883	224.56
451.104	221.56
451.324	214.56
451.545	232.56
451.766	229.56
451.986	201.56
452.207	195.56
452.428	218.56
452.648	219.56
452.869	223.56
453.089	234.56
453.31	222.56
453.53	209.56
453.751	199.56
453.971	189.56
454.192	206.56
454.412	216.56
454.633	221.56
454.853	201.56
455.073	203.56
455.294	201.56
455.514	219.56
455.734	221.56
455.955	203.56
456.175	232.56
456.395	227.56
456.616	202.56
456.836	189.56
457.056	196.56
457.276	187.56
457.497	196.56
457.717	192.56
457.937	183.56
458.157	200.56
458.377	204.56
458.598	198.56
458.818	207.56
459.038	222.56
459.258	230.56
459.478	214.56
459.698	221.56
459.918	237.56
460.138	225.56
460.358	245.56
460.578	230.56
460.798	248.56
461.018	230.56
461.238	221.56
461.458	233.56
461.678	249.56
461.898	254.56
462.118	250.56
462.338	258.56
462.558	263.56
462.777	271.56
462.997	278.56
463.217	275.56
463.437	285.56
463.657	265.56
463.876	258.56
464.096	263.56
464.316	262.56
464.536	266.56
464.755	280.56
464.975	271.56
465.195	255.56
465.414	264.56
465.634	249.56
465.854	246.56
466.073	223.56
466.293	239.56
466.512	242.56
466.732	262.56
466.951	256.56
467.171	243.56
467.391	220.56
467.61	210.56
467.829	248.56
468.049	234.56
468.268	250.56
468.488	211.56
468.707	229.56
468.927	275.56
469.146	275.56
469.365	258.56
469.585	241.56
469.804	244.56
470.023	273.56
470.243	247.56
470.462	248.56
470.681	230.56
470.901	235.56
471.12	237.56
471.339	215.56
471.558	223.56
471.777	224.56
471.997	229.56
472.216	277.56
472.435	260.56
472.654	231.56
472.873	261.56
473.092	237.56
473.311	255.56
473.53	231.56
473.749	215.56
473.968	244.56
474.187	248.56
474.406	244.56
474.625	243.56
474.844	231.56
475.063	250.56
475.282	259.56
475.501	262.56
475.72	287.56
475.939	264.56
476.158	271.56
476.377	295.56
476.596	331.56
476.814	351.56
477.033	288.56
477.252	246.56
477.471	237.56
477.69	237.56
477.908	279.56
478.127	289.56
478.346	280.56
478.564	297.56
478.783	282.56
479.002	276.56
479.22	283.56
479.439	323.56
479.658	292.56
479.876	257.56
480.095	283.56
480.313	304.56
480.532	282.56
480.751	242.56
480.969	270.56
481.188	290.56
481.406	296.56
481.624	294.56
481.843	282.56
482.061	265.56
482.28	295.56
482.498	348.56
482.717	326.56
482.935	301.56
483.153	254.56
483.372	275.56
483.59	268.56
483.808	248.56
484.027	264.56
484.245	228.56
484.463	235.56
484.681	259.56
484.9	275.56
485.118	279.56
485.336	275.56
485.554	262.56
485.772	270.56
485.99	293.56
486.209	305.56
486.427	309.56
486.645	297.56
486.863	289.56
487.081	289.56
487.299	313.56
487.517	304.56
487.735	274.56
487.953	272.56
488.171	296.56
488.389	291.56
488.607	264.56
488.825	266.56
489.043	293.56
489.261	320.56
489.479	335.56
489.696	303.56
489.914	263.56
490.132	269.56
490.35	263.56
490.568	275.56
490.786	258.56
491.003	275.56
491.221	268.56
491.439	258.56
491.657	272.56
491.874	298.56
492.092	332.56
492.31	345.56
492.527	373.56
492.745	321.56
492.963	296.56
493.18	313.56
493.398	302.56
493.615	297.56
493.833	280.56
494.05	285.56
494.268	296.56
494.485	288.56
494.703	282.56
494.92	272.56
495.138	263.56
495.355	281.56
495.573	280.56
495.79	318.56
496.008	387.56
496.225	332.56
496.442	297.56
496.66	317.56
496.877	321.56
497.094	304.56
497.312	295.56
497.529	286.56
497.746	294.56
497.963	305.56
498.181	312.56
498.398	351.56
498.615	369.56
498.832	369.56
499.049	394.56
499.267	362.56
499.484	394.56
499.701	434.56
499.918	456.56
500.135	505.56
500.352	518.56
500.569	530.56
500.786	538.56
501.003	547.56
501.22	475.56
501.437	442.56
501.654	401.56
501.871	375.56
502.088	370.56
502.305	353.56
502.522	354.56
