Data from NickelSpatula.Lamp.E5.5.P2_HRD10591_11-53-32-548.txt Node
Date: Tue Jul 23 11:53:32 EDT 2019
User: cochatt
Spectrometer: HR+D1059
Trigger mode: 1
Integration Time (sec): 1.000000E-1
Scans to average: 1
Electric dark correction enabled: true
Nonlinearity correction enabled: false
Boxcar width: 0
XAxis mode: Wavelengths
Number of Pixels in Spectrum: 2048
>>>>>Begin Spectral Data<<<<<
223.165	-6.75
223.4	-6.75
223.635	-6.75
223.869	-25.75
224.104	-14.75
224.338	-0.75
224.573	-21.75
224.808	-15.75
225.042	-9.75
225.277	-4.75
225.511	3.25
225.746	-7.75
225.98	1.25
226.215	23.25
226.449	9.25
226.683	26.25
226.918	27.25
227.152	17.25
227.387	35.25
227.621	40.25
227.856	41.25
228.09	43.25
228.324	39.25
228.559	67.25
228.793	51.25
229.027	84.25
229.262	77.25
229.496	71.25
229.73	80.25
229.964	98.25
230.199	98.25
230.433	86.25
230.667	112.25
230.901	87.25
231.136	96.25
231.37	84.25
231.604	95.25
231.838	109.25
232.072	107.25
232.306	110.25
232.541	101.25
232.775	105.25
233.009	98.25
233.243	110.25
233.477	106.25
233.711	123.25
233.945	139.25
234.179	126.25
234.413	127.25
234.647	128.25
234.881	152.25
235.115	140.25
235.349	121.25
235.583	114.25
235.817	130.25
236.051	116.25
236.285	136.25
236.519	157.25
236.753	140.25
236.987	132.25
237.221	139.25
237.455	123.25
237.689	121.25
237.922	144.25
238.156	136.25
238.39	152.25
238.624	156.25
238.858	165.25
239.091	134.25
239.325	148.25
239.559	146.25
239.793	138.25
240.027	181.25
240.26	162.25
240.494	168.25
240.728	152.25
240.961	158.25
241.195	160.25
241.429	175.25
241.662	164.25
241.896	137.25
242.13	137.25
242.363	130.25
242.597	130.25
242.83	138.25
243.064	144.25
243.298	160.25
243.531	172.25
243.765	167.25
243.998	159.25
244.232	156.25
244.465	161.25
244.699	164.25
244.932	172.25
245.166	164.25
245.399	147.25
245.633	142.25
245.866	160.25
246.099	161.25
246.333	159.25
246.566	188.25
246.8	196.25
247.033	192.25
247.266	176.25
247.5	175.25
247.733	174.25
247.966	164.25
248.2	163.25
248.433	192.25
248.666	190.25
248.899	212.25
249.133	206.25
249.366	209.25
249.599	235.25
249.832	211.25
250.066	206.25
250.299	204.25
250.532	191.25
250.765	194.25
250.998	187.25
251.231	171.25
251.465	177.25
251.698	203.25
251.931	182.25
252.164	186.25
252.397	217.25
252.63	232.25
252.863	260.25
253.096	266.25
253.329	250.25
253.562	241.25
253.795	256.25
254.028	299.25
254.261	313.25
254.494	261.25
254.727	259.25
254.96	246.25
255.193	263.25
255.426	241.25
255.659	209.25
255.892	186.25
256.124	203.25
256.357	225.25
256.59	263.25
256.823	258.25
257.056	227.25
257.289	200.25
257.521	202.25
257.754	254.25
257.987	303.25
258.22	260.25
258.452	216.25
258.685	256.25
258.918	274.25
259.151	289.25
259.383	297.25
259.616	333.25
259.849	326.25
260.081	349.25
260.314	363.25
260.547	319.25
260.779	316.25
261.012	347.25
261.244	336.25
261.477	355.25
261.71	319.25
261.942	269.25
262.175	296.25
262.407	275.25
262.64	259.25
262.872	318.25
263.105	336.25
263.337	383.25
263.57	308.25
263.802	242.25
264.035	227.25
264.267	221.25
264.499	190.25
264.732	176.25
264.964	170.25
265.197	184.25
265.429	186.25
265.661	196.25
265.894	212.25
266.126	212.25
266.358	235.25
266.591	255.25
266.823	324.25
267.055	304.25
267.287	275.25
267.52	261.25
267.752	305.25
267.984	333.25
268.216	312.25
268.448	261.25
268.681	256.25
268.913	263.25
269.145	287.25
269.377	287.25
269.609	291.25
269.841	270.25
270.073	285.25
270.306	295.25
270.538	291.25
270.77	295.25
271.002	296.25
271.234	320.25
271.466	332.25
271.698	312.25
271.93	306.25
272.162	315.25
272.394	273.25
272.626	279.25
272.858	293.25
273.09	307.25
273.322	282.25
273.553	266.25
273.785	277.25
274.017	387.25
274.249	456.25
274.481	438.25
274.713	512.25
274.945	574.25
275.176	600.25
275.408	544.25
275.64	509.25
275.872	502.25
276.104	445.25
276.335	381.25
276.567	357.25
276.799	418.25
277.031	427.25
277.262	331.25
277.494	279.25
277.726	267.25
277.957	265.25
278.189	317.25
278.421	306.25
278.652	305.25
278.884	284.25
279.115	255.25
279.347	260.25
279.579	273.25
279.81	261.25
280.042	270.25
280.273	278.25
280.505	275.25
280.736	226.25
280.968	236.25
281.199	261.25
281.431	291.25
281.662	268.25
281.894	255.25
282.125	263.25
282.356	295.25
282.588	291.25
282.819	266.25
283.051	262.25
283.282	320.25
283.513	371.25
283.745	424.25
283.976	428.25
284.207	379.25
284.439	405.25
284.67	408.25
284.901	358.25
285.132	384.25
285.364	400.25
285.595	378.25
285.826	377.25
286.057	407.25
286.288	388.25
286.52	383.25
286.751	407.25
286.982	432.25
287.213	350.25
287.444	341.25
287.675	353.25
287.906	365.25
288.138	329.25
288.369	288.25
288.6	289.25
288.831	292.25
289.062	336.25
289.293	376.25
289.524	365.25
289.755	327.25
289.986	354.25
290.217	311.25
290.448	258.25
290.679	218.25
290.91	217.25
291.141	204.25
291.371	228.25
291.602	215.25
291.833	208.25
292.064	223.25
292.295	266.25
292.526	276.25
292.757	274.25
292.987	313.25
293.218	330.25
293.449	360.25
293.68	390.25
293.91	329.25
294.141	358.25
294.372	345.25
294.603	311.25
294.833	339.25
295.064	404.25
295.295	386.25
295.525	303.25
295.756	259.25
295.987	214.25
296.217	212.25
296.448	238.25
296.679	239.25
296.909	262.25
297.14	267.25
297.37	285.25
297.601	285.25
297.831	260.25
298.062	268.25
298.292	311.25
298.523	313.25
298.753	333.25
298.984	318.25
299.214	269.25
299.445	233.25
299.675	241.25
299.905	245.25
300.136	238.25
300.366	257.25
300.597	241.25
300.827	232.25
301.057	221.25
301.288	215.25
301.518	233.25
301.748	276.25
301.979	290.25
302.209	307.25
302.439	288.25
302.669	286.25
302.9	273.25
303.13	262.25
303.36	251.25
303.59	244.25
303.82	259.25
304.051	282.25
304.281	280.25
304.511	280.25
304.741	267.25
304.971	262.25
305.201	283.25
305.431	275.25
305.661	240.25
305.891	238.25
306.121	240.25
306.352	222.25
306.582	203.25
306.812	208.25
307.042	206.25
307.272	187.25
307.502	184.25
307.731	194.25
307.961	214.25
308.191	208.25
308.421	197.25
308.651	194.25
308.881	182.25
309.111	183.25
309.341	172.25
309.571	200.25
309.8	208.25
310.03	219.25
310.26	226.25
310.49	226.25
310.72	209.25
310.949	209.25
311.179	202.25
311.409	221.25
311.639	245.25
311.868	285.25
312.098	353.25
312.328	384.25
312.557	394.25
312.787	374.25
313.017	331.25
313.246	355.25
313.476	376.25
313.706	321.25
313.935	270.25
314.165	256.25
314.394	219.25
314.624	216.25
314.853	224.25
315.083	239.25
315.312	238.25
315.542	224.25
315.771	208.25
316.001	213.25
316.23	216.25
316.46	188.25
316.689	202.25
316.919	207.25
317.148	203.25
317.377	190.25
317.607	178.25
317.836	212.25
318.065	219.25
318.295	252.25
318.524	243.25
318.753	220.25
318.983	221.25
319.212	205.25
319.441	223.25
319.67	239.25
319.9	254.25
320.129	231.25
320.358	215.25
320.587	203.25
320.816	213.25
321.046	241.25
321.275	262.25
321.504	263.25
321.733	265.25
321.962	261.25
322.191	234.25
322.42	231.25
322.649	242.25
322.878	258.25
323.108	240.25
323.337	224.25
323.566	231.25
323.795	232.25
324.024	223.25
324.253	200.25
324.482	215.25
324.71	227.25
324.939	262.25
325.168	254.25
325.397	225.25
325.626	209.25
325.855	224.25
326.084	215.25
326.313	208.25
326.542	210.25
326.77	205.25
326.999	211.25
327.228	209.25
327.457	218.25
327.686	234.25
327.914	215.25
328.143	202.25
328.372	207.25
328.6	202.25
328.829	200.25
329.058	199.25
329.287	199.25
329.515	189.25
329.744	210.25
329.972	207.25
330.201	188.25
330.43	175.25
330.658	199.25
330.887	217.25
331.115	229.25
331.344	216.25
331.572	208.25
331.801	220.25
332.03	200.25
332.258	207.25
332.486	225.25
332.715	226.25
332.943	225.25
333.172	232.25
333.4	244.25
333.629	255.25
333.857	271.25
334.085	263.25
334.314	242.25
334.542	243.25
334.771	236.25
334.999	213.25
335.227	205.25
335.455	226.25
335.684	234.25
335.912	259.25
336.14	296.25
336.369	265.25
336.597	259.25
336.825	297.25
337.053	321.25
337.281	275.25
337.51	236.25
337.738	213.25
337.966	236.25
338.194	256.25
338.422	241.25
338.65	221.25
338.878	210.25
339.106	225.25
339.334	221.25
339.562	222.25
339.79	213.25
340.018	213.25
340.246	224.25
340.474	233.25
340.702	267.25
340.93	269.25
341.158	276.25
341.386	226.25
341.614	235.25
341.842	240.25
342.07	238.25
342.298	273.25
342.526	288.25
342.754	245.25
342.981	248.25
343.209	254.25
343.437	264.25
343.665	265.25
343.893	270.25
344.12	309.25
344.348	334.25
344.576	299.25
344.804	254.25
345.031	233.25
345.259	231.25
345.487	240.25
345.714	232.25
345.942	236.25
346.17	276.25
346.397	259.25
346.625	221.25
346.853	225.25
347.08	228.25
347.308	241.25
347.535	269.25
347.763	248.25
347.99	224.25
348.218	235.25
348.445	238.25
348.673	240.25
348.9	220.25
349.128	236.25
349.355	247.25
349.583	231.25
349.81	234.25
350.037	226.25
350.265	199.25
350.492	193.25
350.72	198.25
350.947	204.25
351.174	206.25
351.402	206.25
351.629	235.25
351.856	211.25
352.083	200.25
352.311	214.25
352.538	233.25
352.765	241.25
352.992	211.25
353.22	217.25
353.447	240.25
353.674	225.25
353.901	221.25
354.128	201.25
354.355	212.25
354.583	235.25
354.81	240.25
355.037	245.25
355.264	241.25
355.491	228.25
355.718	230.25
355.945	251.25
356.172	238.25
356.399	241.25
356.626	268.25
356.853	320.25
357.08	348.25
357.307	350.25
357.534	286.25
357.761	311.25
357.988	370.25
358.215	419.25
358.441	359.25
358.668	334.25
358.895	328.25
359.122	267.25
359.349	302.25
359.576	299.25
359.802	249.25
360.029	219.25
360.256	230.25
360.483	264.25
360.709	323.25
360.936	359.25
361.163	302.25
361.39	246.25
361.616	225.25
361.843	243.25
362.07	281.25
362.296	272.25
362.523	226.25
362.749	207.25
362.976	215.25
363.203	255.25
363.429	275.25
363.656	218.25
363.882	213.25
364.109	227.25
364.335	232.25
364.562	220.25
364.788	231.25
365.015	273.25
365.241	250.25
365.468	222.25
365.694	203.25
365.92	204.25
366.147	179.25
366.373	191.25
366.599	203.25
366.826	194.25
367.052	184.25
367.278	198.25
367.505	203.25
367.731	229.25
367.957	222.25
368.184	223.25
368.41	222.25
368.636	234.25
368.862	225.25
369.089	218.25
369.315	207.25
369.541	209.25
369.767	206.25
369.993	195.25
370.219	211.25
370.445	222.25
370.672	235.25
370.898	254.25
371.124	226.25
371.35	202.25
371.576	231.25
371.802	238.25
372.028	254.25
372.254	299.25
372.48	268.25
372.706	241.25
372.932	234.25
373.158	234.25
373.384	304.25
373.61	352.25
373.835	387.25
374.061	302.25
374.287	272.25
374.513	310.25
374.739	339.25
374.965	345.25
375.191	363.25
375.416	274.25
375.642	240.25
375.868	274.25
376.094	300.25
376.319	267.25
376.545	275.25
376.771	275.25
376.997	250.25
377.222	220.25
377.448	208.25
377.674	198.25
377.899	204.25
378.125	202.25
378.35	183.25
378.576	193.25
378.802	222.25
379.027	224.25
379.253	225.25
379.478	210.25
379.704	220.25
379.929	237.25
380.155	245.25
380.38	229.25
380.606	224.25
380.831	261.25
381.057	253.25
381.282	218.25
381.507	235.25
381.733	292.25
381.958	307.25
382.184	349.25
382.409	360.25
382.634	330.25
382.86	339.25
383.085	302.25
383.31	273.25
383.535	272.25
383.761	275.25
383.986	260.25
384.211	293.25
384.436	281.25
384.662	247.25
384.887	238.25
385.112	231.25
385.337	265.25
385.562	239.25
385.787	263.25
386.013	280.25
386.238	283.25
386.463	244.25
386.688	242.25
386.913	216.25
387.138	228.25
387.363	231.25
387.588	244.25
387.813	216.25
388.038	247.25
388.263	226.25
388.488	241.25
388.713	253.25
388.938	289.25
389.163	247.25
389.387	206.25
389.612	232.25
389.837	216.25
390.062	240.25
390.287	226.25
390.512	218.25
390.736	220.25
390.961	223.25
391.186	195.25
391.411	222.25
391.636	202.25
391.86	231.25
392.085	236.25
392.31	262.25
392.534	239.25
392.759	231.25
392.984	243.25
393.208	240.25
393.433	230.25
393.658	195.25
393.882	198.25
394.107	213.25
394.331	205.25
394.556	213.25
394.78	207.25
395.005	213.25
395.229	204.25
395.454	236.25
395.678	226.25
395.903	219.25
396.127	230.25
396.352	212.25
396.576	231.25
396.801	242.25
397.025	259.25
397.249	249.25
397.474	227.25
397.698	229.25
397.922	237.25
398.147	217.25
398.371	227.25
398.595	248.25
398.82	230.25
399.044	249.25
399.268	266.25
399.492	281.25
399.717	284.25
399.941	266.25
400.165	262.25
400.389	251.25
400.613	258.25
400.837	260.25
401.062	232.25
401.286	228.25
401.51	232.25
401.734	245.25
401.958	246.25
402.182	239.25
402.406	235.25
402.63	245.25
402.854	256.25
403.078	304.25
403.302	358.25
403.526	373.25
403.75	316.25
403.974	272.25
404.198	281.25
404.422	324.25
404.645	324.25
404.869	354.25
405.093	301.25
405.317	280.25
405.541	244.25
405.765	241.25
405.988	244.25
406.212	263.25
406.436	299.25
406.66	319.25
406.883	275.25
407.107	284.25
407.331	317.25
407.555	312.25
407.778	275.25
408.002	267.25
408.226	276.25
408.449	265.25
408.673	267.25
408.896	255.25
409.12	244.25
409.344	255.25
409.567	231.25
409.791	244.25
410.014	227.25
410.238	240.25
410.461	230.25
410.685	223.25
410.908	241.25
411.132	251.25
411.355	225.25
411.578	258.25
411.802	235.25
412.025	229.25
412.249	232.25
412.472	229.25
412.695	227.25
412.919	232.25
413.142	230.25
413.365	253.25
413.589	254.25
413.812	244.25
414.035	240.25
414.258	233.25
414.482	243.25
414.705	262.25
414.928	228.25
415.151	244.25
415.374	234.25
415.597	241.25
415.821	241.25
416.044	226.25
416.267	224.25
416.49	218.25
416.713	218.25
416.936	223.25
417.159	221.25
417.382	232.25
417.605	230.25
417.828	244.25
418.051	231.25
418.274	234.25
418.497	227.25
418.72	229.25
418.943	231.25
419.166	247.25
419.389	267.25
419.611	258.25
419.834	259.25
420.057	265.25
420.28	262.25
420.503	260.25
420.726	242.25
420.948	220.25
421.171	235.25
421.394	241.25
421.617	211.25
421.839	224.25
422.062	242.25
422.285	232.25
422.507	225.25
422.73	243.25
422.953	225.25
423.175	242.25
423.398	242.25
423.621	248.25
423.843	273.25
424.066	244.25
424.288	244.25
424.511	258.25
424.733	243.25
424.956	250.25
425.178	274.25
425.401	299.25
425.623	354.25
425.846	289.25
426.068	255.25
426.291	279.25
426.513	254.25
426.735	233.25
426.958	251.25
427.18	280.25
427.402	360.25
427.625	362.25
427.847	309.25
428.069	235.25
428.292	225.25
428.514	227.25
428.736	240.25
428.958	257.25
429.181	307.25
429.403	268.25
429.625	218.25
429.847	227.25
430.069	223.25
430.292	232.25
430.514	247.25
430.736	245.25
430.958	268.25
431.18	262.25
431.402	225.25
431.624	201.25
431.846	213.25
432.068	219.25
432.29	206.25
432.512	241.25
432.734	272.25
432.956	259.25
433.178	220.25
433.4	223.25
433.622	212.25
433.844	224.25
434.066	239.25
434.287	249.25
434.509	249.25
434.731	254.25
434.953	222.25
435.175	238.25
435.397	288.25
435.618	240.25
435.84	227.25
436.062	225.25
436.284	217.25
436.505	213.25
436.727	227.25
436.949	221.25
437.17	223.25
437.392	223.25
437.614	207.25
437.835	217.25
438.057	214.25
438.278	236.25
438.5	312.25
438.721	302.25
438.943	243.25
439.165	212.25
439.386	215.25
439.608	215.25
439.829	216.25
440.05	203.25
440.272	221.25
440.493	246.25
440.715	297.25
440.936	234.25
441.158	224.25
441.379	221.25
441.6	268.25
441.822	275.25
442.043	264.25
442.264	242.25
442.486	249.25
442.707	218.25
442.928	222.25
443.149	229.25
443.371	228.25
443.592	241.25
443.813	225.25
444.034	239.25
444.255	242.25
444.476	241.25
444.698	246.25
444.919	236.25
445.14	357.25
445.361	317.25
445.582	248.25
445.803	221.25
446.024	247.25
446.245	233.25
446.466	240.25
446.687	224.25
446.908	228.25
447.129	203.25
447.35	227.25
447.571	212.25
447.792	230.25
448.013	210.25
448.234	218.25
448.455	196.25
448.675	234.25
448.896	224.25
449.117	220.25
449.338	219.25
449.559	222.25
449.779	210.25
450	223.25
450.221	215.25
450.442	217.25
450.662	211.25
450.883	220.25
451.104	214.25
451.324	209.25
451.545	227.25
451.766	214.25
451.986	222.25
452.207	208.25
452.428	214.25
452.648	222.25
452.869	216.25
453.089	219.25
453.31	220.25
453.53	214.25
453.751	197.25
453.971	225.25
454.192	209.25
454.412	211.25
454.633	199.25
454.853	210.25
455.073	176.25
455.294	193.25
455.514	203.25
455.734	186.25
455.955	205.25
456.175	201.25
456.395	184.25
456.616	174.25
456.836	220.25
457.056	183.25
457.276	203.25
457.497	204.25
457.717	183.25
457.937	183.25
458.157	191.25
458.377	196.25
458.598	207.25
458.818	204.25
459.038	195.25
459.258	204.25
459.478	224.25
459.698	226.25
459.918	229.25
460.138	234.25
460.358	254.25
460.578	227.25
460.798	220.25
461.018	220.25
461.238	235.25
461.458	231.25
461.678	232.25
461.898	244.25
462.118	250.25
462.338	263.25
462.558	252.25
462.777	264.25
462.997	274.25
463.217	297.25
463.437	289.25
463.657	264.25
463.876	270.25
464.096	267.25
464.316	278.25
464.536	270.25
464.755	279.25
464.975	282.25
465.195	248.25
465.414	262.25
465.634	220.25
465.854	237.25
466.073	214.25
466.293	214.25
466.512	220.25
466.732	239.25
466.951	236.25
467.171	249.25
467.391	204.25
467.61	215.25
467.829	238.25
468.049	250.25
468.268	207.25
468.488	220.25
468.707	218.25
468.927	243.25
469.146	261.25
469.365	247.25
469.585	229.25
469.804	238.25
470.023	263.25
470.243	242.25
470.462	233.25
470.681	236.25
470.901	213.25
471.12	256.25
471.339	222.25
471.558	240.25
471.777	227.25
471.997	235.25
472.216	259.25
472.435	254.25
472.654	229.25
472.873	232.25
473.092	236.25
473.311	259.25
473.53	240.25
473.749	217.25
473.968	242.25
474.187	257.25
474.406	229.25
474.625	220.25
474.844	227.25
475.063	236.25
475.282	246.25
475.501	257.25
475.72	282.25
475.939	242.25
476.158	254.25
476.377	281.25
476.596	320.25
476.814	338.25
477.033	293.25
477.252	265.25
477.471	253.25
477.69	232.25
477.908	256.25
478.127	270.25
478.346	259.25
478.564	291.25
478.783	275.25
479.002	278.25
479.22	314.25
479.439	320.25
479.658	279.25
479.876	284.25
480.095	284.25
480.313	299.25
480.532	284.25
480.751	284.25
480.969	273.25
481.188	281.25
481.406	307.25
481.624	284.25
481.843	269.25
482.061	267.25
482.28	272.25
482.498	318.25
482.717	318.25
482.935	294.25
483.153	252.25
483.372	256.25
483.59	241.25
483.808	252.25
484.027	244.25
484.245	224.25
484.463	247.25
484.681	244.25
484.9	278.25
485.118	288.25
485.336	269.25
485.554	259.25
485.772	239.25
485.99	283.25
486.209	275.25
486.427	278.25
486.645	277.25
486.863	280.25
487.081	274.25
487.299	313.25
487.517	291.25
487.735	263.25
487.953	280.25
488.171	298.25
488.389	298.25
488.607	270.25
488.825	259.25
489.043	277.25
489.261	307.25
489.479	325.25
489.696	286.25
489.914	278.25
490.132	252.25
490.35	248.25
490.568	280.25
490.786	268.25
491.003	250.25
491.221	276.25
491.439	265.25
491.657	270.25
491.874	282.25
492.092	304.25
492.31	353.25
492.527	348.25
492.745	331.25
492.963	289.25
493.18	292.25
493.398	296.25
493.615	278.25
493.833	291.25
494.05	290.25
494.268	287.25
494.485	302.25
494.703	275.25
494.92	280.25
495.138	266.25
495.355	268.25
495.573	271.25
495.79	294.25
496.008	351.25
496.225	302.25
496.442	286.25
496.66	296.25
496.877	326.25
497.094	297.25
497.312	283.25
497.529	289.25
497.746	289.25
497.963	305.25
498.181	332.25
498.398	354.25
498.615	345.25
498.832	351.25
499.049	391.25
499.267	363.25
499.484	379.25
499.701	382.25
499.918	444.25
500.135	492.25
500.352	521.25
500.569	542.25
500.786	546.25
501.003	508.25
501.22	472.25
501.437	424.25
501.654	408.25
501.871	372.25
502.088	372.25
502.305	336.25
502.522	342.25
