Data from NickelSpatula.Lamp.E5.5.P2_HRD10591_11-51-54-558.txt Node
Date: Tue Jul 23 11:51:54 EDT 2019
User: cochatt
Spectrometer: HR+D1059
Trigger mode: 1
Integration Time (sec): 1.000000E-1
Scans to average: 1
Electric dark correction enabled: true
Nonlinearity correction enabled: false
Boxcar width: 0
XAxis mode: Wavelengths
Number of Pixels in Spectrum: 2048
>>>>>Begin Spectral Data<<<<<
223.165	-22.12
223.4	-22.12
223.635	-22.12
223.869	-10.12
224.104	-30.12
224.338	-20.12
224.573	-16.12
224.808	-11.12
225.042	2.88
225.277	-8.12
225.511	-12.12
225.746	-6.12
225.98	14.88
226.215	16.88
226.449	5.88
226.683	20.88
226.918	36.88
227.152	37.88
227.387	35.88
227.621	50.88
227.856	54.88
228.09	39.88
228.324	46.88
228.559	57.88
228.793	47.88
229.027	71.88
229.262	67.88
229.496	90.88
229.73	94.88
229.964	79.88
230.199	97.88
230.433	87.88
230.667	110.88
230.901	92.88
231.136	98.88
231.37	105.88
231.604	114.88
231.838	103.88
232.072	116.88
232.306	105.88
232.541	100.88
232.775	109.88
233.009	130.88
233.243	116.88
233.477	121.88
233.711	127.88
233.945	136.88
234.179	121.88
234.413	116.88
234.647	122.88
234.881	154.88
235.115	139.88
235.349	145.88
235.583	118.88
235.817	126.88
236.051	133.88
236.285	129.88
236.519	145.88
236.753	155.88
236.987	138.88
237.221	146.88
237.455	126.88
237.689	136.88
237.922	157.88
238.156	148.88
238.39	156.88
238.624	192.88
238.858	174.88
239.091	143.88
239.325	157.88
239.559	141.88
239.793	151.88
240.027	168.88
240.26	172.88
240.494	168.88
240.728	164.88
240.961	202.88
241.195	183.88
241.429	186.88
241.662	169.88
241.896	144.88
242.13	146.88
242.363	135.88
242.597	148.88
242.83	160.88
243.064	157.88
243.298	164.88
243.531	169.88
243.765	190.88
243.998	175.88
244.232	168.88
244.465	159.88
244.699	174.88
244.932	182.88
245.166	173.88
245.399	169.88
245.633	167.88
245.866	175.88
246.099	166.88
246.333	184.88
246.566	208.88
246.8	203.88
247.033	194.88
247.266	172.88
247.5	186.88
247.733	178.88
247.966	183.88
248.2	176.88
248.433	184.88
248.666	208.88
248.899	189.88
249.133	212.88
249.366	239.88
249.599	242.88
249.832	226.88
250.066	193.88
250.299	216.88
250.532	199.88
250.765	198.88
250.998	184.88
251.231	166.88
251.465	202.88
251.698	190.88
251.931	200.88
252.164	218.88
252.397	238.88
252.63	238.88
252.863	268.88
253.096	280.88
253.329	270.88
253.562	273.88
253.795	291.88
254.028	305.88
254.261	328.88
254.494	293.88
254.727	268.88
254.96	274.88
255.193	276.88
255.426	255.88
255.659	193.88
255.892	213.88
256.124	231.88
256.357	263.88
256.59	278.88
256.823	263.88
257.056	245.88
257.289	225.88
257.521	232.88
257.754	275.88
257.987	311.88
258.22	283.88
258.452	260.88
258.685	270.88
258.918	298.88
259.151	311.88
259.383	300.88
259.616	347.88
259.849	355.88
260.081	368.88
260.314	410.88
260.547	326.88
260.779	362.88
261.012	409.88
261.244	354.88
261.477	373.88
261.71	360.88
261.942	302.88
262.175	309.88
262.407	284.88
262.64	294.88
262.872	337.88
263.105	365.88
263.337	361.88
263.57	354.88
263.802	260.88
264.035	231.88
264.267	222.88
264.499	202.88
264.732	190.88
264.964	177.88
265.197	198.88
265.429	216.88
265.661	205.88
265.894	203.88
266.126	227.88
266.358	256.88
266.591	306.88
266.823	350.88
267.055	333.88
267.287	286.88
267.52	300.88
267.752	304.88
267.984	337.88
268.216	318.88
268.448	287.88
268.681	258.88
268.913	285.88
269.145	301.88
269.377	301.88
269.609	309.88
269.841	289.88
270.073	297.88
270.306	326.88
270.538	341.88
270.77	336.88
271.002	328.88
271.234	344.88
271.466	334.88
271.698	326.88
271.93	342.88
272.162	312.88
272.394	316.88
272.626	328.88
272.858	314.88
273.09	327.88
273.322	297.88
273.553	274.88
273.785	325.88
274.017	384.88
274.249	488.88
274.481	534.88
274.713	558.88
274.945	622.88
275.176	643.88
275.408	586.88
275.64	548.88
275.872	543.88
276.104	492.88
276.335	405.88
276.567	408.88
276.799	445.88
277.031	449.88
277.262	369.88
277.494	291.88
277.726	280.88
277.957	265.88
278.189	323.88
278.421	322.88
278.652	304.88
278.884	311.88
279.115	294.88
279.347	276.88
279.579	279.88
279.81	282.88
280.042	289.88
280.273	305.88
280.505	280.88
280.736	231.88
280.968	244.88
281.199	276.88
281.431	282.88
281.662	292.88
281.894	285.88
282.125	303.88
282.356	316.88
282.588	306.88
282.819	286.88
283.051	306.88
283.282	367.88
283.513	419.88
283.745	462.88
283.976	461.88
284.207	435.88
284.439	430.88
284.67	434.88
284.901	382.88
285.132	414.88
285.364	449.88
285.595	407.88
285.826	424.88
286.057	442.88
286.288	413.88
286.52	423.88
286.751	427.88
286.982	457.88
287.213	397.88
287.444	374.88
287.675	403.88
287.906	397.88
288.138	335.88
288.369	313.88
288.6	297.88
288.831	318.88
289.062	372.88
289.293	404.88
289.524	372.88
289.755	356.88
289.986	386.88
290.217	349.88
290.448	270.88
290.679	233.88
290.91	225.88
291.141	237.88
291.371	247.88
291.602	242.88
291.833	236.88
292.064	241.88
292.295	275.88
292.526	317.88
292.757	327.88
292.987	359.88
293.218	340.88
293.449	386.88
293.68	402.88
293.91	356.88
294.141	392.88
294.372	367.88
294.603	317.88
294.833	359.88
295.064	425.88
295.295	392.88
295.525	310.88
295.756	279.88
295.987	248.88
296.217	240.88
296.448	242.88
296.679	244.88
296.909	273.88
297.14	295.88
297.37	310.88
297.601	304.88
297.831	272.88
298.062	284.88
298.292	321.88
298.523	332.88
298.753	388.88
298.984	357.88
299.214	293.88
299.445	249.88
299.675	257.88
299.905	256.88
300.136	232.88
300.366	249.88
300.597	244.88
300.827	240.88
301.057	242.88
301.288	247.88
301.518	261.88
301.748	282.88
301.979	316.88
302.209	312.88
302.439	330.88
302.669	294.88
302.9	289.88
303.13	279.88
303.36	263.88
303.59	267.88
303.82	278.88
304.051	282.88
304.281	308.88
304.511	295.88
304.741	278.88
304.971	271.88
305.201	295.88
305.431	288.88
305.661	261.88
305.891	260.88
306.121	244.88
306.352	239.88
306.582	212.88
306.812	202.88
307.042	206.88
307.272	220.88
307.502	217.88
307.731	216.88
307.961	214.88
308.191	198.88
308.421	213.88
308.651	189.88
308.881	186.88
309.111	206.88
309.341	196.88
309.571	204.88
309.8	224.88
310.03	225.88
310.26	247.88
310.49	228.88
310.72	211.88
310.949	197.88
311.179	221.88
311.409	225.88
311.639	247.88
311.868	291.88
312.098	393.88
312.328	412.88
312.557	380.88
312.787	394.88
313.017	354.88
313.246	401.88
313.476	429.88
313.706	357.88
313.935	272.88
314.165	244.88
314.394	242.88
314.624	241.88
314.853	237.88
315.083	264.88
315.312	259.88
315.542	226.88
315.771	217.88
316.001	207.88
316.23	209.88
316.46	201.88
316.689	196.88
316.919	224.88
317.148	222.88
317.377	217.88
317.607	210.88
317.836	225.88
318.065	240.88
318.295	294.88
318.524	271.88
318.753	237.88
318.983	211.88
319.212	214.88
319.441	239.88
319.67	254.88
319.9	265.88
320.129	266.88
320.358	225.88
320.587	216.88
320.816	246.88
321.046	258.88
321.275	282.88
321.504	287.88
321.733	260.88
321.962	274.88
322.191	242.88
322.42	240.88
322.649	259.88
322.878	268.88
323.108	273.88
323.337	256.88
323.566	244.88
323.795	249.88
324.024	232.88
324.253	226.88
324.482	233.88
324.71	239.88
324.939	278.88
325.168	269.88
325.397	245.88
325.626	216.88
325.855	220.88
326.084	225.88
326.313	210.88
326.542	197.88
326.77	214.88
326.999	211.88
327.228	233.88
327.457	231.88
327.686	245.88
327.914	206.88
328.143	202.88
328.372	209.88
328.6	210.88
328.829	224.88
329.058	224.88
329.287	218.88
329.515	224.88
329.744	229.88
329.972	214.88
330.201	203.88
330.43	205.88
330.658	194.88
330.887	252.88
331.115	235.88
331.344	247.88
331.572	245.88
331.801	226.88
332.03	207.88
332.258	239.88
332.486	232.88
332.715	242.88
332.943	220.88
333.172	249.88
333.4	241.88
333.629	256.88
333.857	274.88
334.085	269.88
334.314	263.88
334.542	250.88
334.771	221.88
334.999	221.88
335.227	221.88
335.455	219.88
335.684	228.88
335.912	269.88
336.14	300.88
336.369	300.88
336.597	280.88
336.825	302.88
337.053	335.88
337.281	295.88
337.51	231.88
337.738	223.88
337.966	253.88
338.194	263.88
338.422	244.88
338.65	225.88
338.878	224.88
339.106	238.88
339.334	233.88
339.562	245.88
339.79	254.88
340.018	225.88
340.246	234.88
340.474	265.88
340.702	284.88
340.93	286.88
341.158	288.88
341.386	243.88
341.614	252.88
341.842	248.88
342.07	261.88
342.298	280.88
342.526	307.88
342.754	272.88
342.981	258.88
343.209	240.88
343.437	279.88
343.665	281.88
343.893	270.88
344.12	326.88
344.348	377.88
344.576	344.88
344.804	274.88
345.031	238.88
345.259	232.88
345.487	240.88
345.714	238.88
345.942	262.88
346.17	284.88
346.397	270.88
346.625	233.88
346.853	220.88
347.08	214.88
347.308	229.88
347.535	262.88
347.763	281.88
347.99	229.88
348.218	231.88
348.445	232.88
348.673	221.88
348.9	235.88
349.128	246.88
349.355	275.88
349.583	247.88
349.81	252.88
350.037	226.88
350.265	201.88
350.492	211.88
350.72	209.88
350.947	212.88
351.174	210.88
351.402	214.88
351.629	225.88
351.856	223.88
352.083	223.88
352.311	232.88
352.538	236.88
352.765	258.88
352.992	258.88
353.22	225.88
353.447	250.88
353.674	228.88
353.901	201.88
354.128	229.88
354.355	220.88
354.583	224.88
354.81	233.88
355.037	249.88
355.264	258.88
355.491	249.88
355.718	252.88
355.945	268.88
356.172	246.88
356.399	256.88
356.626	286.88
356.853	328.88
357.08	361.88
357.307	380.88
357.534	299.88
357.761	306.88
357.988	384.88
358.215	438.88
358.441	397.88
358.668	337.88
358.895	317.88
359.122	289.88
359.349	265.88
359.576	317.88
359.802	288.88
360.029	230.88
360.256	243.88
360.483	278.88
360.709	364.88
360.936	362.88
361.163	318.88
361.39	268.88
361.616	250.88
361.843	251.88
362.07	300.88
362.296	286.88
362.523	243.88
362.749	222.88
362.976	213.88
363.203	257.88
363.429	305.88
363.656	258.88
363.882	227.88
364.109	229.88
364.335	231.88
364.562	222.88
364.788	250.88
365.015	272.88
365.241	252.88
365.468	221.88
365.694	210.88
365.92	198.88
366.147	187.88
366.373	178.88
366.599	202.88
366.826	199.88
367.052	199.88
367.278	197.88
367.505	204.88
367.731	210.88
367.957	213.88
368.184	249.88
368.41	244.88
368.636	233.88
368.862	241.88
369.089	241.88
369.315	210.88
369.541	201.88
369.767	212.88
369.993	199.88
370.219	198.88
370.445	208.88
370.672	234.88
370.898	256.88
371.124	238.88
371.35	218.88
371.576	223.88
371.802	232.88
372.028	246.88
372.254	296.88
372.48	257.88
372.706	239.88
372.932	249.88
373.158	254.88
373.384	296.88
373.61	380.88
373.835	392.88
374.061	303.88
374.287	249.88
374.513	302.88
374.739	350.88
374.965	372.88
375.191	370.88
375.416	272.88
375.642	244.88
375.868	276.88
376.094	293.88
376.319	270.88
376.545	284.88
376.771	316.88
376.997	257.88
377.222	206.88
377.448	195.88
377.674	198.88
377.899	194.88
378.125	199.88
378.35	200.88
378.576	212.88
378.802	213.88
379.027	225.88
379.253	223.88
379.478	208.88
379.704	234.88
379.929	252.88
380.155	256.88
380.38	230.88
380.606	225.88
380.831	259.88
381.057	253.88
381.282	225.88
381.507	265.88
381.733	301.88
381.958	318.88
382.184	333.88
382.409	357.88
382.634	372.88
382.86	374.88
383.085	327.88
383.31	262.88
383.535	290.88
383.761	285.88
383.986	269.88
384.211	305.88
384.436	295.88
384.662	256.88
384.887	237.88
385.112	253.88
385.337	251.88
385.562	229.88
385.787	272.88
386.013	293.88
386.238	300.88
386.463	245.88
386.688	224.88
386.913	239.88
387.138	224.88
387.363	241.88
387.588	244.88
387.813	252.88
388.038	263.88
388.263	254.88
388.488	247.88
388.713	263.88
388.938	260.88
389.163	240.88
389.387	203.88
389.612	223.88
389.837	242.88
390.062	233.88
390.287	234.88
390.512	262.88
390.736	229.88
390.961	221.88
391.186	220.88
391.411	209.88
391.636	233.88
391.86	232.88
392.085	259.88
392.31	262.88
392.534	271.88
392.759	258.88
392.984	252.88
393.208	253.88
393.433	242.88
393.658	216.88
393.882	220.88
394.107	210.88
394.331	209.88
394.556	212.88
394.78	207.88
395.005	207.88
395.229	208.88
395.454	214.88
395.678	256.88
395.903	230.88
396.127	240.88
396.352	212.88
396.576	246.88
396.801	241.88
397.025	257.88
397.249	276.88
397.474	242.88
397.698	231.88
397.922	240.88
398.147	217.88
398.371	242.88
398.595	244.88
398.82	230.88
399.044	243.88
399.268	246.88
399.492	278.88
399.717	298.88
399.941	288.88
400.165	262.88
400.389	266.88
400.613	271.88
400.837	257.88
401.062	237.88
401.286	252.88
401.51	222.88
401.734	221.88
401.958	222.88
402.182	220.88
402.406	231.88
402.63	232.88
402.854	251.88
403.078	278.88
403.302	366.88
403.526	382.88
403.75	357.88
403.974	297.88
404.198	294.88
404.422	323.88
404.645	336.88
404.869	354.88
405.093	289.88
405.317	261.88
405.541	258.88
405.765	277.88
405.988	262.88
406.212	272.88
406.436	294.88
406.66	336.88
406.883	282.88
407.107	288.88
407.331	319.88
407.555	299.88
407.778	271.88
408.002	275.88
408.226	272.88
408.449	271.88
408.673	278.88
408.896	246.88
409.12	229.88
409.344	246.88
409.567	236.88
409.791	238.88
410.014	249.88
410.238	243.88
410.461	258.88
410.685	241.88
410.908	244.88
411.132	241.88
411.355	255.88
411.578	245.88
411.802	244.88
412.025	246.88
412.249	265.88
412.472	244.88
412.695	240.88
412.919	240.88
413.142	255.88
413.365	260.88
413.589	261.88
413.812	256.88
414.035	243.88
414.258	230.88
414.482	252.88
414.705	277.88
414.928	242.88
415.151	231.88
415.374	233.88
415.597	225.88
415.821	236.88
416.044	222.88
416.267	215.88
416.49	231.88
416.713	225.88
416.936	225.88
417.159	226.88
417.382	219.88
417.605	241.88
417.828	256.88
418.051	234.88
418.274	239.88
418.497	256.88
418.72	244.88
418.943	247.88
419.166	261.88
419.389	263.88
419.611	273.88
419.834	253.88
420.057	264.88
420.28	266.88
420.503	247.88
420.726	226.88
420.948	217.88
421.171	221.88
421.394	234.88
421.617	237.88
421.839	224.88
422.062	241.88
422.285	230.88
422.507	220.88
422.73	249.88
422.953	245.88
423.175	254.88
423.398	247.88
423.621	270.88
423.843	272.88
424.066	255.88
424.288	262.88
424.511	248.88
424.733	227.88
424.956	247.88
425.178	266.88
425.401	307.88
425.623	364.88
425.846	305.88
426.068	266.88
426.291	267.88
426.513	250.88
426.735	243.88
426.958	257.88
427.18	296.88
427.402	345.88
427.625	373.88
427.847	320.88
428.069	243.88
428.292	230.88
428.514	229.88
428.736	233.88
428.958	264.88
429.181	306.88
429.403	265.88
429.625	238.88
429.847	228.88
430.069	236.88
430.292	229.88
430.514	236.88
430.736	238.88
430.958	277.88
431.18	262.88
431.402	222.88
431.624	223.88
431.846	220.88
432.068	219.88
432.29	210.88
432.512	249.88
432.734	292.88
432.956	268.88
433.178	216.88
433.4	217.88
433.622	233.88
433.844	234.88
434.066	256.88
434.287	245.88
434.509	237.88
434.731	272.88
434.953	258.88
435.175	254.88
435.397	273.88
435.618	253.88
435.84	218.88
436.062	223.88
436.284	248.88
436.505	216.88
436.727	209.88
436.949	199.88
437.17	223.88
437.392	229.88
437.614	228.88
437.835	223.88
438.057	229.88
438.278	254.88
438.5	309.88
438.721	332.88
438.943	239.88
439.165	215.88
439.386	214.88
439.608	213.88
439.829	238.88
440.05	219.88
440.272	231.88
440.493	247.88
440.715	297.88
440.936	254.88
441.158	244.88
441.379	232.88
441.6	279.88
441.822	291.88
442.043	238.88
442.264	243.88
442.486	232.88
442.707	233.88
442.928	226.88
443.149	242.88
443.371	243.88
443.592	256.88
443.813	254.88
444.034	244.88
444.255	263.88
444.476	265.88
444.698	253.88
444.919	248.88
445.14	336.88
445.361	298.88
445.582	266.88
445.803	272.88
446.024	249.88
446.245	241.88
446.466	242.88
446.687	228.88
446.908	231.88
447.129	230.88
447.35	224.88
447.571	218.88
447.792	200.88
448.013	212.88
448.234	229.88
448.455	223.88
448.675	210.88
448.896	213.88
449.117	208.88
449.338	204.88
449.559	214.88
449.779	233.88
450	237.88
450.221	223.88
450.442	226.88
450.662	227.88
450.883	226.88
451.104	228.88
451.324	217.88
451.545	204.88
451.766	224.88
451.986	217.88
452.207	218.88
452.428	212.88
452.648	205.88
452.869	207.88
453.089	232.88
453.31	237.88
453.53	208.88
453.751	221.88
453.971	213.88
454.192	185.88
454.412	227.88
454.633	220.88
454.853	216.88
455.073	205.88
455.294	208.88
455.514	215.88
455.734	198.88
455.955	222.88
456.175	216.88
456.395	215.88
456.616	190.88
456.836	199.88
457.056	201.88
457.276	210.88
457.497	199.88
457.717	205.88
457.937	206.88
458.157	194.88
458.377	206.88
458.598	197.88
458.818	208.88
459.038	216.88
459.258	227.88
459.478	253.88
459.698	259.88
459.918	230.88
460.138	242.88
460.358	240.88
460.578	260.88
460.798	257.88
461.018	248.88
461.238	235.88
461.458	246.88
461.678	236.88
461.898	262.88
462.118	242.88
462.338	270.88
462.558	264.88
462.777	272.88
462.997	284.88
463.217	297.88
463.437	288.88
463.657	264.88
463.876	270.88
464.096	270.88
464.316	285.88
464.536	262.88
464.755	284.88
464.975	282.88
465.195	277.88
465.414	277.88
465.634	249.88
465.854	222.88
466.073	228.88
466.293	245.88
466.512	233.88
466.732	277.88
466.951	249.88
467.171	252.88
467.391	223.88
467.61	232.88
467.829	249.88
468.049	238.88
468.268	225.88
468.488	221.88
468.707	223.88
468.927	254.88
469.146	276.88
469.365	249.88
469.585	225.88
469.804	261.88
470.023	269.88
470.243	232.88
470.462	248.88
470.681	266.88
470.901	252.88
471.12	253.88
471.339	258.88
471.558	239.88
471.777	245.88
471.997	271.88
472.216	280.88
472.435	285.88
472.654	242.88
472.873	243.88
473.092	249.88
473.311	270.88
473.53	252.88
473.749	255.88
473.968	256.88
474.187	253.88
474.406	252.88
474.625	243.88
474.844	255.88
475.063	273.88
475.282	266.88
475.501	277.88
475.72	289.88
475.939	268.88
476.158	259.88
476.377	296.88
476.596	338.88
476.814	348.88
477.033	297.88
477.252	278.88
477.471	256.88
477.69	257.88
477.908	276.88
478.127	310.88
478.346	252.88
478.564	285.88
478.783	279.88
479.002	277.88
479.22	309.88
479.439	319.88
479.658	290.88
479.876	277.88
480.095	295.88
480.313	308.88
480.532	285.88
480.751	274.88
480.969	293.88
481.188	303.88
481.406	308.88
481.624	299.88
481.843	280.88
482.061	259.88
482.28	287.88
482.498	352.88
482.717	346.88
482.935	290.88
483.153	270.88
483.372	269.88
483.59	262.88
483.808	243.88
484.027	250.88
484.245	276.88
484.463	243.88
484.681	267.88
484.9	260.88
485.118	282.88
485.336	284.88
485.554	275.88
485.772	285.88
485.99	301.88
486.209	310.88
486.427	307.88
486.645	305.88
486.863	296.88
487.081	300.88
487.299	310.88
487.517	321.88
487.735	294.88
487.953	289.88
488.171	307.88
488.389	290.88
488.607	264.88
488.825	269.88
489.043	304.88
489.261	344.88
489.479	351.88
489.696	293.88
489.914	284.88
490.132	257.88
490.35	280.88
490.568	270.88
490.786	274.88
491.003	278.88
491.221	280.88
491.439	276.88
491.657	272.88
491.874	295.88
492.092	330.88
492.31	394.88
492.527	382.88
492.745	352.88
492.963	297.88
493.18	321.88
493.398	309.88
493.615	297.88
493.833	288.88
494.05	304.88
494.268	309.88
494.485	316.88
494.703	290.88
494.92	301.88
495.138	282.88
495.355	292.88
495.573	289.88
495.79	316.88
496.008	383.88
496.225	344.88
496.442	318.88
496.66	316.88
496.877	314.88
497.094	300.88
497.312	292.88
497.529	322.88
497.746	305.88
497.963	334.88
498.181	345.88
498.398	360.88
498.615	366.88
498.832	402.88
499.049	411.88
499.267	368.88
499.484	397.88
499.701	422.88
499.918	465.88
500.135	505.88
500.352	531.88
500.569	588.88
500.786	581.88
501.003	535.88
501.22	473.88
501.437	419.88
501.654	426.88
501.871	389.88
502.088	398.88
502.305	381.88
