Data from NickelSpatula.Lamp.E5.5.P2_HRD10591_11-51-51-558.txt Node
Date: Tue Jul 23 11:51:51 EDT 2019
User: cochatt
Spectrometer: HR+D1059
Trigger mode: 1
Integration Time (sec): 1.000000E-1
Scans to average: 1
Electric dark correction enabled: true
Nonlinearity correction enabled: false
Boxcar width: 0
XAxis mode: Wavelengths
Number of Pixels in Spectrum: 2048
>>>>>Begin Spectral Data<<<<<
223.165	-10.94
223.4	-10.94
223.635	-10.94
223.869	-8.94
224.104	-27.94
224.338	-15.94
224.573	-13.94
224.808	-13.94
225.042	-2.94
225.277	-9.94
225.511	4.06
225.746	-13.94
225.98	14.06
226.215	17.06
226.449	23.06
226.683	9.06
226.918	21.06
227.152	30.06
227.387	33.06
227.621	36.06
227.856	42.06
228.09	46.06
228.324	44.06
228.559	57.06
228.793	67.06
229.027	65.06
229.262	82.06
229.496	79.06
229.73	85.06
229.964	100.06
230.199	92.06
230.433	96.06
230.667	96.06
230.901	105.06
231.136	101.06
231.37	83.06
231.604	99.06
231.838	99.06
232.072	117.06
232.306	106.06
232.541	120.06
232.775	99.06
233.009	98.06
233.243	109.06
233.477	127.06
233.711	133.06
233.945	124.06
234.179	130.06
234.413	118.06
234.647	127.06
234.881	157.06
235.115	129.06
235.349	127.06
235.583	129.06
235.817	105.06
236.051	121.06
236.285	117.06
236.519	138.06
236.753	140.06
236.987	131.06
237.221	141.06
237.455	131.06
237.689	136.06
237.922	121.06
238.156	138.06
238.39	151.06
238.624	183.06
238.858	164.06
239.091	137.06
239.325	150.06
239.559	139.06
239.793	158.06
240.027	166.06
240.26	152.06
240.494	161.06
240.728	167.06
240.961	168.06
241.195	170.06
241.429	181.06
241.662	168.06
241.896	165.06
242.13	150.06
242.363	129.06
242.597	135.06
242.83	147.06
243.064	148.06
243.298	167.06
243.531	169.06
243.765	162.06
243.998	168.06
244.232	177.06
244.465	164.06
244.699	178.06
244.932	185.06
245.166	168.06
245.399	161.06
245.633	161.06
245.866	174.06
246.099	159.06
246.333	185.06
246.566	204.06
246.8	187.06
247.033	189.06
247.266	177.06
247.5	173.06
247.733	164.06
247.966	163.06
248.2	183.06
248.433	193.06
248.666	194.06
248.899	202.06
249.133	201.06
249.366	225.06
249.599	239.06
249.832	232.06
250.066	209.06
250.299	221.06
250.532	213.06
250.765	198.06
250.998	206.06
251.231	178.06
251.465	226.06
251.698	203.06
251.931	201.06
252.164	221.06
252.397	222.06
252.63	230.06
252.863	258.06
253.096	267.06
253.329	275.06
253.562	247.06
253.795	282.06
254.028	308.06
254.261	320.06
254.494	273.06
254.727	266.06
254.96	239.06
255.193	273.06
255.426	258.06
255.659	223.06
255.892	197.06
256.124	226.06
256.357	242.06
256.59	277.06
256.823	254.06
257.056	239.06
257.289	229.06
257.521	230.06
257.754	282.06
257.987	292.06
258.22	284.06
258.452	238.06
258.685	262.06
258.918	299.06
259.151	282.06
259.383	295.06
259.616	320.06
259.849	342.06
260.081	363.06
260.314	404.06
260.547	326.06
260.779	340.06
261.012	376.06
261.244	358.06
261.477	358.06
261.71	350.06
261.942	298.06
262.175	311.06
262.407	268.06
262.64	295.06
262.872	351.06
263.105	372.06
263.337	387.06
263.57	353.06
263.802	242.06
264.035	222.06
264.267	240.06
264.499	202.06
264.732	189.06
264.964	176.06
265.197	167.06
265.429	201.06
265.661	199.06
265.894	208.06
266.126	227.06
266.358	252.06
266.591	283.06
266.823	309.06
267.055	303.06
267.287	281.06
267.52	281.06
267.752	319.06
267.984	323.06
268.216	313.06
268.448	235.06
268.681	237.06
268.913	275.06
269.145	288.06
269.377	293.06
269.609	289.06
269.841	285.06
270.073	299.06
270.306	319.06
270.538	311.06
270.77	317.06
271.002	318.06
271.234	331.06
271.466	330.06
271.698	321.06
271.93	311.06
272.162	296.06
272.394	313.06
272.626	301.06
272.858	306.06
273.09	327.06
273.322	289.06
273.553	274.06
273.785	302.06
274.017	394.06
274.249	487.06
274.481	507.06
274.713	532.06
274.945	598.06
275.176	614.06
275.408	538.06
275.64	517.06
275.872	542.06
276.104	455.06
276.335	390.06
276.567	384.06
276.799	412.06
277.031	423.06
277.262	353.06
277.494	277.06
277.726	266.06
277.957	279.06
278.189	314.06
278.421	315.06
278.652	307.06
278.884	298.06
279.115	259.06
279.347	295.06
279.579	266.06
279.81	275.06
280.042	289.06
280.273	283.06
280.505	255.06
280.736	233.06
280.968	241.06
281.199	246.06
281.431	290.06
281.662	290.06
281.894	266.06
282.125	289.06
282.356	307.06
282.588	305.06
282.819	259.06
283.051	283.06
283.282	357.06
283.513	397.06
283.745	454.06
283.976	458.06
284.207	394.06
284.439	437.06
284.67	393.06
284.901	362.06
285.132	406.06
285.364	419.06
285.595	387.06
285.826	410.06
286.057	414.06
286.288	398.06
286.52	431.06
286.751	422.06
286.982	439.06
287.213	380.06
287.444	376.06
287.675	375.06
287.906	393.06
288.138	335.06
288.369	305.06
288.6	289.06
288.831	304.06
289.062	365.06
289.293	373.06
289.524	357.06
289.755	332.06
289.986	360.06
290.217	329.06
290.448	267.06
290.679	220.06
290.91	228.06
291.141	231.06
291.371	249.06
291.602	222.06
291.833	224.06
292.064	246.06
292.295	273.06
292.526	311.06
292.757	328.06
292.987	341.06
293.218	351.06
293.449	365.06
293.68	391.06
293.91	361.06
294.141	376.06
294.372	363.06
294.603	307.06
294.833	341.06
295.064	410.06
295.295	401.06
295.525	299.06
295.756	269.06
295.987	254.06
296.217	225.06
296.448	235.06
296.679	229.06
296.909	274.06
297.14	284.06
297.37	317.06
297.601	311.06
297.831	259.06
298.062	269.06
298.292	331.06
298.523	332.06
298.753	377.06
298.984	338.06
299.214	273.06
299.445	238.06
299.675	234.06
299.905	244.06
300.136	243.06
300.366	249.06
300.597	269.06
300.827	227.06
301.057	230.06
301.288	237.06
301.518	266.06
301.748	286.06
301.979	290.06
302.209	319.06
302.439	304.06
302.669	296.06
302.9	282.06
303.13	279.06
303.36	246.06
303.59	258.06
303.82	267.06
304.051	280.06
304.281	307.06
304.511	293.06
304.741	276.06
304.971	276.06
305.201	290.06
305.431	286.06
305.661	248.06
305.891	242.06
306.121	237.06
306.352	207.06
306.582	216.06
306.812	210.06
307.042	195.06
307.272	201.06
307.502	193.06
307.731	215.06
307.961	231.06
308.191	216.06
308.421	209.06
308.651	185.06
308.881	210.06
309.111	189.06
309.341	200.06
309.571	214.06
309.8	215.06
310.03	219.06
310.26	228.06
310.49	221.06
310.72	206.06
310.949	225.06
311.179	202.06
311.409	208.06
311.639	239.06
311.868	303.06
312.098	358.06
312.328	392.06
312.557	381.06
312.787	378.06
313.017	367.06
313.246	378.06
313.476	415.06
313.706	324.06
313.935	288.06
314.165	240.06
314.394	217.06
314.624	219.06
314.853	231.06
315.083	231.06
315.312	238.06
315.542	234.06
315.771	231.06
316.001	220.06
316.23	210.06
316.46	217.06
316.689	199.06
316.919	202.06
317.148	202.06
317.377	215.06
317.607	209.06
317.836	226.06
318.065	262.06
318.295	268.06
318.524	259.06
318.753	237.06
318.983	223.06
319.212	223.06
319.441	234.06
319.67	219.06
319.9	267.06
320.129	252.06
320.358	206.06
320.587	211.06
320.816	216.06
321.046	257.06
321.275	285.06
321.504	279.06
321.733	276.06
321.962	280.06
322.191	245.06
322.42	253.06
322.649	257.06
322.878	248.06
323.108	242.06
323.337	251.06
323.566	245.06
323.795	223.06
324.024	257.06
324.253	226.06
324.482	223.06
324.71	235.06
324.939	285.06
325.168	245.06
325.397	222.06
325.626	219.06
325.855	208.06
326.084	223.06
326.313	198.06
326.542	222.06
326.77	232.06
326.999	206.06
327.228	213.06
327.457	236.06
327.686	234.06
327.914	216.06
328.143	203.06
328.372	199.06
328.6	206.06
328.829	207.06
329.058	218.06
329.287	202.06
329.515	190.06
329.744	226.06
329.972	217.06
330.201	203.06
330.43	209.06
330.658	203.06
330.887	233.06
331.115	224.06
331.344	249.06
331.572	237.06
331.801	217.06
332.03	211.06
332.258	205.06
332.486	226.06
332.715	237.06
332.943	224.06
333.172	228.06
333.4	230.06
333.629	247.06
333.857	245.06
334.085	240.06
334.314	257.06
334.542	256.06
334.771	222.06
334.999	239.06
335.227	225.06
335.455	214.06
335.684	252.06
335.912	272.06
336.14	278.06
336.369	276.06
336.597	270.06
336.825	314.06
337.053	317.06
337.281	278.06
337.51	227.06
337.738	232.06
337.966	257.06
338.194	263.06
338.422	246.06
338.65	214.06
338.878	212.06
339.106	209.06
339.334	237.06
339.562	243.06
339.79	237.06
340.018	213.06
340.246	225.06
340.474	267.06
340.702	287.06
340.93	283.06
341.158	284.06
341.386	269.06
341.614	247.06
341.842	245.06
342.07	250.06
342.298	279.06
342.526	288.06
342.754	270.06
342.981	247.06
343.209	250.06
343.437	276.06
343.665	274.06
343.893	285.06
344.12	325.06
344.348	350.06
344.576	331.06
344.804	262.06
345.031	241.06
345.259	237.06
345.487	232.06
345.714	236.06
345.942	247.06
346.17	279.06
346.397	264.06
346.625	230.06
346.853	231.06
347.08	245.06
347.308	222.06
347.535	248.06
347.763	279.06
347.99	231.06
348.218	227.06
348.445	234.06
348.673	235.06
348.9	242.06
349.128	240.06
349.355	233.06
349.583	235.06
349.81	230.06
350.037	222.06
350.265	208.06
350.492	191.06
350.72	185.06
350.947	212.06
351.174	215.06
351.402	216.06
351.629	222.06
351.856	217.06
352.083	215.06
352.311	219.06
352.538	244.06
352.765	261.06
352.992	234.06
353.22	226.06
353.447	230.06
353.674	234.06
353.901	213.06
354.128	219.06
354.355	214.06
354.583	219.06
354.81	222.06
355.037	239.06
355.264	246.06
355.491	251.06
355.718	267.06
355.945	251.06
356.172	262.06
356.399	262.06
356.626	294.06
356.853	350.06
357.08	344.06
357.307	374.06
357.534	299.06
357.761	321.06
357.988	381.06
358.215	409.06
358.441	379.06
358.668	334.06
358.895	319.06
359.122	273.06
359.349	292.06
359.576	323.06
359.802	259.06
360.029	224.06
360.256	242.06
360.483	281.06
360.709	347.06
360.936	356.06
361.163	301.06
361.39	260.06
361.616	224.06
361.843	259.06
362.07	305.06
362.296	293.06
362.523	232.06
362.749	215.06
362.976	221.06
363.203	274.06
363.429	284.06
363.656	234.06
363.882	239.06
364.109	230.06
364.335	241.06
364.562	220.06
364.788	276.06
365.015	286.06
365.241	245.06
365.468	216.06
365.694	215.06
365.92	218.06
366.147	189.06
366.373	202.06
366.599	195.06
366.826	208.06
367.052	189.06
367.278	212.06
367.505	202.06
367.731	194.06
367.957	231.06
368.184	249.06
368.41	242.06
368.636	228.06
368.862	238.06
369.089	218.06
369.315	211.06
369.541	222.06
369.767	205.06
369.993	211.06
370.219	217.06
370.445	221.06
370.672	218.06
370.898	238.06
371.124	263.06
371.35	241.06
371.576	212.06
371.802	234.06
372.028	254.06
372.254	300.06
372.48	263.06
372.706	243.06
372.932	240.06
373.158	259.06
373.384	295.06
373.61	365.06
373.835	377.06
374.061	318.06
374.287	267.06
374.513	310.06
374.739	357.06
374.965	355.06
375.191	351.06
375.416	253.06
375.642	251.06
375.868	275.06
376.094	310.06
376.319	255.06
376.545	288.06
376.771	292.06
376.997	270.06
377.222	226.06
377.448	211.06
377.674	192.06
377.899	194.06
378.125	198.06
378.35	178.06
378.576	192.06
378.802	200.06
379.027	231.06
379.253	214.06
379.478	225.06
379.704	257.06
379.929	239.06
380.155	249.06
380.38	218.06
380.606	216.06
380.831	256.06
381.057	254.06
381.282	233.06
381.507	265.06
381.733	306.06
381.958	317.06
382.184	335.06
382.409	341.06
382.634	354.06
382.86	361.06
383.085	314.06
383.31	270.06
383.535	293.06
383.761	274.06
383.986	273.06
384.211	287.06
384.436	314.06
384.662	257.06
384.887	241.06
385.112	263.06
385.337	254.06
385.562	250.06
385.787	270.06
386.013	301.06
386.238	299.06
386.463	240.06
386.688	242.06
386.913	225.06
387.138	226.06
387.363	240.06
387.588	223.06
387.813	229.06
388.038	271.06
388.263	259.06
388.488	218.06
388.713	256.06
388.938	277.06
389.163	257.06
389.387	217.06
389.612	231.06
389.837	227.06
390.062	247.06
390.287	234.06
390.512	227.06
390.736	231.06
390.961	219.06
391.186	207.06
391.411	206.06
391.636	231.06
391.86	227.06
392.085	234.06
392.31	255.06
392.534	240.06
392.759	225.06
392.984	259.06
393.208	234.06
393.433	222.06
393.658	226.06
393.882	210.06
394.107	233.06
394.331	211.06
394.556	217.06
394.78	210.06
395.005	232.06
395.229	222.06
395.454	217.06
395.678	222.06
395.903	230.06
396.127	227.06
396.352	217.06
396.576	233.06
396.801	241.06
397.025	259.06
397.249	264.06
397.474	233.06
397.698	240.06
397.922	241.06
398.147	237.06
398.371	238.06
398.595	252.06
398.82	230.06
399.044	253.06
399.268	254.06
399.492	276.06
399.717	297.06
399.941	294.06
400.165	290.06
400.389	264.06
400.613	252.06
400.837	243.06
401.062	215.06
401.286	223.06
401.51	219.06
401.734	218.06
401.958	234.06
402.182	234.06
402.406	229.06
402.63	239.06
402.854	251.06
403.078	301.06
403.302	367.06
403.526	381.06
403.75	349.06
403.974	301.06
404.198	301.06
404.422	304.06
404.645	329.06
404.869	368.06
405.093	293.06
405.317	259.06
405.541	259.06
405.765	277.06
405.988	271.06
406.212	275.06
406.436	298.06
406.66	322.06
406.883	281.06
407.107	283.06
407.331	315.06
407.555	307.06
407.778	271.06
408.002	284.06
408.226	286.06
408.449	270.06
408.673	259.06
408.896	247.06
409.12	234.06
409.344	249.06
409.567	250.06
409.791	243.06
410.014	235.06
410.238	239.06
410.461	248.06
410.685	226.06
410.908	228.06
411.132	248.06
411.355	234.06
411.578	256.06
411.802	244.06
412.025	247.06
412.249	230.06
412.472	266.06
412.695	240.06
412.919	247.06
413.142	225.06
413.365	258.06
413.589	249.06
413.812	231.06
414.035	241.06
414.258	230.06
414.482	255.06
414.705	263.06
414.928	239.06
415.151	242.06
415.374	223.06
415.597	237.06
415.821	244.06
416.044	219.06
416.267	230.06
416.49	209.06
416.713	213.06
416.936	221.06
417.159	218.06
417.382	222.06
417.605	228.06
417.828	228.06
418.051	239.06
418.274	233.06
418.497	233.06
418.72	251.06
418.943	240.06
419.166	234.06
419.389	277.06
419.611	260.06
419.834	279.06
420.057	249.06
420.28	264.06
420.503	264.06
420.726	246.06
420.948	228.06
421.171	224.06
421.394	253.06
421.617	246.06
421.839	223.06
422.062	233.06
422.285	238.06
422.507	234.06
422.73	229.06
422.953	247.06
423.175	238.06
423.398	264.06
423.621	259.06
423.843	288.06
424.066	256.06
424.288	252.06
424.511	235.06
424.733	230.06
424.956	253.06
425.178	273.06
425.401	320.06
425.623	366.06
425.846	303.06
426.068	265.06
426.291	276.06
426.513	263.06
426.735	242.06
426.958	249.06
427.18	275.06
427.402	354.06
427.625	353.06
427.847	310.06
428.069	254.06
428.292	257.06
428.514	247.06
428.736	229.06
428.958	266.06
429.181	323.06
429.403	270.06
429.625	237.06
429.847	242.06
430.069	230.06
430.292	207.06
430.514	223.06
430.736	238.06
430.958	282.06
431.18	255.06
431.402	230.06
431.624	220.06
431.846	219.06
432.068	218.06
432.29	213.06
432.512	230.06
432.734	281.06
432.956	278.06
433.178	226.06
433.4	221.06
433.622	223.06
433.844	237.06
434.066	259.06
434.287	230.06
434.509	234.06
434.731	245.06
434.953	226.06
435.175	267.06
435.397	269.06
435.618	239.06
435.84	221.06
436.062	238.06
436.284	223.06
436.505	217.06
436.727	213.06
436.949	211.06
437.17	213.06
437.392	223.06
437.614	210.06
437.835	206.06
438.057	218.06
438.278	249.06
438.5	311.06
438.721	331.06
438.943	250.06
439.165	212.06
439.386	226.06
439.608	213.06
439.829	229.06
440.05	222.06
440.272	233.06
440.493	247.06
440.715	291.06
440.936	251.06
441.158	226.06
441.379	230.06
441.6	259.06
441.822	249.06
442.043	230.06
442.264	226.06
442.486	240.06
442.707	257.06
442.928	240.06
443.149	219.06
443.371	239.06
443.592	257.06
443.813	238.06
444.034	237.06
444.255	229.06
444.476	265.06
444.698	242.06
444.919	245.06
445.14	354.06
445.361	315.06
445.582	257.06
445.803	247.06
446.024	254.06
446.245	250.06
446.466	240.06
446.687	247.06
446.908	231.06
447.129	211.06
447.35	229.06
447.571	207.06
447.792	199.06
448.013	218.06
448.234	226.06
448.455	224.06
448.675	221.06
448.896	212.06
449.117	227.06
449.338	225.06
449.559	211.06
449.779	221.06
450	218.06
450.221	222.06
450.442	208.06
450.662	224.06
450.883	227.06
451.104	230.06
451.324	212.06
451.545	216.06
451.766	213.06
451.986	214.06
452.207	220.06
452.428	210.06
452.648	210.06
452.869	213.06
453.089	216.06
453.31	222.06
453.53	201.06
453.751	220.06
453.971	226.06
454.192	207.06
454.412	223.06
454.633	210.06
454.853	206.06
455.073	203.06
455.294	203.06
455.514	205.06
455.734	206.06
455.955	223.06
456.175	222.06
456.395	198.06
456.616	186.06
456.836	201.06
457.056	189.06
457.276	186.06
457.497	188.06
457.717	191.06
457.937	193.06
458.157	190.06
458.377	197.06
458.598	197.06
458.818	221.06
459.038	222.06
459.258	218.06
459.478	227.06
459.698	223.06
459.918	232.06
460.138	246.06
460.358	260.06
460.578	244.06
460.798	262.06
461.018	259.06
461.238	233.06
461.458	227.06
461.678	245.06
461.898	250.06
462.118	260.06
462.338	250.06
462.558	253.06
462.777	245.06
462.997	279.06
463.217	297.06
463.437	304.06
463.657	249.06
463.876	275.06
464.096	273.06
464.316	244.06
464.536	261.06
464.755	281.06
464.975	266.06
465.195	275.06
465.414	268.06
465.634	271.06
465.854	245.06
466.073	230.06
466.293	243.06
466.512	223.06
466.732	259.06
466.951	251.06
467.171	238.06
467.391	232.06
467.61	247.06
467.829	228.06
468.049	232.06
468.268	224.06
468.488	217.06
468.707	214.06
468.927	258.06
469.146	278.06
469.365	262.06
469.585	227.06
469.804	275.06
470.023	282.06
470.243	263.06
470.462	226.06
470.681	222.06
470.901	242.06
471.12	245.06
471.339	244.06
471.558	242.06
471.777	249.06
471.997	252.06
472.216	261.06
472.435	251.06
472.654	257.06
472.873	255.06
473.092	239.06
473.311	244.06
473.53	215.06
473.749	245.06
473.968	244.06
474.187	243.06
474.406	224.06
474.625	240.06
474.844	238.06
475.063	253.06
475.282	236.06
475.501	263.06
475.72	280.06
475.939	270.06
476.158	269.06
476.377	303.06
476.596	335.06
476.814	362.06
477.033	289.06
477.252	259.06
477.471	246.06
477.69	245.06
477.908	262.06
478.127	267.06
478.346	267.06
478.564	289.06
478.783	265.06
479.002	272.06
479.22	330.06
479.439	343.06
479.658	305.06
479.876	274.06
480.095	295.06
480.313	301.06
480.532	298.06
480.751	293.06
480.969	270.06
481.188	309.06
481.406	310.06
481.624	288.06
481.843	289.06
482.061	266.06
482.28	283.06
482.498	360.06
482.717	325.06
482.935	262.06
483.153	276.06
483.372	261.06
483.59	281.06
483.808	260.06
484.027	259.06
484.245	261.06
484.463	235.06
484.681	253.06
484.9	259.06
485.118	300.06
485.336	275.06
485.554	256.06
485.772	260.06
485.99	285.06
486.209	294.06
486.427	314.06
486.645	284.06
486.863	285.06
487.081	284.06
487.299	326.06
487.517	303.06
487.735	288.06
487.953	308.06
488.171	304.06
488.389	273.06
488.607	267.06
488.825	281.06
489.043	298.06
489.261	339.06
489.479	341.06
489.696	310.06
489.914	304.06
490.132	261.06
490.35	260.06
490.568	284.06
490.786	279.06
491.003	299.06
491.221	277.06
491.439	258.06
491.657	274.06
491.874	279.06
492.092	308.06
492.31	365.06
492.527	389.06
492.745	322.06
492.963	305.06
493.18	296.06
493.398	299.06
493.615	297.06
493.833	298.06
494.05	303.06
494.268	298.06
494.485	293.06
494.703	292.06
494.92	283.06
495.138	282.06
495.355	283.06
495.573	263.06
495.79	320.06
496.008	374.06
496.225	327.06
496.442	305.06
496.66	308.06
496.877	323.06
497.094	313.06
497.312	298.06
497.529	311.06
497.746	294.06
497.963	311.06
498.181	323.06
498.398	347.06
498.615	372.06
498.832	377.06
499.049	399.06
499.267	388.06
499.484	378.06
499.701	418.06
499.918	456.06
500.135	485.06
500.352	521.06
500.569	552.06
500.786	557.06
501.003	532.06
501.22	487.06
501.437	446.06
501.654	417.06
501.871	390.06
502.088	353.06
502.305	350.06
502.522	349.06
