Data from NickelSpatula.Lamp.E5.5.P2_HRD10591_11-51-28-560.txt Node
Date: Tue Jul 23 11:51:28 EDT 2019
User: cochatt
Spectrometer: HR+D1059
Trigger mode: 1
Integration Time (sec): 1.000000E-1
Scans to average: 1
Electric dark correction enabled: true
Nonlinearity correction enabled: false
Boxcar width: 0
XAxis mode: Wavelengths
Number of Pixels in Spectrum: 2048
>>>>>Begin Spectral Data<<<<<
223.165	-14.44
223.4	-14.44
223.635	-14.44
223.869	-19.44
224.104	-23.44
224.338	-20.44
224.573	-13.44
224.808	-16.44
225.042	-2.44
225.277	-4.44
225.511	15.56
225.746	1.56
225.98	9.56
226.215	1.56
226.449	12.56
226.683	24.56
226.918	22.56
227.152	26.56
227.387	52.56
227.621	42.56
227.856	32.56
228.09	52.56
228.324	45.56
228.559	48.56
228.793	59.56
229.027	73.56
229.262	90.56
229.496	97.56
229.73	98.56
229.964	80.56
230.199	101.56
230.433	90.56
230.667	90.56
230.901	105.56
231.136	93.56
231.37	113.56
231.604	96.56
231.838	116.56
232.072	111.56
232.306	100.56
232.541	108.56
232.775	109.56
233.009	103.56
233.243	108.56
233.477	115.56
233.711	122.56
233.945	117.56
234.179	117.56
234.413	120.56
234.647	129.56
234.881	123.56
235.115	128.56
235.349	138.56
235.583	121.56
235.817	134.56
236.051	135.56
236.285	139.56
236.519	140.56
236.753	134.56
236.987	110.56
237.221	126.56
237.455	126.56
237.689	136.56
237.922	150.56
238.156	144.56
238.39	150.56
238.624	169.56
238.858	149.56
239.091	132.56
239.325	151.56
239.559	144.56
239.793	128.56
240.027	168.56
240.26	172.56
240.494	146.56
240.728	140.56
240.961	170.56
241.195	162.56
241.429	169.56
241.662	150.56
241.896	152.56
242.13	146.56
242.363	146.56
242.597	138.56
242.83	141.56
243.064	137.56
243.298	161.56
243.531	168.56
243.765	169.56
243.998	149.56
244.232	166.56
244.465	138.56
244.699	145.56
244.932	165.56
245.166	174.56
245.399	153.56
245.633	148.56
245.866	157.56
246.099	160.56
246.333	177.56
246.566	188.56
246.8	188.56
247.033	170.56
247.266	178.56
247.5	170.56
247.733	174.56
247.966	164.56
248.2	170.56
248.433	183.56
248.666	188.56
248.899	195.56
249.133	195.56
249.366	209.56
249.599	208.56
249.832	208.56
250.066	189.56
250.299	197.56
250.532	193.56
250.765	183.56
250.998	169.56
251.231	169.56
251.465	185.56
251.698	186.56
251.931	179.56
252.164	188.56
252.397	196.56
252.63	216.56
252.863	252.56
253.096	233.56
253.329	249.56
253.562	237.56
253.795	258.56
254.028	276.56
254.261	287.56
254.494	254.56
254.727	215.56
254.96	236.56
255.193	256.56
255.426	236.56
255.659	184.56
255.892	186.56
256.124	209.56
256.357	240.56
256.59	261.56
256.823	250.56
257.056	207.56
257.289	219.56
257.521	213.56
257.754	252.56
257.987	277.56
258.22	263.56
258.452	219.56
258.685	242.56
258.918	267.56
259.151	264.56
259.383	267.56
259.616	312.56
259.849	306.56
260.081	346.56
260.314	354.56
260.547	311.56
260.779	299.56
261.012	342.56
261.244	313.56
261.477	324.56
261.71	310.56
261.942	282.56
262.175	277.56
262.407	265.56
262.64	274.56
262.872	312.56
263.105	316.56
263.337	347.56
263.57	314.56
263.802	234.56
264.035	228.56
264.267	210.56
264.499	176.56
264.732	184.56
264.964	175.56
265.197	180.56
265.429	205.56
265.661	197.56
265.894	191.56
266.126	210.56
266.358	213.56
266.591	257.56
266.823	286.56
267.055	311.56
267.287	275.56
267.52	267.56
267.752	269.56
267.984	302.56
268.216	274.56
268.448	244.56
268.681	237.56
268.913	256.56
269.145	255.56
269.377	282.56
269.609	268.56
269.841	268.56
270.073	281.56
270.306	274.56
270.538	290.56
270.77	299.56
271.002	293.56
271.234	310.56
271.466	318.56
271.698	306.56
271.93	276.56
272.162	288.56
272.394	284.56
272.626	301.56
272.858	282.56
273.09	310.56
273.322	258.56
273.553	260.56
273.785	280.56
274.017	354.56
274.249	437.56
274.481	445.56
274.713	466.56
274.945	567.56
275.176	538.56
275.408	500.56
275.64	447.56
275.872	473.56
276.104	407.56
276.335	382.56
276.567	361.56
276.799	365.56
277.031	389.56
277.262	320.56
277.494	266.56
277.726	250.56
277.957	280.56
278.189	291.56
278.421	288.56
278.652	285.56
278.884	292.56
279.115	261.56
279.347	268.56
279.579	252.56
279.81	267.56
280.042	256.56
280.273	267.56
280.505	240.56
280.736	246.56
280.968	245.56
281.199	252.56
281.431	276.56
281.662	264.56
281.894	255.56
282.125	272.56
282.356	295.56
282.588	296.56
282.819	291.56
283.051	311.56
283.282	326.56
283.513	368.56
283.745	406.56
283.976	409.56
284.207	383.56
284.439	398.56
284.67	385.56
284.901	361.56
285.132	378.56
285.364	384.56
285.595	369.56
285.826	369.56
286.057	402.56
286.288	384.56
286.52	375.56
286.751	402.56
286.982	413.56
287.213	370.56
287.444	354.56
287.675	356.56
287.906	340.56
288.138	326.56
288.369	282.56
288.6	265.56
288.831	275.56
289.062	322.56
289.293	370.56
289.524	321.56
289.755	347.56
289.986	330.56
290.217	323.56
290.448	251.56
290.679	237.56
290.91	220.56
291.141	228.56
291.371	220.56
291.602	226.56
291.833	202.56
292.064	253.56
292.295	268.56
292.526	293.56
292.757	308.56
292.987	319.56
293.218	319.56
293.449	338.56
293.68	359.56
293.91	346.56
294.141	342.56
294.372	333.56
294.603	306.56
294.833	334.56
295.064	388.56
295.295	360.56
295.525	268.56
295.756	261.56
295.987	226.56
296.217	212.56
296.448	237.56
296.679	235.56
296.909	249.56
297.14	288.56
297.37	285.56
297.601	292.56
297.831	247.56
298.062	269.56
298.292	289.56
298.523	304.56
298.753	361.56
298.984	315.56
299.214	282.56
299.445	252.56
299.675	237.56
299.905	234.56
300.136	236.56
300.366	257.56
300.597	244.56
300.827	223.56
301.057	235.56
301.288	229.56
301.518	272.56
301.748	288.56
301.979	262.56
302.209	289.56
302.439	305.56
302.669	274.56
302.9	275.56
303.13	261.56
303.36	242.56
303.59	242.56
303.82	251.56
304.051	280.56
304.281	283.56
304.511	286.56
304.741	235.56
304.971	251.56
305.201	286.56
305.431	268.56
305.661	246.56
305.891	236.56
306.121	231.56
306.352	218.56
306.582	199.56
306.812	206.56
307.042	199.56
307.272	192.56
307.502	188.56
307.731	204.56
307.961	209.56
308.191	195.56
308.421	198.56
308.651	210.56
308.881	181.56
309.111	194.56
309.341	196.56
309.571	195.56
309.8	228.56
310.03	211.56
310.26	231.56
310.49	233.56
310.72	214.56
310.949	211.56
311.179	227.56
311.409	216.56
311.639	244.56
311.868	271.56
312.098	351.56
312.328	383.56
312.557	371.56
312.787	357.56
313.017	348.56
313.246	350.56
313.476	390.56
313.706	332.56
313.935	292.56
314.165	230.56
314.394	233.56
314.624	208.56
314.853	236.56
315.083	224.56
315.312	229.56
315.542	211.56
315.771	213.56
316.001	219.56
316.23	192.56
316.46	202.56
316.689	213.56
316.919	207.56
317.148	213.56
317.377	205.56
317.607	193.56
317.836	215.56
318.065	237.56
318.295	262.56
318.524	246.56
318.753	225.56
318.983	207.56
319.212	215.56
319.441	226.56
319.67	238.56
319.9	276.56
320.129	256.56
320.358	218.56
320.587	225.56
320.816	212.56
321.046	243.56
321.275	265.56
321.504	250.56
321.733	232.56
321.962	253.56
322.191	248.56
322.42	226.56
322.649	260.56
322.878	239.56
323.108	237.56
323.337	256.56
323.566	228.56
323.795	228.56
324.024	224.56
324.253	227.56
324.482	208.56
324.71	232.56
324.939	267.56
325.168	240.56
325.397	226.56
325.626	215.56
325.855	208.56
326.084	216.56
326.313	211.56
326.542	200.56
326.77	208.56
326.999	210.56
327.228	217.56
327.457	236.56
327.686	204.56
327.914	224.56
328.143	193.56
328.372	202.56
328.6	196.56
328.829	213.56
329.058	200.56
329.287	212.56
329.515	211.56
329.744	212.56
329.972	202.56
330.201	198.56
330.43	213.56
330.658	218.56
330.887	230.56
331.115	235.56
331.344	230.56
331.572	212.56
331.801	222.56
332.03	205.56
332.258	207.56
332.486	216.56
332.715	230.56
332.943	218.56
333.172	212.56
333.4	238.56
333.629	235.56
333.857	259.56
334.085	244.56
334.314	252.56
334.542	220.56
334.771	231.56
334.999	240.56
335.227	209.56
335.455	205.56
335.684	231.56
335.912	269.56
336.14	281.56
336.369	263.56
336.597	258.56
336.825	280.56
337.053	318.56
337.281	264.56
337.51	240.56
337.738	229.56
337.966	243.56
338.194	251.56
338.422	233.56
338.65	215.56
338.878	196.56
339.106	192.56
339.334	230.56
339.562	234.56
339.79	217.56
340.018	221.56
340.246	220.56
340.474	244.56
340.702	267.56
340.93	281.56
341.158	276.56
341.386	251.56
341.614	232.56
341.842	246.56
342.07	231.56
342.298	261.56
342.526	276.56
342.754	236.56
342.981	238.56
343.209	224.56
343.437	236.56
343.665	257.56
343.893	263.56
344.12	297.56
344.348	342.56
344.576	315.56
344.804	252.56
345.031	213.56
345.259	221.56
345.487	220.56
345.714	221.56
345.942	243.56
346.17	284.56
346.397	264.56
346.625	236.56
346.853	236.56
347.08	225.56
347.308	217.56
347.535	235.56
347.763	248.56
347.99	245.56
348.218	230.56
348.445	219.56
348.673	238.56
348.9	243.56
349.128	236.56
349.355	234.56
349.583	239.56
349.81	231.56
350.037	205.56
350.265	209.56
350.492	207.56
350.72	194.56
350.947	192.56
351.174	201.56
351.402	225.56
351.629	211.56
351.856	222.56
352.083	227.56
352.311	217.56
352.538	230.56
352.765	234.56
352.992	219.56
353.22	227.56
353.447	234.56
353.674	226.56
353.901	222.56
354.128	212.56
354.355	222.56
354.583	220.56
354.81	237.56
355.037	245.56
355.264	237.56
355.491	230.56
355.718	237.56
355.945	236.56
356.172	232.56
356.399	230.56
356.626	279.56
356.853	316.56
357.08	332.56
357.307	347.56
357.534	300.56
357.761	279.56
357.988	357.56
358.215	405.56
358.441	363.56
358.668	318.56
358.895	285.56
359.122	250.56
359.349	270.56
359.576	308.56
359.802	253.56
360.029	225.56
360.256	223.56
360.483	290.56
360.709	307.56
360.936	337.56
361.163	311.56
361.39	260.56
361.616	221.56
361.843	272.56
362.07	303.56
362.296	280.56
362.523	215.56
362.749	240.56
362.976	224.56
363.203	266.56
363.429	283.56
363.656	230.56
363.882	227.56
364.109	221.56
364.335	217.56
364.562	225.56
364.788	234.56
365.015	286.56
365.241	249.56
365.468	219.56
365.694	193.56
365.92	203.56
366.147	202.56
366.373	198.56
366.599	190.56
366.826	203.56
367.052	200.56
367.278	180.56
367.505	214.56
367.731	215.56
367.957	224.56
368.184	232.56
368.41	221.56
368.636	236.56
368.862	245.56
369.089	231.56
369.315	203.56
369.541	202.56
369.767	193.56
369.993	196.56
370.219	204.56
370.445	224.56
370.672	233.56
370.898	264.56
371.124	236.56
371.35	217.56
371.576	211.56
371.802	214.56
372.028	240.56
372.254	287.56
372.48	236.56
372.706	236.56
372.932	240.56
373.158	244.56
373.384	274.56
373.61	346.56
373.835	339.56
374.061	283.56
374.287	255.56
374.513	286.56
374.739	338.56
374.965	371.56
375.191	331.56
375.416	257.56
375.642	237.56
375.868	270.56
376.094	304.56
376.319	249.56
376.545	285.56
376.771	282.56
376.997	268.56
377.222	208.56
377.448	198.56
377.674	186.56
377.899	193.56
378.125	189.56
378.35	177.56
378.576	202.56
378.802	206.56
379.027	222.56
379.253	212.56
379.478	231.56
379.704	234.56
379.929	252.56
380.155	244.56
380.38	232.56
380.606	230.56
380.831	242.56
381.057	251.56
381.282	242.56
381.507	261.56
381.733	285.56
381.958	293.56
382.184	308.56
382.409	344.56
382.634	345.56
382.86	337.56
383.085	301.56
383.31	278.56
383.535	276.56
383.761	266.56
383.986	264.56
384.211	291.56
384.436	293.56
384.662	243.56
384.887	238.56
385.112	254.56
385.337	256.56
385.562	248.56
385.787	265.56
386.013	292.56
386.238	272.56
386.463	244.56
386.688	233.56
386.913	215.56
387.138	208.56
387.363	220.56
387.588	235.56
387.813	229.56
388.038	235.56
388.263	247.56
388.488	240.56
388.713	250.56
388.938	282.56
389.163	237.56
389.387	213.56
389.612	219.56
389.837	221.56
390.062	224.56
390.287	229.56
390.512	242.56
390.736	219.56
390.961	225.56
391.186	215.56
391.411	212.56
391.636	212.56
391.86	221.56
392.085	237.56
392.31	257.56
392.534	248.56
392.759	216.56
392.984	245.56
393.208	241.56
393.433	215.56
393.658	215.56
393.882	200.56
394.107	212.56
394.331	212.56
394.556	201.56
394.78	201.56
395.005	208.56
395.229	223.56
395.454	203.56
395.678	214.56
395.903	224.56
396.127	211.56
396.352	231.56
396.576	246.56
396.801	240.56
397.025	246.56
397.249	270.56
397.474	225.56
397.698	218.56
397.922	224.56
398.147	227.56
398.371	219.56
398.595	229.56
398.82	231.56
399.044	233.56
399.268	269.56
399.492	280.56
399.717	300.56
399.941	298.56
400.165	278.56
400.389	247.56
400.613	232.56
400.837	242.56
401.062	230.56
401.286	221.56
401.51	222.56
401.734	241.56
401.958	229.56
402.182	242.56
402.406	225.56
402.63	220.56
402.854	254.56
403.078	290.56
403.302	370.56
403.526	375.56
403.75	312.56
403.974	283.56
404.198	282.56
404.422	308.56
404.645	312.56
404.869	346.56
405.093	286.56
405.317	249.56
405.541	254.56
405.765	257.56
405.988	248.56
406.212	268.56
406.436	290.56
406.66	324.56
406.883	265.56
407.107	283.56
407.331	316.56
407.555	306.56
407.778	274.56
408.002	276.56
408.226	273.56
408.449	271.56
408.673	283.56
408.896	246.56
409.12	236.56
409.344	246.56
409.567	237.56
409.791	240.56
410.014	234.56
410.238	242.56
410.461	238.56
410.685	240.56
410.908	243.56
411.132	237.56
411.355	248.56
411.578	237.56
411.802	235.56
412.025	242.56
412.249	254.56
412.472	233.56
412.695	245.56
412.919	242.56
413.142	243.56
413.365	240.56
413.589	230.56
413.812	235.56
414.035	235.56
414.258	224.56
414.482	251.56
414.705	258.56
414.928	232.56
415.151	241.56
415.374	221.56
415.597	252.56
415.821	222.56
416.044	218.56
416.267	233.56
416.49	238.56
416.713	225.56
416.936	201.56
417.159	231.56
417.382	237.56
417.605	218.56
417.828	236.56
418.051	235.56
418.274	248.56
418.497	239.56
418.72	236.56
418.943	244.56
419.166	247.56
419.389	256.56
419.611	249.56
419.834	242.56
420.057	269.56
420.28	268.56
420.503	262.56
420.726	232.56
420.948	252.56
421.171	214.56
421.394	211.56
421.617	227.56
421.839	240.56
422.062	246.56
422.285	237.56
422.507	254.56
422.73	229.56
422.953	241.56
423.175	237.56
423.398	235.56
423.621	251.56
423.843	274.56
424.066	269.56
424.288	246.56
424.511	234.56
424.733	246.56
424.956	231.56
425.178	264.56
425.401	302.56
425.623	339.56
425.846	293.56
426.068	255.56
426.291	256.56
426.513	256.56
426.735	221.56
426.958	235.56
427.18	266.56
427.402	344.56
427.625	350.56
427.847	312.56
428.069	228.56
428.292	234.56
428.514	230.56
428.736	225.56
428.958	266.56
429.181	299.56
429.403	248.56
429.625	218.56
429.847	215.56
430.069	232.56
430.292	242.56
430.514	227.56
430.736	237.56
430.958	265.56
431.18	260.56
431.402	218.56
431.624	200.56
431.846	223.56
432.068	220.56
432.29	205.56
432.512	238.56
432.734	296.56
432.956	281.56
433.178	241.56
433.4	233.56
433.622	213.56
433.844	233.56
434.066	242.56
434.287	263.56
434.509	245.56
434.731	253.56
434.953	243.56
435.175	249.56
435.397	291.56
435.618	222.56
435.84	202.56
436.062	200.56
436.284	217.56
436.505	218.56
436.727	232.56
436.949	214.56
437.17	212.56
437.392	211.56
437.614	205.56
437.835	208.56
438.057	216.56
438.278	265.56
438.5	305.56
438.721	297.56
438.943	241.56
439.165	217.56
439.386	210.56
439.608	208.56
439.829	223.56
440.05	228.56
440.272	235.56
440.493	250.56
440.715	270.56
440.936	245.56
441.158	237.56
441.379	219.56
441.6	240.56
441.822	260.56
442.043	234.56
442.264	243.56
442.486	234.56
442.707	221.56
442.928	233.56
443.149	234.56
443.371	232.56
443.592	233.56
443.813	236.56
444.034	234.56
444.255	239.56
444.476	259.56
444.698	258.56
444.919	248.56
445.14	353.56
445.361	298.56
445.582	244.56
445.803	252.56
446.024	235.56
446.245	252.56
446.466	236.56
446.687	220.56
446.908	223.56
447.129	220.56
447.35	194.56
447.571	200.56
447.792	207.56
448.013	206.56
448.234	198.56
448.455	204.56
448.675	200.56
448.896	210.56
449.117	208.56
449.338	200.56
449.559	208.56
449.779	222.56
450	244.56
450.221	216.56
450.442	209.56
450.662	213.56
450.883	213.56
451.104	217.56
451.324	203.56
451.545	232.56
451.766	205.56
451.986	209.56
452.207	216.56
452.428	204.56
452.648	206.56
452.869	209.56
453.089	222.56
453.31	216.56
453.53	196.56
453.751	211.56
453.971	195.56
454.192	222.56
454.412	210.56
454.633	220.56
454.853	206.56
455.073	204.56
455.294	199.56
455.514	189.56
455.734	198.56
455.955	213.56
456.175	207.56
456.395	208.56
456.616	198.56
456.836	188.56
457.056	190.56
457.276	190.56
457.497	179.56
457.717	198.56
457.937	178.56
458.157	203.56
458.377	199.56
458.598	188.56
458.818	194.56
459.038	214.56
459.258	204.56
459.478	219.56
459.698	240.56
459.918	239.56
460.138	230.56
460.358	238.56
460.578	238.56
460.798	228.56
461.018	224.56
461.238	234.56
461.458	234.56
461.678	233.56
461.898	243.56
462.118	250.56
462.338	222.56
462.558	260.56
462.777	229.56
462.997	285.56
463.217	284.56
463.437	278.56
463.657	271.56
463.876	271.56
464.096	266.56
464.316	274.56
464.536	269.56
464.755	268.56
464.975	284.56
465.195	254.56
465.414	268.56
465.634	224.56
465.854	244.56
466.073	229.56
466.293	214.56
466.512	230.56
466.732	238.56
466.951	248.56
467.171	229.56
467.391	216.56
467.61	212.56
467.829	227.56
468.049	226.56
468.268	211.56
468.488	211.56
468.707	232.56
468.927	232.56
469.146	260.56
469.365	246.56
469.585	236.56
469.804	245.56
470.023	259.56
470.243	240.56
470.462	225.56
470.681	230.56
470.901	244.56
471.12	238.56
471.339	245.56
471.558	217.56
471.777	235.56
471.997	244.56
472.216	254.56
472.435	242.56
472.654	245.56
472.873	229.56
473.092	244.56
473.311	252.56
473.53	238.56
473.749	229.56
473.968	235.56
474.187	248.56
474.406	249.56
474.625	221.56
474.844	234.56
475.063	236.56
475.282	221.56
475.501	253.56
475.72	288.56
475.939	260.56
476.158	257.56
476.377	296.56
476.596	320.56
476.814	332.56
477.033	315.56
477.252	265.56
477.471	229.56
477.69	236.56
477.908	262.56
478.127	280.56
478.346	260.56
478.564	294.56
478.783	263.56
479.002	282.56
479.22	300.56
479.439	317.56
479.658	280.56
479.876	247.56
480.095	287.56
480.313	302.56
480.532	275.56
480.751	263.56
480.969	264.56
481.188	295.56
481.406	282.56
481.624	297.56
481.843	273.56
482.061	246.56
482.28	283.56
482.498	323.56
482.717	331.56
482.935	294.56
483.153	270.56
483.372	261.56
483.59	245.56
483.808	257.56
484.027	244.56
484.245	236.56
484.463	246.56
484.681	232.56
484.9	266.56
485.118	282.56
485.336	270.56
485.554	254.56
485.772	258.56
485.99	285.56
486.209	297.56
486.427	301.56
486.645	269.56
486.863	290.56
487.081	289.56
487.299	331.56
487.517	301.56
487.735	271.56
487.953	277.56
488.171	289.56
488.389	277.56
488.607	270.56
488.825	283.56
489.043	284.56
489.261	315.56
489.479	335.56
489.696	296.56
489.914	247.56
490.132	267.56
490.35	278.56
490.568	266.56
490.786	265.56
491.003	258.56
491.221	269.56
491.439	270.56
491.657	245.56
491.874	281.56
492.092	299.56
492.31	350.56
492.527	345.56
492.745	304.56
492.963	291.56
493.18	278.56
493.398	288.56
493.615	298.56
493.833	284.56
494.05	284.56
494.268	288.56
494.485	294.56
494.703	265.56
494.92	282.56
495.138	291.56
495.355	290.56
495.573	276.56
495.79	299.56
496.008	364.56
496.225	307.56
496.442	302.56
496.66	284.56
496.877	325.56
497.094	296.56
497.312	284.56
497.529	299.56
497.746	276.56
497.963	316.56
498.181	312.56
498.398	352.56
498.615	332.56
498.832	346.56
499.049	395.56
499.267	371.56
499.484	376.56
499.701	393.56
499.918	432.56
500.135	474.56
500.352	505.56
500.569	554.56
500.786	570.56
501.003	529.56
501.22	458.56
501.437	428.56
501.654	385.56
501.871	353.56
502.088	368.56
502.305	340.56
502.522	334.56
