Data from NickelSpatula.Lamp.E5.5.P2_HRD10591_11-51-12-563.txt Node
Date: Tue Jul 23 11:51:12 EDT 2019
User: cochatt
Spectrometer: HR+D1059
Trigger mode: 1
Integration Time (sec): 1.000000E-1
Scans to average: 1
Electric dark correction enabled: true
Nonlinearity correction enabled: false
Boxcar width: 0
XAxis mode: Wavelengths
Number of Pixels in Spectrum: 2048
>>>>>Begin Spectral Data<<<<<
223.165	-19.81
223.4	-19.81
223.635	-19.81
223.869	-17.81
224.104	-29.81
224.338	-12.81
224.573	-20.81
224.808	-7.81
225.042	-19.81
225.277	8.19
225.511	-5.81
225.746	0.19
225.98	4.19
226.215	28.19
226.449	16.19
226.683	16.19
226.918	29.19
227.152	32.19
227.387	23.19
227.621	25.19
227.856	54.19
228.09	62.19
228.324	45.19
228.559	41.19
228.793	49.19
229.027	65.19
229.262	85.19
229.496	67.19
229.73	77.19
229.964	76.19
230.199	97.19
230.433	92.19
230.667	90.19
230.901	93.19
231.136	97.19
231.37	80.19
231.604	80.19
231.838	108.19
232.072	108.19
232.306	104.19
232.541	106.19
232.775	100.19
233.009	106.19
233.243	105.19
233.477	123.19
233.711	117.19
233.945	112.19
234.179	125.19
234.413	106.19
234.647	111.19
234.881	140.19
235.115	114.19
235.349	119.19
235.583	108.19
235.817	116.19
236.051	113.19
236.285	123.19
236.519	120.19
236.753	117.19
236.987	124.19
237.221	113.19
237.455	104.19
237.689	119.19
237.922	129.19
238.156	127.19
238.39	127.19
238.624	141.19
238.858	128.19
239.091	120.19
239.325	132.19
239.559	125.19
239.793	127.19
240.027	158.19
240.26	156.19
240.494	133.19
240.728	146.19
240.961	159.19
241.195	149.19
241.429	140.19
241.662	141.19
241.896	142.19
242.13	139.19
242.363	130.19
242.597	136.19
242.83	137.19
243.064	133.19
243.298	153.19
243.531	146.19
243.765	162.19
243.998	149.19
244.232	136.19
244.465	146.19
244.699	151.19
244.932	142.19
245.166	139.19
245.399	150.19
245.633	128.19
245.866	132.19
246.099	150.19
246.333	157.19
246.566	174.19
246.8	158.19
247.033	153.19
247.266	136.19
247.5	168.19
247.733	165.19
247.966	148.19
248.2	147.19
248.433	154.19
248.666	181.19
248.899	182.19
249.133	179.19
249.366	188.19
249.599	208.19
249.832	185.19
250.066	180.19
250.299	177.19
250.532	170.19
250.765	176.19
250.998	176.19
251.231	162.19
251.465	179.19
251.698	181.19
251.931	182.19
252.164	195.19
252.397	182.19
252.63	184.19
252.863	211.19
253.096	225.19
253.329	221.19
253.562	215.19
253.795	219.19
254.028	242.19
254.261	264.19
254.494	236.19
254.727	202.19
254.96	215.19
255.193	224.19
255.426	212.19
255.659	184.19
255.892	192.19
256.124	197.19
256.357	205.19
256.59	217.19
256.823	223.19
257.056	210.19
257.289	188.19
257.521	221.19
257.754	235.19
257.987	246.19
258.22	234.19
258.452	198.19
258.685	218.19
258.918	242.19
259.151	236.19
259.383	255.19
259.616	271.19
259.849	287.19
260.081	290.19
260.314	323.19
260.547	269.19
260.779	244.19
261.012	284.19
261.244	285.19
261.477	278.19
261.71	275.19
261.942	229.19
262.175	215.19
262.407	232.19
262.64	233.19
262.872	254.19
263.105	282.19
263.337	304.19
263.57	279.19
263.802	202.19
264.035	201.19
264.267	195.19
264.499	173.19
264.732	168.19
264.964	158.19
265.197	174.19
265.429	180.19
265.661	182.19
265.894	192.19
266.126	202.19
266.358	201.19
266.591	270.19
266.823	288.19
267.055	270.19
267.287	242.19
267.52	242.19
267.752	259.19
267.984	297.19
268.216	264.19
268.448	240.19
268.681	237.19
268.913	252.19
269.145	255.19
269.377	255.19
269.609	267.19
269.841	231.19
270.073	246.19
270.306	274.19
270.538	277.19
270.77	274.19
271.002	278.19
271.234	276.19
271.466	295.19
271.698	280.19
271.93	253.19
272.162	250.19
272.394	263.19
272.626	255.19
272.858	284.19
273.09	272.19
273.322	258.19
273.553	228.19
273.785	255.19
274.017	308.19
274.249	371.19
274.481	396.19
274.713	394.19
274.945	457.19
275.176	476.19
275.408	432.19
275.64	416.19
275.872	403.19
276.104	369.19
276.335	336.19
276.567	340.19
276.799	338.19
277.031	337.19
277.262	302.19
277.494	259.19
277.726	239.19
277.957	249.19
278.189	279.19
278.421	266.19
278.652	273.19
278.884	266.19
279.115	246.19
279.347	244.19
279.579	238.19
279.81	250.19
280.042	247.19
280.273	263.19
280.505	232.19
280.736	216.19
280.968	191.19
281.199	219.19
281.431	233.19
281.662	252.19
281.894	259.19
282.125	246.19
282.356	263.19
282.588	262.19
282.819	252.19
283.051	275.19
283.282	302.19
283.513	354.19
283.745	355.19
283.976	384.19
284.207	354.19
284.439	349.19
284.67	352.19
284.901	329.19
285.132	337.19
285.364	351.19
285.595	326.19
285.826	345.19
286.057	342.19
286.288	342.19
286.52	354.19
286.751	370.19
286.982	372.19
287.213	351.19
287.444	319.19
287.675	321.19
287.906	328.19
288.138	290.19
288.369	277.19
288.6	266.19
288.831	269.19
289.062	304.19
289.293	342.19
289.524	290.19
289.755	303.19
289.986	316.19
290.217	292.19
290.448	233.19
290.679	217.19
290.91	193.19
291.141	192.19
291.371	223.19
291.602	233.19
291.833	211.19
292.064	222.19
292.295	233.19
292.526	263.19
292.757	306.19
292.987	305.19
293.218	297.19
293.449	326.19
293.68	320.19
293.91	329.19
294.141	302.19
294.372	306.19
294.603	285.19
294.833	304.19
295.064	325.19
295.295	320.19
295.525	270.19
295.756	258.19
295.987	220.19
296.217	212.19
296.448	206.19
296.679	228.19
296.909	237.19
297.14	250.19
297.37	276.19
297.601	262.19
297.831	236.19
298.062	231.19
298.292	268.19
298.523	273.19
298.753	308.19
298.984	293.19
299.214	256.19
299.445	241.19
299.675	228.19
299.905	217.19
300.136	239.19
300.366	239.19
300.597	223.19
300.827	218.19
301.057	220.19
301.288	237.19
301.518	231.19
301.748	262.19
301.979	283.19
302.209	266.19
302.439	268.19
302.669	249.19
302.9	254.19
303.13	248.19
303.36	222.19
303.59	246.19
303.82	232.19
304.051	259.19
304.281	269.19
304.511	266.19
304.741	236.19
304.971	252.19
305.201	262.19
305.431	258.19
305.661	233.19
305.891	228.19
306.121	221.19
306.352	220.19
306.582	206.19
306.812	194.19
307.042	199.19
307.272	197.19
307.502	166.19
307.731	191.19
307.961	212.19
308.191	196.19
308.421	198.19
308.651	199.19
308.881	186.19
309.111	194.19
309.341	177.19
309.571	194.19
309.8	198.19
310.03	209.19
310.26	223.19
310.49	218.19
310.72	205.19
310.949	192.19
311.179	202.19
311.409	210.19
311.639	238.19
311.868	270.19
312.098	337.19
312.328	331.19
312.557	343.19
312.787	336.19
313.017	307.19
313.246	316.19
313.476	331.19
313.706	306.19
313.935	280.19
314.165	224.19
314.394	213.19
314.624	215.19
314.853	226.19
315.083	219.19
315.312	222.19
315.542	232.19
315.771	214.19
316.001	187.19
316.23	183.19
316.46	193.19
316.689	198.19
316.919	205.19
317.148	193.19
317.377	184.19
317.607	197.19
317.836	205.19
318.065	229.19
318.295	228.19
318.524	233.19
318.753	191.19
318.983	186.19
319.212	211.19
319.441	216.19
319.67	216.19
319.9	231.19
320.129	219.19
320.358	219.19
320.587	195.19
320.816	213.19
321.046	239.19
321.275	248.19
321.504	251.19
321.733	235.19
321.962	241.19
322.191	242.19
322.42	225.19
322.649	222.19
322.878	233.19
323.108	250.19
323.337	218.19
323.566	236.19
323.795	250.19
324.024	228.19
324.253	216.19
324.482	201.19
324.71	224.19
324.939	244.19
325.168	217.19
325.397	213.19
325.626	211.19
325.855	202.19
326.084	206.19
326.313	205.19
326.542	188.19
326.77	198.19
326.999	192.19
327.228	199.19
327.457	233.19
327.686	227.19
327.914	191.19
328.143	204.19
328.372	176.19
328.6	194.19
328.829	193.19
329.058	186.19
329.287	195.19
329.515	208.19
329.744	195.19
329.972	213.19
330.201	178.19
330.43	199.19
330.658	205.19
330.887	218.19
331.115	218.19
331.344	217.19
331.572	224.19
331.801	217.19
332.03	192.19
332.258	201.19
332.486	202.19
332.715	234.19
332.943	219.19
333.172	220.19
333.4	224.19
333.629	246.19
333.857	263.19
334.085	254.19
334.314	237.19
334.542	244.19
334.771	214.19
334.999	213.19
335.227	201.19
335.455	195.19
335.684	224.19
335.912	244.19
336.14	265.19
336.369	273.19
336.597	261.19
336.825	282.19
337.053	284.19
337.281	251.19
337.51	214.19
337.738	212.19
337.966	221.19
338.194	231.19
338.422	248.19
338.65	234.19
338.878	202.19
339.106	202.19
339.334	221.19
339.562	238.19
339.79	221.19
340.018	205.19
340.246	226.19
340.474	221.19
340.702	259.19
340.93	259.19
341.158	272.19
341.386	232.19
341.614	226.19
341.842	225.19
342.07	228.19
342.298	253.19
342.526	255.19
342.754	251.19
342.981	236.19
343.209	225.19
343.437	246.19
343.665	257.19
343.893	254.19
344.12	304.19
344.348	311.19
344.576	292.19
344.804	251.19
345.031	217.19
345.259	215.19
345.487	211.19
345.714	203.19
345.942	229.19
346.17	250.19
346.397	240.19
346.625	240.19
346.853	237.19
347.08	226.19
347.308	203.19
347.535	242.19
347.763	238.19
347.99	219.19
348.218	209.19
348.445	248.19
348.673	210.19
348.9	221.19
349.128	243.19
349.355	231.19
349.583	236.19
349.81	222.19
350.037	205.19
350.265	183.19
350.492	183.19
350.72	193.19
350.947	188.19
351.174	207.19
351.402	208.19
351.629	217.19
351.856	197.19
352.083	211.19
352.311	208.19
352.538	245.19
352.765	240.19
352.992	214.19
353.22	214.19
353.447	226.19
353.674	223.19
353.901	214.19
354.128	220.19
354.355	225.19
354.583	217.19
354.81	236.19
355.037	244.19
355.264	233.19
355.491	237.19
355.718	225.19
355.945	232.19
356.172	245.19
356.399	223.19
356.626	252.19
356.853	307.19
357.08	304.19
357.307	354.19
357.534	289.19
357.761	293.19
357.988	345.19
358.215	369.19
358.441	341.19
358.668	318.19
358.895	294.19
359.122	257.19
359.349	256.19
359.576	276.19
359.802	258.19
360.029	222.19
360.256	223.19
360.483	263.19
360.709	302.19
360.936	325.19
361.163	282.19
361.39	211.19
361.616	229.19
361.843	228.19
362.07	287.19
362.296	270.19
362.523	233.19
362.749	218.19
362.976	215.19
363.203	248.19
363.429	266.19
363.656	227.19
363.882	221.19
364.109	229.19
364.335	222.19
364.562	201.19
364.788	237.19
365.015	239.19
365.241	229.19
365.468	225.19
365.694	183.19
365.92	200.19
366.147	189.19
366.373	192.19
366.599	182.19
366.826	189.19
367.052	195.19
367.278	186.19
367.505	194.19
367.731	195.19
367.957	213.19
368.184	203.19
368.41	208.19
368.636	254.19
368.862	224.19
369.089	222.19
369.315	217.19
369.541	205.19
369.767	200.19
369.993	202.19
370.219	208.19
370.445	194.19
370.672	226.19
370.898	236.19
371.124	229.19
371.35	219.19
371.576	210.19
371.802	218.19
372.028	247.19
372.254	276.19
372.48	230.19
372.706	245.19
372.932	250.19
373.158	258.19
373.384	274.19
373.61	328.19
373.835	337.19
374.061	274.19
374.287	242.19
374.513	286.19
374.739	316.19
374.965	340.19
375.191	318.19
375.416	252.19
375.642	232.19
375.868	256.19
376.094	270.19
376.319	244.19
376.545	270.19
376.771	280.19
376.997	248.19
377.222	207.19
377.448	203.19
377.674	198.19
377.899	194.19
378.125	185.19
378.35	184.19
378.576	195.19
378.802	211.19
379.027	204.19
379.253	220.19
379.478	197.19
379.704	217.19
379.929	240.19
380.155	250.19
380.38	214.19
380.606	220.19
380.831	233.19
381.057	238.19
381.282	223.19
381.507	249.19
381.733	269.19
381.958	313.19
382.184	300.19
382.409	313.19
382.634	338.19
382.86	336.19
383.085	281.19
383.31	255.19
383.535	266.19
383.761	261.19
383.986	237.19
384.211	280.19
384.436	296.19
384.662	228.19
384.887	231.19
385.112	264.19
385.337	256.19
385.562	243.19
385.787	246.19
386.013	294.19
386.238	286.19
386.463	233.19
386.688	231.19
386.913	206.19
387.138	212.19
387.363	209.19
387.588	240.19
387.813	212.19
388.038	247.19
388.263	218.19
388.488	245.19
388.713	258.19
388.938	278.19
389.163	245.19
389.387	209.19
389.612	230.19
389.837	223.19
390.062	221.19
390.287	233.19
390.512	234.19
390.736	212.19
390.961	214.19
391.186	212.19
391.411	207.19
391.636	227.19
391.86	223.19
392.085	252.19
392.31	262.19
392.534	229.19
392.759	209.19
392.984	237.19
393.208	247.19
393.433	225.19
393.658	214.19
393.882	191.19
394.107	212.19
394.331	205.19
394.556	202.19
394.78	202.19
395.005	194.19
395.229	205.19
395.454	215.19
395.678	227.19
395.903	235.19
396.127	219.19
396.352	224.19
396.576	224.19
396.801	232.19
397.025	248.19
397.249	242.19
397.474	202.19
397.698	217.19
397.922	224.19
398.147	220.19
398.371	233.19
398.595	233.19
398.82	229.19
399.044	238.19
399.268	277.19
399.492	275.19
399.717	294.19
399.941	272.19
400.165	268.19
400.389	275.19
400.613	247.19
400.837	227.19
401.062	219.19
401.286	224.19
401.51	222.19
401.734	211.19
401.958	242.19
402.182	229.19
402.406	233.19
402.63	242.19
402.854	250.19
403.078	262.19
403.302	364.19
403.526	343.19
403.75	320.19
403.974	281.19
404.198	286.19
404.422	312.19
404.645	333.19
404.869	326.19
405.093	290.19
405.317	254.19
405.541	271.19
405.765	256.19
405.988	254.19
406.212	265.19
406.436	283.19
406.66	302.19
406.883	268.19
407.107	283.19
407.331	308.19
407.555	304.19
407.778	270.19
408.002	282.19
408.226	266.19
408.449	268.19
408.673	271.19
408.896	233.19
409.12	225.19
409.344	232.19
409.567	234.19
409.791	257.19
410.014	233.19
410.238	253.19
410.461	233.19
410.685	226.19
410.908	215.19
411.132	232.19
411.355	229.19
411.578	252.19
411.802	229.19
412.025	240.19
412.249	237.19
412.472	230.19
412.695	236.19
412.919	228.19
413.142	223.19
413.365	236.19
413.589	237.19
413.812	230.19
414.035	221.19
414.258	227.19
414.482	251.19
414.705	260.19
414.928	238.19
415.151	229.19
415.374	225.19
415.597	231.19
415.821	249.19
416.044	231.19
416.267	240.19
416.49	232.19
416.713	229.19
416.936	217.19
417.159	198.19
417.382	222.19
417.605	223.19
417.828	232.19
418.051	239.19
418.274	238.19
418.497	213.19
418.72	233.19
418.943	240.19
419.166	228.19
419.389	252.19
419.611	247.19
419.834	250.19
420.057	259.19
420.28	258.19
420.503	236.19
420.726	215.19
420.948	213.19
421.171	227.19
421.394	226.19
421.617	220.19
421.839	226.19
422.062	242.19
422.285	232.19
422.507	217.19
422.73	228.19
422.953	233.19
423.175	231.19
423.398	233.19
423.621	255.19
423.843	256.19
424.066	248.19
424.288	256.19
424.511	238.19
424.733	234.19
424.956	236.19
425.178	261.19
425.401	301.19
425.623	330.19
425.846	296.19
426.068	241.19
426.291	254.19
426.513	250.19
426.735	222.19
426.958	244.19
427.18	260.19
427.402	330.19
427.625	335.19
427.847	293.19
428.069	240.19
428.292	219.19
428.514	228.19
428.736	236.19
428.958	229.19
429.181	288.19
429.403	234.19
429.625	227.19
429.847	212.19
430.069	231.19
430.292	226.19
430.514	206.19
430.736	221.19
430.958	264.19
431.18	257.19
431.402	209.19
431.624	209.19
431.846	215.19
432.068	207.19
432.29	230.19
432.512	219.19
432.734	255.19
432.956	266.19
433.178	227.19
433.4	206.19
433.622	228.19
433.844	220.19
434.066	247.19
434.287	228.19
434.509	252.19
434.731	270.19
434.953	239.19
435.175	241.19
435.397	257.19
435.618	240.19
435.84	215.19
436.062	229.19
436.284	229.19
436.505	210.19
436.727	220.19
436.949	217.19
437.17	222.19
437.392	209.19
437.614	206.19
437.835	224.19
438.057	223.19
438.278	236.19
438.5	291.19
438.721	283.19
438.943	228.19
439.165	217.19
439.386	198.19
439.608	209.19
439.829	211.19
440.05	200.19
440.272	220.19
440.493	246.19
440.715	278.19
440.936	249.19
441.158	216.19
441.379	237.19
441.6	252.19
441.822	233.19
442.043	209.19
442.264	226.19
442.486	233.19
442.707	252.19
442.928	240.19
443.149	261.19
443.371	244.19
443.592	240.19
443.813	245.19
444.034	244.19
444.255	242.19
444.476	249.19
444.698	242.19
444.919	262.19
445.14	336.19
445.361	267.19
445.582	246.19
445.803	237.19
446.024	240.19
446.245	243.19
446.466	226.19
446.687	209.19
446.908	221.19
447.129	210.19
447.35	213.19
447.571	219.19
447.792	208.19
448.013	223.19
448.234	196.19
448.455	196.19
448.675	197.19
448.896	208.19
449.117	204.19
449.338	213.19
449.559	218.19
449.779	233.19
450	222.19
450.221	208.19
450.442	208.19
450.662	211.19
450.883	213.19
451.104	211.19
451.324	229.19
451.545	214.19
451.766	208.19
451.986	192.19
452.207	207.19
452.428	205.19
452.648	226.19
452.869	202.19
453.089	215.19
453.31	216.19
453.53	199.19
453.751	202.19
453.971	193.19
454.192	206.19
454.412	221.19
454.633	206.19
454.853	204.19
455.073	189.19
455.294	202.19
455.514	192.19
455.734	199.19
455.955	200.19
456.175	212.19
456.395	187.19
456.616	188.19
456.836	178.19
457.056	184.19
457.276	199.19
457.497	196.19
457.717	191.19
457.937	196.19
458.157	189.19
458.377	185.19
458.598	182.19
458.818	194.19
459.038	210.19
459.258	224.19
459.478	217.19
459.698	220.19
459.918	232.19
460.138	236.19
460.358	238.19
460.578	224.19
460.798	231.19
461.018	230.19
461.238	243.19
461.458	228.19
461.678	246.19
461.898	240.19
462.118	265.19
462.338	240.19
462.558	257.19
462.777	262.19
462.997	271.19
463.217	278.19
463.437	286.19
463.657	292.19
463.876	264.19
464.096	254.19
464.316	246.19
464.536	265.19
464.755	270.19
464.975	270.19
465.195	269.19
465.414	252.19
465.634	228.19
465.854	249.19
466.073	199.19
466.293	236.19
466.512	227.19
466.732	237.19
466.951	239.19
467.171	227.19
467.391	216.19
467.61	219.19
467.829	222.19
468.049	225.19
468.268	218.19
468.488	214.19
468.707	220.19
468.927	220.19
469.146	250.19
469.365	236.19
469.585	219.19
469.804	231.19
470.023	248.19
470.243	230.19
470.462	227.19
470.681	219.19
470.901	223.19
471.12	256.19
471.339	244.19
471.558	241.19
471.777	214.19
471.997	229.19
472.216	233.19
472.435	237.19
472.654	236.19
472.873	233.19
473.092	239.19
473.311	246.19
473.53	220.19
473.749	224.19
473.968	236.19
474.187	211.19
474.406	200.19
474.625	217.19
474.844	232.19
475.063	216.19
475.282	225.19
475.501	248.19
475.72	266.19
475.939	249.19
476.158	218.19
476.377	290.19
476.596	302.19
476.814	320.19
477.033	287.19
477.252	249.19
477.471	228.19
477.69	232.19
477.908	247.19
478.127	271.19
478.346	269.19
478.564	265.19
478.783	264.19
479.002	267.19
479.22	286.19
479.439	298.19
479.658	281.19
479.876	248.19
480.095	264.19
480.313	295.19
480.532	273.19
480.751	278.19
480.969	255.19
481.188	262.19
481.406	272.19
481.624	270.19
481.843	252.19
482.061	247.19
482.28	282.19
482.498	318.19
482.717	300.19
482.935	273.19
483.153	266.19
483.372	250.19
483.59	260.19
483.808	244.19
484.027	239.19
484.245	246.19
484.463	258.19
484.681	246.19
484.9	250.19
485.118	261.19
485.336	248.19
485.554	254.19
485.772	259.19
485.99	271.19
486.209	293.19
486.427	276.19
486.645	261.19
486.863	273.19
487.081	276.19
487.299	293.19
487.517	294.19
487.735	272.19
487.953	277.19
488.171	272.19
488.389	272.19
488.607	277.19
488.825	243.19
489.043	291.19
489.261	303.19
489.479	295.19
489.696	281.19
489.914	285.19
490.132	261.19
490.35	266.19
490.568	270.19
490.786	266.19
491.003	265.19
491.221	256.19
491.439	261.19
491.657	256.19
491.874	258.19
492.092	306.19
492.31	338.19
492.527	332.19
492.745	312.19
492.963	293.19
493.18	264.19
493.398	286.19
493.615	296.19
493.833	279.19
494.05	270.19
494.268	267.19
494.485	271.19
494.703	260.19
494.92	266.19
495.138	268.19
495.355	272.19
495.573	274.19
495.79	298.19
496.008	372.19
496.225	317.19
496.442	270.19
496.66	287.19
496.877	277.19
497.094	280.19
497.312	278.19
497.529	273.19
497.746	298.19
497.963	294.19
498.181	316.19
498.398	327.19
498.615	338.19
498.832	358.19
499.049	372.19
499.267	379.19
499.484	384.19
499.701	409.19
499.918	441.19
500.135	470.19
500.352	530.19
500.569	530.19
500.786	546.19
501.003	525.19
501.22	469.19
501.437	429.19
501.654	405.19
501.871	381.19
502.088	385.19
502.305	349.19
502.522	341.19
