Data from NickelSpatula.Lamp.E10.P2_HRD10591_11-56-52-534.txt Node
Date: Tue Jul 23 11:56:52 EDT 2019
User: cochatt
Spectrometer: HR+D1059
Trigger mode: 1
Integration Time (sec): 1.000000E-1
Scans to average: 1
Electric dark correction enabled: true
Nonlinearity correction enabled: false
Boxcar width: 0
XAxis mode: Wavelengths
Number of Pixels in Spectrum: 2048
>>>>>Begin Spectral Data<<<<<
223.165	-15.88
223.4	-15.88
223.635	-15.88
223.869	-9.88
224.104	-14.88
224.338	-4.88
224.573	-28.88
224.808	-23.88
225.042	-22.88
225.277	-1.88
225.511	-2.88
225.746	9.12
225.98	17.12
226.215	0.12
226.449	18.12
226.683	33.12
226.918	21.12
227.152	27.12
227.387	32.12
227.621	39.12
227.856	51.12
228.09	50.12
228.324	57.12
228.559	56.12
228.793	78.12
229.027	145.12
229.262	148.12
229.496	152.12
229.73	163.12
229.964	184.12
230.199	193.12
230.433	191.12
230.667	218.12
230.901	203.12
231.136	186.12
231.37	208.12
231.604	187.12
231.838	238.12
232.072	239.12
232.306	231.12
232.541	221.12
232.775	234.12
233.009	252.12
233.243	272.12
233.477	287.12
233.711	315.12
233.945	315.12
234.179	304.12
234.413	338.12
234.647	350.12
234.881	423.12
235.115	390.12
235.349	357.12
235.583	318.12
235.817	326.12
236.051	328.12
236.285	399.12
236.519	412.12
236.753	384.12
236.987	390.12
237.221	361.12
237.455	410.12
237.689	410.12
237.922	439.12
238.156	434.12
238.39	485.12
238.624	600.12
238.858	537.12
239.091	444.12
239.325	471.12
239.559	435.12
239.793	489.12
240.027	599.12
240.26	547.12
240.494	517.12
240.728	530.12
240.961	629.12
241.195	563.12
241.429	560.12
241.662	563.12
241.896	460.12
242.13	443.12
242.363	436.12
242.597	421.12
242.83	495.12
243.064	487.12
243.298	530.12
243.531	574.12
243.765	590.12
243.998	577.12
244.232	564.12
244.465	545.12
244.699	542.12
244.932	626.12
245.166	572.12
245.399	512.12
245.633	506.12
245.866	517.12
246.099	563.12
246.333	630.12
246.566	680.12
246.8	711.12
247.033	673.12
247.266	672.12
247.5	613.12
247.733	604.12
247.966	606.12
248.2	632.12
248.433	694.12
248.666	719.12
248.899	751.12
249.133	778.12
249.366	888.12
249.599	898.12
249.832	835.12
250.066	757.12
250.299	756.12
250.532	738.12
250.765	720.12
250.998	664.12
251.231	654.12
251.465	732.12
251.698	758.12
251.931	715.12
252.164	762.12
252.397	845.12
252.63	954.12
252.863	1042.12
253.096	1083.12
253.329	995.12
253.562	961.12
253.795	1111.12
254.028	1219.12
254.261	1262.12
254.494	1139.12
254.727	1006.12
254.96	1001.12
255.193	1058.12
255.426	1024.12
255.659	799.12
255.892	725.12
256.124	830.12
256.357	964.12
256.59	1129.12
256.823	1048.12
257.056	871.12
257.289	835.12
257.521	914.12
257.754	1050.12
257.987	1204.12
258.22	1043.12
258.452	932.12
258.685	1066.12
258.918	1189.12
259.151	1173.12
259.383	1259.12
259.616	1436.12
259.849	1486.12
260.081	1564.12
260.314	1735.12
260.547	1398.12
260.779	1414.12
261.012	1631.12
261.244	1486.12
261.477	1513.12
261.71	1411.12
261.942	1189.12
262.175	1170.12
262.407	1153.12
262.64	1177.12
262.872	1412.12
263.105	1512.12
263.337	1573.12
263.57	1419.12
263.802	982.12
264.035	874.12
264.267	847.12
264.499	717.12
264.732	646.12
264.964	647.12
265.197	682.12
265.429	731.12
265.661	769.12
265.894	828.12
266.126	891.12
266.358	992.12
266.591	1176.12
266.823	1404.12
267.055	1334.12
267.287	1195.12
267.52	1182.12
267.752	1266.12
267.984	1332.12
268.216	1290.12
268.448	1094.12
268.681	1029.12
268.913	1157.12
269.145	1181.12
269.377	1262.12
269.609	1213.12
269.841	1142.12
270.073	1202.12
270.306	1322.12
270.538	1342.12
270.77	1315.12
271.002	1354.12
271.234	1387.12
271.466	1396.12
271.698	1333.12
271.93	1268.12
272.162	1306.12
272.394	1303.12
272.626	1268.12
272.858	1342.12
273.09	1329.12
273.322	1160.12
273.553	1112.12
273.785	1298.12
274.017	1719.12
274.249	2124.12
274.481	2215.12
274.713	2432.12
274.945	2752.12
275.176	2850.12
275.408	2568.12
275.64	2350.12
275.872	2378.12
276.104	2002.12
276.335	1763.12
276.567	1769.12
276.799	1819.12
277.031	1883.12
277.262	1480.12
277.494	1152.12
277.726	1100.12
277.957	1208.12
278.189	1354.12
278.421	1356.12
278.652	1340.12
278.884	1286.12
279.115	1164.12
279.347	1123.12
279.579	1105.12
279.81	1115.12
280.042	1117.12
280.273	1149.12
280.505	1062.12
280.736	983.12
280.968	969.12
281.199	1038.12
281.431	1186.12
281.662	1168.12
281.894	1104.12
282.125	1220.12
282.356	1263.12
282.588	1306.12
282.819	1179.12
283.051	1277.12
283.282	1570.12
283.513	1827.12
283.745	2012.12
283.976	2021.12
284.207	1866.12
284.439	1953.12
284.67	1828.12
284.901	1648.12
285.132	1800.12
285.364	1891.12
285.595	1731.12
285.826	1818.12
286.057	1867.12
286.288	1753.12
286.52	1855.12
286.751	1948.12
286.982	1918.12
287.213	1660.12
287.444	1652.12
287.675	1702.12
287.906	1694.12
288.138	1430.12
288.369	1304.12
288.6	1228.12
288.831	1289.12
289.062	1514.12
289.293	1653.12
289.524	1558.12
289.755	1506.12
289.986	1557.12
290.217	1392.12
290.448	1067.12
290.679	908.12
290.91	867.12
291.141	889.12
291.371	900.12
291.602	910.12
291.833	945.12
292.064	1001.12
292.295	1138.12
292.526	1335.12
292.757	1374.12
292.987	1445.12
293.218	1460.12
293.449	1524.12
293.68	1639.12
293.91	1559.12
294.141	1568.12
294.372	1478.12
294.603	1348.12
294.833	1473.12
295.064	1716.12
295.295	1662.12
295.525	1227.12
295.756	1037.12
295.987	936.12
296.217	929.12
296.448	918.12
296.679	991.12
296.909	1055.12
297.14	1139.12
297.37	1261.12
297.601	1197.12
297.831	1053.12
298.062	1160.12
298.292	1261.12
298.523	1356.12
298.753	1514.12
298.984	1387.12
299.214	1099.12
299.445	956.12
299.675	895.12
299.905	890.12
300.136	891.12
300.366	974.12
300.597	969.12
300.827	878.12
301.057	842.12
301.288	870.12
301.518	909.12
301.748	1053.12
301.979	1078.12
302.209	1152.12
302.439	1160.12
302.669	1064.12
302.9	1074.12
303.13	1040.12
303.36	963.12
303.59	950.12
303.82	995.12
304.051	1094.12
304.281	1199.12
304.511	1172.12
304.741	1030.12
304.971	1082.12
305.201	1164.12
305.431	1072.12
305.661	934.12
305.891	906.12
306.121	936.12
306.352	864.12
306.582	807.12
306.812	778.12
307.042	766.12
307.272	739.12
307.502	723.12
307.731	768.12
307.961	811.12
308.191	775.12
308.421	717.12
308.651	728.12
308.881	698.12
309.111	722.12
309.341	740.12
309.571	831.12
309.8	826.12
310.03	831.12
310.26	876.12
310.49	835.12
310.72	783.12
310.949	791.12
311.179	852.12
311.409	854.12
311.639	975.12
311.868	1274.12
312.098	1620.12
312.328	1793.12
312.557	1684.12
312.787	1740.12
313.017	1524.12
313.246	1648.12
313.476	1812.12
313.706	1487.12
313.935	1172.12
314.165	961.12
314.394	878.12
314.624	885.12
314.853	929.12
315.083	972.12
315.312	918.12
315.542	897.12
315.771	867.12
316.001	790.12
316.23	771.12
316.46	743.12
316.689	793.12
316.919	824.12
317.148	831.12
317.377	810.12
317.607	810.12
317.836	874.12
318.065	973.12
318.295	1127.12
318.524	1063.12
318.753	886.12
318.983	817.12
319.212	824.12
319.441	867.12
319.67	976.12
319.9	1050.12
320.129	1019.12
320.358	878.12
320.587	816.12
320.816	858.12
321.046	993.12
321.275	1098.12
321.504	1116.12
321.733	1080.12
321.962	1047.12
322.191	971.12
322.42	899.12
322.649	923.12
322.878	1016.12
323.108	1024.12
323.337	966.12
323.566	961.12
323.795	945.12
324.024	917.12
324.253	871.12
324.482	842.12
324.71	904.12
324.939	985.12
325.168	956.12
325.397	825.12
325.626	815.12
325.855	820.12
326.084	834.12
326.313	789.12
326.542	757.12
326.77	791.12
326.999	808.12
327.228	859.12
327.457	863.12
327.686	884.12
327.914	791.12
328.143	752.12
328.372	756.12
328.6	751.12
328.829	806.12
329.058	810.12
329.287	809.12
329.515	831.12
329.744	815.12
329.972	771.12
330.201	731.12
330.43	774.12
330.658	858.12
330.887	938.12
331.115	912.12
331.344	907.12
331.572	908.12
331.801	843.12
332.03	781.12
332.258	812.12
332.486	855.12
332.715	887.12
332.943	848.12
333.172	843.12
333.4	873.12
333.629	980.12
333.857	1046.12
334.085	1031.12
334.314	1030.12
334.542	975.12
334.771	895.12
334.999	874.12
335.227	862.12
335.455	856.12
335.684	968.12
335.912	1103.12
336.14	1178.12
336.369	1150.12
336.597	1103.12
336.825	1255.12
337.053	1336.12
337.281	1096.12
337.51	923.12
337.738	886.12
337.966	939.12
338.194	1072.12
338.422	978.12
338.65	874.12
338.878	819.12
339.106	835.12
339.334	912.12
339.562	980.12
339.79	904.12
340.018	882.12
340.246	917.12
340.474	1033.12
340.702	1097.12
340.93	1115.12
341.158	1128.12
341.386	964.12
341.614	943.12
341.842	942.12
342.07	1008.12
342.298	1127.12
342.526	1212.12
342.754	1019.12
342.981	936.12
343.209	956.12
343.437	950.12
343.665	1032.12
343.893	1034.12
344.12	1180.12
344.348	1301.12
344.576	1231.12
344.804	1019.12
345.031	900.12
345.259	874.12
345.487	874.12
345.714	911.12
345.942	986.12
346.17	1036.12
346.397	1026.12
346.625	912.12
346.853	854.12
347.08	810.12
347.308	875.12
347.535	964.12
347.763	1001.12
347.99	868.12
348.218	846.12
348.445	888.12
348.673	868.12
348.9	878.12
349.128	901.12
349.355	934.12
349.583	922.12
349.81	908.12
350.037	823.12
350.265	753.12
350.492	735.12
350.72	715.12
350.947	724.12
351.174	785.12
351.402	818.12
351.629	824.12
351.856	826.12
352.083	759.12
352.311	792.12
352.538	846.12
352.765	894.12
352.992	836.12
353.22	827.12
353.447	849.12
353.674	809.12
353.901	825.12
354.128	822.12
354.355	818.12
354.583	835.12
354.81	855.12
355.037	855.12
355.264	851.12
355.491	883.12
355.718	908.12
355.945	915.12
356.172	914.12
356.399	908.12
356.626	1035.12
356.853	1217.12
357.08	1305.12
357.307	1345.12
357.534	1059.12
357.761	1106.12
357.988	1374.12
358.215	1523.12
358.441	1460.12
358.668	1252.12
358.895	1166.12
359.122	957.12
359.349	976.12
359.576	1045.12
359.802	907.12
360.029	795.12
360.256	902.12
360.483	1024.12
360.709	1203.12
360.936	1260.12
361.163	1126.12
361.39	894.12
361.616	885.12
361.843	960.12
362.07	1112.12
362.296	1022.12
362.523	873.12
362.749	800.12
362.976	827.12
363.203	966.12
363.429	1050.12
363.656	878.12
363.882	836.12
364.109	831.12
364.335	841.12
364.562	822.12
364.788	912.12
365.015	1012.12
365.241	926.12
365.468	798.12
365.694	729.12
365.92	730.12
366.147	711.12
366.373	705.12
366.599	722.12
366.826	720.12
367.052	711.12
367.278	732.12
367.505	722.12
367.731	775.12
367.957	864.12
368.184	871.12
368.41	841.12
368.636	854.12
368.862	839.12
369.089	835.12
369.315	775.12
369.541	761.12
369.767	743.12
369.993	766.12
370.219	735.12
370.445	783.12
370.672	849.12
370.898	873.12
371.124	898.12
371.35	827.12
371.576	794.12
371.802	836.12
372.028	962.12
372.254	1018.12
372.48	905.12
372.706	849.12
372.932	878.12
373.158	890.12
373.384	1070.12
373.61	1311.12
373.835	1348.12
374.061	1058.12
374.287	929.12
374.513	1076.12
374.739	1230.12
374.965	1281.12
375.191	1282.12
375.416	972.12
375.642	854.12
375.868	977.12
376.094	1081.12
376.319	934.12
376.545	1015.12
376.771	1037.12
376.997	907.12
377.222	758.12
377.448	698.12
377.674	694.12
377.899	686.12
378.125	687.12
378.35	691.12
378.576	679.12
378.802	744.12
379.027	783.12
379.253	797.12
379.478	774.12
379.704	859.12
379.929	894.12
380.155	880.12
380.38	812.12
380.606	857.12
380.831	898.12
381.057	834.12
381.282	824.12
381.507	944.12
381.733	1092.12
381.958	1139.12
382.184	1259.12
382.409	1287.12
382.634	1271.12
382.86	1304.12
383.085	1101.12
383.31	949.12
383.535	985.12
383.761	996.12
383.986	948.12
384.211	1103.12
384.436	1037.12
384.662	866.12
384.887	857.12
385.112	873.12
385.337	870.12
385.562	838.12
385.787	912.12
386.013	993.12
386.238	1023.12
386.463	867.12
386.688	885.12
386.913	811.12
387.138	830.12
387.363	873.12
387.588	863.12
387.813	855.12
388.038	935.12
388.263	855.12
388.488	852.12
388.713	955.12
388.938	995.12
389.163	878.12
389.387	778.12
389.612	812.12
389.837	852.12
390.062	832.12
390.287	871.12
390.512	868.12
390.736	827.12
390.961	811.12
391.186	800.12
391.411	801.12
391.636	806.12
391.86	846.12
392.085	898.12
392.31	916.12
392.534	838.12
392.759	811.12
392.984	900.12
393.208	870.12
393.433	835.12
393.658	820.12
393.882	738.12
394.107	775.12
394.331	758.12
394.556	752.12
394.78	750.12
395.005	794.12
395.229	806.12
395.454	799.12
395.678	787.12
395.903	834.12
396.127	798.12
396.352	816.12
396.576	890.12
396.801	894.12
397.025	984.12
397.249	1003.12
397.474	881.12
397.698	839.12
397.922	882.12
398.147	841.12
398.371	852.12
398.595	878.12
398.82	890.12
399.044	896.12
399.268	954.12
399.492	979.12
399.717	1015.12
399.941	1023.12
400.165	977.12
400.389	946.12
400.613	960.12
400.837	939.12
401.062	859.12
401.286	832.12
401.51	863.12
401.734	844.12
401.958	856.12
402.182	813.12
402.406	866.12
402.63	868.12
402.854	916.12
403.078	987.12
403.302	1169.12
403.526	1217.12
403.75	1090.12
403.974	988.12
404.198	1033.12
404.422	1104.12
404.645	1239.12
404.869	1313.12
405.093	1022.12
405.317	926.12
405.541	921.12
405.765	945.12
405.988	943.12
406.212	1007.12
406.436	1108.12
406.66	1192.12
406.883	1019.12
407.107	1034.12
407.331	1158.12
407.555	1141.12
407.778	1012.12
408.002	1003.12
408.226	1010.12
408.449	981.12
408.673	972.12
408.896	888.12
409.12	871.12
409.344	894.12
409.567	876.12
409.791	859.12
410.014	863.12
410.238	834.12
410.461	834.12
410.685	860.12
410.908	858.12
411.132	886.12
411.355	903.12
411.578	914.12
411.802	900.12
412.025	914.12
412.249	924.12
412.472	914.12
412.695	880.12
412.919	895.12
413.142	915.12
413.365	935.12
413.589	907.12
413.812	882.12
414.035	866.12
414.258	876.12
414.482	906.12
414.705	944.12
414.928	852.12
415.151	840.12
415.374	817.12
415.597	853.12
415.821	848.12
416.044	831.12
416.267	810.12
416.49	815.12
416.713	826.12
416.936	817.12
417.159	816.12
417.382	811.12
417.605	816.12
417.828	860.12
418.051	851.12
418.274	875.12
418.497	848.12
418.72	868.12
418.943	868.12
419.166	896.12
419.389	932.12
419.611	946.12
419.834	953.12
420.057	961.12
420.28	971.12
420.503	907.12
420.726	843.12
420.948	841.12
421.171	847.12
421.394	828.12
421.617	806.12
421.839	869.12
422.062	869.12
422.285	854.12
422.507	869.12
422.73	864.12
422.953	852.12
423.175	870.12
423.398	891.12
423.621	927.12
423.843	954.12
424.066	889.12
424.288	863.12
424.511	862.12
424.733	889.12
424.956	860.12
425.178	946.12
425.401	1052.12
425.623	1186.12
425.846	1020.12
426.068	928.12
426.291	984.12
426.513	919.12
426.735	868.12
426.958	930.12
427.18	1008.12
427.402	1223.12
427.625	1235.12
427.847	1012.12
428.069	843.12
428.292	833.12
428.514	829.12
428.736	810.12
428.958	916.12
429.181	1010.12
429.403	877.12
429.625	823.12
429.847	804.12
430.069	807.12
430.292	851.12
430.514	843.12
430.736	880.12
430.958	995.12
431.18	928.12
431.402	805.12
431.624	785.12
431.846	783.12
432.068	768.12
432.29	796.12
432.512	841.12
432.734	1002.12
432.956	968.12
433.178	831.12
433.4	796.12
433.622	814.12
433.844	820.12
434.066	863.12
434.287	854.12
434.509	853.12
434.731	860.12
434.953	819.12
435.175	857.12
435.397	973.12
435.618	884.12
435.84	808.12
436.062	768.12
436.284	791.12
436.505	771.12
436.727	742.12
436.949	788.12
437.17	781.12
437.392	822.12
437.614	794.12
437.835	786.12
438.057	775.12
438.278	902.12
438.5	1133.12
438.721	1124.12
438.943	882.12
439.165	755.12
439.386	750.12
439.608	753.12
439.829	772.12
440.05	737.12
440.272	808.12
440.493	905.12
440.715	1022.12
440.936	870.12
441.158	796.12
441.379	814.12
441.6	894.12
441.822	938.12
442.043	832.12
442.264	841.12
442.486	842.12
442.707	831.12
442.928	830.12
443.149	875.12
443.371	849.12
443.592	908.12
443.813	887.12
444.034	871.12
444.255	873.12
444.476	926.12
444.698	898.12
444.919	931.12
445.14	1013.12
445.361	956.12
445.582	902.12
445.803	894.12
446.024	894.12
446.245	891.12
446.466	859.12
446.687	833.12
446.908	825.12
447.129	780.12
447.35	773.12
447.571	755.12
447.792	766.12
448.013	755.12
448.234	727.12
448.455	755.12
448.675	766.12
448.896	780.12
449.117	775.12
449.338	756.12
449.559	797.12
449.779	825.12
450	812.12
450.221	785.12
450.442	779.12
450.662	789.12
450.883	779.12
451.104	795.12
451.324	743.12
451.545	754.12
451.766	764.12
451.986	757.12
452.207	735.12
452.428	733.12
452.648	727.12
452.869	786.12
453.089	774.12
453.31	786.12
453.53	715.12
453.751	719.12
453.971	721.12
454.192	741.12
454.412	751.12
454.633	698.12
454.853	698.12
455.073	700.12
455.294	714.12
455.514	705.12
455.734	735.12
455.955	751.12
456.175	776.12
456.395	720.12
456.616	692.12
456.836	675.12
457.056	669.12
457.276	664.12
457.497	693.12
457.717	710.12
457.937	706.12
458.157	698.12
458.377	699.12
458.598	738.12
458.818	760.12
459.038	758.12
459.258	787.12
459.478	802.12
459.698	842.12
459.918	842.12
460.138	855.12
460.358	871.12
460.578	850.12
460.798	877.12
461.018	900.12
461.238	820.12
461.458	838.12
461.678	861.12
461.898	885.12
462.118	850.12
462.338	868.12
462.558	904.12
462.777	946.12
462.997	961.12
463.217	983.12
463.437	1008.12
463.657	997.12
463.876	938.12
464.096	912.12
464.316	953.12
464.536	898.12
464.755	955.12
464.975	951.12
465.195	911.12
465.414	903.12
465.634	889.12
465.854	900.12
466.073	853.12
466.293	826.12
466.512	863.12
466.732	960.12
466.951	986.12
467.171	894.12
467.391	842.12
467.61	830.12
467.829	875.12
468.049	876.12
468.268	829.12
468.488	846.12
468.707	856.12
468.927	979.12
469.146	1080.12
469.365	975.12
469.585	883.12
469.804	938.12
470.023	985.12
470.243	911.12
470.462	874.12
470.681	873.12
470.901	865.12
471.12	920.12
471.339	936.12
471.558	868.12
471.777	892.12
471.997	958.12
472.216	1024.12
472.435	987.12
472.654	916.12
472.873	914.12
473.092	913.12
473.311	970.12
473.53	892.12
473.749	889.12
473.968	909.12
474.187	919.12
474.406	890.12
474.625	879.12
474.844	908.12
475.063	977.12
475.282	956.12
475.501	975.12
475.72	1038.12
475.939	1010.12
476.158	1042.12
476.377	1150.12
476.596	1336.12
476.814	1391.12
477.033	1150.12
477.252	994.12
477.471	918.12
477.69	975.12
477.908	1048.12
478.127	1081.12
478.346	1004.12
478.564	1082.12
478.783	1060.12
479.002	1041.12
479.22	1216.12
479.439	1347.12
479.658	1159.12
479.876	1062.12
480.095	1166.12
480.313	1149.12
480.532	1101.12
480.751	1039.12
480.969	1075.12
481.188	1220.12
481.406	1208.12
481.624	1162.12
481.843	1060.12
482.061	1043.12
482.28	1150.12
482.498	1374.12
482.717	1266.12
482.935	1111.12
483.153	1053.12
483.372	996.12
483.59	1000.12
483.808	983.12
484.027	993.12
484.245	960.12
484.463	931.12
484.681	984.12
484.9	1057.12
485.118	1123.12
485.336	1043.12
485.554	993.12
485.772	998.12
485.99	1060.12
486.209	1121.12
486.427	1141.12
486.645	1126.12
486.863	1123.12
487.081	1132.12
487.299	1226.12
487.517	1185.12
487.735	1102.12
487.953	1150.12
488.171	1176.12
488.389	1096.12
488.607	1050.12
488.825	1094.12
489.043	1139.12
489.261	1278.12
489.479	1266.12
489.696	1172.12
489.914	1116.12
490.132	1049.12
490.35	1048.12
490.568	1057.12
490.786	1080.12
491.003	1091.12
491.221	1118.12
491.439	1111.12
491.657	1075.12
491.874	1158.12
492.092	1311.12
492.31	1444.12
492.527	1498.12
492.745	1354.12
492.963	1236.12
493.18	1191.12
493.398	1205.12
493.615	1198.12
493.833	1174.12
494.05	1161.12
494.268	1190.12
494.485	1163.12
494.703	1150.12
494.92	1172.12
495.138	1125.12
495.355	1112.12
495.573	1150.12
495.79	1215.12
496.008	1448.12
496.225	1296.12
496.442	1250.12
496.66	1238.12
496.877	1319.12
