Data from NickelSpatula_HRD10591_16-35-07-126.txt Node
Date: Mon Jul 22 16:35:07 EDT 2019
User: cochatt
Spectrometer: HR+D1059
Trigger mode: 1
Integration Time (sec): 1.000000E-1
Scans to average: 1
Electric dark correction enabled: true
Nonlinearity correction enabled: false
Boxcar width: 0
XAxis mode: Wavelengths
Number of Pixels in Spectrum: 2048
>>>>>Begin Spectral Data<<<<<
223.165	-13.06
223.4	-13.06
223.635	-13.06
223.869	-17.06
224.104	-24.06
224.338	-17.06
224.573	-15.06
224.808	-23.06
225.042	-5.06
225.277	-2.06
225.511	7.94
225.746	1.94
225.98	11.94
226.215	7.94
226.449	6.94
226.683	18.94
226.918	18.94
227.152	41.94
227.387	27.94
227.621	38.94
227.856	39.94
228.09	50.94
228.324	60.94
228.559	52.94
228.793	53.94
229.027	82.94
229.262	91.94
229.496	86.94
229.73	77.94
229.964	74.94
230.199	93.94
230.433	95.94
230.667	93.94
230.901	83.94
231.136	105.94
231.37	100.94
231.604	94.94
231.838	99.94
232.072	112.94
232.306	99.94
232.541	95.94
232.775	102.94
233.009	105.94
233.243	124.94
233.477	119.94
233.711	125.94
233.945	121.94
234.179	111.94
234.413	121.94
234.647	120.94
234.881	130.94
235.115	129.94
235.349	119.94
235.583	125.94
235.817	124.94
236.051	124.94
236.285	130.94
236.519	142.94
236.753	125.94
236.987	115.94
237.221	127.94
237.455	133.94
237.689	125.94
237.922	150.94
238.156	140.94
238.39	152.94
238.624	156.94
238.858	148.94
239.091	148.94
239.325	150.94
239.559	158.94
239.793	149.94
240.027	170.94
240.26	146.94
240.494	159.94
240.728	155.94
240.961	147.94
241.195	157.94
241.429	147.94
241.662	147.94
241.896	130.94
242.13	127.94
242.363	136.94
242.597	116.94
242.83	146.94
243.064	153.94
243.298	174.94
243.531	171.94
243.765	157.94
243.998	162.94
244.232	155.94
244.465	162.94
244.699	159.94
244.932	169.94
245.166	166.94
245.399	157.94
245.633	133.94
245.866	147.94
246.099	150.94
246.333	189.94
246.566	194.94
246.8	193.94
247.033	190.94
247.266	164.94
247.5	166.94
247.733	169.94
247.966	165.94
248.2	166.94
248.433	179.94
248.666	191.94
248.899	189.94
249.133	198.94
249.366	211.94
249.599	229.94
249.832	208.94
250.066	196.94
250.299	205.94
250.532	192.94
250.765	202.94
250.998	183.94
251.231	181.94
251.465	193.94
251.698	198.94
251.931	189.94
252.164	198.94
252.397	231.94
252.63	241.94
252.863	253.94
253.096	255.94
253.329	253.94
253.562	255.94
253.795	276.94
254.028	277.94
254.261	285.94
254.494	270.94
254.727	235.94
254.96	227.94
255.193	282.94
255.426	245.94
255.659	205.94
255.892	187.94
256.124	198.94
256.357	237.94
256.59	261.94
256.823	240.94
257.056	221.94
257.289	213.94
257.521	214.94
257.754	240.94
257.987	261.94
258.22	228.94
258.452	229.94
258.685	251.94
258.918	263.94
259.151	260.94
259.383	279.94
259.616	298.94
259.849	313.94
260.081	311.94
260.314	351.94
260.547	292.94
260.779	310.94
261.012	353.94
261.244	311.94
261.477	333.94
261.71	291.94
261.942	266.94
262.175	281.94
262.407	267.94
262.64	257.94
262.872	306.94
263.105	302.94
263.337	337.94
263.57	327.94
263.802	221.94
264.035	198.94
264.267	195.94
264.499	178.94
264.732	159.94
264.964	162.94
265.197	156.94
265.429	179.94
265.661	193.94
265.894	190.94
266.126	213.94
266.358	216.94
266.591	255.94
266.823	301.94
267.055	312.94
267.287	278.94
267.52	270.94
267.752	263.94
267.984	289.94
268.216	265.94
268.448	252.94
268.681	237.94
268.913	255.94
269.145	275.94
269.377	282.94
269.609	266.94
269.841	262.94
270.073	277.94
270.306	282.94
270.538	278.94
270.77	289.94
271.002	304.94
271.234	318.94
271.466	316.94
271.698	314.94
271.93	291.94
272.162	308.94
272.394	260.94
272.626	281.94
272.858	296.94
273.09	301.94
273.322	273.94
273.553	250.94
273.785	284.94
274.017	362.94
274.249	423.94
274.481	450.94
274.713	470.94
274.945	550.94
275.176	568.94
275.408	516.94
275.64	468.94
275.872	474.94
276.104	410.94
276.335	362.94
276.567	340.94
276.799	360.94
277.031	376.94
277.262	321.94
277.494	242.94
277.726	241.94
277.957	273.94
278.189	306.94
278.421	288.94
278.652	316.94
278.884	291.94
279.115	249.94
279.347	233.94
279.579	257.94
279.81	249.94
280.042	249.94
280.273	258.94
280.505	233.94
280.736	205.94
280.968	213.94
281.199	230.94
281.431	266.94
281.662	237.94
281.894	233.94
282.125	245.94
282.356	262.94
282.588	284.94
282.819	241.94
283.051	287.94
283.282	307.94
283.513	356.94
283.745	401.94
283.976	401.94
284.207	344.94
284.439	379.94
284.67	361.94
284.901	327.94
285.132	357.94
285.364	375.94
285.595	353.94
285.826	377.94
286.057	383.94
286.288	365.94
286.52	381.94
286.751	372.94
286.982	371.94
287.213	338.94
287.444	341.94
287.675	355.94
287.906	335.94
288.138	317.94
288.369	260.94
288.6	237.94
288.831	280.94
289.062	312.94
289.293	306.94
289.524	303.94
289.755	306.94
289.986	312.94
290.217	310.94
290.448	219.94
290.679	199.94
290.91	190.94
291.141	213.94
291.371	215.94
291.602	217.94
291.833	211.94
292.064	215.94
292.295	244.94
292.526	273.94
292.757	280.94
292.987	298.94
293.218	306.94
293.449	305.94
293.68	321.94
293.91	309.94
294.141	303.94
294.372	280.94
294.603	262.94
294.833	296.94
295.064	344.94
295.295	339.94
295.525	273.94
295.756	239.94
295.987	212.94
296.217	202.94
296.448	192.94
296.679	212.94
296.909	243.94
297.14	254.94
297.37	269.94
297.601	270.94
297.831	223.94
298.062	226.94
298.292	271.94
298.523	306.94
298.753	315.94
298.984	300.94
299.214	249.94
299.445	207.94
299.675	219.94
299.905	210.94
300.136	224.94
300.366	221.94
300.597	221.94
300.827	202.94
301.057	192.94
301.288	199.94
301.518	209.94
301.748	246.94
301.979	258.94
302.209	246.94
302.439	269.94
302.669	226.94
302.9	246.94
303.13	225.94
303.36	231.94
303.59	218.94
303.82	218.94
304.051	240.94
304.281	256.94
304.511	254.94
304.741	216.94
304.971	247.94
305.201	245.94
305.431	238.94
305.661	226.94
305.891	217.94
306.121	213.94
306.352	203.94
306.582	175.94
306.812	164.94
307.042	182.94
307.272	158.94
307.502	166.94
307.731	177.94
307.961	192.94
308.191	185.94
308.421	173.94
308.651	157.94
308.881	179.94
309.111	170.94
309.341	173.94
309.571	168.94
309.8	178.94
310.03	202.94
310.26	203.94
310.49	193.94
310.72	178.94
310.949	164.94
311.179	179.94
311.409	171.94
311.639	205.94
311.868	246.94
312.098	322.94
312.328	347.94
312.557	327.94
312.787	332.94
313.017	305.94
313.246	325.94
313.476	338.94
313.706	293.94
313.935	244.94
314.165	203.94
314.394	179.94
314.624	185.94
314.853	204.94
315.083	203.94
315.312	200.94
315.542	190.94
315.771	203.94
316.001	179.94
316.23	170.94
316.46	162.94
316.689	163.94
316.919	177.94
317.148	187.94
317.377	185.94
317.607	184.94
317.836	197.94
318.065	224.94
318.295	235.94
318.524	210.94
318.753	210.94
318.983	194.94
319.212	190.94
319.441	195.94
319.67	203.94
319.9	226.94
320.129	206.94
320.358	185.94
320.587	188.94
320.816	200.94
321.046	223.94
321.275	247.94
321.504	239.94
321.733	238.94
321.962	232.94
322.191	233.94
322.42	229.94
322.649	219.94
322.878	221.94
323.108	222.94
323.337	216.94
323.566	202.94
323.795	205.94
324.024	196.94
324.253	182.94
324.482	192.94
324.71	197.94
324.939	217.94
325.168	211.94
325.397	202.94
325.626	191.94
325.855	179.94
326.084	199.94
326.313	192.94
326.542	180.94
326.77	181.94
326.999	168.94
327.228	181.94
327.457	181.94
327.686	195.94
327.914	184.94
328.143	166.94
328.372	169.94
328.6	160.94
328.829	187.94
329.058	181.94
329.287	175.94
329.515	180.94
329.744	199.94
329.972	170.94
330.201	169.94
330.43	175.94
330.658	182.94
330.887	194.94
331.115	203.94
331.344	198.94
331.572	194.94
331.801	197.94
332.03	166.94
332.258	186.94
332.486	196.94
332.715	192.94
332.943	184.94
333.172	181.94
333.4	182.94
333.629	216.94
333.857	209.94
334.085	210.94
334.314	241.94
334.542	191.94
334.771	194.94
334.999	201.94
335.227	185.94
335.455	189.94
335.684	178.94
335.912	224.94
336.14	224.94
336.369	228.94
336.597	226.94
336.825	249.94
337.053	271.94
337.281	225.94
337.51	184.94
337.738	199.94
337.966	191.94
338.194	216.94
338.422	200.94
338.65	198.94
338.878	176.94
339.106	176.94
339.334	192.94
339.562	205.94
339.79	178.94
340.018	175.94
340.246	195.94
340.474	227.94
340.702	244.94
340.93	244.94
341.158	256.94
341.386	199.94
341.614	215.94
341.842	204.94
342.07	210.94
342.298	233.94
342.526	230.94
342.754	214.94
342.981	212.94
343.209	200.94
343.437	214.94
343.665	238.94
343.893	221.94
344.12	246.94
344.348	291.94
344.576	274.94
344.804	214.94
345.031	194.94
345.259	197.94
345.487	187.94
345.714	196.94
345.942	219.94
346.17	218.94
346.397	208.94
346.625	174.94
346.853	178.94
347.08	174.94
347.308	199.94
347.535	216.94
347.763	209.94
347.99	202.94
348.218	189.94
348.445	189.94
348.673	189.94
348.9	187.94
349.128	202.94
349.355	208.94
349.583	203.94
349.81	203.94
350.037	188.94
350.265	166.94
350.492	175.94
350.72	173.94
350.947	175.94
351.174	180.94
351.402	175.94
351.629	180.94
351.856	169.94
352.083	170.94
352.311	207.94
352.538	207.94
352.765	218.94
352.992	211.94
353.22	188.94
353.447	200.94
353.674	184.94
353.901	189.94
354.128	207.94
354.355	182.94
354.583	193.94
354.81	191.94
355.037	207.94
355.264	202.94
355.491	203.94
355.718	210.94
355.945	219.94
356.172	209.94
356.399	191.94
356.626	218.94
356.853	270.94
357.08	297.94
357.307	302.94
357.534	237.94
357.761	239.94
357.988	303.94
358.215	296.94
358.441	329.94
358.668	277.94
358.895	278.94
359.122	231.94
359.349	231.94
359.576	226.94
359.802	188.94
360.029	179.94
360.256	175.94
360.483	233.94
360.709	273.94
360.936	286.94
361.163	257.94
361.39	210.94
361.616	189.94
361.843	202.94
362.07	231.94
362.296	230.94
362.523	207.94
362.749	188.94
362.976	174.94
363.203	227.94
363.429	231.94
363.656	192.94
363.882	181.94
364.109	195.94
364.335	186.94
364.562	186.94
364.788	220.94
365.015	225.94
365.241	224.94
365.468	181.94
365.694	173.94
365.92	159.94
366.147	165.94
366.373	149.94
366.599	171.94
366.826	164.94
367.052	173.94
367.278	153.94
367.505	155.94
367.731	153.94
367.957	190.94
368.184	177.94
368.41	194.94
368.636	189.94
368.862	186.94
369.089	197.94
369.315	189.94
369.541	184.94
369.767	172.94
369.993	173.94
370.219	177.94
370.445	192.94
370.672	185.94
370.898	199.94
371.124	205.94
371.35	170.94
371.576	173.94
371.802	184.94
372.028	195.94
372.254	220.94
372.48	209.94
372.706	201.94
372.932	207.94
373.158	209.94
373.384	212.94
373.61	279.94
373.835	292.94
374.061	232.94
374.287	212.94
374.513	238.94
374.739	273.94
374.965	273.94
375.191	275.94
375.416	216.94
375.642	183.94
375.868	209.94
376.094	232.94
376.319	210.94
376.545	204.94
376.771	234.94
376.997	226.94
377.222	185.94
377.448	171.94
377.674	165.94
377.899	155.94
378.125	163.94
378.35	152.94
378.576	164.94
378.802	164.94
379.027	183.94
379.253	169.94
379.478	184.94
379.704	189.94
379.929	197.94
380.155	208.94
380.38	199.94
380.606	185.94
380.831	211.94
381.057	207.94
381.282	194.94
381.507	217.94
381.733	235.94
381.958	276.94
382.184	256.94
382.409	286.94
382.634	273.94
382.86	285.94
383.085	258.94
383.31	192.94
383.535	234.94
383.761	241.94
383.986	226.94
384.211	251.94
384.436	242.94
384.662	183.94
384.887	187.94
385.112	202.94
385.337	226.94
385.562	191.94
385.787	206.94
386.013	233.94
386.238	217.94
386.463	211.94
386.688	198.94
386.913	182.94
387.138	179.94
387.363	192.94
387.588	194.94
387.813	213.94
388.038	224.94
388.263	172.94
388.488	185.94
388.713	212.94
388.938	242.94
389.163	203.94
389.387	183.94
389.612	184.94
389.837	186.94
390.062	176.94
390.287	201.94
390.512	198.94
390.736	194.94
390.961	202.94
391.186	182.94
391.411	173.94
391.636	180.94
391.86	178.94
392.085	186.94
392.31	207.94
392.534	194.94
392.759	186.94
392.984	196.94
393.208	184.94
393.433	173.94
393.658	177.94
393.882	155.94
394.107	171.94
394.331	167.94
394.556	179.94
394.78	159.94
395.005	179.94
395.229	162.94
395.454	176.94
395.678	183.94
395.903	174.94
396.127	174.94
396.352	195.94
396.576	180.94
396.801	189.94
397.025	205.94
397.249	206.94
397.474	167.94
397.698	183.94
397.922	181.94
398.147	194.94
398.371	177.94
398.595	192.94
398.82	187.94
399.044	202.94
399.268	214.94
399.492	214.94
399.717	210.94
399.941	210.94
400.165	198.94
400.389	199.94
400.613	194.94
400.837	207.94
401.062	195.94
401.286	189.94
401.51	183.94
401.734	167.94
401.958	169.94
402.182	176.94
402.406	177.94
402.63	187.94
402.854	203.94
403.078	199.94
403.302	256.94
403.526	279.94
403.75	248.94
403.974	201.94
404.198	206.94
404.422	230.94
404.645	255.94
404.869	272.94
405.093	230.94
405.317	199.94
405.541	201.94
405.765	211.94
405.988	223.94
406.212	200.94
406.436	218.94
406.66	250.94
406.883	207.94
407.107	210.94
407.331	253.94
407.555	224.94
407.778	215.94
408.002	207.94
408.226	216.94
408.449	197.94
408.673	213.94
408.896	196.94
409.12	190.94
409.344	185.94
409.567	183.94
409.791	195.94
410.014	188.94
410.238	180.94
410.461	203.94
410.685	177.94
410.908	197.94
411.132	200.94
411.355	194.94
411.578	207.94
411.802	201.94
412.025	199.94
412.249	189.94
412.472	184.94
412.695	197.94
412.919	194.94
413.142	190.94
413.365	195.94
413.589	215.94
413.812	201.94
414.035	195.94
414.258	171.94
414.482	191.94
414.705	192.94
414.928	199.94
415.151	177.94
415.374	198.94
415.597	197.94
415.821	185.94
416.044	177.94
416.267	176.94
416.49	181.94
416.713	169.94
416.936	159.94
417.159	171.94
417.382	192.94
417.605	190.94
417.828	183.94
418.051	184.94
418.274	197.94
418.497	195.94
418.72	193.94
418.943	205.94
419.166	195.94
419.389	177.94
419.611	201.94
419.834	211.94
420.057	206.94
420.28	207.94
420.503	188.94
420.726	176.94
420.948	185.94
421.171	182.94
421.394	185.94
421.617	166.94
421.839	189.94
422.062	196.94
422.285	184.94
422.507	175.94
422.73	200.94
422.953	196.94
423.175	186.94
423.398	194.94
423.621	221.94
423.843	203.94
424.066	195.94
424.288	192.94
424.511	201.94
424.733	190.94
424.956	203.94
425.178	202.94
425.401	242.94
425.623	248.94
425.846	236.94
426.068	203.94
426.291	224.94
426.513	211.94
426.735	196.94
426.958	212.94
427.18	231.94
427.402	280.94
427.625	281.94
427.847	231.94
428.069	186.94
428.292	193.94
428.514	177.94
428.736	194.94
428.958	202.94
429.181	230.94
429.403	205.94
429.625	185.94
429.847	177.94
430.069	185.94
430.292	194.94
430.514	186.94
430.736	194.94
430.958	225.94
431.18	219.94
431.402	180.94
431.624	166.94
431.846	181.94
432.068	163.94
432.29	168.94
432.512	191.94
432.734	227.94
432.956	212.94
433.178	183.94
433.4	175.94
433.622	164.94
433.844	184.94
434.066	184.94
434.287	192.94
434.509	178.94
434.731	201.94
434.953	187.94
435.175	202.94
435.397	206.94
435.618	167.94
435.84	183.94
436.062	197.94
436.284	172.94
436.505	181.94
436.727	167.94
436.949	161.94
437.17	147.94
437.392	184.94
437.614	156.94
437.835	168.94
438.057	180.94
438.278	187.94
438.5	269.94
438.721	261.94
438.943	173.94
439.165	166.94
439.386	163.94
439.608	184.94
439.829	163.94
440.05	153.94
440.272	173.94
440.493	203.94
440.715	226.94
440.936	191.94
441.158	178.94
441.379	165.94
441.6	204.94
441.822	207.94
442.043	198.94
442.264	190.94
442.486	184.94
442.707	201.94
442.928	207.94
443.149	207.94
443.371	211.94
443.592	174.94
443.813	193.94
444.034	189.94
444.255	196.94
444.476	207.94
444.698	198.94
444.919	198.94
445.14	318.94
445.361	254.94
445.582	186.94
445.803	197.94
446.024	188.94
446.245	195.94
446.466	203.94
446.687	185.94
446.908	189.94
447.129	187.94
447.35	181.94
447.571	158.94
447.792	167.94
448.013	162.94
448.234	178.94
448.455	177.94
448.675	164.94
448.896	170.94
449.117	157.94
449.338	160.94
449.559	182.94
449.779	196.94
450	176.94
450.221	182.94
450.442	186.94
450.662	185.94
450.883	174.94
451.104	184.94
451.324	159.94
451.545	178.94
451.766	165.94
451.986	159.94
452.207	178.94
452.428	171.94
452.648	167.94
452.869	180.94
453.089	184.94
453.31	191.94
453.53	161.94
453.751	168.94
453.971	161.94
454.192	165.94
454.412	172.94
454.633	177.94
454.853	162.94
455.073	153.94
455.294	147.94
455.514	159.94
455.734	167.94
455.955	177.94
456.175	184.94
456.395	175.94
456.616	163.94
456.836	154.94
457.056	151.94
457.276	162.94
457.497	155.94
457.717	148.94
457.937	159.94
458.157	176.94
458.377	158.94
458.598	166.94
458.818	165.94
459.038	181.94
459.258	170.94
459.478	191.94
459.698	185.94
459.918	189.94
460.138	183.94
460.358	197.94
460.578	186.94
460.798	185.94
461.018	187.94
461.238	179.94
461.458	189.94
461.678	176.94
461.898	204.94
462.118	187.94
462.338	197.94
462.558	195.94
462.777	197.94
462.997	217.94
463.217	223.94
463.437	215.94
463.657	212.94
463.876	211.94
464.096	202.94
464.316	199.94
464.536	198.94
464.755	209.94
464.975	194.94
465.195	203.94
465.414	216.94
465.634	198.94
465.854	197.94
466.073	181.94
466.293	178.94
466.512	186.94
466.732	198.94
466.951	209.94
467.171	205.94
467.391	177.94
467.61	195.94
467.829	185.94
468.049	212.94
468.268	175.94
468.488	161.94
468.707	196.94
468.927	208.94
469.146	239.94
469.365	213.94
469.585	177.94
469.804	210.94
470.023	223.94
470.243	194.94
470.462	186.94
470.681	191.94
470.901	206.94
471.12	207.94
471.339	200.94
471.558	194.94
471.777	188.94
471.997	189.94
472.216	219.94
472.435	216.94
472.654	190.94
472.873	199.94
473.092	208.94
473.311	221.94
473.53	193.94
473.749	185.94
473.968	207.94
474.187	192.94
474.406	196.94
474.625	202.94
474.844	194.94
475.063	211.94
475.282	205.94
475.501	207.94
475.72	239.94
475.939	223.94
476.158	208.94
476.377	237.94
476.596	283.94
476.814	289.94
477.033	256.94
477.252	200.94
477.471	213.94
477.69	204.94
477.908	212.94
478.127	222.94
478.346	200.94
478.564	227.94
478.783	230.94
479.002	202.94
479.22	254.94
479.439	258.94
479.658	241.94
479.876	227.94
480.095	227.94
480.313	253.94
480.532	224.94
480.751	222.94
480.969	208.94
481.188	239.94
481.406	242.94
481.624	245.94
481.843	230.94
482.061	209.94
482.28	229.94
482.498	273.94
482.717	289.94
482.935	234.94
483.153	220.94
483.372	212.94
483.59	217.94
483.808	220.94
484.027	209.94
484.245	189.94
484.463	203.94
484.681	219.94
484.9	228.94
485.118	221.94
485.336	222.94
485.554	221.94
485.772	209.94
485.99	211.94
486.209	238.94
486.427	230.94
486.645	240.94
486.863	233.94
487.081	231.94
487.299	273.94
487.517	255.94
487.735	215.94
487.953	222.94
488.171	237.94
488.389	240.94
488.607	223.94
488.825	218.94
489.043	241.94
489.261	266.94
489.479	287.94
489.696	242.94
489.914	242.94
490.132	217.94
490.35	215.94
490.568	224.94
490.786	209.94
491.003	227.94
491.221	200.94
491.439	203.94
491.657	197.94
491.874	240.94
492.092	255.94
492.31	335.94
492.527	309.94
492.745	277.94
492.963	245.94
493.18	260.94
493.398	238.94
493.615	254.94
493.833	226.94
494.05	224.94
494.268	241.94
494.485	245.94
494.703	222.94
494.92	226.94
495.138	237.94
495.355	223.94
495.573	224.94
495.79	255.94
496.008	333.94
496.225	279.94
496.442	243.94
496.66	255.94
496.877	276.94
497.094	249.94
497.312	253.94
497.529	221.94
497.746	231.94
497.963	242.94
498.181	264.94
498.398	285.94
498.615	301.94
498.832	299.94
499.049	334.94
499.267	280.94
499.484	289.94
499.701	310.94
499.918	340.94
500.135	346.94
500.352	375.94
500.569	394.94
500.786	393.94
501.003	397.94
501.22	347.94
501.437	335.94
501.654	327.94
501.871	298.94
502.088	282.94
502.305	298.94
502.522	275.94
502.739	263.94
