Data from NickelSpatula.Lamp.E10._HRD10591_11-46-24-577.txt Node
Date: Tue Jul 23 11:46:24 EDT 2019
User: cochatt
Spectrometer: HR+D1059
Trigger mode: 1
Integration Time (sec): 1.000000E-1
Scans to average: 1
Electric dark correction enabled: true
Nonlinearity correction enabled: false
Boxcar width: 0
XAxis mode: Wavelengths
Number of Pixels in Spectrum: 2048
>>>>>Begin Spectral Data<<<<<
223.165	2.69
223.4	2.69
223.635	2.69
223.869	-10.31
224.104	-31.31
224.338	-8.31
224.573	-14.31
224.808	-19.31
225.042	-5.31
225.277	-20.31
225.511	-8.31
225.746	2.69
225.98	6.69
226.215	18.69
226.449	8.69
226.683	27.69
226.918	27.69
227.152	22.69
227.387	18.69
227.621	33.69
227.856	46.69
228.09	35.69
228.324	45.69
228.559	51.69
228.793	57.69
229.027	59.69
229.262	63.69
229.496	62.69
229.73	52.69
229.964	75.69
230.199	67.69
230.433	82.69
230.667	86.69
230.901	81.69
231.136	73.69
231.37	80.69
231.604	83.69
231.838	68.69
232.072	82.69
232.306	86.69
232.541	70.69
232.775	76.69
233.009	74.69
233.243	75.69
233.477	81.69
233.711	80.69
233.945	78.69
234.179	77.69
234.413	84.69
234.647	75.69
234.881	71.69
235.115	78.69
235.349	75.69
235.583	73.69
235.817	69.69
236.051	79.69
236.285	77.69
236.519	77.69
236.753	74.69
236.987	74.69
237.221	66.69
237.455	82.69
237.689	82.69
237.922	77.69
238.156	72.69
238.39	81.69
238.624	89.69
238.858	80.69
239.091	66.69
239.325	64.69
239.559	70.69
239.793	77.69
240.027	89.69
240.26	71.69
240.494	63.69
240.728	72.69
240.961	73.69
241.195	77.69
241.429	81.69
241.662	75.69
241.896	74.69
242.13	70.69
242.363	75.69
242.597	75.69
242.83	90.69
243.064	82.69
243.298	76.69
243.531	66.69
243.765	69.69
243.998	67.69
244.232	73.69
244.465	71.69
244.699	60.69
244.932	68.69
245.166	81.69
245.399	79.69
245.633	88.69
245.866	79.69
246.099	78.69
246.333	67.69
246.566	67.69
246.8	78.69
247.033	63.69
247.266	66.69
247.5	74.69
247.733	81.69
247.966	77.69
248.2	64.69
248.433	65.69
248.666	80.69
248.899	73.69
249.133	91.69
249.366	76.69
249.599	66.69
249.832	78.69
250.066	82.69
250.299	84.69
250.532	83.69
250.765	80.69
250.998	65.69
251.231	69.69
251.465	81.69
251.698	83.69
251.931	78.69
252.164	70.69
252.397	76.69
252.63	86.69
252.863	79.69
253.096	69.69
253.329	75.69
253.562	80.69
253.795	80.69
254.028	85.69
254.261	71.69
254.494	82.69
254.727	82.69
254.96	68.69
255.193	77.69
255.426	72.69
255.659	70.69
255.892	91.69
256.124	90.69
256.357	84.69
256.59	86.69
256.823	68.69
257.056	84.69
257.289	84.69
257.521	91.69
257.754	75.69
257.987	73.69
258.22	78.69
258.452	64.69
258.685	74.69
258.918	83.69
259.151	71.69
259.383	81.69
259.616	97.69
259.849	90.69
260.081	74.69
260.314	83.69
260.547	82.69
260.779	70.69
261.012	78.69
261.244	80.69
261.477	86.69
261.71	86.69
261.942	71.69
262.175	72.69
262.407	77.69
262.64	75.69
262.872	75.69
263.105	71.69
263.337	81.69
263.57	72.69
263.802	66.69
264.035	66.69
264.267	78.69
264.499	74.69
264.732	79.69
264.964	87.69
265.197	75.69
265.429	74.69
265.661	86.69
265.894	80.69
266.126	79.69
266.358	89.69
266.591	80.69
266.823	78.69
267.055	72.69
267.287	84.69
267.52	72.69
267.752	84.69
267.984	74.69
268.216	84.69
268.448	93.69
268.681	84.69
268.913	81.69
269.145	74.69
269.377	90.69
269.609	61.69
269.841	84.69
270.073	80.69
270.306	75.69
270.538	76.69
270.77	79.69
271.002	77.69
271.234	77.69
271.466	93.69
271.698	77.69
271.93	74.69
272.162	78.69
272.394	86.69
272.626	75.69
272.858	80.69
273.09	63.69
273.322	85.69
273.553	83.69
273.785	71.69
274.017	68.69
274.249	82.69
274.481	75.69
274.713	92.69
274.945	86.69
275.176	84.69
275.408	70.69
275.64	74.69
275.872	79.69
276.104	70.69
276.335	85.69
276.567	80.69
276.799	82.69
277.031	84.69
277.262	77.69
277.494	71.69
277.726	63.69
277.957	84.69
278.189	82.69
278.421	81.69
278.652	81.69
278.884	81.69
279.115	81.69
279.347	67.69
279.579	69.69
279.81	73.69
280.042	68.69
280.273	82.69
280.505	106.69
280.736	84.69
280.968	69.69
281.199	68.69
281.431	61.69
281.662	81.69
281.894	68.69
282.125	80.69
282.356	81.69
282.588	85.69
282.819	91.69
283.051	87.69
283.282	82.69
283.513	79.69
283.745	82.69
283.976	81.69
284.207	74.69
284.439	76.69
284.67	93.69
284.901	70.69
285.132	71.69
285.364	92.69
285.595	75.69
285.826	75.69
286.057	93.69
286.288	71.69
286.52	81.69
286.751	85.69
286.982	77.69
287.213	79.69
287.444	94.69
287.675	75.69
287.906	75.69
288.138	77.69
288.369	67.69
288.6	82.69
288.831	82.69
289.062	82.69
289.293	90.69
289.524	84.69
289.755	91.69
289.986	89.69
290.217	78.69
290.448	84.69
290.679	89.69
290.91	74.69
291.141	80.69
291.371	83.69
291.602	72.69
291.833	79.69
292.064	72.69
292.295	75.69
292.526	78.69
292.757	77.69
292.987	81.69
293.218	101.69
293.449	82.69
293.68	85.69
293.91	80.69
294.141	64.69
294.372	81.69
294.603	77.69
294.833	70.69
295.064	82.69
295.295	79.69
295.525	95.69
295.756	86.69
295.987	73.69
296.217	75.69
296.448	82.69
296.679	76.69
296.909	98.69
297.14	88.69
297.37	79.69
297.601	77.69
297.831	77.69
298.062	83.69
298.292	87.69
298.523	97.69
298.753	73.69
298.984	75.69
299.214	78.69
299.445	80.69
299.675	87.69
299.905	97.69
300.136	80.69
300.366	79.69
300.597	79.69
300.827	67.69
301.057	78.69
301.288	87.69
301.518	79.69
301.748	86.69
301.979	81.69
302.209	91.69
302.439	77.69
302.669	78.69
302.9	85.69
303.13	82.69
303.36	82.69
303.59	89.69
303.82	89.69
304.051	84.69
304.281	85.69
304.511	73.69
304.741	90.69
304.971	77.69
305.201	67.69
305.431	84.69
305.661	79.69
305.891	98.69
306.121	78.69
306.352	86.69
306.582	81.69
306.812	85.69
307.042	94.69
307.272	79.69
307.502	87.69
307.731	80.69
307.961	88.69
308.191	81.69
308.421	93.69
308.651	88.69
308.881	93.69
309.111	76.69
309.341	79.69
309.571	77.69
309.8	79.69
310.03	79.69
310.26	93.69
310.49	82.69
310.72	68.69
310.949	90.69
311.179	88.69
311.409	84.69
311.639	78.69
311.868	76.69
312.098	70.69
312.328	57.69
312.557	79.69
312.787	64.69
313.017	86.69
313.246	93.69
313.476	73.69
313.706	85.69
313.935	95.69
314.165	74.69
314.394	96.69
314.624	80.69
314.853	95.69
315.083	76.69
315.312	90.69
315.542	87.69
315.771	90.69
316.001	84.69
316.23	92.69
316.46	78.69
316.689	80.69
316.919	77.69
317.148	82.69
317.377	79.69
317.607	76.69
317.836	91.69
318.065	85.69
318.295	75.69
318.524	67.69
318.753	76.69
318.983	75.69
319.212	74.69
319.441	71.69
319.67	73.69
319.9	71.69
320.129	77.69
320.358	84.69
320.587	88.69
320.816	92.69
321.046	88.69
321.275	82.69
321.504	89.69
321.733	90.69
321.962	79.69
322.191	83.69
322.42	67.69
322.649	89.69
322.878	85.69
323.108	62.69
323.337	99.69
323.566	89.69
323.795	71.69
324.024	91.69
324.253	82.69
324.482	87.69
324.71	76.69
324.939	89.69
325.168	79.69
325.397	83.69
325.626	78.69
325.855	79.69
326.084	77.69
326.313	71.69
326.542	70.69
326.77	86.69
326.999	77.69
327.228	68.69
327.457	84.69
327.686	79.69
327.914	89.69
328.143	83.69
328.372	98.69
328.6	77.69
328.829	62.69
329.058	76.69
329.287	78.69
329.515	82.69
329.744	89.69
329.972	88.69
330.201	72.69
330.43	70.69
330.658	84.69
330.887	78.69
331.115	72.69
331.344	79.69
331.572	88.69
331.801	74.69
332.03	77.69
332.258	82.69
332.486	74.69
332.715	72.69
332.943	80.69
333.172	85.69
333.4	75.69
333.629	80.69
333.857	69.69
334.085	78.69
334.314	75.69
334.542	85.69
334.771	75.69
334.999	74.69
335.227	74.69
335.455	93.69
335.684	90.69
335.912	90.69
336.14	89.69
336.369	81.69
336.597	66.69
336.825	73.69
337.053	81.69
337.281	89.69
337.51	81.69
337.738	85.69
337.966	74.69
338.194	78.69
338.422	73.69
338.65	79.69
338.878	79.69
339.106	74.69
339.334	84.69
339.562	85.69
339.79	91.69
340.018	82.69
340.246	81.69
340.474	80.69
340.702	77.69
340.93	81.69
341.158	84.69
341.386	82.69
341.614	70.69
341.842	81.69
342.07	84.69
342.298	79.69
342.526	86.69
342.754	93.69
342.981	83.69
343.209	83.69
343.437	83.69
343.665	78.69
343.893	79.69
344.12	90.69
344.348	92.69
344.576	76.69
344.804	72.69
345.031	82.69
345.259	71.69
345.487	85.69
345.714	90.69
345.942	90.69
346.17	72.69
346.397	91.69
346.625	87.69
346.853	78.69
347.08	79.69
347.308	94.69
347.535	79.69
347.763	78.69
347.99	73.69
348.218	73.69
348.445	84.69
348.673	63.69
348.9	77.69
349.128	89.69
349.355	78.69
349.583	97.69
349.81	78.69
350.037	78.69
350.265	69.69
350.492	70.69
350.72	87.69
350.947	85.69
351.174	86.69
351.402	85.69
351.629	79.69
351.856	84.69
352.083	85.69
352.311	96.69
352.538	75.69
352.765	78.69
352.992	81.69
353.22	83.69
353.447	85.69
353.674	89.69
353.901	86.69
354.128	91.69
354.355	84.69
354.583	80.69
354.81	75.69
355.037	87.69
355.264	73.69
355.491	72.69
355.718	77.69
355.945	80.69
356.172	81.69
356.399	61.69
356.626	81.69
356.853	70.69
357.08	90.69
357.307	78.69
357.534	84.69
357.761	68.69
357.988	80.69
358.215	71.69
358.441	66.69
358.668	86.69
358.895	86.69
359.122	90.69
359.349	81.69
359.576	81.69
359.802	94.69
360.029	88.69
360.256	77.69
360.483	89.69
360.709	82.69
360.936	82.69
361.163	66.69
361.39	66.69
361.616	78.69
361.843	89.69
362.07	89.69
362.296	90.69
362.523	75.69
362.749	78.69
362.976	84.69
363.203	84.69
363.429	79.69
363.656	92.69
363.882	93.69
364.109	83.69
364.335	77.69
364.562	92.69
364.788	92.69
365.015	89.69
365.241	65.69
365.468	89.69
365.694	77.69
365.92	74.69
366.147	80.69
366.373	68.69
366.599	67.69
366.826	92.69
367.052	78.69
367.278	74.69
367.505	79.69
367.731	78.69
367.957	89.69
368.184	77.69
368.41	68.69
368.636	69.69
368.862	90.69
369.089	80.69
369.315	83.69
369.541	94.69
369.767	74.69
369.993	78.69
370.219	79.69
370.445	82.69
370.672	81.69
370.898	96.69
371.124	77.69
371.35	80.69
371.576	73.69
371.802	90.69
372.028	89.69
372.254	101.69
372.48	72.69
372.706	92.69
372.932	80.69
373.158	74.69
373.384	77.69
373.61	81.69
373.835	74.69
374.061	76.69
374.287	84.69
374.513	81.69
374.739	79.69
374.965	69.69
375.191	87.69
375.416	73.69
375.642	71.69
375.868	82.69
376.094	76.69
376.319	71.69
376.545	83.69
376.771	94.69
376.997	77.69
377.222	71.69
377.448	86.69
377.674	84.69
377.899	92.69
378.125	81.69
378.35	85.69
378.576	90.69
378.802	75.69
379.027	80.69
379.253	88.69
379.478	78.69
379.704	75.69
379.929	66.69
380.155	81.69
380.38	64.69
380.606	83.69
380.831	93.69
381.057	84.69
381.282	82.69
381.507	70.69
381.733	81.69
381.958	73.69
382.184	84.69
382.409	73.69
382.634	84.69
382.86	88.69
383.085	73.69
383.31	71.69
383.535	80.69
383.761	86.69
383.986	75.69
384.211	93.69
384.436	72.69
384.662	79.69
384.887	77.69
385.112	60.69
385.337	70.69
385.562	91.69
385.787	66.69
386.013	92.69
386.238	86.69
386.463	76.69
386.688	73.69
386.913	77.69
387.138	75.69
387.363	75.69
387.588	75.69
387.813	81.69
388.038	77.69
388.263	75.69
388.488	77.69
388.713	66.69
388.938	86.69
389.163	83.69
389.387	76.69
389.612	81.69
389.837	78.69
390.062	84.69
390.287	82.69
390.512	78.69
390.736	82.69
390.961	79.69
391.186	73.69
391.411	71.69
391.636	87.69
391.86	78.69
392.085	81.69
392.31	93.69
392.534	92.69
392.759	82.69
392.984	80.69
393.208	78.69
393.433	77.69
393.658	83.69
393.882	72.69
394.107	79.69
394.331	82.69
394.556	82.69
394.78	66.69
395.005	70.69
395.229	85.69
395.454	90.69
395.678	94.69
395.903	79.69
396.127	75.69
396.352	74.69
396.576	91.69
396.801	73.69
397.025	84.69
397.249	85.69
397.474	98.69
397.698	75.69
397.922	85.69
398.147	68.69
398.371	78.69
398.595	82.69
398.82	81.69
399.044	93.69
399.268	75.69
399.492	85.69
399.717	92.69
399.941	88.69
400.165	78.69
400.389	83.69
400.613	85.69
400.837	73.69
401.062	67.69
401.286	89.69
401.51	79.69
401.734	96.69
401.958	86.69
402.182	79.69
402.406	82.69
402.63	79.69
402.854	81.69
403.078	77.69
403.302	87.69
403.526	74.69
403.75	84.69
403.974	88.69
404.198	91.69
404.422	73.69
404.645	75.69
404.869	93.69
405.093	88.69
405.317	79.69
405.541	87.69
405.765	80.69
405.988	72.69
406.212	76.69
406.436	78.69
406.66	87.69
406.883	81.69
407.107	74.69
407.331	86.69
407.555	70.69
407.778	87.69
408.002	82.69
408.226	84.69
408.449	86.69
408.673	80.69
408.896	84.69
409.12	72.69
409.344	83.69
409.567	83.69
409.791	82.69
410.014	63.69
410.238	72.69
410.461	85.69
410.685	91.69
410.908	91.69
411.132	76.69
411.355	75.69
411.578	84.69
411.802	71.69
412.025	71.69
412.249	61.69
412.472	89.69
412.695	91.69
412.919	90.69
413.142	101.69
413.365	79.69
413.589	81.69
413.812	84.69
414.035	81.69
414.258	77.69
414.482	78.69
414.705	71.69
414.928	72.69
415.151	71.69
415.374	81.69
415.597	76.69
415.821	74.69
416.044	92.69
416.267	76.69
416.49	76.69
416.713	89.69
416.936	88.69
417.159	84.69
417.382	66.69
417.605	82.69
417.828	91.69
418.051	90.69
418.274	81.69
418.497	79.69
418.72	80.69
418.943	82.69
419.166	78.69
419.389	74.69
419.611	69.69
419.834	79.69
420.057	83.69
420.28	79.69
420.503	82.69
420.726	81.69
420.948	78.69
421.171	74.69
421.394	91.69
421.617	85.69
421.839	83.69
422.062	84.69
422.285	88.69
422.507	73.69
422.73	81.69
422.953	75.69
423.175	78.69
423.398	80.69
423.621	81.69
423.843	89.69
424.066	80.69
424.288	87.69
424.511	80.69
424.733	78.69
424.956	68.69
425.178	86.69
425.401	70.69
425.623	80.69
425.846	82.69
426.068	77.69
426.291	80.69
426.513	82.69
426.735	91.69
426.958	89.69
427.18	79.69
427.402	97.69
427.625	79.69
427.847	72.69
428.069	103.69
428.292	92.69
428.514	80.69
428.736	79.69
428.958	73.69
429.181	75.69
429.403	89.69
429.625	84.69
429.847	84.69
430.069	82.69
430.292	88.69
430.514	95.69
430.736	71.69
430.958	81.69
431.18	81.69
431.402	80.69
431.624	80.69
431.846	71.69
432.068	77.69
432.29	77.69
432.512	95.69
432.734	71.69
432.956	82.69
433.178	80.69
433.4	91.69
433.622	88.69
433.844	82.69
434.066	73.69
434.287	76.69
434.509	67.69
434.731	76.69
434.953	93.69
435.175	86.69
435.397	83.69
435.618	82.69
435.84	85.69
436.062	98.69
436.284	86.69
436.505	79.69
436.727	89.69
436.949	65.69
437.17	88.69
437.392	73.69
437.614	74.69
437.835	74.69
438.057	69.69
438.278	71.69
438.5	81.69
438.721	89.69
438.943	86.69
439.165	85.69
439.386	81.69
439.608	75.69
439.829	77.69
440.05	94.69
440.272	79.69
440.493	75.69
440.715	80.69
440.936	78.69
441.158	89.69
441.379	75.69
441.6	80.69
441.822	74.69
442.043	89.69
442.264	84.69
442.486	75.69
442.707	80.69
442.928	84.69
443.149	76.69
443.371	91.69
443.592	77.69
443.813	63.69
444.034	74.69
444.255	85.69
444.476	83.69
444.698	95.69
444.919	82.69
445.14	169.69
445.361	114.69
445.582	100.69
445.803	87.69
446.024	91.69
446.245	73.69
446.466	79.69
446.687	83.69
446.908	79.69
447.129	81.69
447.35	95.69
447.571	71.69
447.792	82.69
448.013	74.69
448.234	83.69
448.455	67.69
448.675	72.69
448.896	72.69
449.117	76.69
449.338	91.69
449.559	79.69
449.779	86.69
450	100.69
450.221	84.69
450.442	70.69
450.662	78.69
450.883	77.69
451.104	82.69
451.324	76.69
451.545	84.69
451.766	74.69
451.986	75.69
452.207	79.69
452.428	81.69
452.648	89.69
452.869	106.69
453.089	68.69
453.31	65.69
453.53	70.69
453.751	85.69
453.971	74.69
454.192	72.69
454.412	71.69
454.633	76.69
454.853	86.69
455.073	97.69
455.294	80.69
455.514	79.69
455.734	77.69
455.955	88.69
456.175	70.69
456.395	88.69
456.616	82.69
456.836	77.69
457.056	83.69
457.276	81.69
457.497	80.69
457.717	84.69
457.937	89.69
458.157	76.69
458.377	59.69
458.598	61.69
458.818	65.69
459.038	65.69
459.258	81.69
459.478	86.69
459.698	66.69
459.918	80.69
460.138	73.69
460.358	80.69
460.578	84.69
460.798	81.69
461.018	66.69
461.238	86.69
461.458	82.69
461.678	83.69
461.898	85.69
462.118	82.69
462.338	64.69
462.558	80.69
462.777	64.69
462.997	70.69
463.217	79.69
463.437	87.69
463.657	89.69
463.876	80.69
464.096	75.69
464.316	78.69
464.536	83.69
464.755	76.69
464.975	89.69
465.195	79.69
465.414	82.69
465.634	75.69
465.854	64.69
466.073	85.69
466.293	80.69
466.512	90.69
466.732	78.69
466.951	68.69
467.171	82.69
467.391	97.69
467.61	77.69
467.829	80.69
468.049	74.69
468.268	87.69
468.488	68.69
468.707	86.69
468.927	84.69
469.146	74.69
469.365	81.69
469.585	85.69
469.804	83.69
470.023	82.69
470.243	85.69
470.462	86.69
470.681	74.69
470.901	85.69
471.12	79.69
471.339	89.69
471.558	93.69
471.777	79.69
471.997	83.69
472.216	75.69
472.435	83.69
472.654	82.69
472.873	73.69
473.092	86.69
473.311	78.69
473.53	85.69
473.749	68.69
473.968	86.69
474.187	84.69
474.406	76.69
474.625	76.69
474.844	91.69
475.063	85.69
475.282	105.69
475.501	69.69
475.72	75.69
475.939	67.69
476.158	91.69
476.377	98.69
476.596	79.69
476.814	82.69
477.033	64.69
477.252	74.69
477.471	81.69
477.69	86.69
477.908	93.69
478.127	99.69
478.346	80.69
478.564	89.69
478.783	79.69
479.002	60.69
479.22	76.69
479.439	92.69
479.658	72.69
479.876	85.69
480.095	95.69
480.313	86.69
480.532	97.69
480.751	84.69
480.969	65.69
481.188	77.69
481.406	84.69
481.624	72.69
481.843	63.69
482.061	102.69
482.28	93.69
482.498	85.69
482.717	90.69
482.935	89.69
483.153	91.69
483.372	91.69
483.59	80.69
483.808	71.69
484.027	82.69
484.245	90.69
484.463	108.69
484.681	94.69
484.9	85.69
485.118	97.69
485.336	91.69
485.554	76.69
485.772	86.69
485.99	84.69
486.209	74.69
486.427	92.69
486.645	82.69
486.863	90.69
487.081	85.69
487.299	75.69
487.517	77.69
487.735	99.69
487.953	103.69
488.171	106.69
488.389	95.69
488.607	81.69
488.825	77.69
489.043	86.69
489.261	90.69
489.479	83.69
489.696	66.69
489.914	74.69
490.132	77.69
490.35	82.69
490.568	90.69
490.786	85.69
491.003	98.69
491.221	91.69
491.439	89.69
491.657	98.69
491.874	81.69
492.092	97.69
492.31	101.69
492.527	94.69
492.745	94.69
492.963	95.69
493.18	114.69
493.398	91.69
493.615	85.69
493.833	89.69
494.05	83.69
494.268	109.69
494.485	94.69
494.703	93.69
494.92	95.69
495.138	94.69
495.355	95.69
495.573	68.69
495.79	100.69
496.008	93.69
496.225	80.69
496.442	89.69
496.66	103.69
496.877	96.69
497.094	94.69
497.312	89.69
497.529	87.69
497.746	87.69
497.963	83.69
498.181	80.69
498.398	81.69
498.615	98.69
498.832	88.69
499.049	81.69
499.267	72.69
499.484	75.69
499.701	76.69
499.918	89.69
500.135	84.69
500.352	70.69
500.569	97.69
500.786	80.69
501.003	79.69
501.22	78.69
501.437	93.69
501.654	76.69
501.871	90.69
502.088	74.69
502.305	90.69
502.522	76.69
502.739	96.69
502.956	89.69
503.172	92.69
503.389	78.69
503.606	77.69
503.823	70.69
504.04	89.69
504.256	81.69
504.473	92.69
504.69	89.69
504.907	83.69
505.123	83.69
505.34	90.69
505.557	70.69
505.773	89.69
505.99	94.69
506.207	86.69
506.423	82.69
506.64	92.69
506.856	85.69
507.073	88.69
507.289	85.69
507.506	97.69
507.722	87.69
507.939	84.69
508.155	93.69
508.372	71.69
508.588	67.69
508.805	87.69
509.021	84.69
509.238	88.69
509.454	77.69
509.67	84.69
509.887	86.69
510.103	87.69
510.319	78.69
510.536	91.69
510.752	82.69
510.968	87.69
511.184	70.69
511.401	87.69
511.617	70.69
511.833	98.69
512.049	63.69
512.265	86.69
512.481	72.69
512.698	84.69
512.914	72.69
513.13	76.69
513.346	85.69
513.562	73.69
513.778	77.69
513.994	65.69
514.21	89.69
514.426	81.69
514.642	77.69
514.858	89.69
515.074	83.69
515.29	74.69
515.506	76.69
515.721	69.69
515.937	75.69
516.153	69.69
516.369	85.69
516.585	88.69
516.801	93.69
517.016	84.69
517.232	91.69
517.448	80.69
517.664	78.69
517.879	83.69
518.095	73.69
518.311	78.69
518.527	78.69
518.742	85.69
518.958	81.69
519.173	87.69
519.389	94.69
519.605	87.69
519.82	71.69
