Data from NickelSpatula_HRD10591_16-36-24-126.txt Node
Date: Mon Jul 22 16:36:24 EDT 2019
User: cochatt
Spectrometer: HR+D1059
Trigger mode: 1
Integration Time (sec): 1.000000E-1
Scans to average: 1
Electric dark correction enabled: true
Nonlinearity correction enabled: false
Boxcar width: 0
XAxis mode: Wavelengths
Number of Pixels in Spectrum: 2048
>>>>>Begin Spectral Data<<<<<
223.165	2.94
223.4	2.94
223.635	2.94
223.869	-10.06
224.104	-7.06
224.338	-19.06
224.573	-16.06
224.808	-22.06
225.042	-5.06
225.277	-14.06
225.511	-20.06
225.746	1.94
225.98	7.94
226.215	8.94
226.449	11.94
226.683	31.94
226.918	20.94
227.152	26.94
227.387	45.94
227.621	33.94
227.856	43.94
228.09	52.94
228.324	51.94
228.559	66.94
228.793	57.94
229.027	65.94
229.262	65.94
229.496	65.94
229.73	75.94
229.964	77.94
230.199	77.94
230.433	81.94
230.667	87.94
230.901	84.94
231.136	82.94
231.37	83.94
231.604	105.94
231.838	74.94
232.072	95.94
232.306	96.94
232.541	100.94
232.775	78.94
233.009	77.94
233.243	104.94
233.477	92.94
233.711	87.94
233.945	103.94
234.179	81.94
234.413	91.94
234.647	94.94
234.881	103.94
235.115	103.94
235.349	104.94
235.583	101.94
235.817	95.94
236.051	106.94
236.285	101.94
236.519	107.94
236.753	102.94
236.987	101.94
237.221	119.94
237.455	79.94
237.689	96.94
237.922	96.94
238.156	97.94
238.39	99.94
238.624	112.94
238.858	105.94
239.091	99.94
239.325	116.94
239.559	102.94
239.793	118.94
240.027	103.94
240.26	96.94
240.494	92.94
240.728	90.94
240.961	96.94
241.195	119.94
241.429	97.94
241.662	96.94
241.896	94.94
242.13	87.94
242.363	83.94
242.597	99.94
242.83	113.94
243.064	100.94
243.298	106.94
243.531	99.94
243.765	115.94
243.998	119.94
244.232	101.94
244.465	121.94
244.699	103.94
244.932	99.94
245.166	104.94
245.399	110.94
245.633	114.94
245.866	114.94
246.099	110.94
246.333	104.94
246.566	137.94
246.8	112.94
247.033	103.94
247.266	109.94
247.5	114.94
247.733	116.94
247.966	121.94
248.2	116.94
248.433	112.94
248.666	124.94
248.899	133.94
249.133	123.94
249.366	135.94
249.599	136.94
249.832	112.94
250.066	125.94
250.299	133.94
250.532	112.94
250.765	131.94
250.998	105.94
251.231	108.94
251.465	121.94
251.698	123.94
251.931	112.94
252.164	127.94
252.397	138.94
252.63	140.94
252.863	137.94
253.096	145.94
253.329	135.94
253.562	135.94
253.795	140.94
254.028	156.94
254.261	153.94
254.494	141.94
254.727	139.94
254.96	128.94
255.193	145.94
255.426	132.94
255.659	113.94
255.892	127.94
256.124	129.94
256.357	134.94
256.59	139.94
256.823	137.94
257.056	136.94
257.289	129.94
257.521	142.94
257.754	129.94
257.987	165.94
258.22	158.94
258.452	136.94
258.685	141.94
258.918	165.94
259.151	139.94
259.383	161.94
259.616	158.94
259.849	185.94
260.081	178.94
260.314	178.94
260.547	173.94
260.779	156.94
261.012	182.94
261.244	172.94
261.477	173.94
261.71	161.94
261.942	145.94
262.175	150.94
262.407	143.94
262.64	144.94
262.872	165.94
263.105	160.94
263.337	163.94
263.57	175.94
263.802	130.94
264.035	121.94
264.267	133.94
264.499	105.94
264.732	120.94
264.964	120.94
265.197	108.94
265.429	118.94
265.661	122.94
265.894	128.94
266.126	134.94
266.358	143.94
266.591	155.94
266.823	149.94
267.055	160.94
267.287	145.94
267.52	143.94
267.752	163.94
267.984	148.94
268.216	167.94
268.448	145.94
268.681	141.94
268.913	155.94
269.145	155.94
269.377	163.94
269.609	159.94
269.841	148.94
270.073	165.94
270.306	158.94
270.538	152.94
270.77	164.94
271.002	163.94
271.234	159.94
271.466	164.94
271.698	155.94
271.93	155.94
272.162	157.94
272.394	159.94
272.626	157.94
272.858	166.94
273.09	151.94
273.322	136.94
273.553	138.94
273.785	140.94
274.017	173.94
274.249	187.94
274.481	207.94
274.713	234.94
274.945	249.94
275.176	245.94
275.408	213.94
275.64	234.94
275.872	225.94
276.104	212.94
276.335	184.94
276.567	186.94
276.799	191.94
277.031	191.94
277.262	150.94
277.494	141.94
277.726	143.94
277.957	159.94
278.189	159.94
278.421	176.94
278.652	155.94
278.884	159.94
279.115	133.94
279.347	145.94
279.579	136.94
279.81	145.94
280.042	154.94
280.273	128.94
280.505	140.94
280.736	134.94
280.968	133.94
281.199	132.94
281.431	121.94
281.662	152.94
281.894	143.94
282.125	138.94
282.356	148.94
282.588	148.94
282.819	142.94
283.051	162.94
283.282	180.94
283.513	196.94
283.745	200.94
283.976	205.94
284.207	180.94
284.439	200.94
284.67	189.94
284.901	172.94
285.132	182.94
285.364	185.94
285.595	193.94
285.826	170.94
286.057	183.94
286.288	187.94
286.52	179.94
286.751	171.94
286.982	195.94
287.213	168.94
287.444	180.94
287.675	171.94
287.906	172.94
288.138	163.94
288.369	158.94
288.6	157.94
288.831	175.94
289.062	175.94
289.293	187.94
289.524	174.94
289.755	175.94
289.986	179.94
290.217	149.94
290.448	142.94
290.679	134.94
290.91	131.94
291.141	116.94
291.371	127.94
291.602	145.94
291.833	132.94
292.064	137.94
292.295	139.94
292.526	157.94
292.757	166.94
292.987	170.94
293.218	163.94
293.449	169.94
293.68	187.94
293.91	165.94
294.141	175.94
294.372	143.94
294.603	163.94
294.833	164.94
295.064	181.94
295.295	162.94
295.525	154.94
295.756	135.94
295.987	106.94
296.217	125.94
296.448	110.94
296.679	149.94
296.909	139.94
297.14	144.94
297.37	143.94
297.601	139.94
297.831	135.94
298.062	137.94
298.292	153.94
298.523	162.94
298.753	176.94
298.984	144.94
299.214	127.94
299.445	132.94
299.675	133.94
299.905	118.94
300.136	126.94
300.366	139.94
300.597	123.94
300.827	128.94
301.057	107.94
301.288	123.94
301.518	134.94
301.748	144.94
301.979	137.94
302.209	153.94
302.439	128.94
302.669	144.94
302.9	142.94
303.13	126.94
303.36	127.94
303.59	118.94
303.82	133.94
304.051	134.94
304.281	156.94
304.511	167.94
304.741	139.94
304.971	153.94
305.201	137.94
305.431	149.94
305.661	136.94
305.891	128.94
306.121	127.94
306.352	121.94
306.582	117.94
306.812	114.94
307.042	113.94
307.272	118.94
307.502	129.94
307.731	130.94
307.961	120.94
308.191	114.94
308.421	113.94
308.651	116.94
308.881	104.94
309.111	99.94
309.341	99.94
309.571	116.94
309.8	114.94
310.03	124.94
310.26	105.94
310.49	106.94
310.72	119.94
310.949	117.94
311.179	117.94
311.409	119.94
311.639	152.94
311.868	152.94
312.098	157.94
312.328	178.94
312.557	168.94
312.787	175.94
313.017	165.94
313.246	180.94
313.476	168.94
313.706	154.94
313.935	139.94
314.165	120.94
314.394	117.94
314.624	116.94
314.853	123.94
315.083	110.94
315.312	126.94
315.542	128.94
315.771	124.94
316.001	120.94
316.23	114.94
316.46	115.94
316.689	127.94
316.919	111.94
317.148	123.94
317.377	129.94
317.607	119.94
317.836	129.94
318.065	127.94
318.295	128.94
318.524	132.94
318.753	131.94
318.983	94.94
319.212	123.94
319.441	133.94
319.67	130.94
319.9	131.94
320.129	133.94
320.358	113.94
320.587	108.94
320.816	117.94
321.046	125.94
321.275	149.94
321.504	141.94
321.733	133.94
321.962	138.94
322.191	127.94
322.42	130.94
322.649	108.94
322.878	141.94
323.108	124.94
323.337	134.94
323.566	139.94
323.795	135.94
324.024	134.94
324.253	109.94
324.482	121.94
324.71	131.94
324.939	121.94
325.168	128.94
325.397	121.94
325.626	122.94
325.855	122.94
326.084	116.94
326.313	128.94
326.542	126.94
326.77	113.94
326.999	116.94
327.228	123.94
327.457	113.94
327.686	124.94
327.914	119.94
328.143	119.94
328.372	112.94
328.6	109.94
328.829	124.94
329.058	129.94
329.287	123.94
329.515	120.94
329.744	117.94
329.972	118.94
330.201	105.94
330.43	117.94
330.658	107.94
330.887	128.94
331.115	124.94
331.344	125.94
331.572	121.94
331.801	118.94
332.03	114.94
332.258	127.94
332.486	124.94
332.715	123.94
332.943	125.94
333.172	122.94
333.4	117.94
333.629	136.94
333.857	140.94
334.085	128.94
334.314	117.94
334.542	141.94
334.771	109.94
334.999	127.94
335.227	122.94
335.455	127.94
335.684	136.94
335.912	135.94
336.14	146.94
336.369	139.94
336.597	132.94
336.825	150.94
337.053	159.94
337.281	133.94
337.51	115.94
337.738	112.94
337.966	125.94
338.194	132.94
338.422	131.94
338.65	120.94
338.878	120.94
339.106	100.94
339.334	122.94
339.562	129.94
339.79	115.94
340.018	119.94
340.246	127.94
340.474	133.94
340.702	131.94
340.93	139.94
341.158	130.94
341.386	128.94
341.614	120.94
341.842	139.94
342.07	116.94
342.298	133.94
342.526	135.94
342.754	129.94
342.981	127.94
343.209	136.94
343.437	127.94
343.665	126.94
343.893	140.94
344.12	147.94
344.348	149.94
344.576	143.94
344.804	136.94
345.031	117.94
345.259	118.94
345.487	113.94
345.714	120.94
345.942	130.94
346.17	135.94
346.397	122.94
346.625	108.94
346.853	118.94
347.08	117.94
347.308	123.94
347.535	140.94
347.763	129.94
347.99	121.94
348.218	114.94
348.445	119.94
348.673	110.94
348.9	119.94
349.128	114.94
349.355	107.94
349.583	139.94
349.81	116.94
350.037	125.94
350.265	110.94
350.492	127.94
350.72	115.94
350.947	128.94
351.174	119.94
351.402	129.94
351.629	124.94
351.856	118.94
352.083	113.94
352.311	115.94
352.538	124.94
352.765	129.94
352.992	127.94
353.22	123.94
353.447	129.94
353.674	118.94
353.901	119.94
354.128	129.94
354.355	120.94
354.583	117.94
354.81	128.94
355.037	135.94
355.264	123.94
355.491	130.94
355.718	140.94
355.945	128.94
356.172	134.94
356.399	138.94
356.626	144.94
356.853	152.94
357.08	163.94
357.307	162.94
357.534	148.94
357.761	162.94
357.988	159.94
358.215	164.94
358.441	151.94
358.668	152.94
358.895	139.94
359.122	127.94
359.349	142.94
359.576	136.94
359.802	125.94
360.029	129.94
360.256	125.94
360.483	126.94
360.709	125.94
360.936	148.94
361.163	150.94
361.39	112.94
361.616	134.94
361.843	139.94
362.07	156.94
362.296	140.94
362.523	113.94
362.749	118.94
362.976	121.94
363.203	135.94
363.429	127.94
363.656	136.94
363.882	125.94
364.109	145.94
364.335	112.94
364.562	111.94
364.788	133.94
365.015	146.94
365.241	117.94
365.468	113.94
365.694	125.94
365.92	123.94
366.147	120.94
366.373	97.94
366.599	119.94
366.826	107.94
367.052	105.94
367.278	112.94
367.505	125.94
367.731	108.94
367.957	117.94
368.184	111.94
368.41	131.94
368.636	126.94
368.862	127.94
369.089	117.94
369.315	124.94
369.541	134.94
369.767	115.94
369.993	124.94
370.219	112.94
370.445	134.94
370.672	113.94
370.898	123.94
371.124	136.94
371.35	115.94
371.576	117.94
371.802	134.94
372.028	119.94
372.254	132.94
372.48	119.94
372.706	119.94
372.932	122.94
373.158	133.94
373.384	149.94
373.61	155.94
373.835	143.94
374.061	146.94
374.287	133.94
374.513	125.94
374.739	164.94
374.965	167.94
375.191	143.94
375.416	119.94
375.642	118.94
375.868	117.94
376.094	125.94
376.319	125.94
376.545	137.94
376.771	143.94
376.997	133.94
377.222	124.94
377.448	120.94
377.674	116.94
377.899	112.94
378.125	98.94
378.35	112.94
378.576	113.94
378.802	115.94
379.027	135.94
379.253	145.94
379.478	117.94
379.704	122.94
379.929	127.94
380.155	129.94
380.38	119.94
380.606	131.94
380.831	140.94
381.057	131.94
381.282	126.94
381.507	131.94
381.733	140.94
381.958	134.94
382.184	160.94
382.409	151.94
382.634	160.94
382.86	177.94
383.085	147.94
383.31	133.94
383.535	139.94
383.761	133.94
383.986	141.94
384.211	146.94
384.436	143.94
384.662	109.94
384.887	133.94
385.112	118.94
385.337	122.94
385.562	139.94
385.787	132.94
386.013	134.94
386.238	125.94
386.463	125.94
386.688	123.94
386.913	122.94
387.138	129.94
387.363	133.94
387.588	138.94
387.813	120.94
388.038	134.94
388.263	119.94
388.488	125.94
388.713	123.94
388.938	139.94
389.163	131.94
389.387	110.94
389.612	117.94
389.837	119.94
390.062	127.94
390.287	124.94
390.512	123.94
390.736	121.94
390.961	122.94
391.186	106.94
391.411	117.94
391.636	114.94
391.86	122.94
392.085	127.94
392.31	129.94
392.534	120.94
392.759	137.94
392.984	128.94
393.208	132.94
393.433	112.94
393.658	108.94
393.882	120.94
394.107	117.94
394.331	122.94
394.556	105.94
394.78	127.94
395.005	113.94
395.229	111.94
395.454	104.94
395.678	125.94
395.903	119.94
396.127	116.94
396.352	124.94
396.576	120.94
396.801	128.94
397.025	133.94
397.249	129.94
397.474	138.94
397.698	139.94
397.922	116.94
398.147	120.94
398.371	122.94
398.595	113.94
398.82	116.94
399.044	108.94
399.268	135.94
399.492	151.94
399.717	126.94
399.941	122.94
400.165	127.94
400.389	131.94
400.613	131.94
400.837	133.94
401.062	131.94
401.286	132.94
401.51	124.94
401.734	125.94
401.958	124.94
402.182	120.94
402.406	119.94
402.63	131.94
402.854	131.94
403.078	126.94
403.302	163.94
403.526	155.94
403.75	137.94
403.974	138.94
404.198	134.94
404.422	148.94
404.645	153.94
404.869	147.94
405.093	124.94
405.317	111.94
405.541	119.94
405.765	147.94
405.988	131.94
406.212	132.94
406.436	135.94
406.66	138.94
406.883	129.94
407.107	126.94
407.331	141.94
407.555	135.94
407.778	138.94
408.002	126.94
408.226	139.94
408.449	130.94
408.673	131.94
408.896	113.94
409.12	125.94
409.344	132.94
409.567	125.94
409.791	127.94
410.014	102.94
410.238	122.94
410.461	123.94
410.685	112.94
410.908	121.94
411.132	127.94
411.355	124.94
411.578	140.94
411.802	121.94
412.025	124.94
412.249	118.94
412.472	125.94
412.695	127.94
412.919	126.94
413.142	134.94
413.365	131.94
413.589	133.94
413.812	129.94
414.035	139.94
414.258	140.94
414.482	152.94
414.705	133.94
414.928	117.94
415.151	125.94
415.374	117.94
415.597	134.94
415.821	128.94
416.044	136.94
416.267	120.94
416.49	125.94
416.713	123.94
416.936	121.94
417.159	121.94
417.382	118.94
417.605	124.94
417.828	138.94
418.051	121.94
418.274	133.94
418.497	125.94
418.72	131.94
418.943	135.94
419.166	130.94
419.389	141.94
419.611	124.94
419.834	128.94
420.057	133.94
420.28	134.94
420.503	135.94
420.726	120.94
420.948	127.94
421.171	136.94
421.394	134.94
421.617	128.94
421.839	122.94
422.062	128.94
422.285	140.94
422.507	125.94
422.73	149.94
422.953	139.94
423.175	132.94
423.398	138.94
423.621	129.94
423.843	146.94
424.066	143.94
424.288	128.94
424.511	137.94
424.733	128.94
424.956	134.94
425.178	132.94
425.401	145.94
425.623	141.94
425.846	128.94
426.068	139.94
426.291	148.94
426.513	136.94
426.735	131.94
426.958	122.94
427.18	140.94
427.402	144.94
427.625	158.94
427.847	136.94
428.069	127.94
428.292	123.94
428.514	116.94
428.736	118.94
428.958	129.94
429.181	152.94
429.403	128.94
429.625	136.94
429.847	127.94
430.069	144.94
430.292	113.94
430.514	124.94
430.736	130.94
430.958	139.94
431.18	131.94
431.402	128.94
431.624	132.94
431.846	120.94
432.068	115.94
432.29	115.94
432.512	132.94
432.734	136.94
432.956	133.94
433.178	138.94
433.4	116.94
433.622	118.94
433.844	149.94
434.066	133.94
434.287	121.94
434.509	117.94
434.731	122.94
434.953	115.94
435.175	132.94
435.397	115.94
435.618	135.94
435.84	118.94
436.062	125.94
436.284	115.94
436.505	106.94
436.727	118.94
436.949	123.94
437.17	124.94
437.392	126.94
437.614	123.94
437.835	117.94
438.057	127.94
438.278	132.94
438.5	144.94
438.721	143.94
438.943	145.94
439.165	127.94
439.386	119.94
439.608	115.94
439.829	118.94
440.05	117.94
440.272	122.94
440.493	124.94
440.715	142.94
440.936	134.94
441.158	134.94
441.379	125.94
441.6	125.94
441.822	123.94
442.043	125.94
442.264	117.94
442.486	115.94
442.707	131.94
442.928	128.94
443.149	130.94
443.371	149.94
443.592	131.94
443.813	129.94
444.034	135.94
444.255	134.94
444.476	130.94
444.698	129.94
444.919	127.94
445.14	257.94
445.361	194.94
445.582	147.94
445.803	147.94
446.024	139.94
446.245	130.94
446.466	129.94
446.687	121.94
446.908	106.94
447.129	118.94
447.35	116.94
447.571	126.94
447.792	114.94
448.013	119.94
448.234	109.94
448.455	107.94
448.675	121.94
448.896	123.94
449.117	120.94
449.338	137.94
449.559	113.94
449.779	123.94
450	116.94
450.221	128.94
450.442	115.94
450.662	116.94
450.883	106.94
451.104	119.94
451.324	114.94
451.545	127.94
451.766	126.94
451.986	129.94
452.207	116.94
452.428	117.94
452.648	94.94
452.869	127.94
453.089	117.94
453.31	135.94
453.53	120.94
453.751	130.94
453.971	113.94
454.192	113.94
454.412	108.94
454.633	126.94
454.853	126.94
455.073	121.94
455.294	131.94
455.514	125.94
455.734	120.94
455.955	103.94
456.175	127.94
456.395	104.94
456.616	116.94
456.836	126.94
457.056	120.94
457.276	126.94
457.497	109.94
457.717	116.94
457.937	123.94
458.157	123.94
458.377	106.94
458.598	118.94
458.818	102.94
459.038	117.94
459.258	129.94
459.478	140.94
459.698	125.94
459.918	128.94
460.138	135.94
460.358	134.94
460.578	128.94
460.798	118.94
461.018	124.94
461.238	125.94
461.458	115.94
461.678	117.94
461.898	141.94
462.118	125.94
462.338	135.94
462.558	135.94
462.777	144.94
462.997	117.94
463.217	145.94
463.437	137.94
463.657	132.94
463.876	120.94
464.096	123.94
464.316	140.94
464.536	150.94
464.755	139.94
464.975	128.94
465.195	127.94
465.414	151.94
465.634	128.94
465.854	119.94
466.073	123.94
466.293	138.94
466.512	129.94
466.732	125.94
466.951	133.94
467.171	138.94
467.391	119.94
467.61	127.94
467.829	133.94
468.049	121.94
468.268	129.94
468.488	128.94
468.707	116.94
468.927	123.94
469.146	138.94
469.365	141.94
469.585	127.94
469.804	130.94
470.023	139.94
470.243	127.94
470.462	126.94
470.681	127.94
470.901	129.94
471.12	128.94
471.339	124.94
471.558	129.94
471.777	130.94
471.997	144.94
472.216	137.94
472.435	120.94
472.654	123.94
472.873	115.94
473.092	135.94
473.311	136.94
473.53	119.94
473.749	125.94
473.968	128.94
474.187	115.94
474.406	122.94
474.625	129.94
474.844	135.94
475.063	140.94
475.282	156.94
475.501	144.94
475.72	145.94
475.939	126.94
476.158	138.94
476.377	136.94
476.596	165.94
476.814	164.94
477.033	148.94
477.252	141.94
477.471	132.94
477.69	119.94
477.908	129.94
478.127	139.94
478.346	125.94
478.564	151.94
478.783	140.94
479.002	135.94
479.22	143.94
479.439	162.94
479.658	134.94
479.876	137.94
480.095	139.94
480.313	145.94
480.532	131.94
480.751	147.94
480.969	123.94
481.188	143.94
481.406	145.94
481.624	140.94
481.843	125.94
482.061	139.94
482.28	148.94
482.498	177.94
482.717	169.94
482.935	142.94
483.153	139.94
483.372	142.94
483.59	120.94
483.808	146.94
484.027	133.94
484.245	134.94
484.463	137.94
484.681	131.94
484.9	133.94
485.118	139.94
485.336	139.94
485.554	134.94
485.772	130.94
485.99	140.94
486.209	151.94
486.427	156.94
486.645	136.94
486.863	137.94
487.081	153.94
487.299	137.94
487.517	151.94
487.735	139.94
487.953	137.94
488.171	159.94
488.389	135.94
488.607	147.94
488.825	153.94
489.043	155.94
489.261	144.94
489.479	153.94
489.696	159.94
489.914	129.94
490.132	124.94
490.35	129.94
490.568	125.94
490.786	137.94
491.003	136.94
491.221	124.94
491.439	129.94
491.657	135.94
491.874	154.94
492.092	161.94
492.31	184.94
492.527	177.94
492.745	140.94
492.963	127.94
493.18	148.94
493.398	155.94
493.615	145.94
493.833	145.94
494.05	132.94
494.268	167.94
494.485	159.94
494.703	122.94
494.92	143.94
495.138	140.94
495.355	151.94
495.573	159.94
495.79	146.94
496.008	197.94
496.225	159.94
496.442	148.94
496.66	145.94
496.877	155.94
497.094	153.94
497.312	150.94
497.529	149.94
497.746	153.94
497.963	141.94
498.181	137.94
498.398	149.94
498.615	158.94
498.832	189.94
499.049	178.94
499.267	167.94
499.484	168.94
499.701	173.94
499.918	189.94
500.135	204.94
500.352	187.94
500.569	184.94
500.786	185.94
501.003	211.94
501.22	176.94
501.437	162.94
501.654	167.94
501.871	168.94
502.088	171.94
502.305	159.94
502.522	168.94
502.739	154.94
502.956	160.94
503.172	139.94
