Data from NickelSpatula.Lamp.E5.5.P2_HRD10591_11-51-18-561.txt Node
Date: Tue Jul 23 11:51:18 EDT 2019
User: cochatt
Spectrometer: HR+D1059
Trigger mode: 1
Integration Time (sec): 1.000000E-1
Scans to average: 1
Electric dark correction enabled: true
Nonlinearity correction enabled: false
Boxcar width: 0
XAxis mode: Wavelengths
Number of Pixels in Spectrum: 2048
>>>>>Begin Spectral Data<<<<<
223.165	-9.19
223.4	-9.19
223.635	-9.19
223.869	-7.19
224.104	-14.19
224.338	-16.19
224.573	-8.19
224.808	-21.19
225.042	-3.19
225.277	-2.19
225.511	-1.19
225.746	-5.19
225.98	6.81
226.215	7.81
226.449	3.81
226.683	12.81
226.918	28.81
227.152	27.81
227.387	33.81
227.621	32.81
227.856	40.81
228.09	43.81
228.324	48.81
228.559	52.81
228.793	37.81
229.027	58.81
229.262	76.81
229.496	76.81
229.73	75.81
229.964	83.81
230.199	80.81
230.433	91.81
230.667	104.81
230.901	85.81
231.136	91.81
231.37	104.81
231.604	93.81
231.838	98.81
232.072	118.81
232.306	97.81
232.541	99.81
232.775	105.81
233.009	90.81
233.243	107.81
233.477	112.81
233.711	121.81
233.945	123.81
234.179	115.81
234.413	114.81
234.647	123.81
234.881	128.81
235.115	127.81
235.349	115.81
235.583	117.81
235.817	116.81
236.051	128.81
236.285	122.81
236.519	134.81
236.753	139.81
236.987	137.81
237.221	125.81
237.455	137.81
237.689	135.81
237.922	143.81
238.156	140.81
238.39	149.81
238.624	158.81
238.858	142.81
239.091	136.81
239.325	126.81
239.559	138.81
239.793	131.81
240.027	170.81
240.26	140.81
240.494	147.81
240.728	156.81
240.961	154.81
241.195	155.81
241.429	159.81
241.662	165.81
241.896	133.81
242.13	131.81
242.363	131.81
242.597	146.81
242.83	154.81
243.064	132.81
243.298	153.81
243.531	164.81
243.765	158.81
243.998	152.81
244.232	161.81
244.465	161.81
244.699	163.81
244.932	147.81
245.166	142.81
245.399	147.81
245.633	146.81
245.866	128.81
246.099	142.81
246.333	166.81
246.566	194.81
246.8	187.81
247.033	161.81
247.266	172.81
247.5	171.81
247.733	164.81
247.966	147.81
248.2	162.81
248.433	182.81
248.666	184.81
248.899	185.81
249.133	192.81
249.366	216.81
249.599	218.81
249.832	215.81
250.066	192.81
250.299	196.81
250.532	170.81
250.765	183.81
250.998	176.81
251.231	169.81
251.465	184.81
251.698	195.81
251.931	198.81
252.164	199.81
252.397	220.81
252.63	252.81
252.863	246.81
253.096	259.81
253.329	234.81
253.562	232.81
253.795	269.81
254.028	306.81
254.261	289.81
254.494	264.81
254.727	233.81
254.96	236.81
255.193	261.81
255.426	242.81
255.659	193.81
255.892	189.81
256.124	184.81
256.357	229.81
256.59	266.81
256.823	253.81
257.056	212.81
257.289	204.81
257.521	199.81
257.754	258.81
257.987	283.81
258.22	254.81
258.452	209.81
258.685	240.81
258.918	255.81
259.151	287.81
259.383	304.81
259.616	323.81
259.849	334.81
260.081	340.81
260.314	394.81
260.547	331.81
260.779	328.81
261.012	380.81
261.244	341.81
261.477	362.81
261.71	306.81
261.942	274.81
262.175	284.81
262.407	264.81
262.64	277.81
262.872	308.81
263.105	324.81
263.337	336.81
263.57	313.81
263.802	226.81
264.035	219.81
264.267	217.81
264.499	204.81
264.732	172.81
264.964	153.81
265.197	183.81
265.429	176.81
265.661	209.81
265.894	198.81
266.126	224.81
266.358	230.81
266.591	276.81
266.823	328.81
267.055	316.81
267.287	278.81
267.52	261.81
267.752	291.81
267.984	311.81
268.216	314.81
268.448	260.81
268.681	224.81
268.913	269.81
269.145	293.81
269.377	282.81
269.609	284.81
269.841	242.81
270.073	287.81
270.306	304.81
270.538	310.81
270.77	303.81
271.002	307.81
271.234	292.81
271.466	313.81
271.698	304.81
271.93	280.81
272.162	305.81
272.394	293.81
272.626	290.81
272.858	284.81
273.09	303.81
273.322	280.81
273.553	248.81
273.785	290.81
274.017	372.81
274.249	463.81
274.481	453.81
274.713	502.81
274.945	560.81
275.176	598.81
275.408	548.81
275.64	494.81
275.872	482.81
276.104	424.81
276.335	380.81
276.567	374.81
276.799	395.81
277.031	421.81
277.262	325.81
277.494	262.81
277.726	262.81
277.957	284.81
278.189	291.81
278.421	285.81
278.652	290.81
278.884	290.81
279.115	260.81
279.347	269.81
279.579	264.81
279.81	267.81
280.042	278.81
280.273	268.81
280.505	259.81
280.736	207.81
280.968	218.81
281.199	256.81
281.431	248.81
281.662	274.81
281.894	258.81
282.125	277.81
282.356	278.81
282.588	291.81
282.819	270.81
283.051	300.81
283.282	342.81
283.513	399.81
283.745	416.81
283.976	404.81
284.207	395.81
284.439	384.81
284.67	384.81
284.901	362.81
285.132	372.81
285.364	391.81
285.595	372.81
285.826	400.81
286.057	378.81
286.288	380.81
286.52	398.81
286.751	383.81
286.982	420.81
287.213	360.81
287.444	348.81
287.675	350.81
287.906	366.81
288.138	312.81
288.369	283.81
288.6	268.81
288.831	282.81
289.062	330.81
289.293	356.81
289.524	338.81
289.755	345.81
289.986	339.81
290.217	314.81
290.448	248.81
290.679	225.81
290.91	216.81
291.141	217.81
291.371	222.81
291.602	220.81
291.833	217.81
292.064	226.81
292.295	230.81
292.526	283.81
292.757	288.81
292.987	320.81
293.218	319.81
293.449	340.81
293.68	349.81
293.91	346.81
294.141	360.81
294.372	339.81
294.603	309.81
294.833	334.81
295.064	365.81
295.295	366.81
295.525	294.81
295.756	260.81
295.987	239.81
296.217	220.81
296.448	226.81
296.679	220.81
296.909	250.81
297.14	242.81
297.37	288.81
297.601	298.81
297.831	236.81
298.062	259.81
298.292	296.81
298.523	303.81
298.753	342.81
298.984	315.81
299.214	263.81
299.445	239.81
299.675	230.81
299.905	237.81
300.136	223.81
300.366	229.81
300.597	230.81
300.827	215.81
301.057	204.81
301.288	208.81
301.518	253.81
301.748	261.81
301.979	277.81
302.209	307.81
302.439	285.81
302.669	257.81
302.9	262.81
303.13	261.81
303.36	240.81
303.59	238.81
303.82	237.81
304.051	270.81
304.281	278.81
304.511	278.81
304.741	250.81
304.971	261.81
305.201	280.81
305.431	261.81
305.661	221.81
305.891	235.81
306.121	236.81
306.352	206.81
306.582	200.81
306.812	188.81
307.042	188.81
307.272	199.81
307.502	186.81
307.731	209.81
307.961	211.81
308.191	194.81
308.421	194.81
308.651	187.81
308.881	198.81
309.111	181.81
309.341	206.81
309.571	196.81
309.8	216.81
310.03	213.81
310.26	213.81
310.49	194.81
310.72	188.81
310.949	206.81
311.179	199.81
311.409	222.81
311.639	242.81
311.868	279.81
312.098	343.81
312.328	375.81
312.557	374.81
312.787	355.81
313.017	335.81
313.246	348.81
313.476	386.81
313.706	337.81
313.935	280.81
314.165	228.81
314.394	223.81
314.624	206.81
314.853	226.81
315.083	235.81
315.312	232.81
315.542	209.81
315.771	200.81
316.001	199.81
316.23	199.81
316.46	186.81
316.689	195.81
316.919	196.81
317.148	200.81
317.377	199.81
317.607	194.81
317.836	196.81
318.065	220.81
318.295	260.81
318.524	233.81
318.753	212.81
318.983	196.81
319.212	212.81
319.441	209.81
319.67	247.81
319.9	250.81
320.129	229.81
320.358	220.81
320.587	202.81
320.816	201.81
321.046	237.81
321.275	258.81
321.504	258.81
321.733	246.81
321.962	250.81
322.191	228.81
322.42	208.81
322.649	225.81
322.878	257.81
323.108	250.81
323.337	226.81
323.566	219.81
323.795	242.81
324.024	230.81
324.253	218.81
324.482	202.81
324.71	221.81
324.939	244.81
325.168	244.81
325.397	213.81
325.626	212.81
325.855	202.81
326.084	198.81
326.313	206.81
326.542	197.81
326.77	209.81
326.999	194.81
327.228	221.81
327.457	221.81
327.686	210.81
327.914	196.81
328.143	200.81
328.372	186.81
328.6	189.81
328.829	187.81
329.058	197.81
329.287	201.81
329.515	207.81
329.744	200.81
329.972	202.81
330.201	185.81
330.43	190.81
330.658	186.81
330.887	224.81
331.115	227.81
331.344	224.81
331.572	233.81
331.801	200.81
332.03	219.81
332.258	219.81
332.486	220.81
332.715	229.81
332.943	220.81
333.172	213.81
333.4	213.81
333.629	237.81
333.857	243.81
334.085	261.81
334.314	264.81
334.542	237.81
334.771	201.81
334.999	223.81
335.227	214.81
335.455	233.81
335.684	222.81
335.912	256.81
336.14	272.81
336.369	252.81
336.597	252.81
336.825	287.81
337.053	306.81
337.281	262.81
337.51	228.81
337.738	221.81
337.966	225.81
338.194	238.81
338.422	240.81
338.65	206.81
338.878	208.81
339.106	205.81
339.334	218.81
339.562	225.81
339.79	205.81
340.018	208.81
340.246	222.81
340.474	251.81
340.702	252.81
340.93	263.81
341.158	273.81
341.386	235.81
341.614	239.81
341.842	244.81
342.07	230.81
342.298	284.81
342.526	282.81
342.754	257.81
342.981	236.81
343.209	220.81
343.437	247.81
343.665	242.81
343.893	265.81
344.12	296.81
344.348	320.81
344.576	306.81
344.804	233.81
345.031	214.81
345.259	214.81
345.487	222.81
345.714	238.81
345.942	225.81
346.17	238.81
346.397	268.81
346.625	216.81
346.853	234.81
347.08	217.81
347.308	230.81
347.535	244.81
347.763	258.81
347.99	233.81
348.218	220.81
348.445	226.81
348.673	223.81
348.9	236.81
349.128	247.81
349.355	234.81
349.583	230.81
349.81	230.81
350.037	215.81
350.265	180.81
350.492	182.81
350.72	181.81
350.947	197.81
351.174	193.81
351.402	204.81
351.629	205.81
351.856	222.81
352.083	200.81
352.311	217.81
352.538	227.81
352.765	248.81
352.992	221.81
353.22	223.81
353.447	225.81
353.674	205.81
353.901	217.81
354.128	228.81
354.355	214.81
354.583	218.81
354.81	210.81
355.037	246.81
355.264	209.81
355.491	217.81
355.718	235.81
355.945	216.81
356.172	218.81
356.399	244.81
356.626	278.81
356.853	319.81
357.08	343.81
357.307	353.81
357.534	272.81
357.761	291.81
357.988	349.81
358.215	408.81
358.441	366.81
358.668	318.81
358.895	293.81
359.122	255.81
359.349	270.81
359.576	291.81
359.802	258.81
360.029	205.81
360.256	225.81
360.483	260.81
360.709	332.81
360.936	321.81
361.163	282.81
361.39	252.81
361.616	227.81
361.843	259.81
362.07	277.81
362.296	266.81
362.523	224.81
362.749	228.81
362.976	216.81
363.203	262.81
363.429	288.81
363.656	241.81
363.882	216.81
364.109	212.81
364.335	202.81
364.562	223.81
364.788	222.81
365.015	248.81
365.241	261.81
365.468	207.81
365.694	210.81
365.92	204.81
366.147	193.81
366.373	184.81
366.599	172.81
366.826	182.81
367.052	181.81
367.278	176.81
367.505	190.81
367.731	199.81
367.957	204.81
368.184	209.81
368.41	198.81
368.636	220.81
368.862	237.81
369.089	221.81
369.315	191.81
369.541	198.81
369.767	195.81
369.993	200.81
370.219	180.81
370.445	196.81
370.672	222.81
370.898	238.81
371.124	233.81
371.35	223.81
371.576	220.81
371.802	221.81
372.028	250.81
372.254	277.81
372.48	255.81
372.706	233.81
372.932	241.81
373.158	222.81
373.384	266.81
373.61	329.81
373.835	344.81
374.061	258.81
374.287	234.81
374.513	304.81
374.739	320.81
374.965	344.81
375.191	345.81
375.416	255.81
375.642	237.81
375.868	256.81
376.094	278.81
376.319	251.81
376.545	267.81
376.771	262.81
376.997	238.81
377.222	206.81
377.448	198.81
377.674	185.81
377.899	183.81
378.125	172.81
378.35	188.81
378.576	188.81
378.802	193.81
379.027	213.81
379.253	218.81
379.478	220.81
379.704	211.81
379.929	233.81
380.155	239.81
380.38	232.81
380.606	236.81
380.831	239.81
381.057	225.81
381.282	214.81
381.507	241.81
381.733	258.81
381.958	293.81
382.184	315.81
382.409	332.81
382.634	353.81
382.86	347.81
383.085	307.81
383.31	257.81
383.535	271.81
383.761	273.81
383.986	223.81
384.211	284.81
384.436	288.81
384.662	235.81
384.887	249.81
385.112	236.81
385.337	227.81
385.562	236.81
385.787	253.81
386.013	274.81
386.238	266.81
386.463	225.81
386.688	232.81
386.913	218.81
387.138	216.81
387.363	209.81
387.588	208.81
387.813	215.81
388.038	246.81
388.263	222.81
388.488	215.81
388.713	248.81
388.938	250.81
389.163	235.81
389.387	228.81
389.612	226.81
389.837	211.81
390.062	221.81
390.287	234.81
390.512	222.81
390.736	211.81
390.961	217.81
391.186	200.81
391.411	192.81
391.636	212.81
391.86	240.81
392.085	256.81
392.31	235.81
392.534	239.81
392.759	239.81
392.984	248.81
393.208	238.81
393.433	199.81
393.658	205.81
393.882	200.81
394.107	191.81
394.331	192.81
394.556	209.81
394.78	198.81
395.005	218.81
395.229	193.81
395.454	211.81
395.678	206.81
395.903	209.81
396.127	212.81
396.352	221.81
396.576	218.81
396.801	223.81
397.025	236.81
397.249	253.81
397.474	227.81
397.698	232.81
397.922	219.81
398.147	226.81
398.371	217.81
398.595	227.81
398.82	237.81
399.044	224.81
399.268	230.81
399.492	273.81
399.717	275.81
399.941	277.81
400.165	267.81
400.389	258.81
400.613	256.81
400.837	248.81
401.062	211.81
401.286	210.81
401.51	214.81
401.734	217.81
401.958	225.81
402.182	233.81
402.406	218.81
402.63	244.81
402.854	250.81
403.078	272.81
403.302	358.81
403.526	355.81
403.75	325.81
403.974	281.81
404.198	274.81
404.422	293.81
404.645	329.81
404.869	338.81
405.093	293.81
405.317	245.81
405.541	264.81
405.765	255.81
405.988	254.81
406.212	252.81
406.436	278.81
406.66	292.81
406.883	282.81
407.107	287.81
407.331	309.81
407.555	286.81
407.778	264.81
408.002	278.81
408.226	287.81
408.449	256.81
408.673	242.81
408.896	242.81
409.12	225.81
409.344	221.81
409.567	251.81
409.791	255.81
410.014	241.81
410.238	235.81
410.461	227.81
410.685	213.81
410.908	246.81
411.132	247.81
411.355	241.81
411.578	240.81
411.802	226.81
412.025	241.81
412.249	229.81
412.472	240.81
412.695	246.81
412.919	226.81
413.142	202.81
413.365	227.81
413.589	234.81
413.812	217.81
414.035	236.81
414.258	222.81
414.482	259.81
414.705	257.81
414.928	246.81
415.151	217.81
415.374	228.81
415.597	229.81
415.821	220.81
416.044	202.81
416.267	230.81
416.49	217.81
416.713	217.81
416.936	212.81
417.159	206.81
417.382	203.81
417.605	221.81
417.828	229.81
418.051	225.81
418.274	220.81
418.497	236.81
418.72	227.81
418.943	217.81
419.166	252.81
419.389	238.81
419.611	251.81
419.834	243.81
420.057	255.81
420.28	250.81
420.503	243.81
420.726	218.81
420.948	224.81
421.171	231.81
421.394	242.81
421.617	208.81
421.839	221.81
422.062	210.81
422.285	218.81
422.507	222.81
422.73	229.81
422.953	241.81
423.175	248.81
423.398	235.81
423.621	258.81
423.843	252.81
424.066	240.81
424.288	249.81
424.511	217.81
424.733	255.81
424.956	243.81
425.178	256.81
425.401	284.81
425.623	351.81
425.846	274.81
426.068	235.81
426.291	266.81
426.513	236.81
426.735	232.81
426.958	240.81
427.18	261.81
427.402	327.81
427.625	356.81
427.847	305.81
428.069	236.81
428.292	238.81
428.514	234.81
428.736	221.81
428.958	238.81
429.181	296.81
429.403	222.81
429.625	234.81
429.847	220.81
430.069	210.81
430.292	206.81
430.514	227.81
430.736	209.81
430.958	281.81
431.18	242.81
431.402	218.81
431.624	200.81
431.846	217.81
432.068	205.81
432.29	227.81
432.512	232.81
432.734	266.81
432.956	261.81
433.178	248.81
433.4	213.81
433.622	203.81
433.844	201.81
434.066	250.81
434.287	237.81
434.509	239.81
434.731	249.81
434.953	235.81
435.175	246.81
435.397	275.81
435.618	236.81
435.84	226.81
436.062	210.81
436.284	211.81
436.505	210.81
436.727	206.81
436.949	206.81
437.17	218.81
437.392	203.81
437.614	220.81
437.835	222.81
438.057	216.81
438.278	225.81
438.5	294.81
438.721	293.81
438.943	234.81
439.165	221.81
439.386	193.81
439.608	218.81
439.829	194.81
440.05	205.81
440.272	197.81
440.493	230.81
440.715	288.81
440.936	231.81
441.158	220.81
441.379	236.81
441.6	224.81
441.822	243.81
442.043	205.81
442.264	205.81
442.486	210.81
442.707	212.81
442.928	225.81
443.149	212.81
443.371	219.81
443.592	239.81
443.813	221.81
444.034	237.81
444.255	236.81
444.476	239.81
444.698	252.81
444.919	256.81
445.14	342.81
445.361	274.81
445.582	257.81
445.803	228.81
446.024	244.81
446.245	228.81
446.466	241.81
446.687	224.81
446.908	204.81
447.129	223.81
447.35	214.81
447.571	215.81
447.792	207.81
448.013	204.81
448.234	197.81
448.455	194.81
448.675	190.81
448.896	184.81
449.117	209.81
449.338	206.81
449.559	208.81
449.779	229.81
450	236.81
450.221	216.81
450.442	224.81
450.662	210.81
450.883	210.81
451.104	211.81
451.324	224.81
451.545	220.81
451.766	213.81
451.986	204.81
452.207	213.81
452.428	217.81
452.648	198.81
452.869	226.81
453.089	224.81
453.31	204.81
453.53	192.81
453.751	213.81
453.971	199.81
454.192	205.81
454.412	201.81
454.633	200.81
454.853	181.81
455.073	197.81
455.294	200.81
455.514	201.81
455.734	190.81
455.955	198.81
456.175	205.81
456.395	205.81
456.616	203.81
456.836	197.81
457.056	197.81
457.276	158.81
457.497	180.81
457.717	198.81
457.937	195.81
458.157	193.81
458.377	188.81
458.598	205.81
458.818	182.81
459.038	202.81
459.258	195.81
459.478	225.81
459.698	226.81
459.918	226.81
460.138	222.81
460.358	257.81
460.578	246.81
460.798	237.81
461.018	225.81
461.238	230.81
461.458	232.81
461.678	222.81
461.898	246.81
462.118	236.81
462.338	225.81
462.558	246.81
462.777	239.81
462.997	281.81
463.217	264.81
463.437	285.81
463.657	282.81
463.876	257.81
464.096	258.81
464.316	264.81
464.536	248.81
464.755	256.81
464.975	270.81
465.195	261.81
465.414	254.81
465.634	253.81
465.854	228.81
466.073	244.81
466.293	243.81
466.512	238.81
466.732	258.81
466.951	242.81
467.171	235.81
467.391	219.81
467.61	217.81
467.829	228.81
468.049	232.81
468.268	224.81
468.488	207.81
468.707	225.81
468.927	257.81
469.146	252.81
469.365	243.81
469.585	251.81
469.804	248.81
470.023	272.81
470.243	237.81
470.462	226.81
470.681	229.81
470.901	243.81
471.12	227.81
471.339	242.81
471.558	225.81
471.777	219.81
471.997	255.81
472.216	260.81
472.435	257.81
472.654	239.81
472.873	228.81
473.092	230.81
473.311	230.81
473.53	232.81
473.749	220.81
473.968	235.81
474.187	229.81
474.406	234.81
474.625	219.81
474.844	232.81
475.063	248.81
475.282	239.81
475.501	247.81
475.72	273.81
475.939	241.81
476.158	251.81
476.377	304.81
476.596	324.81
476.814	346.81
477.033	275.81
477.252	226.81
477.471	240.81
477.69	240.81
477.908	260.81
478.127	272.81
478.346	242.81
478.564	270.81
478.783	278.81
479.002	262.81
479.22	313.81
479.439	316.81
479.658	298.81
479.876	272.81
480.095	278.81
480.313	284.81
480.532	286.81
480.751	273.81
480.969	262.81
481.188	300.81
481.406	300.81
481.624	281.81
481.843	250.81
482.061	255.81
482.28	284.81
482.498	349.81
482.717	306.81
482.935	285.81
483.153	267.81
483.372	248.81
483.59	227.81
483.808	227.81
484.027	230.81
484.245	233.81
484.463	215.81
484.681	246.81
484.9	241.81
485.118	266.81
485.336	258.81
485.554	252.81
485.772	264.81
485.99	280.81
486.209	293.81
486.427	264.81
486.645	287.81
486.863	291.81
487.081	302.81
487.299	310.81
487.517	275.81
487.735	269.81
487.953	285.81
488.171	293.81
488.389	270.81
488.607	273.81
488.825	266.81
489.043	279.81
489.261	295.81
489.479	316.81
489.696	281.81
489.914	264.81
490.132	254.81
490.35	260.81
490.568	265.81
490.786	274.81
491.003	252.81
491.221	268.81
491.439	247.81
491.657	257.81
491.874	250.81
492.092	293.81
492.31	347.81
492.527	350.81
492.745	318.81
492.963	312.81
493.18	291.81
493.398	268.81
493.615	272.81
493.833	286.81
494.05	278.81
494.268	286.81
494.485	275.81
494.703	270.81
494.92	277.81
495.138	260.81
495.355	247.81
495.573	280.81
495.79	287.81
496.008	349.81
496.225	326.81
496.442	270.81
496.66	284.81
496.877	301.81
497.094	305.81
497.312	282.81
497.529	290.81
497.746	275.81
497.963	298.81
498.181	334.81
498.398	330.81
498.615	360.81
498.832	349.81
499.049	404.81
499.267	345.81
499.484	384.81
499.701	404.81
499.918	449.81
500.135	514.81
500.352	524.81
500.569	540.81
500.786	539.81
501.003	525.81
501.22	468.81
501.437	419.81
501.654	406.81
501.871	377.81
502.088	367.81
502.305	336.81
502.522	341.81
