Data from NickelSpatula.Lamp.E10.P2_HRD10591_11-58-54-527.txt Node
Date: Tue Jul 23 11:58:54 EDT 2019
User: cochatt
Spectrometer: HR+D1059
Trigger mode: 1
Integration Time (sec): 1.000000E-1
Scans to average: 1
Electric dark correction enabled: true
Nonlinearity correction enabled: false
Boxcar width: 0
XAxis mode: Wavelengths
Number of Pixels in Spectrum: 2048
>>>>>Begin Spectral Data<<<<<
223.165	-4.88
223.4	-4.88
223.635	-4.88
223.869	-27.88
224.104	-22.88
224.338	-13.88
224.573	-13.88
224.808	-16.88
225.042	-5.88
225.277	-9.88
225.511	-5.88
225.746	-1.88
225.98	10.12
226.215	8.12
226.449	15.12
226.683	25.12
226.918	37.12
227.152	28.12
227.387	29.12
227.621	35.12
227.856	41.12
228.09	44.12
228.324	48.12
228.559	60.12
228.793	81.12
229.027	144.12
229.262	168.12
229.496	166.12
229.73	161.12
229.964	185.12
230.199	216.12
230.433	222.12
230.667	213.12
230.901	194.12
231.136	209.12
231.37	227.12
231.604	229.12
231.838	255.12
232.072	265.12
232.306	252.12
232.541	266.12
232.775	253.12
233.009	276.12
233.243	312.12
233.477	318.12
233.711	332.12
233.945	327.12
234.179	333.12
234.413	361.12
234.647	418.12
234.881	475.12
235.115	434.12
235.349	416.12
235.583	353.12
235.817	359.12
236.051	380.12
236.285	412.12
236.519	487.12
236.753	442.12
236.987	458.12
237.221	404.12
237.455	427.12
237.689	435.12
237.922	452.12
238.156	505.12
238.39	580.12
238.624	700.12
238.858	627.12
239.091	500.12
239.325	517.12
239.559	492.12
239.793	574.12
240.027	668.12
240.26	633.12
240.494	607.12
240.728	606.12
240.961	703.12
241.195	670.12
241.429	666.12
241.662	629.12
241.896	550.12
242.13	480.12
242.363	464.12
242.597	469.12
242.83	546.12
243.064	538.12
243.298	612.12
243.531	664.12
243.765	686.12
243.998	642.12
244.232	623.12
244.465	630.12
244.699	602.12
244.932	688.12
245.166	646.12
245.399	569.12
245.633	561.12
245.866	584.12
246.099	629.12
246.333	770.12
246.566	802.12
246.8	776.12
247.033	757.12
247.266	715.12
247.5	724.12
247.733	690.12
247.966	678.12
248.2	718.12
248.433	794.12
248.666	850.12
248.899	865.12
249.133	894.12
249.366	1035.12
249.599	1093.12
249.832	972.12
250.066	861.12
250.299	877.12
250.532	816.12
250.765	817.12
250.998	746.12
251.231	753.12
251.465	794.12
251.698	862.12
251.931	820.12
252.164	854.12
252.397	964.12
252.63	1139.12
252.863	1201.12
253.096	1238.12
253.329	1201.12
253.562	1122.12
253.795	1288.12
254.028	1407.12
254.261	1454.12
254.494	1260.12
254.727	1176.12
254.96	1146.12
255.193	1246.12
255.426	1156.12
255.659	853.12
255.892	848.12
256.124	880.12
256.357	1046.12
256.59	1240.12
256.823	1170.12
257.056	980.12
257.289	933.12
257.521	1005.12
257.754	1152.12
257.987	1328.12
258.22	1142.12
258.452	1041.12
258.685	1207.12
258.918	1324.12
259.151	1291.12
259.383	1301.12
259.616	1521.12
259.849	1604.12
260.081	1765.12
260.314	1969.12
260.547	1511.12
260.779	1503.12
261.012	1733.12
261.244	1671.12
261.477	1710.12
261.71	1601.12
261.942	1321.12
262.175	1309.12
262.407	1257.12
262.64	1316.12
262.872	1580.12
263.105	1704.12
263.337	1798.12
263.57	1607.12
263.802	1061.12
264.035	940.12
264.267	904.12
264.499	786.12
264.732	715.12
264.964	688.12
265.197	720.12
265.429	773.12
265.661	839.12
265.894	857.12
266.126	945.12
266.358	1064.12
266.591	1298.12
266.823	1503.12
267.055	1476.12
267.287	1304.12
267.52	1309.12
267.752	1334.12
267.984	1473.12
268.216	1400.12
268.448	1153.12
268.681	1158.12
268.913	1223.12
269.145	1282.12
269.377	1349.12
269.609	1332.12
269.841	1249.12
270.073	1324.12
270.306	1388.12
270.538	1424.12
270.77	1447.12
271.002	1423.12
271.234	1496.12
271.466	1540.12
271.698	1495.12
271.93	1482.12
272.162	1503.12
272.394	1491.12
272.626	1426.12
272.858	1537.12
273.09	1558.12
273.322	1356.12
273.553	1298.12
273.785	1540.12
274.017	2030.12
274.249	2568.12
274.481	2641.12
274.713	2903.12
274.945	3306.12
275.176	3412.12
275.408	2953.12
275.64	2770.12
275.872	2749.12
276.104	2306.12
276.335	1985.12
276.567	1969.12
276.799	2015.12
277.031	2154.12
277.262	1679.12
277.494	1280.12
277.726	1198.12
277.957	1372.12
278.189	1518.12
278.421	1526.12
278.652	1481.12
278.884	1412.12
279.115	1319.12
279.347	1198.12
279.579	1259.12
279.81	1218.12
280.042	1223.12
280.273	1254.12
280.505	1171.12
280.736	1022.12
280.968	1068.12
281.199	1119.12
281.431	1299.12
281.662	1246.12
281.894	1212.12
282.125	1265.12
282.356	1373.12
282.588	1464.12
282.819	1308.12
283.051	1428.12
283.282	1753.12
283.513	2063.12
283.745	2229.12
283.976	2218.12
284.207	2096.12
284.439	2149.12
284.67	2055.12
284.901	1815.12
285.132	1993.12
285.364	2052.12
285.595	1936.12
285.826	1999.12
286.057	2118.12
286.288	1982.12
286.52	2106.12
286.751	2169.12
286.982	2172.12
287.213	1895.12
287.444	1788.12
287.675	1898.12
287.906	1880.12
288.138	1599.12
288.369	1390.12
288.6	1339.12
288.831	1393.12
289.062	1606.12
289.293	1708.12
289.524	1650.12
289.755	1611.12
289.986	1660.12
290.217	1434.12
290.448	1148.12
290.679	969.12
290.91	940.12
291.141	962.12
291.371	994.12
291.602	996.12
291.833	1006.12
292.064	1087.12
292.295	1253.12
292.526	1408.12
292.757	1465.12
292.987	1596.12
293.218	1621.12
293.449	1628.12
293.68	1715.12
293.91	1618.12
294.141	1672.12
294.372	1551.12
294.603	1470.12
294.833	1612.12
295.064	1850.12
295.295	1782.12
295.525	1340.12
295.756	1174.12
295.987	1040.12
296.217	1030.12
296.448	1042.12
296.679	1112.12
296.909	1280.12
297.14	1344.12
297.37	1459.12
297.601	1372.12
297.831	1192.12
298.062	1298.12
298.292	1482.12
298.523	1629.12
298.753	1848.12
298.984	1615.12
299.214	1316.12
299.445	1124.12
299.675	1072.12
299.905	1049.12
300.136	1097.12
300.366	1201.12
300.597	1196.12
300.827	1030.12
301.057	986.12
301.288	1024.12
301.518	1104.12
301.748	1252.12
301.979	1372.12
302.209	1490.12
302.439	1504.12
302.669	1267.12
302.9	1270.12
303.13	1195.12
303.36	1094.12
303.59	1054.12
303.82	1116.12
304.051	1261.12
304.281	1390.12
304.511	1314.12
304.741	1148.12
304.971	1220.12
305.201	1303.12
305.431	1198.12
305.661	1108.12
305.891	1086.12
306.121	1113.12
306.352	970.12
306.582	888.12
306.812	888.12
307.042	867.12
307.272	832.12
307.502	826.12
307.731	894.12
307.961	940.12
308.191	839.12
308.421	826.12
308.651	839.12
308.881	794.12
309.111	815.12
309.341	814.12
309.571	912.12
309.8	927.12
310.03	940.12
310.26	1025.12
310.49	992.12
310.72	882.12
310.949	879.12
311.179	894.12
311.409	943.12
311.639	1110.12
311.868	1383.12
312.098	1868.12
312.328	2005.12
312.557	1906.12
312.787	1896.12
313.017	1685.12
313.246	1836.12
313.476	2044.12
313.706	1641.12
313.935	1286.12
314.165	1052.12
314.394	984.12
314.624	964.12
314.853	1030.12
315.083	1072.12
315.312	1029.12
315.542	1058.12
315.771	962.12
316.001	861.12
316.23	862.12
316.46	852.12
316.689	892.12
316.919	908.12
317.148	925.12
317.377	882.12
317.607	864.12
317.836	994.12
318.065	1137.12
318.295	1284.12
318.524	1173.12
318.753	1009.12
318.983	955.12
319.212	920.12
319.441	1006.12
319.67	1164.12
319.9	1236.12
320.129	1198.12
320.358	1018.12
320.587	956.12
320.816	1023.12
321.046	1219.12
321.275	1383.12
321.504	1395.12
321.733	1312.12
321.962	1248.12
322.191	1222.12
322.42	1109.12
322.649	1157.12
322.878	1249.12
323.108	1250.12
323.337	1130.12
323.566	1126.12
323.795	1090.12
324.024	1063.12
324.253	1018.12
324.482	988.12
324.71	1093.12
324.939	1257.12
325.168	1114.12
325.397	914.12
325.626	925.12
325.855	927.12
326.084	926.12
326.313	886.12
326.542	842.12
326.77	892.12
326.999	936.12
327.228	1004.12
327.457	1045.12
327.686	1041.12
327.914	905.12
328.143	855.12
328.372	847.12
328.6	846.12
328.829	889.12
329.058	900.12
329.287	911.12
329.515	912.12
329.744	884.12
329.972	833.12
330.201	814.12
330.43	836.12
330.658	969.12
330.887	1087.12
331.115	1055.12
331.344	1015.12
331.572	974.12
331.801	906.12
332.03	865.12
332.258	868.12
332.486	961.12
332.715	999.12
332.943	899.12
333.172	875.12
333.4	952.12
333.629	1041.12
333.857	1130.12
334.085	1132.12
334.314	1138.12
334.542	1096.12
334.771	960.12
334.999	941.12
335.227	921.12
335.455	958.12
335.684	1068.12
335.912	1235.12
336.14	1354.12
336.369	1273.12
336.597	1252.12
336.825	1404.12
337.053	1601.12
337.281	1266.12
337.51	1011.12
337.738	968.12
337.966	1090.12
338.194	1221.12
338.422	1139.12
338.65	983.12
338.878	888.12
339.106	968.12
339.334	1045.12
339.562	1124.12
339.79	1023.12
340.018	1007.12
340.246	1056.12
340.474	1221.12
340.702	1287.12
340.93	1352.12
341.158	1349.12
341.386	1148.12
341.614	1128.12
341.842	1142.12
342.07	1211.12
342.298	1340.12
342.526	1416.12
342.754	1250.12
342.981	1129.12
343.209	1110.12
343.437	1152.12
343.665	1225.12
343.893	1237.12
344.12	1431.12
344.348	1652.12
344.576	1494.12
344.804	1246.12
345.031	1027.12
345.259	998.12
345.487	1013.12
345.714	1060.12
345.942	1136.12
346.17	1192.12
346.397	1172.12
346.625	1015.12
346.853	994.12
347.08	952.12
347.308	1019.12
347.535	1141.12
347.763	1176.12
347.99	1020.12
348.218	951.12
348.445	986.12
348.673	992.12
348.9	966.12
349.128	1066.12
349.355	1109.12
349.583	1086.12
349.81	1043.12
350.037	969.12
350.265	844.12
350.492	809.12
350.72	860.12
350.947	854.12
351.174	903.12
351.402	982.12
351.629	1007.12
351.856	959.12
352.083	919.12
352.311	1014.12
352.538	1124.12
352.765	1183.12
352.992	1076.12
353.22	984.12
353.447	1024.12
353.674	976.12
353.901	981.12
354.128	992.12
354.355	1035.12
354.583	1027.12
354.81	997.12
355.037	1038.12
355.264	1026.12
355.491	1116.12
355.718	1196.12
355.945	1178.12
356.172	1134.12
356.399	1142.12
356.626	1378.12
356.853	1671.12
357.08	1782.12
357.307	1804.12
357.534	1385.12
357.761	1436.12
357.988	1818.12
358.215	2153.12
358.441	2002.12
358.668	1702.12
358.895	1527.12
359.122	1221.12
359.349	1228.12
359.576	1402.12
359.802	1134.12
360.029	962.12
360.256	1066.12
360.483	1327.12
360.709	1666.12
360.936	1712.12
361.163	1471.12
361.39	1158.12
361.616	1095.12
361.843	1261.12
362.07	1527.12
362.296	1388.12
362.523	1119.12
362.749	979.12
362.976	1024.12
363.203	1248.12
363.429	1372.12
363.656	1095.12
363.882	1008.12
364.109	1029.12
364.335	1033.12
364.562	994.12
364.788	1160.12
365.015	1346.12
365.241	1207.12
365.468	991.12
365.694	839.12
365.92	804.12
366.147	790.12
366.373	783.12
366.599	809.12
366.826	828.12
367.052	836.12
367.278	860.12
367.505	818.12
367.731	919.12
367.957	1047.12
368.184	1074.12
368.41	1044.12
368.636	1062.12
368.862	1062.12
369.089	1040.12
369.315	950.12
369.541	908.12
369.767	892.12
369.993	865.12
370.219	865.12
370.445	915.12
370.672	1008.12
370.898	1139.12
371.124	1109.12
371.35	963.12
371.576	918.12
371.802	1016.12
372.028	1244.12
372.254	1406.12
372.48	1187.12
372.706	1040.12
372.932	1117.12
373.158	1185.12
373.384	1420.12
373.61	1926.12
373.835	1949.12
374.061	1404.12
374.287	1172.12
374.513	1446.12
374.739	1683.12
374.965	1770.12
375.191	1724.12
375.416	1211.12
375.642	1055.12
375.868	1244.12
376.094	1406.12
376.319	1187.12
376.545	1292.12
376.771	1393.12
376.997	1175.12
377.222	882.12
377.448	783.12
377.674	766.12
377.899	792.12
378.125	810.12
378.35	775.12
378.576	790.12
378.802	858.12
379.027	947.12
379.253	918.12
379.478	970.12
379.704	1059.12
379.929	1115.12
380.155	1114.12
380.38	973.12
380.606	1054.12
380.831	1137.12
381.057	1065.12
381.282	980.12
381.507	1219.12
381.733	1536.12
381.958	1612.12
382.184	1673.12
382.409	1774.12
382.634	1746.12
382.86	1841.12
383.085	1469.12
383.31	1175.12
383.535	1228.12
383.761	1244.12
383.986	1205.12
384.211	1456.12
384.436	1372.12
384.662	1081.12
384.887	1029.12
385.112	1040.12
385.337	1063.12
385.562	992.12
385.787	1118.12
386.013	1261.12
386.238	1280.12
386.463	1054.12
386.688	1013.12
386.913	982.12
387.138	895.12
387.363	990.12
387.588	991.12
387.813	1022.12
388.038	1156.12
388.263	1010.12
388.488	989.12
388.713	1138.12
388.938	1254.12
389.163	1052.12
389.387	939.12
389.612	930.12
389.837	950.12
390.062	985.12
390.287	1024.12
390.512	1064.12
390.736	970.12
390.961	880.12
391.186	881.12
391.411	872.12
391.636	892.12
391.86	957.12
392.085	1030.12
392.31	1015.12
392.534	966.12
392.759	949.12
392.984	1030.12
393.208	978.12
393.433	869.12
393.658	822.12
393.882	801.12
394.107	798.12
394.331	812.12
394.556	827.12
394.78	808.12
395.005	869.12
395.229	892.12
395.454	892.12
395.678	929.12
395.903	929.12
396.127	882.12
396.352	910.12
396.576	994.12
396.801	1022.12
397.025	1128.12
397.249	1178.12
397.474	958.12
397.698	940.12
397.922	985.12
398.147	923.12
398.371	922.12
398.595	990.12
398.82	928.12
399.044	972.12
399.268	1018.12
399.492	1046.12
399.717	1098.12
399.941	1140.12
400.165	1114.12
400.389	1054.12
400.613	1093.12
400.837	1072.12
401.062	941.12
401.286	919.12
401.51	898.12
401.734	912.12
401.958	937.12
402.182	930.12
402.406	929.12
402.63	957.12
402.854	1002.12
403.078	1091.12
403.302	1328.12
403.526	1364.12
403.75	1224.12
403.974	1054.12
404.198	1115.12
404.422	1251.12
404.645	1468.12
404.869	1629.12
405.093	1194.12
405.317	1046.12
405.541	980.12
405.765	1039.12
405.988	1042.12
406.212	1120.12
406.436	1342.12
406.66	1441.12
406.883	1156.12
407.107	1192.12
407.331	1398.12
407.555	1346.12
407.778	1127.12
408.002	1078.12
408.226	1068.12
408.449	1035.12
408.673	1031.12
408.896	941.12
409.12	922.12
409.344	917.12
409.567	897.12
409.791	910.12
410.014	897.12
410.238	905.12
410.461	888.12
410.685	931.12
410.908	936.12
411.132	931.12
411.355	932.12
411.578	941.12
411.802	943.12
412.025	1005.12
412.249	1012.12
412.472	990.12
412.695	970.12
412.919	960.12
413.142	982.12
413.365	1034.12
413.589	1088.12
413.812	998.12
414.035	928.12
414.258	945.12
414.482	1072.12
414.705	1099.12
414.928	919.12
415.151	891.12
415.374	894.12
415.597	934.12
415.821	924.12
416.044	903.12
416.267	869.12
416.49	870.12
416.713	856.12
416.936	858.12
417.159	861.12
417.382	900.12
417.605	920.12
417.828	921.12
418.051	930.12
418.274	971.12
418.497	950.12
418.72	942.12
418.943	973.12
419.166	1038.12
419.389	1048.12
419.611	1014.12
419.834	1056.12
420.057	1159.12
420.28	1120.12
420.503	1050.12
420.726	949.12
420.948	880.12
421.171	904.12
421.394	901.12
421.617	848.12
421.839	887.12
422.062	974.12
422.285	946.12
422.507	969.12
422.73	961.12
422.953	996.12
423.175	996.12
423.398	984.12
423.621	1044.12
423.843	1108.12
424.066	1012.12
424.288	969.12
424.511	930.12
424.733	947.12
424.956	975.12
425.178	1118.12
425.401	1268.12
425.623	1422.12
425.846	1164.12
426.068	1041.12
426.291	1148.12
426.513	1022.12
426.735	967.12
426.958	1026.12
427.18	1222.12
427.402	1614.12
427.625	1529.12
427.847	1221.12
428.069	919.12
428.292	928.12
428.514	924.12
428.736	874.12
428.958	981.12
429.181	1148.12
429.403	985.12
429.625	927.12
429.847	900.12
430.069	929.12
430.292	936.12
430.514	887.12
430.736	962.12
430.958	1225.12
431.18	1107.12
431.402	862.12
431.624	816.12
431.846	854.12
432.068	829.12
432.29	834.12
432.512	914.12
432.734	1225.12
432.956	1135.12
433.178	906.12
433.4	863.12
433.622	856.12
433.844	910.12
434.066	948.12
434.287	935.12
434.509	910.12
434.731	914.12
434.953	881.12
435.175	920.12
435.397	1054.12
435.618	907.12
435.84	826.12
436.062	838.12
436.284	855.12
436.505	842.12
436.727	798.12
436.949	833.12
437.17	852.12
437.392	873.12
437.614	857.12
437.835	834.12
438.057	852.12
438.278	983.12
438.5	1460.12
438.721	1411.12
438.943	971.12
439.165	852.12
439.386	788.12
439.608	780.12
439.829	799.12
440.05	818.12
440.272	859.12
440.493	1042.12
440.715	1256.12
440.936	1004.12
441.158	844.12
441.379	888.12
441.6	989.12
441.822	1040.12
442.043	913.12
442.264	911.12
442.486	898.12
442.707	876.12
442.928	898.12
443.149	934.12
443.371	915.12
443.592	954.12
443.813	926.12
444.034	920.12
444.255	930.12
444.476	1004.12
444.698	935.12
444.919	940.12
445.14	1103.12
445.361	1065.12
445.582	950.12
445.803	932.12
446.024	966.12
446.245	972.12
446.466	898.12
446.687	898.12
446.908	922.12
447.129	853.12
447.35	819.12
447.571	831.12
447.792	838.12
448.013	808.12
448.234	774.12
448.455	798.12
448.675	797.12
448.896	819.12
449.117	812.12
449.338	843.12
449.559	840.12
449.779	872.12
450	897.12
450.221	867.12
450.442	826.12
450.662	849.12
450.883	834.12
451.104	851.12
451.324	814.12
451.545	835.12
451.766	822.12
451.986	795.12
452.207	776.12
452.428	762.12
452.648	797.12
452.869	829.12
453.089	890.12
453.31	874.12
453.53	756.12
453.751	762.12
453.971	752.12
454.192	796.12
454.412	802.12
454.633	781.12
454.853	768.12
455.073	756.12
455.294	750.12
455.514	759.12
455.734	779.12
455.955	824.12
456.175	848.12
456.395	781.12
456.616	708.12
456.836	698.12
457.056	701.12
457.276	718.12
457.497	717.12
457.717	727.12
457.937	716.12
458.157	719.12
458.377	722.12
458.598	759.12
458.818	770.12
459.038	825.12
459.258	846.12
459.478	847.12
459.698	933.12
459.918	940.12
460.138	911.12
460.358	920.12
460.578	872.12
460.798	891.12
461.018	906.12
461.238	894.12
461.458	864.12
461.678	897.12
461.898	958.12
462.118	940.12
462.338	947.12
462.558	984.12
462.777	996.12
462.997	1007.12
463.217	1002.12
463.437	1025.12
463.657	1021.12
463.876	949.12
464.096	968.12
464.316	984.12
464.536	999.12
464.755	1040.12
464.975	1059.12
465.195	961.12
465.414	1032.12
465.634	976.12
465.854	936.12
466.073	898.12
466.293	855.12
466.512	948.12
466.732	1052.12
466.951	1057.12
467.171	951.12
467.391	865.12
467.61	886.12
467.829	950.12
468.049	971.12
468.268	896.12
468.488	897.12
468.707	929.12
468.927	1100.12
469.146	1166.12
469.365	1065.12
469.585	950.12
469.804	1042.12
470.023	1113.12
470.243	980.12
470.462	950.12
470.681	951.12
470.901	947.12
471.12	968.12
471.339	1032.12
471.558	919.12
471.777	944.12
471.997	1041.12
472.216	1133.12
472.435	1099.12
472.654	996.12
472.873	970.12
473.092	1046.12
473.311	1094.12
473.53	974.12
473.749	933.12
473.968	986.12
474.187	993.12
474.406	945.12
474.625	945.12
474.844	965.12
475.063	1044.12
475.282	1049.12
475.501	1122.12
475.72	1191.12
475.939	1115.12
476.158	1106.12
476.377	1292.12
476.596	1469.12
476.814	1532.12
477.033	1269.12
477.252	1080.12
477.471	1004.12
477.69	1030.12
477.908	1122.12
478.127	1200.12
478.346	1086.12
478.564	1154.12
478.783	1118.12
479.002	1129.12
479.22	1306.12
479.439	1443.12
479.658	1249.12
479.876	1181.12
480.095	1240.12
480.313	1242.12
480.532	1124.12
480.751	1102.12
480.969	1146.12
481.188	1314.12
481.406	1310.12
481.624	1237.12
481.843	1129.12
482.061	1074.12
482.28	1247.12
482.498	1520.12
482.717	1416.12
482.935	1234.12
483.153	1134.12
483.372	1093.12
483.59	1047.12
483.808	1104.12
484.027	1061.12
484.245	1048.12
484.463	1008.12
484.681	1048.12
484.9	1126.12
485.118	1210.12
485.336	1132.12
485.554	1041.12
485.772	1096.12
485.99	1207.12
486.209	1241.12
486.427	1286.12
486.645	1249.12
486.863	1280.12
487.081	1252.12
487.299	1416.12
487.517	1374.12
487.735	1221.12
487.953	1254.12
488.171	1300.12
488.389	1213.12
488.607	1118.12
488.825	1175.12
489.043	1290.12
489.261	1502.12
489.479	1561.12
489.696	1340.12
489.914	1214.12
490.132	1133.12
490.35	1134.12
490.568	1158.12
490.786	1134.12
491.003	1161.12
491.221	1181.12
491.439	1164.12
491.657	1154.12
491.874	1292.12
492.092	1525.12
492.31	1840.12
492.527	1801.12
492.745	1556.12
492.963	1352.12
493.18	1300.12
493.398	1327.12
493.615	1308.12
