Data from NickelSpatula_HRD10591_16-34-38-126.txt Node
Date: Mon Jul 22 16:34:38 EDT 2019
User: cochatt
Spectrometer: HR+D1059
Trigger mode: 1
Integration Time (sec): 1.000000E-1
Scans to average: 1
Electric dark correction enabled: true
Nonlinearity correction enabled: false
Boxcar width: 0
XAxis mode: Wavelengths
Number of Pixels in Spectrum: 2048
>>>>>Begin Spectral Data<<<<<
223.165	-4.69
223.4	-4.69
223.635	-4.69
223.869	-19.69
224.104	-17.69
224.338	-7.69
224.573	-6.69
224.808	-16.69
225.042	-5.69
225.277	-7.69
225.511	-13.69
225.746	-10.69
225.98	-7.69
226.215	14.31
226.449	12.31
226.683	29.31
226.918	32.31
227.152	30.31
227.387	50.31
227.621	45.31
227.856	47.31
228.09	54.31
228.324	58.31
228.559	44.31
228.793	57.31
229.027	70.31
229.262	66.31
229.496	87.31
229.73	90.31
229.964	103.31
230.199	107.31
230.433	96.31
230.667	90.31
230.901	91.31
231.136	107.31
231.37	98.31
231.604	90.31
231.838	106.31
232.072	114.31
232.306	107.31
232.541	109.31
232.775	108.31
233.009	110.31
233.243	122.31
233.477	119.31
233.711	124.31
233.945	125.31
234.179	115.31
234.413	116.31
234.647	136.31
234.881	155.31
235.115	149.31
235.349	117.31
235.583	116.31
235.817	125.31
236.051	126.31
236.285	136.31
236.519	150.31
236.753	140.31
236.987	137.31
237.221	134.31
237.455	144.31
237.689	127.31
237.922	142.31
238.156	147.31
238.39	145.31
238.624	152.31
238.858	162.31
239.091	148.31
239.325	166.31
239.559	136.31
239.793	147.31
240.027	175.31
240.26	167.31
240.494	167.31
240.728	163.31
240.961	182.31
241.195	178.31
241.429	190.31
241.662	167.31
241.896	164.31
242.13	152.31
242.363	138.31
242.597	151.31
242.83	176.31
243.064	158.31
243.298	162.31
243.531	176.31
243.765	186.31
243.998	175.31
244.232	178.31
244.465	162.31
244.699	167.31
244.932	187.31
245.166	182.31
245.399	158.31
245.633	162.31
245.866	156.31
246.099	165.31
246.333	192.31
246.566	203.31
246.8	196.31
247.033	202.31
247.266	180.31
247.5	185.31
247.733	173.31
247.966	184.31
248.2	184.31
248.433	204.31
248.666	221.31
248.899	213.31
249.133	207.31
249.366	216.31
249.599	246.31
249.832	222.31
250.066	210.31
250.299	208.31
250.532	192.31
250.765	201.31
250.998	193.31
251.231	181.31
251.465	207.31
251.698	220.31
251.931	211.31
252.164	211.31
252.397	233.31
252.63	259.31
252.863	260.31
253.096	269.31
253.329	290.31
253.562	268.31
253.795	293.31
254.028	325.31
254.261	332.31
254.494	287.31
254.727	278.31
254.96	253.31
255.193	279.31
255.426	280.31
255.659	225.31
255.892	213.31
256.124	234.31
256.357	268.31
256.59	299.31
256.823	265.31
257.056	227.31
257.289	226.31
257.521	233.31
257.754	271.31
257.987	310.31
258.22	276.31
258.452	227.31
258.685	262.31
258.918	297.31
259.151	308.31
259.383	308.31
259.616	359.31
259.849	349.31
260.081	376.31
260.314	397.31
260.547	340.31
260.779	338.31
261.012	380.31
261.244	365.31
261.477	374.31
261.71	340.31
261.942	314.31
262.175	315.31
262.407	290.31
262.64	303.31
262.872	334.31
263.105	357.31
263.337	372.31
263.57	347.31
263.802	239.31
264.035	252.31
264.267	241.31
264.499	199.31
264.732	194.31
264.964	183.31
265.197	198.31
265.429	201.31
265.661	221.31
265.894	235.31
266.126	237.31
266.358	248.31
266.591	294.31
266.823	346.31
267.055	342.31
267.287	311.31
267.52	294.31
267.752	322.31
267.984	342.31
268.216	324.31
268.448	285.31
268.681	268.31
268.913	288.31
269.145	313.31
269.377	330.31
269.609	328.31
269.841	314.31
270.073	298.31
270.306	319.31
270.538	324.31
270.77	344.31
271.002	343.31
271.234	365.31
271.466	351.31
271.698	314.31
271.93	323.31
272.162	325.31
272.394	334.31
272.626	319.31
272.858	326.31
273.09	326.31
273.322	302.31
273.553	282.31
273.785	333.31
274.017	416.31
274.249	493.31
274.481	501.31
274.713	530.31
274.945	614.31
275.176	662.31
275.408	602.31
275.64	542.31
275.872	525.31
276.104	483.31
276.335	422.31
276.567	410.31
276.799	431.31
277.031	451.31
277.262	349.31
277.494	306.31
277.726	292.31
277.957	286.31
278.189	326.31
278.421	332.31
278.652	329.31
278.884	318.31
279.115	280.31
279.347	299.31
279.579	295.31
279.81	289.31
280.042	315.31
280.273	314.31
280.505	285.31
280.736	260.31
280.968	258.31
281.199	255.31
281.431	281.31
281.662	290.31
281.894	279.31
282.125	292.31
282.356	318.31
282.588	329.31
282.819	283.31
283.051	314.31
283.282	374.31
283.513	415.31
283.745	454.31
283.976	442.31
284.207	439.31
284.439	441.31
284.67	430.31
284.901	387.31
285.132	427.31
285.364	454.31
285.595	410.31
285.826	424.31
286.057	440.31
286.288	431.31
286.52	447.31
286.751	474.31
286.982	472.31
287.213	412.31
287.444	395.31
287.675	420.31
287.906	406.31
288.138	338.31
288.369	323.31
288.6	306.31
288.831	307.31
289.062	358.31
289.293	396.31
289.524	360.31
289.755	360.31
289.986	382.31
290.217	335.31
290.448	274.31
290.679	256.31
290.91	231.31
291.141	225.31
291.371	245.31
291.602	237.31
291.833	251.31
292.064	245.31
292.295	262.31
292.526	305.31
292.757	322.31
292.987	367.31
293.218	338.31
293.449	378.31
293.68	420.31
293.91	351.31
294.141	390.31
294.372	354.31
294.603	344.31
294.833	360.31
295.064	407.31
295.295	407.31
295.525	313.31
295.756	268.31
295.987	215.31
296.217	226.31
296.448	234.31
296.679	247.31
296.909	252.31
297.14	284.31
297.37	308.31
297.601	318.31
297.831	285.31
298.062	276.31
298.292	324.31
298.523	329.31
298.753	377.31
298.984	342.31
299.214	303.31
299.445	232.31
299.675	228.31
299.905	210.31
300.136	250.31
300.366	260.31
300.597	237.31
300.827	246.31
301.057	240.31
301.288	245.31
301.518	276.31
301.748	283.31
301.979	297.31
302.209	305.31
302.439	312.31
302.669	292.31
302.9	273.31
303.13	282.31
303.36	287.31
303.59	251.31
303.82	253.31
304.051	280.31
304.281	310.31
304.511	294.31
304.741	267.31
304.971	292.31
305.201	293.31
305.431	282.31
305.661	224.31
305.891	243.31
306.121	217.31
306.352	230.31
306.582	208.31
306.812	204.31
307.042	226.31
307.272	176.31
307.502	192.31
307.731	220.31
307.961	214.31
308.191	203.31
308.421	182.31
308.651	191.31
308.881	191.31
309.111	205.31
309.341	198.31
309.571	209.31
309.8	212.31
310.03	202.31
310.26	224.31
310.49	227.31
310.72	208.31
310.949	217.31
311.179	198.31
311.409	234.31
311.639	244.31
311.868	306.31
312.098	381.31
312.328	413.31
312.557	396.31
312.787	398.31
313.017	371.31
313.246	382.31
313.476	418.31
313.706	354.31
313.935	291.31
314.165	266.31
314.394	229.31
314.624	225.31
314.853	238.31
315.083	256.31
315.312	228.31
315.542	233.31
315.771	212.31
316.001	204.31
316.23	184.31
316.46	190.31
316.689	187.31
316.919	198.31
317.148	195.31
317.377	184.31
317.607	205.31
317.836	202.31
318.065	232.31
318.295	272.31
318.524	264.31
318.753	216.31
318.983	218.31
319.212	215.31
319.441	217.31
319.67	252.31
319.9	268.31
320.129	246.31
320.358	216.31
320.587	227.31
320.816	228.31
321.046	248.31
321.275	288.31
321.504	280.31
321.733	276.31
321.962	264.31
322.191	245.31
322.42	227.31
322.649	260.31
322.878	253.31
323.108	255.31
323.337	243.31
323.566	237.31
323.795	255.31
324.024	264.31
324.253	224.31
324.482	219.31
324.71	219.31
324.939	260.31
325.168	251.31
325.397	222.31
325.626	216.31
325.855	214.31
326.084	211.31
326.313	208.31
326.542	192.31
326.77	203.31
326.999	198.31
327.228	199.31
327.457	232.31
327.686	227.31
327.914	197.31
328.143	200.31
328.372	187.31
328.6	190.31
328.829	192.31
329.058	198.31
329.287	204.31
329.515	207.31
329.744	207.31
329.972	191.31
330.201	182.31
330.43	197.31
330.658	200.31
330.887	239.31
331.115	210.31
331.344	212.31
331.572	210.31
331.801	207.31
332.03	194.31
332.258	201.31
332.486	216.31
332.715	219.31
332.943	219.31
333.172	207.31
333.4	209.31
333.629	246.31
333.857	239.31
334.085	247.31
334.314	248.31
334.542	248.31
334.771	223.31
334.999	211.31
335.227	191.31
335.455	216.31
335.684	208.31
335.912	247.31
336.14	293.31
336.369	287.31
336.597	243.31
336.825	277.31
337.053	312.31
337.281	261.31
337.51	214.31
337.738	222.31
337.966	228.31
338.194	236.31
338.422	246.31
338.65	232.31
338.878	191.31
339.106	192.31
339.334	226.31
339.562	244.31
339.79	235.31
340.018	208.31
340.246	211.31
340.474	250.31
340.702	273.31
340.93	282.31
341.158	279.31
341.386	246.31
341.614	219.31
341.842	224.31
342.07	238.31
342.298	294.31
342.526	292.31
342.754	270.31
342.981	225.31
343.209	231.31
343.437	247.31
343.665	259.31
343.893	270.31
344.12	316.31
344.348	338.31
344.576	302.31
344.804	268.31
345.031	228.31
345.259	216.31
345.487	219.31
345.714	226.31
345.942	259.31
346.17	260.31
346.397	260.31
346.625	216.31
346.853	213.31
347.08	220.31
347.308	215.31
347.535	248.31
347.763	252.31
347.99	214.31
348.218	216.31
348.445	222.31
348.673	211.31
348.9	221.31
349.128	250.31
349.355	226.31
349.583	219.31
349.81	212.31
350.037	219.31
350.265	198.31
350.492	201.31
350.72	183.31
350.947	188.31
351.174	215.31
351.402	209.31
351.629	205.31
351.856	203.31
352.083	201.31
352.311	208.31
352.538	220.31
352.765	221.31
352.992	240.31
353.22	222.31
353.447	247.31
353.674	208.31
353.901	212.31
354.128	217.31
354.355	230.31
354.583	227.31
354.81	232.31
355.037	234.31
355.264	212.31
355.491	235.31
355.718	259.31
355.945	239.31
356.172	238.31
356.399	227.31
356.626	264.31
356.853	318.31
357.08	362.31
357.307	360.31
357.534	301.31
357.761	300.31
357.988	348.31
358.215	378.31
358.441	360.31
358.668	352.31
358.895	323.31
359.122	279.31
359.349	259.31
359.576	297.31
359.802	245.31
360.029	215.31
360.256	224.31
360.483	264.31
360.709	346.31
360.936	342.31
361.163	299.31
361.39	235.31
361.616	208.31
361.843	242.31
362.07	297.31
362.296	260.31
362.523	216.31
362.749	222.31
362.976	211.31
363.203	251.31
363.429	291.31
363.656	227.31
363.882	212.31
364.109	222.31
364.335	223.31
364.562	215.31
364.788	232.31
365.015	266.31
365.241	236.31
365.468	209.31
365.694	199.31
365.92	178.31
366.147	184.31
366.373	176.31
366.599	190.31
366.826	175.31
367.052	181.31
367.278	183.31
367.505	188.31
367.731	198.31
367.957	239.31
368.184	226.31
368.41	205.31
368.636	218.31
368.862	234.31
369.089	197.31
369.315	199.31
369.541	204.31
369.767	196.31
369.993	181.31
370.219	199.31
370.445	188.31
370.672	206.31
370.898	244.31
371.124	233.31
371.35	206.31
371.576	194.31
371.802	197.31
372.028	226.31
372.254	269.31
372.48	243.31
372.706	209.31
372.932	237.31
373.158	229.31
373.384	271.31
373.61	319.31
373.835	362.31
374.061	269.31
374.287	262.31
374.513	299.31
374.739	320.31
374.965	338.31
375.191	336.31
375.416	238.31
375.642	236.31
375.868	253.31
376.094	266.31
376.319	238.31
376.545	261.31
376.771	299.31
376.997	233.31
377.222	186.31
377.448	174.31
377.674	176.31
377.899	189.31
378.125	175.31
378.35	170.31
378.576	174.31
378.802	194.31
379.027	212.31
379.253	208.31
379.478	214.31
379.704	236.31
379.929	228.31
380.155	242.31
380.38	227.31
380.606	208.31
380.831	244.31
381.057	222.31
381.282	202.31
381.507	228.31
381.733	296.31
381.958	299.31
382.184	313.31
382.409	314.31
382.634	333.31
382.86	364.31
383.085	287.31
383.31	223.31
383.535	251.31
383.761	270.31
383.986	259.31
384.211	286.31
384.436	284.31
384.662	222.31
384.887	225.31
385.112	219.31
385.337	242.31
385.562	230.31
385.787	222.31
386.013	260.31
386.238	255.31
386.463	219.31
386.688	222.31
386.913	217.31
387.138	201.31
387.363	201.31
387.588	218.31
387.813	232.31
388.038	232.31
388.263	192.31
388.488	213.31
388.713	233.31
388.938	256.31
389.163	238.31
389.387	211.31
389.612	218.31
389.837	197.31
390.062	202.31
390.287	218.31
390.512	208.31
390.736	200.31
390.961	190.31
391.186	203.31
391.411	191.31
391.636	191.31
391.86	200.31
392.085	247.31
392.31	225.31
392.534	226.31
392.759	197.31
392.984	200.31
393.208	206.31
393.433	173.31
393.658	188.31
393.882	207.31
394.107	159.31
394.331	177.31
394.556	172.31
394.78	167.31
395.005	176.31
395.229	202.31
395.454	197.31
395.678	192.31
395.903	206.31
396.127	204.31
396.352	195.31
396.576	219.31
396.801	209.31
397.025	253.31
397.249	258.31
397.474	203.31
397.698	222.31
397.922	223.31
398.147	199.31
398.371	205.31
398.595	234.31
398.82	216.31
399.044	207.31
399.268	211.31
399.492	224.31
399.717	229.31
399.941	241.31
400.165	230.31
400.389	212.31
400.613	224.31
400.837	222.31
401.062	196.31
401.286	212.31
401.51	207.31
401.734	205.31
401.958	205.31
402.182	207.31
402.406	206.31
402.63	205.31
402.854	211.31
403.078	222.31
403.302	303.31
403.526	326.31
403.75	290.31
403.974	250.31
404.198	255.31
404.422	276.31
404.645	295.31
404.869	316.31
405.093	267.31
405.317	229.31
405.541	220.31
405.765	229.31
405.988	222.31
406.212	221.31
406.436	273.31
406.66	287.31
406.883	231.31
407.107	232.31
407.331	280.31
407.555	264.31
407.778	250.31
408.002	231.31
408.226	227.31
408.449	232.31
408.673	230.31
408.896	212.31
409.12	203.31
409.344	208.31
409.567	207.31
409.791	208.31
410.014	211.31
410.238	194.31
410.461	200.31
410.685	200.31
410.908	196.31
411.132	210.31
411.355	207.31
411.578	213.31
411.802	205.31
412.025	217.31
412.249	208.31
412.472	214.31
412.695	202.31
412.919	212.31
413.142	240.31
413.365	223.31
413.589	224.31
413.812	205.31
414.035	197.31
414.258	204.31
414.482	224.31
414.705	230.31
414.928	189.31
415.151	199.31
415.374	208.31
415.597	195.31
415.821	199.31
416.044	203.31
416.267	187.31
416.49	188.31
416.713	208.31
416.936	193.31
417.159	186.31
417.382	188.31
417.605	220.31
417.828	199.31
418.051	196.31
418.274	207.31
418.497	206.31
418.72	203.31
418.943	218.31
419.166	221.31
419.389	214.31
419.611	210.31
419.834	225.31
420.057	237.31
420.28	232.31
420.503	231.31
420.726	191.31
420.948	173.31
421.171	185.31
421.394	193.31
421.617	189.31
421.839	179.31
422.062	207.31
422.285	211.31
422.507	214.31
422.73	204.31
422.953	206.31
423.175	205.31
423.398	200.31
423.621	228.31
423.843	232.31
424.066	212.31
424.288	212.31
424.511	190.31
424.733	197.31
424.956	217.31
425.178	233.31
425.401	280.31
425.623	317.31
425.846	249.31
426.068	215.31
426.291	248.31
426.513	219.31
426.735	213.31
426.958	234.31
427.18	254.31
427.402	307.31
427.625	316.31
427.847	267.31
428.069	196.31
428.292	191.31
428.514	196.31
428.736	185.31
428.958	212.31
429.181	261.31
429.403	220.31
429.625	202.31
429.847	191.31
430.069	197.31
430.292	200.31
430.514	181.31
430.736	190.31
430.958	240.31
431.18	232.31
431.402	169.31
431.624	189.31
431.846	207.31
432.068	186.31
432.29	191.31
432.512	198.31
432.734	251.31
432.956	231.31
433.178	191.31
433.4	176.31
433.622	186.31
433.844	208.31
434.066	229.31
434.287	218.31
434.509	200.31
434.731	217.31
434.953	195.31
435.175	193.31
435.397	237.31
435.618	211.31
435.84	192.31
436.062	179.31
436.284	199.31
436.505	167.31
436.727	193.31
436.949	190.31
437.17	188.31
437.392	199.31
437.614	192.31
437.835	179.31
438.057	185.31
438.278	199.31
438.5	277.31
438.721	275.31
438.943	214.31
439.165	187.31
439.386	182.31
439.608	182.31
439.829	189.31
440.05	186.31
440.272	178.31
440.493	207.31
440.715	235.31
440.936	208.31
441.158	197.31
441.379	186.31
441.6	211.31
441.822	222.31
442.043	182.31
442.264	180.31
442.486	206.31
442.707	187.31
442.928	198.31
443.149	192.31
443.371	199.31
443.592	208.31
443.813	198.31
444.034	210.31
444.255	196.31
444.476	214.31
444.698	212.31
444.919	213.31
445.14	338.31
445.361	276.31
445.582	221.31
445.803	200.31
446.024	228.31
446.245	219.31
446.466	230.31
446.687	194.31
446.908	200.31
447.129	203.31
447.35	182.31
447.571	176.31
447.792	174.31
448.013	171.31
448.234	164.31
448.455	179.31
448.675	175.31
448.896	173.31
449.117	172.31
449.338	163.31
449.559	200.31
449.779	193.31
450	205.31
450.221	200.31
450.442	186.31
450.662	183.31
450.883	168.31
451.104	170.31
451.324	178.31
451.545	157.31
451.766	181.31
451.986	182.31
452.207	174.31
452.428	177.31
452.648	185.31
452.869	192.31
453.089	199.31
453.31	192.31
453.53	182.31
453.751	184.31
453.971	166.31
454.192	186.31
454.412	208.31
454.633	174.31
454.853	173.31
455.073	172.31
455.294	168.31
455.514	177.31
455.734	166.31
455.955	168.31
456.175	169.31
456.395	173.31
456.616	172.31
456.836	162.31
457.056	167.31
457.276	155.31
457.497	159.31
457.717	160.31
457.937	165.31
458.157	178.31
458.377	183.31
458.598	181.31
458.818	188.31
459.038	197.31
459.258	205.31
459.478	182.31
459.698	205.31
459.918	205.31
460.138	199.31
460.358	198.31
460.578	204.31
460.798	200.31
461.018	203.31
461.238	191.31
461.458	200.31
461.678	201.31
461.898	200.31
462.118	213.31
462.338	202.31
462.558	212.31
462.777	218.31
462.997	218.31
463.217	233.31
463.437	214.31
463.657	217.31
463.876	218.31
464.096	210.31
464.316	216.31
464.536	210.31
464.755	236.31
464.975	235.31
465.195	239.31
465.414	248.31
465.634	220.31
465.854	214.31
466.073	188.31
466.293	195.31
466.512	207.31
466.732	223.31
466.951	212.31
467.171	197.31
467.391	195.31
467.61	198.31
467.829	207.31
468.049	202.31
468.268	191.31
468.488	180.31
468.707	190.31
468.927	243.31
469.146	240.31
469.365	213.31
469.585	200.31
469.804	223.31
470.023	214.31
470.243	210.31
470.462	208.31
470.681	213.31
470.901	199.31
471.12	216.31
471.339	214.31
471.558	213.31
471.777	192.31
471.997	218.31
472.216	243.31
472.435	223.31
472.654	231.31
472.873	211.31
473.092	229.31
473.311	227.31
473.53	208.31
473.749	218.31
473.968	219.31
474.187	227.31
474.406	207.31
474.625	198.31
474.844	196.31
475.063	220.31
475.282	236.31
475.501	244.31
475.72	257.31
475.939	227.31
476.158	235.31
476.377	288.31
476.596	332.31
476.814	334.31
477.033	277.31
477.252	236.31
477.471	216.31
477.69	218.31
477.908	221.31
478.127	240.31
478.346	226.31
478.564	269.31
478.783	255.31
479.002	243.31
479.22	258.31
479.439	280.31
479.658	253.31
479.876	231.31
480.095	223.31
480.313	258.31
480.532	240.31
480.751	236.31
480.969	232.31
481.188	276.31
481.406	263.31
481.624	251.31
481.843	228.31
482.061	237.31
482.28	259.31
482.498	318.31
482.717	310.31
482.935	246.31
483.153	221.31
483.372	235.31
483.59	215.31
483.808	209.31
484.027	195.31
484.245	207.31
484.463	208.31
484.681	222.31
484.9	214.31
485.118	242.31
485.336	234.31
485.554	217.31
485.772	211.31
485.99	242.31
486.209	266.31
486.427	256.31
486.645	257.31
486.863	247.31
487.081	244.31
487.299	273.31
487.517	283.31
487.735	251.31
487.953	245.31
488.171	254.31
488.389	237.31
488.607	228.31
488.825	246.31
489.043	236.31
489.261	294.31
489.479	317.31
489.696	261.31
489.914	231.31
490.132	229.31
490.35	232.31
490.568	230.31
490.786	241.31
491.003	202.31
491.221	226.31
491.439	236.31
491.657	215.31
491.874	270.31
492.092	299.31
492.31	349.31
492.527	355.31
492.745	287.31
492.963	264.31
493.18	273.31
493.398	257.31
493.615	273.31
493.833	256.31
494.05	251.31
494.268	264.31
494.485	242.31
494.703	242.31
494.92	239.31
495.138	225.31
495.355	239.31
495.573	257.31
495.79	265.31
496.008	375.31
496.225	300.31
496.442	273.31
496.66	270.31
496.877	282.31
497.094	284.31
497.312	276.31
497.529	264.31
497.746	272.31
497.963	278.31
498.181	299.31
498.398	305.31
498.615	334.31
498.832	333.31
499.049	330.31
499.267	312.31
499.484	312.31
499.701	331.31
499.918	355.31
500.135	386.31
500.352	399.31
500.569	415.31
500.786	418.31
501.003	402.31
501.22	389.31
501.437	362.31
501.654	341.31
501.871	327.31
502.088	319.31
502.305	303.31
502.522	297.31
