Data from NickelSpatula_HRD10591_16-33-29-126.txt Node
Date: Mon Jul 22 16:33:29 EDT 2019
User: cochatt
Spectrometer: HR+D1059
Trigger mode: 1
Integration Time (sec): 1.000000E-1
Scans to average: 1
Electric dark correction enabled: true
Nonlinearity correction enabled: false
Boxcar width: 0
XAxis mode: Wavelengths
Number of Pixels in Spectrum: 2048
>>>>>Begin Spectral Data<<<<<
223.165	-11.38
223.4	-11.38
223.635	-11.38
223.869	-20.38
224.104	-8.38
224.338	-13.38
224.573	-23.38
224.808	-21.38
225.042	-13.38
225.277	-5.38
225.511	1.62
225.746	9.62
225.98	8.62
226.215	4.62
226.449	19.62
226.683	9.62
226.918	32.62
227.152	30.62
227.387	37.62
227.621	26.62
227.856	46.62
228.09	22.62
228.324	42.62
228.559	49.62
228.793	59.62
229.027	59.62
229.262	80.62
229.496	65.62
229.73	83.62
229.964	80.62
230.199	92.62
230.433	96.62
230.667	87.62
230.901	92.62
231.136	97.62
231.37	95.62
231.604	102.62
231.838	96.62
232.072	109.62
232.306	101.62
232.541	97.62
232.775	97.62
233.009	94.62
233.243	108.62
233.477	122.62
233.711	114.62
233.945	110.62
234.179	105.62
234.413	105.62
234.647	124.62
234.881	120.62
235.115	127.62
235.349	124.62
235.583	115.62
235.817	124.62
236.051	141.62
236.285	112.62
236.519	123.62
236.753	124.62
236.987	131.62
237.221	119.62
237.455	124.62
237.689	127.62
237.922	117.62
238.156	120.62
238.39	140.62
238.624	138.62
238.858	131.62
239.091	124.62
239.325	138.62
239.559	123.62
239.793	142.62
240.027	162.62
240.26	136.62
240.494	151.62
240.728	120.62
240.961	158.62
241.195	142.62
241.429	168.62
241.662	166.62
241.896	144.62
242.13	152.62
242.363	119.62
242.597	124.62
242.83	128.62
243.064	134.62
243.298	146.62
243.531	167.62
243.765	152.62
243.998	164.62
244.232	143.62
244.465	152.62
244.699	150.62
244.932	157.62
245.166	162.62
245.399	162.62
245.633	150.62
245.866	159.62
246.099	155.62
246.333	170.62
246.566	183.62
246.8	161.62
247.033	196.62
247.266	160.62
247.5	172.62
247.733	161.62
247.966	147.62
248.2	165.62
248.433	170.62
248.666	171.62
248.899	182.62
249.133	185.62
249.366	193.62
249.599	208.62
249.832	198.62
250.066	209.62
250.299	191.62
250.532	198.62
250.765	192.62
250.998	164.62
251.231	158.62
251.465	175.62
251.698	184.62
251.931	179.62
252.164	188.62
252.397	202.62
252.63	217.62
252.863	220.62
253.096	256.62
253.329	237.62
253.562	229.62
253.795	232.62
254.028	265.62
254.261	277.62
254.494	250.62
254.727	256.62
254.96	226.62
255.193	256.62
255.426	244.62
255.659	187.62
255.892	184.62
256.124	204.62
256.357	230.62
256.59	238.62
256.823	241.62
257.056	213.62
257.289	201.62
257.521	213.62
257.754	232.62
257.987	261.62
258.22	240.62
258.452	210.62
258.685	235.62
258.918	256.62
259.151	258.62
259.383	283.62
259.616	290.62
259.849	322.62
260.081	299.62
260.314	335.62
260.547	300.62
260.779	307.62
261.012	313.62
261.244	310.62
261.477	304.62
261.71	292.62
261.942	261.62
262.175	286.62
262.407	274.62
262.64	249.62
262.872	314.62
263.105	309.62
263.337	323.62
263.57	296.62
263.802	210.62
264.035	198.62
264.267	199.62
264.499	171.62
264.732	178.62
264.964	169.62
265.197	172.62
265.429	162.62
265.661	192.62
265.894	192.62
266.126	199.62
266.358	234.62
266.591	251.62
266.823	309.62
267.055	286.62
267.287	244.62
267.52	266.62
267.752	274.62
267.984	279.62
268.216	277.62
268.448	254.62
268.681	245.62
268.913	236.62
269.145	265.62
269.377	299.62
269.609	278.62
269.841	260.62
270.073	298.62
270.306	302.62
270.538	289.62
270.77	290.62
271.002	281.62
271.234	315.62
271.466	316.62
271.698	298.62
271.93	272.62
272.162	297.62
272.394	278.62
272.626	284.62
272.858	289.62
273.09	293.62
273.322	244.62
273.553	259.62
273.785	297.62
274.017	354.62
274.249	414.62
274.481	435.62
274.713	462.62
274.945	512.62
275.176	542.62
275.408	481.62
275.64	459.62
275.872	460.62
276.104	404.62
276.335	367.62
276.567	372.62
276.799	372.62
277.031	403.62
277.262	312.62
277.494	259.62
277.726	266.62
277.957	264.62
278.189	279.62
278.421	306.62
278.652	306.62
278.884	287.62
279.115	248.62
279.347	253.62
279.579	256.62
279.81	279.62
280.042	240.62
280.273	252.62
280.505	251.62
280.736	213.62
280.968	206.62
281.199	224.62
281.431	255.62
281.662	250.62
281.894	234.62
282.125	247.62
282.356	273.62
282.588	306.62
282.819	251.62
283.051	275.62
283.282	319.62
283.513	360.62
283.745	404.62
283.976	410.62
284.207	377.62
284.439	384.62
284.67	388.62
284.901	345.62
285.132	360.62
285.364	381.62
285.595	360.62
285.826	358.62
286.057	412.62
286.288	374.62
286.52	374.62
286.751	405.62
286.982	386.62
287.213	345.62
287.444	365.62
287.675	355.62
287.906	354.62
288.138	303.62
288.369	273.62
288.6	262.62
288.831	274.62
289.062	324.62
289.293	347.62
289.524	320.62
289.755	328.62
289.986	336.62
290.217	303.62
290.448	235.62
290.679	211.62
290.91	211.62
291.141	218.62
291.371	207.62
291.602	218.62
291.833	226.62
292.064	217.62
292.295	254.62
292.526	285.62
292.757	299.62
292.987	315.62
293.218	292.62
293.449	323.62
293.68	346.62
293.91	322.62
294.141	342.62
294.372	309.62
294.603	286.62
294.833	302.62
295.064	353.62
295.295	339.62
295.525	272.62
295.756	235.62
295.987	203.62
296.217	218.62
296.448	217.62
296.679	231.62
296.909	240.62
297.14	250.62
297.37	297.62
297.601	272.62
297.831	243.62
298.062	242.62
298.292	268.62
298.523	283.62
298.753	337.62
298.984	314.62
299.214	250.62
299.445	220.62
299.675	218.62
299.905	216.62
300.136	217.62
300.366	229.62
300.597	227.62
300.827	213.62
301.057	205.62
301.288	209.62
301.518	231.62
301.748	268.62
301.979	275.62
302.209	266.62
302.439	247.62
302.669	262.62
302.9	242.62
303.13	247.62
303.36	227.62
303.59	234.62
303.82	234.62
304.051	243.62
304.281	286.62
304.511	283.62
304.741	241.62
304.971	243.62
305.201	251.62
305.431	256.62
305.661	222.62
305.891	216.62
306.121	247.62
306.352	218.62
306.582	203.62
306.812	198.62
307.042	172.62
307.272	170.62
307.502	179.62
307.731	206.62
307.961	190.62
308.191	190.62
308.421	175.62
308.651	178.62
308.881	180.62
309.111	185.62
309.341	186.62
309.571	202.62
309.8	191.62
310.03	201.62
310.26	200.62
310.49	216.62
310.72	198.62
310.949	195.62
311.179	192.62
311.409	207.62
311.639	226.62
311.868	252.62
312.098	322.62
312.328	357.62
312.557	341.62
312.787	345.62
313.017	308.62
313.246	335.62
313.476	364.62
313.706	326.62
313.935	273.62
314.165	211.62
314.394	188.62
314.624	207.62
314.853	211.62
315.083	211.62
315.312	208.62
315.542	210.62
315.771	206.62
316.001	188.62
316.23	193.62
316.46	179.62
316.689	187.62
316.919	182.62
317.148	185.62
317.377	207.62
317.607	195.62
317.836	203.62
318.065	240.62
318.295	252.62
318.524	254.62
318.753	193.62
318.983	181.62
319.212	202.62
319.441	201.62
319.67	227.62
319.9	237.62
320.129	224.62
320.358	214.62
320.587	178.62
320.816	203.62
321.046	224.62
321.275	275.62
321.504	235.62
321.733	246.62
321.962	218.62
322.191	252.62
322.42	216.62
322.649	232.62
322.878	238.62
323.108	223.62
323.337	207.62
323.566	235.62
323.795	222.62
324.024	211.62
324.253	231.62
324.482	209.62
324.71	219.62
324.939	227.62
325.168	230.62
325.397	188.62
325.626	201.62
325.855	203.62
326.084	185.62
326.313	190.62
326.542	178.62
326.77	185.62
326.999	187.62
327.228	196.62
327.457	216.62
327.686	211.62
327.914	181.62
328.143	190.62
328.372	179.62
328.6	186.62
328.829	187.62
329.058	201.62
329.287	187.62
329.515	192.62
329.744	199.62
329.972	192.62
330.201	172.62
330.43	161.62
330.658	207.62
330.887	215.62
331.115	209.62
331.344	216.62
331.572	201.62
331.801	208.62
332.03	186.62
332.258	194.62
332.486	207.62
332.715	211.62
332.943	191.62
333.172	191.62
333.4	197.62
333.629	214.62
333.857	238.62
334.085	249.62
334.314	236.62
334.542	222.62
334.771	204.62
334.999	204.62
335.227	205.62
335.455	198.62
335.684	203.62
335.912	219.62
336.14	260.62
336.369	258.62
336.597	227.62
336.825	240.62
337.053	286.62
337.281	240.62
337.51	200.62
337.738	210.62
337.966	223.62
338.194	238.62
338.422	235.62
338.65	206.62
338.878	166.62
339.106	191.62
339.334	201.62
339.562	216.62
339.79	208.62
340.018	195.62
340.246	220.62
340.474	257.62
340.702	253.62
340.93	254.62
341.158	251.62
341.386	220.62
341.614	231.62
341.842	219.62
342.07	228.62
342.298	258.62
342.526	275.62
342.754	229.62
342.981	220.62
343.209	224.62
343.437	218.62
343.665	216.62
343.893	248.62
344.12	266.62
344.348	326.62
344.576	279.62
344.804	234.62
345.031	210.62
345.259	202.62
345.487	190.62
345.714	216.62
345.942	217.62
346.17	231.62
346.397	232.62
346.625	191.62
346.853	187.62
347.08	196.62
347.308	199.62
347.535	244.62
347.763	233.62
347.99	199.62
348.218	198.62
348.445	202.62
348.673	225.62
348.9	200.62
349.128	210.62
349.355	209.62
349.583	222.62
349.81	204.62
350.037	210.62
350.265	175.62
350.492	172.62
350.72	171.62
350.947	176.62
351.174	195.62
351.402	195.62
351.629	194.62
351.856	192.62
352.083	172.62
352.311	190.62
352.538	209.62
352.765	233.62
352.992	202.62
353.22	223.62
353.447	210.62
353.674	204.62
353.901	203.62
354.128	190.62
354.355	206.62
354.583	215.62
354.81	214.62
355.037	216.62
355.264	195.62
355.491	212.62
355.718	223.62
355.945	225.62
356.172	220.62
356.399	212.62
356.626	237.62
356.853	306.62
357.08	308.62
357.307	327.62
357.534	268.62
357.761	257.62
357.988	314.62
358.215	337.62
358.441	335.62
358.668	317.62
358.895	297.62
359.122	228.62
359.349	217.62
359.576	233.62
359.802	220.62
360.029	191.62
360.256	204.62
360.483	248.62
360.709	294.62
360.936	307.62
361.163	285.62
361.39	230.62
361.616	205.62
361.843	235.62
362.07	274.62
362.296	254.62
362.523	209.62
362.749	187.62
362.976	191.62
363.203	227.62
363.429	257.62
363.656	205.62
363.882	215.62
364.109	231.62
364.335	202.62
364.562	181.62
364.788	216.62
365.015	249.62
365.241	226.62
365.468	212.62
365.694	164.62
365.92	165.62
366.147	179.62
366.373	159.62
366.599	164.62
366.826	181.62
367.052	159.62
367.278	163.62
367.505	170.62
367.731	176.62
367.957	186.62
368.184	218.62
368.41	218.62
368.636	216.62
368.862	223.62
369.089	205.62
369.315	196.62
369.541	186.62
369.767	204.62
369.993	173.62
370.219	184.62
370.445	210.62
370.672	211.62
370.898	217.62
371.124	215.62
371.35	195.62
371.576	183.62
371.802	201.62
372.028	211.62
372.254	239.62
372.48	221.62
372.706	213.62
372.932	223.62
373.158	220.62
373.384	240.62
373.61	322.62
373.835	312.62
374.061	255.62
374.287	221.62
374.513	259.62
374.739	286.62
374.965	305.62
375.191	296.62
375.416	234.62
375.642	193.62
375.868	231.62
376.094	257.62
376.319	230.62
376.545	236.62
376.771	262.62
376.997	229.62
377.222	184.62
377.448	184.62
377.674	167.62
377.899	171.62
378.125	160.62
378.35	170.62
378.576	157.62
378.802	182.62
379.027	188.62
379.253	198.62
379.478	180.62
379.704	216.62
379.929	213.62
380.155	218.62
380.38	202.62
380.606	208.62
380.831	253.62
381.057	212.62
381.282	197.62
381.507	219.62
381.733	272.62
381.958	280.62
382.184	275.62
382.409	307.62
382.634	299.62
382.86	309.62
383.085	282.62
383.31	231.62
383.535	228.62
383.761	231.62
383.986	223.62
384.211	286.62
384.436	260.62
384.662	208.62
384.887	202.62
385.112	212.62
385.337	204.62
385.562	198.62
385.787	226.62
386.013	248.62
386.238	233.62
386.463	221.62
386.688	217.62
386.913	198.62
387.138	183.62
387.363	204.62
387.588	211.62
387.813	220.62
388.038	235.62
388.263	216.62
388.488	202.62
388.713	231.62
388.938	238.62
389.163	192.62
389.387	195.62
389.612	189.62
389.837	194.62
390.062	202.62
390.287	215.62
390.512	211.62
390.736	199.62
390.961	195.62
391.186	177.62
391.411	188.62
391.636	184.62
391.86	199.62
392.085	213.62
392.31	214.62
392.534	217.62
392.759	210.62
392.984	216.62
393.208	196.62
393.433	208.62
393.658	194.62
393.882	174.62
394.107	180.62
394.331	181.62
394.556	180.62
394.78	164.62
395.005	176.62
395.229	179.62
395.454	192.62
395.678	201.62
395.903	202.62
396.127	186.62
396.352	204.62
396.576	208.62
396.801	224.62
397.025	232.62
397.249	235.62
397.474	204.62
397.698	174.62
397.922	222.62
398.147	215.62
398.371	209.62
398.595	215.62
398.82	220.62
399.044	183.62
399.268	211.62
399.492	245.62
399.717	243.62
399.941	235.62
400.165	238.62
400.389	233.62
400.613	213.62
400.837	227.62
401.062	198.62
401.286	181.62
401.51	191.62
401.734	192.62
401.958	214.62
402.182	202.62
402.406	199.62
402.63	194.62
402.854	212.62
403.078	227.62
403.302	274.62
403.526	286.62
403.75	275.62
403.974	220.62
404.198	235.62
404.422	280.62
404.645	302.62
404.869	308.62
405.093	246.62
405.317	219.62
405.541	223.62
405.765	230.62
405.988	223.62
406.212	234.62
406.436	259.62
406.66	275.62
406.883	231.62
407.107	241.62
407.331	277.62
407.555	254.62
407.778	220.62
408.002	254.62
408.226	230.62
408.449	225.62
408.673	220.62
408.896	204.62
409.12	211.62
409.344	194.62
409.567	188.62
409.791	208.62
410.014	220.62
410.238	196.62
410.461	198.62
410.685	198.62
410.908	192.62
411.132	184.62
411.355	206.62
411.578	209.62
411.802	202.62
412.025	206.62
412.249	225.62
412.472	196.62
412.695	211.62
412.919	214.62
413.142	203.62
413.365	220.62
413.589	214.62
413.812	206.62
414.035	199.62
414.258	207.62
414.482	225.62
414.705	235.62
414.928	184.62
415.151	181.62
415.374	192.62
415.597	206.62
415.821	208.62
416.044	191.62
416.267	194.62
416.49	188.62
416.713	176.62
416.936	185.62
417.159	211.62
417.382	207.62
417.605	203.62
417.828	208.62
418.051	202.62
418.274	203.62
418.497	207.62
418.72	201.62
418.943	200.62
419.166	222.62
419.389	216.62
419.611	199.62
419.834	208.62
420.057	260.62
420.28	232.62
420.503	214.62
420.726	208.62
420.948	206.62
421.171	208.62
421.394	217.62
421.617	184.62
421.839	184.62
422.062	206.62
422.285	206.62
422.507	192.62
422.73	207.62
422.953	234.62
423.175	219.62
423.398	219.62
423.621	207.62
423.843	235.62
424.066	212.62
424.288	209.62
424.511	198.62
424.733	211.62
424.956	208.62
425.178	219.62
425.401	254.62
425.623	276.62
425.846	245.62
426.068	233.62
426.291	226.62
426.513	214.62
426.735	199.62
426.958	208.62
427.18	230.62
427.402	308.62
427.625	290.62
427.847	250.62
428.069	187.62
428.292	186.62
428.514	204.62
428.736	182.62
428.958	201.62
429.181	242.62
429.403	225.62
429.625	198.62
429.847	177.62
430.069	186.62
430.292	208.62
430.514	186.62
430.736	200.62
430.958	239.62
431.18	251.62
431.402	182.62
431.624	182.62
431.846	175.62
432.068	182.62
432.29	187.62
432.512	196.62
432.734	247.62
432.956	231.62
433.178	195.62
433.4	197.62
433.622	188.62
433.844	198.62
434.066	201.62
434.287	197.62
434.509	194.62
434.731	215.62
434.953	193.62
435.175	197.62
435.397	234.62
435.618	203.62
435.84	188.62
436.062	192.62
436.284	193.62
436.505	175.62
436.727	179.62
436.949	169.62
437.17	190.62
437.392	186.62
437.614	175.62
437.835	184.62
438.057	184.62
438.278	181.62
438.5	269.62
438.721	262.62
438.943	200.62
439.165	171.62
439.386	170.62
439.608	171.62
439.829	185.62
440.05	172.62
440.272	184.62
440.493	202.62
440.715	257.62
440.936	208.62
441.158	186.62
441.379	204.62
441.6	210.62
441.822	219.62
442.043	192.62
442.264	212.62
442.486	203.62
442.707	200.62
442.928	189.62
443.149	202.62
443.371	182.62
443.592	208.62
443.813	206.62
444.034	196.62
444.255	204.62
444.476	210.62
444.698	213.62
444.919	204.62
445.14	288.62
445.361	257.62
445.582	216.62
445.803	195.62
446.024	205.62
446.245	203.62
446.466	200.62
446.687	206.62
446.908	200.62
447.129	173.62
447.35	179.62
447.571	186.62
447.792	178.62
448.013	161.62
448.234	170.62
448.455	158.62
448.675	163.62
448.896	170.62
449.117	178.62
449.338	168.62
449.559	179.62
449.779	192.62
450	204.62
450.221	194.62
450.442	175.62
450.662	183.62
450.883	177.62
451.104	182.62
451.324	176.62
451.545	194.62
451.766	168.62
451.986	183.62
452.207	169.62
452.428	176.62
452.648	170.62
452.869	182.62
453.089	199.62
453.31	198.62
453.53	175.62
453.751	172.62
453.971	166.62
454.192	184.62
454.412	182.62
454.633	190.62
454.853	190.62
455.073	162.62
455.294	174.62
455.514	186.62
455.734	171.62
455.955	190.62
456.175	184.62
456.395	180.62
456.616	163.62
456.836	162.62
457.056	166.62
457.276	182.62
457.497	156.62
457.717	155.62
457.937	170.62
458.157	147.62
458.377	162.62
458.598	176.62
458.818	180.62
459.038	177.62
459.258	193.62
459.478	191.62
459.698	197.62
459.918	191.62
460.138	189.62
460.358	199.62
460.578	191.62
460.798	171.62
461.018	207.62
461.238	212.62
461.458	200.62
461.678	188.62
461.898	214.62
462.118	194.62
462.338	202.62
462.558	209.62
462.777	211.62
462.997	218.62
463.217	236.62
463.437	231.62
463.657	234.62
463.876	212.62
464.096	218.62
464.316	232.62
464.536	232.62
464.755	228.62
464.975	225.62
465.195	231.62
465.414	209.62
465.634	192.62
465.854	193.62
466.073	194.62
466.293	193.62
466.512	185.62
466.732	209.62
466.951	206.62
467.171	204.62
467.391	190.62
467.61	196.62
467.829	204.62
468.049	185.62
468.268	179.62
468.488	170.62
468.707	203.62
468.927	217.62
469.146	230.62
469.365	208.62
469.585	192.62
469.804	204.62
470.023	211.62
470.243	199.62
470.462	195.62
470.681	196.62
470.901	193.62
471.12	201.62
471.339	198.62
471.558	201.62
471.777	213.62
471.997	205.62
472.216	230.62
472.435	203.62
472.654	201.62
472.873	215.62
473.092	214.62
473.311	211.62
473.53	200.62
473.749	201.62
473.968	210.62
474.187	215.62
474.406	198.62
474.625	193.62
474.844	190.62
475.063	196.62
475.282	204.62
475.501	213.62
475.72	223.62
475.939	234.62
476.158	211.62
476.377	238.62
476.596	291.62
476.814	283.62
477.033	256.62
477.252	206.62
477.471	202.62
477.69	203.62
477.908	216.62
478.127	263.62
478.346	200.62
478.564	245.62
478.783	218.62
479.002	208.62
479.22	232.62
479.439	267.62
479.658	223.62
479.876	227.62
480.095	230.62
480.313	255.62
480.532	231.62
480.751	219.62
480.969	233.62
481.188	246.62
481.406	247.62
481.624	227.62
481.843	217.62
482.061	212.62
482.28	217.62
482.498	287.62
482.717	283.62
482.935	236.62
483.153	229.62
483.372	228.62
483.59	200.62
483.808	219.62
484.027	231.62
484.245	208.62
484.463	188.62
484.681	210.62
484.9	232.62
485.118	236.62
485.336	217.62
485.554	208.62
485.772	219.62
485.99	252.62
486.209	252.62
486.427	242.62
486.645	222.62
486.863	237.62
487.081	251.62
487.299	267.62
487.517	277.62
487.735	233.62
487.953	241.62
488.171	250.62
488.389	227.62
488.607	210.62
488.825	228.62
489.043	244.62
489.261	292.62
489.479	295.62
489.696	236.62
489.914	235.62
490.132	224.62
490.35	223.62
490.568	234.62
490.786	215.62
491.003	219.62
491.221	225.62
491.439	205.62
491.657	225.62
491.874	230.62
492.092	290.62
492.31	338.62
492.527	320.62
492.745	283.62
492.963	254.62
493.18	230.62
493.398	254.62
493.615	254.62
493.833	240.62
494.05	264.62
494.268	228.62
494.485	236.62
494.703	230.62
494.92	221.62
495.138	212.62
495.355	227.62
495.573	254.62
495.79	276.62
496.008	362.62
496.225	304.62
496.442	264.62
496.66	261.62
496.877	267.62
497.094	263.62
497.312	258.62
497.529	242.62
497.746	252.62
497.963	258.62
498.181	286.62
498.398	308.62
498.615	321.62
498.832	323.62
499.049	332.62
499.267	311.62
499.484	329.62
499.701	312.62
499.918	352.62
500.135	368.62
500.352	392.62
500.569	428.62
500.786	443.62
501.003	436.62
501.22	372.62
501.437	354.62
501.654	330.62
501.871	332.62
502.088	318.62
502.305	282.62
502.522	304.62
502.739	300.62
