Data from NickelSpatula.Lamp.E5.5.P2_HRD10591_11-52-10-556.txt Node
Date: Tue Jul 23 11:52:10 EDT 2019
User: cochatt
Spectrometer: HR+D1059
Trigger mode: 1
Integration Time (sec): 1.000000E-1
Scans to average: 1
Electric dark correction enabled: true
Nonlinearity correction enabled: false
Boxcar width: 0
XAxis mode: Wavelengths
Number of Pixels in Spectrum: 2048
>>>>>Begin Spectral Data<<<<<
223.165	-1.06
223.4	-1.06
223.635	-1.06
223.869	-15.06
224.104	-28.06
224.338	-16.06
224.573	-18.06
224.808	-1.06
225.042	-11.06
225.277	1.94
225.511	-16.06
225.746	-5.06
225.98	1.94
226.215	11.94
226.449	7.94
226.683	24.94
226.918	38.94
227.152	23.94
227.387	38.94
227.621	40.94
227.856	39.94
228.09	34.94
228.324	46.94
228.559	47.94
228.793	56.94
229.027	74.94
229.262	84.94
229.496	77.94
229.73	80.94
229.964	79.94
230.199	68.94
230.433	103.94
230.667	106.94
230.901	87.94
231.136	97.94
231.37	103.94
231.604	103.94
231.838	89.94
232.072	101.94
232.306	98.94
232.541	104.94
232.775	108.94
233.009	105.94
233.243	127.94
233.477	122.94
233.711	122.94
233.945	111.94
234.179	109.94
234.413	132.94
234.647	138.94
234.881	143.94
235.115	137.94
235.349	129.94
235.583	114.94
235.817	128.94
236.051	120.94
236.285	140.94
236.519	148.94
236.753	140.94
236.987	135.94
237.221	131.94
237.455	128.94
237.689	133.94
237.922	148.94
238.156	144.94
238.39	154.94
238.624	180.94
238.858	165.94
239.091	142.94
239.325	148.94
239.559	127.94
239.793	165.94
240.027	179.94
240.26	177.94
240.494	174.94
240.728	177.94
240.961	200.94
241.195	180.94
241.429	189.94
241.662	176.94
241.896	164.94
242.13	148.94
242.363	148.94
242.597	139.94
242.83	175.94
243.064	148.94
243.298	172.94
243.531	178.94
243.765	184.94
243.998	162.94
244.232	171.94
244.465	166.94
244.699	164.94
244.932	193.94
245.166	163.94
245.399	154.94
245.633	155.94
245.866	165.94
246.099	166.94
246.333	193.94
246.566	191.94
246.8	208.94
247.033	198.94
247.266	189.94
247.5	175.94
247.733	165.94
247.966	164.94
248.2	148.94
248.433	207.94
248.666	206.94
248.899	201.94
249.133	214.94
249.366	236.94
249.599	244.94
249.832	228.94
250.066	205.94
250.299	208.94
250.532	196.94
250.765	197.94
250.998	187.94
251.231	174.94
251.465	195.94
251.698	219.94
251.931	200.94
252.164	207.94
252.397	244.94
252.63	242.94
252.863	259.94
253.096	278.94
253.329	264.94
253.562	262.94
253.795	285.94
254.028	322.94
254.261	310.94
254.494	278.94
254.727	274.94
254.96	262.94
255.193	264.94
255.426	283.94
255.659	217.94
255.892	209.94
256.124	210.94
256.357	245.94
256.59	289.94
256.823	287.94
257.056	237.94
257.289	226.94
257.521	236.94
257.754	287.94
257.987	323.94
258.22	276.94
258.452	245.94
258.685	254.94
258.918	283.94
259.151	284.94
259.383	316.94
259.616	350.94
259.849	374.94
260.081	364.94
260.314	440.94
260.547	346.94
260.779	347.94
261.012	401.94
261.244	364.94
261.477	361.94
261.71	355.94
261.942	298.94
262.175	293.94
262.407	284.94
262.64	290.94
262.872	354.94
263.105	373.94
263.337	398.94
263.57	350.94
263.802	235.94
264.035	223.94
264.267	218.94
264.499	198.94
264.732	189.94
264.964	171.94
265.197	187.94
265.429	209.94
265.661	211.94
265.894	208.94
266.126	232.94
266.358	242.94
266.591	281.94
266.823	342.94
267.055	316.94
267.287	294.94
267.52	287.94
267.752	322.94
267.984	343.94
268.216	330.94
268.448	273.94
268.681	254.94
268.913	280.94
269.145	306.94
269.377	303.94
269.609	313.94
269.841	289.94
270.073	324.94
270.306	322.94
270.538	320.94
270.77	341.94
271.002	324.94
271.234	337.94
271.466	358.94
271.698	344.94
271.93	320.94
272.162	338.94
272.394	343.94
272.626	318.94
272.858	323.94
273.09	337.94
273.322	286.94
273.553	271.94
273.785	337.94
274.017	427.94
274.249	510.94
274.481	519.94
274.713	545.94
274.945	630.94
275.176	654.94
275.408	587.94
275.64	558.94
275.872	537.94
276.104	490.94
276.335	433.94
276.567	398.94
276.799	440.94
277.031	454.94
277.262	368.94
277.494	290.94
277.726	272.94
277.957	303.94
278.189	322.94
278.421	320.94
278.652	306.94
278.884	304.94
279.115	280.94
279.347	287.94
279.579	277.94
279.81	294.94
280.042	292.94
280.273	292.94
280.505	283.94
280.736	259.94
280.968	236.94
281.199	239.94
281.431	294.94
281.662	311.94
281.894	275.94
282.125	299.94
282.356	332.94
282.588	334.94
282.819	303.94
283.051	304.94
283.282	363.94
283.513	411.94
283.745	467.94
283.976	470.94
284.207	449.94
284.439	440.94
284.67	416.94
284.901	377.94
285.132	411.94
285.364	462.94
285.595	395.94
285.826	440.94
286.057	423.94
286.288	416.94
286.52	414.94
286.751	458.94
286.982	477.94
287.213	400.94
287.444	392.94
287.675	426.94
287.906	436.94
288.138	348.94
288.369	311.94
288.6	304.94
288.831	282.94
289.062	357.94
289.293	402.94
289.524	344.94
289.755	364.94
289.986	368.94
290.217	335.94
290.448	258.94
290.679	228.94
290.91	232.94
291.141	217.94
291.371	223.94
291.602	254.94
291.833	254.94
292.064	238.94
292.295	279.94
292.526	322.94
292.757	349.94
292.987	365.94
293.218	339.94
293.449	382.94
293.68	400.94
293.91	376.94
294.141	386.94
294.372	368.94
294.603	333.94
294.833	356.94
295.064	439.94
295.295	401.94
295.525	318.94
295.756	273.94
295.987	244.94
296.217	250.94
296.448	242.94
296.679	261.94
296.909	271.94
297.14	307.94
297.37	309.94
297.601	307.94
297.831	258.94
298.062	288.94
298.292	303.94
298.523	336.94
298.753	378.94
298.984	374.94
299.214	302.94
299.445	244.94
299.675	237.94
299.905	254.94
300.136	256.94
300.366	272.94
300.597	279.94
300.827	258.94
301.057	242.94
301.288	248.94
301.518	276.94
301.748	295.94
301.979	313.94
302.209	315.94
302.439	337.94
302.669	303.94
302.9	280.94
303.13	282.94
303.36	270.94
303.59	259.94
303.82	286.94
304.051	312.94
304.281	324.94
304.511	315.94
304.741	286.94
304.971	276.94
305.201	299.94
305.431	285.94
305.661	249.94
305.891	237.94
306.121	268.94
306.352	251.94
306.582	218.94
306.812	221.94
307.042	220.94
307.272	208.94
307.502	211.94
307.731	204.94
307.961	239.94
308.191	222.94
308.421	230.94
308.651	189.94
308.881	205.94
309.111	206.94
309.341	199.94
309.571	226.94
309.8	228.94
310.03	222.94
310.26	230.94
310.49	223.94
310.72	208.94
310.949	216.94
311.179	218.94
311.409	223.94
311.639	259.94
311.868	328.94
312.098	407.94
312.328	440.94
312.557	407.94
312.787	396.94
313.017	367.94
313.246	393.94
313.476	431.94
313.706	370.94
313.935	307.94
314.165	253.94
314.394	216.94
314.624	220.94
314.853	234.94
315.083	228.94
315.312	235.94
315.542	246.94
315.771	216.94
316.001	216.94
316.23	203.94
316.46	209.94
316.689	200.94
316.919	226.94
317.148	213.94
317.377	228.94
317.607	194.94
317.836	213.94
318.065	252.94
318.295	286.94
318.524	270.94
318.753	222.94
318.983	218.94
319.212	216.94
319.441	228.94
319.67	257.94
319.9	287.94
320.129	263.94
320.358	240.94
320.587	219.94
320.816	232.94
321.046	255.94
321.275	288.94
321.504	303.94
321.733	279.94
321.962	267.94
322.191	256.94
322.42	246.94
322.649	247.94
322.878	271.94
323.108	264.94
323.337	246.94
323.566	254.94
323.795	244.94
324.024	254.94
324.253	237.94
324.482	232.94
324.71	252.94
324.939	265.94
325.168	263.94
325.397	240.94
325.626	210.94
325.855	218.94
326.084	230.94
326.313	214.94
326.542	200.94
326.77	224.94
326.999	225.94
327.228	242.94
327.457	262.94
327.686	242.94
327.914	224.94
328.143	215.94
328.372	205.94
328.6	209.94
328.829	218.94
329.058	204.94
329.287	225.94
329.515	227.94
329.744	229.94
329.972	206.94
330.201	204.94
330.43	200.94
330.658	209.94
330.887	236.94
331.115	222.94
331.344	238.94
331.572	250.94
331.801	222.94
332.03	211.94
332.258	240.94
332.486	234.94
332.715	243.94
332.943	236.94
333.172	235.94
333.4	248.94
333.629	244.94
333.857	264.94
334.085	279.94
334.314	267.94
334.542	249.94
334.771	224.94
334.999	238.94
335.227	222.94
335.455	239.94
335.684	244.94
335.912	264.94
336.14	291.94
336.369	278.94
336.597	287.94
336.825	303.94
337.053	362.94
337.281	295.94
337.51	248.94
337.738	234.94
337.966	262.94
338.194	274.94
338.422	276.94
338.65	227.94
338.878	220.94
339.106	220.94
339.334	250.94
339.562	260.94
339.79	237.94
340.018	220.94
340.246	226.94
340.474	267.94
340.702	274.94
340.93	302.94
341.158	298.94
341.386	267.94
341.614	250.94
341.842	254.94
342.07	240.94
342.298	291.94
342.526	305.94
342.754	276.94
342.981	255.94
343.209	254.94
343.437	257.94
343.665	266.94
343.893	262.94
344.12	327.94
344.348	372.94
344.576	341.94
344.804	290.94
345.031	258.94
345.259	230.94
345.487	260.94
345.714	234.94
345.942	259.94
346.17	276.94
346.397	263.94
346.625	240.94
346.853	249.94
347.08	228.94
347.308	244.94
347.535	283.94
347.763	293.94
347.99	260.94
348.218	240.94
348.445	239.94
348.673	241.94
348.9	227.94
349.128	268.94
349.355	269.94
349.583	262.94
349.81	260.94
350.037	232.94
350.265	217.94
350.492	188.94
350.72	194.94
350.947	211.94
351.174	225.94
351.402	221.94
351.629	250.94
351.856	226.94
352.083	204.94
352.311	232.94
352.538	250.94
352.765	270.94
352.992	244.94
353.22	226.94
353.447	242.94
353.674	247.94
353.901	228.94
354.128	238.94
354.355	238.94
354.583	228.94
354.81	240.94
355.037	257.94
355.264	238.94
355.491	242.94
355.718	266.94
355.945	266.94
356.172	236.94
356.399	254.94
356.626	269.94
356.853	349.94
357.08	368.94
357.307	372.94
357.534	334.94
357.761	316.94
357.988	388.94
358.215	438.94
358.441	400.94
358.668	352.94
358.895	325.94
359.122	282.94
359.349	308.94
359.576	318.94
359.802	264.94
360.029	265.94
360.256	240.94
360.483	280.94
360.709	359.94
360.936	354.94
361.163	354.94
361.39	276.94
361.616	258.94
361.843	284.94
362.07	314.94
362.296	283.94
362.523	255.94
362.749	216.94
362.976	237.94
363.203	298.94
363.429	307.94
363.656	247.94
363.882	206.94
364.109	236.94
364.335	235.94
364.562	239.94
364.788	251.94
365.015	291.94
365.241	261.94
365.468	241.94
365.694	200.94
365.92	214.94
366.147	202.94
366.373	190.94
366.599	189.94
366.826	191.94
367.052	192.94
367.278	197.94
367.505	200.94
367.731	203.94
367.957	226.94
368.184	238.94
368.41	238.94
368.636	250.94
368.862	242.94
369.089	247.94
369.315	205.94
369.541	218.94
369.767	221.94
369.993	206.94
370.219	222.94
370.445	224.94
370.672	251.94
370.898	257.94
371.124	260.94
371.35	242.94
371.576	229.94
371.802	231.94
372.028	272.94
372.254	319.94
372.48	266.94
372.706	266.94
372.932	254.94
373.158	287.94
373.384	306.94
373.61	382.94
373.835	395.94
374.061	314.94
374.287	252.94
374.513	303.94
374.739	363.94
374.965	382.94
375.191	374.94
375.416	290.94
375.642	264.94
375.868	283.94
376.094	324.94
376.319	284.94
376.545	317.94
376.771	307.94
376.997	269.94
377.222	229.94
377.448	197.94
377.674	209.94
377.899	191.94
378.125	184.94
378.35	192.94
378.576	212.94
378.802	203.94
379.027	230.94
379.253	241.94
379.478	239.94
379.704	244.94
379.929	243.94
380.155	246.94
380.38	227.94
380.606	221.94
380.831	260.94
381.057	267.94
381.282	243.94
381.507	268.94
381.733	318.94
381.958	332.94
382.184	358.94
382.409	376.94
382.634	360.94
382.86	390.94
383.085	328.94
383.31	276.94
383.535	283.94
383.761	306.94
383.986	262.94
384.211	313.94
384.436	320.94
384.662	255.94
384.887	242.94
385.112	258.94
385.337	251.94
385.562	264.94
385.787	260.94
386.013	309.94
386.238	316.94
386.463	256.94
386.688	232.94
386.913	234.94
387.138	234.94
387.363	246.94
387.588	238.94
387.813	248.94
388.038	269.94
388.263	221.94
388.488	235.94
388.713	277.94
388.938	290.94
389.163	250.94
389.387	218.94
389.612	227.94
389.837	232.94
390.062	244.94
390.287	242.94
390.512	241.94
390.736	230.94
390.961	227.94
391.186	204.94
391.411	211.94
391.636	226.94
391.86	246.94
392.085	282.94
392.31	257.94
392.534	253.94
392.759	227.94
392.984	268.94
393.208	274.94
393.433	235.94
393.658	212.94
393.882	205.94
394.107	212.94
394.331	206.94
394.556	195.94
394.78	210.94
395.005	207.94
395.229	209.94
395.454	211.94
395.678	220.94
395.903	221.94
396.127	231.94
396.352	217.94
396.576	242.94
396.801	239.94
397.025	256.94
397.249	270.94
397.474	230.94
397.698	218.94
397.922	234.94
398.147	240.94
398.371	227.94
398.595	245.94
398.82	234.94
399.044	242.94
399.268	277.94
399.492	292.94
399.717	295.94
399.941	284.94
400.165	277.94
400.389	238.94
400.613	250.94
400.837	254.94
401.062	240.94
401.286	241.94
401.51	241.94
401.734	218.94
401.958	236.94
402.182	235.94
402.406	235.94
402.63	241.94
402.854	244.94
403.078	303.94
403.302	366.94
403.526	408.94
403.75	326.94
403.974	289.94
404.198	300.94
404.422	331.94
404.645	342.94
404.869	374.94
405.093	307.94
405.317	272.94
405.541	263.94
405.765	261.94
405.988	274.94
406.212	273.94
406.436	309.94
406.66	324.94
406.883	270.94
407.107	300.94
407.331	325.94
407.555	314.94
407.778	290.94
408.002	277.94
408.226	286.94
408.449	263.94
408.673	258.94
408.896	250.94
409.12	250.94
409.344	258.94
409.567	248.94
409.791	244.94
410.014	242.94
410.238	229.94
410.461	248.94
410.685	256.94
410.908	236.94
411.132	259.94
411.355	249.94
411.578	264.94
411.802	258.94
412.025	248.94
412.249	246.94
412.472	245.94
412.695	238.94
412.919	235.94
413.142	260.94
413.365	250.94
413.589	272.94
413.812	230.94
414.035	229.94
414.258	227.94
414.482	230.94
414.705	276.94
414.928	250.94
415.151	232.94
415.374	249.94
415.597	236.94
415.821	252.94
416.044	231.94
416.267	239.94
416.49	245.94
416.713	227.94
416.936	229.94
417.159	212.94
417.382	228.94
417.605	242.94
417.828	238.94
418.051	212.94
418.274	239.94
418.497	236.94
418.72	243.94
418.943	244.94
419.166	248.94
419.389	264.94
419.611	254.94
419.834	241.94
420.057	266.94
420.28	282.94
420.503	273.94
420.726	241.94
420.948	229.94
421.171	244.94
421.394	231.94
421.617	228.94
421.839	227.94
422.062	223.94
422.285	240.94
422.507	246.94
422.73	230.94
422.953	246.94
423.175	229.94
423.398	238.94
423.621	275.94
423.843	280.94
424.066	256.94
424.288	241.94
424.511	246.94
424.733	237.94
424.956	247.94
425.178	272.94
425.401	327.94
425.623	369.94
425.846	298.94
426.068	257.94
426.291	268.94
426.513	256.94
426.735	248.94
426.958	246.94
427.18	278.94
427.402	357.94
427.625	384.94
427.847	309.94
428.069	226.94
428.292	249.94
428.514	241.94
428.736	225.94
428.958	234.94
429.181	322.94
429.403	275.94
429.625	242.94
429.847	225.94
430.069	227.94
430.292	237.94
430.514	263.94
430.736	238.94
430.958	274.94
431.18	273.94
431.402	219.94
431.624	228.94
431.846	222.94
432.068	220.94
432.29	218.94
432.512	240.94
432.734	291.94
432.956	268.94
433.178	230.94
433.4	231.94
433.622	231.94
433.844	250.94
434.066	238.94
434.287	258.94
434.509	234.94
434.731	252.94
434.953	231.94
435.175	250.94
435.397	280.94
435.618	258.94
435.84	223.94
436.062	230.94
436.284	225.94
436.505	208.94
436.727	214.94
436.949	220.94
437.17	214.94
437.392	228.94
437.614	231.94
437.835	224.94
438.057	221.94
438.278	245.94
438.5	308.94
438.721	309.94
438.943	241.94
439.165	217.94
439.386	213.94
439.608	220.94
439.829	228.94
440.05	221.94
440.272	221.94
440.493	261.94
440.715	305.94
440.936	243.94
441.158	230.94
441.379	231.94
441.6	257.94
441.822	263.94
442.043	232.94
442.264	220.94
442.486	239.94
442.707	246.94
442.928	231.94
443.149	231.94
443.371	244.94
443.592	244.94
443.813	238.94
444.034	250.94
444.255	235.94
444.476	241.94
444.698	257.94
444.919	254.94
445.14	343.94
445.361	301.94
445.582	265.94
445.803	244.94
446.024	245.94
446.245	265.94
446.466	239.94
446.687	227.94
446.908	232.94
447.129	230.94
447.35	211.94
447.571	187.94
447.792	219.94
448.013	219.94
448.234	199.94
448.455	197.94
448.675	228.94
448.896	202.94
449.117	218.94
449.338	218.94
449.559	226.94
449.779	228.94
450	237.94
450.221	228.94
450.442	207.94
450.662	236.94
450.883	230.94
451.104	218.94
451.324	218.94
451.545	224.94
451.766	219.94
451.986	212.94
452.207	216.94
452.428	219.94
452.648	211.94
452.869	218.94
453.089	239.94
453.31	223.94
453.53	208.94
453.751	204.94
453.971	213.94
454.192	211.94
454.412	223.94
454.633	226.94
454.853	206.94
455.073	200.94
455.294	215.94
455.514	199.94
455.734	211.94
455.955	201.94
456.175	210.94
456.395	204.94
456.616	216.94
456.836	189.94
457.056	198.94
457.276	187.94
457.497	207.94
457.717	202.94
457.937	194.94
458.157	207.94
458.377	203.94
458.598	200.94
458.818	193.94
459.038	209.94
459.258	221.94
459.478	216.94
459.698	248.94
459.918	245.94
460.138	239.94
460.358	259.94
460.578	237.94
460.798	243.94
461.018	258.94
461.238	241.94
461.458	233.94
461.678	258.94
461.898	251.94
462.118	249.94
462.338	259.94
462.558	269.94
462.777	272.94
462.997	272.94
463.217	287.94
463.437	287.94
463.657	280.94
463.876	254.94
464.096	268.94
464.316	282.94
464.536	261.94
464.755	291.94
464.975	271.94
465.195	255.94
465.414	263.94
465.634	257.94
465.854	254.94
466.073	224.94
466.293	211.94
466.512	237.94
466.732	259.94
466.951	264.94
467.171	254.94
467.391	226.94
467.61	236.94
467.829	234.94
468.049	242.94
468.268	236.94
468.488	231.94
468.707	234.94
468.927	253.94
469.146	289.94
469.365	258.94
469.585	238.94
469.804	236.94
470.023	268.94
470.243	260.94
470.462	249.94
470.681	252.94
470.901	245.94
471.12	262.94
471.339	254.94
471.558	216.94
471.777	248.94
471.997	250.94
472.216	285.94
472.435	286.94
472.654	241.94
472.873	244.94
473.092	259.94
473.311	256.94
473.53	237.94
473.749	243.94
473.968	238.94
474.187	245.94
474.406	251.94
474.625	252.94
474.844	238.94
475.063	263.94
475.282	243.94
475.501	288.94
475.72	288.94
475.939	287.94
476.158	282.94
476.377	314.94
476.596	343.94
476.814	352.94
477.033	294.94
477.252	275.94
477.471	251.94
477.69	254.94
477.908	258.94
478.127	284.94
478.346	261.94
478.564	298.94
478.783	290.94
479.002	279.94
479.22	308.94
479.439	328.94
479.658	303.94
479.876	296.94
480.095	304.94
480.313	296.94
480.532	280.94
480.751	264.94
480.969	292.94
481.188	311.94
481.406	320.94
481.624	315.94
481.843	268.94
482.061	249.94
482.28	291.94
482.498	375.94
482.717	336.94
482.935	296.94
483.153	288.94
483.372	260.94
483.59	264.94
483.808	254.94
484.027	259.94
484.245	241.94
484.463	247.94
484.681	253.94
484.9	266.94
485.118	295.94
485.336	260.94
485.554	272.94
485.772	254.94
485.99	282.94
486.209	303.94
486.427	300.94
486.645	281.94
486.863	306.94
487.081	292.94
487.299	317.94
487.517	309.94
487.735	294.94
487.953	294.94
488.171	311.94
488.389	280.94
488.607	277.94
488.825	283.94
489.043	290.94
489.261	328.94
489.479	354.94
489.696	288.94
489.914	272.94
490.132	272.94
490.35	270.94
490.568	253.94
490.786	288.94
491.003	278.94
491.221	291.94
491.439	263.94
491.657	277.94
491.874	307.94
492.092	325.94
492.31	384.94
492.527	364.94
492.745	334.94
492.963	300.94
493.18	308.94
493.398	307.94
493.615	318.94
493.833	306.94
494.05	296.94
494.268	309.94
494.485	278.94
494.703	283.94
494.92	319.94
495.138	289.94
495.355	273.94
495.573	292.94
495.79	300.94
496.008	399.94
496.225	332.94
496.442	291.94
496.66	319.94
496.877	314.94
497.094	317.94
497.312	309.94
497.529	302.94
497.746	302.94
497.963	310.94
498.181	350.94
498.398	359.94
498.615	363.94
498.832	405.94
499.049	403.94
499.267	382.94
499.484	377.94
499.701	404.94
499.918	447.94
500.135	511.94
500.352	523.94
500.569	539.94
500.786	560.94
501.003	539.94
501.22	484.94
501.437	459.94
501.654	427.94
501.871	391.94
502.088	396.94
502.305	351.94
502.522	357.94
