Data from NickelSpatula.Lamp.E5.5.P2_HRD10591_11-51-27-560.txt Node
Date: Tue Jul 23 11:51:27 EDT 2019
User: cochatt
Spectrometer: HR+D1059
Trigger mode: 1
Integration Time (sec): 1.000000E-1
Scans to average: 1
Electric dark correction enabled: true
Nonlinearity correction enabled: false
Boxcar width: 0
XAxis mode: Wavelengths
Number of Pixels in Spectrum: 2048
>>>>>Begin Spectral Data<<<<<
223.165	-6.81
223.4	-6.81
223.635	-6.81
223.869	-7.81
224.104	-15.81
224.338	-9.81
224.573	-7.81
224.808	-3.81
225.042	-0.81
225.277	-11.81
225.511	0.19
225.746	-10.81
225.98	8.19
226.215	2.19
226.449	4.19
226.683	7.19
226.918	22.19
227.152	31.19
227.387	26.19
227.621	30.19
227.856	44.19
228.09	42.19
228.324	53.19
228.559	59.19
228.793	59.19
229.027	67.19
229.262	77.19
229.496	80.19
229.73	86.19
229.964	104.19
230.199	100.19
230.433	94.19
230.667	98.19
230.901	98.19
231.136	97.19
231.37	92.19
231.604	80.19
231.838	105.19
232.072	113.19
232.306	109.19
232.541	111.19
232.775	95.19
233.009	106.19
233.243	121.19
233.477	109.19
233.711	111.19
233.945	127.19
234.179	109.19
234.413	131.19
234.647	124.19
234.881	144.19
235.115	131.19
235.349	117.19
235.583	131.19
235.817	115.19
236.051	123.19
236.285	120.19
236.519	137.19
236.753	135.19
236.987	121.19
237.221	137.19
237.455	123.19
237.689	129.19
237.922	135.19
238.156	142.19
238.39	151.19
238.624	167.19
238.858	152.19
239.091	145.19
239.325	140.19
239.559	136.19
239.793	148.19
240.027	176.19
240.26	169.19
240.494	160.19
240.728	156.19
240.961	167.19
241.195	175.19
241.429	167.19
241.662	172.19
241.896	132.19
242.13	131.19
242.363	131.19
242.597	142.19
242.83	141.19
243.064	144.19
243.298	158.19
243.531	167.19
243.765	162.19
243.998	147.19
244.232	149.19
244.465	158.19
244.699	154.19
244.932	178.19
245.166	156.19
245.399	158.19
245.633	147.19
245.866	147.19
246.099	173.19
246.333	171.19
246.566	177.19
246.8	177.19
247.033	182.19
247.266	168.19
247.5	181.19
247.733	167.19
247.966	151.19
248.2	164.19
248.433	172.19
248.666	188.19
248.899	171.19
249.133	177.19
249.366	219.19
249.599	220.19
249.832	211.19
250.066	187.19
250.299	202.19
250.532	197.19
250.765	196.19
250.998	176.19
251.231	183.19
251.465	185.19
251.698	200.19
251.931	190.19
252.164	191.19
252.397	198.19
252.63	222.19
252.863	255.19
253.096	262.19
253.329	231.19
253.562	241.19
253.795	265.19
254.028	284.19
254.261	288.19
254.494	264.19
254.727	256.19
254.96	262.19
255.193	261.19
255.426	239.19
255.659	208.19
255.892	207.19
256.124	206.19
256.357	242.19
256.59	271.19
256.823	269.19
257.056	214.19
257.289	216.19
257.521	220.19
257.754	273.19
257.987	290.19
258.22	256.19
258.452	230.19
258.685	249.19
258.918	259.19
259.151	259.19
259.383	285.19
259.616	328.19
259.849	351.19
260.081	357.19
260.314	414.19
260.547	323.19
260.779	305.19
261.012	357.19
261.244	345.19
261.477	353.19
261.71	329.19
261.942	274.19
262.175	278.19
262.407	265.19
262.64	279.19
262.872	316.19
263.105	339.19
263.337	368.19
263.57	322.19
263.802	233.19
264.035	227.19
264.267	203.19
264.499	194.19
264.732	191.19
264.964	183.19
265.197	184.19
265.429	183.19
265.661	191.19
265.894	205.19
266.126	223.19
266.358	227.19
266.591	258.19
266.823	304.19
267.055	288.19
267.287	255.19
267.52	260.19
267.752	292.19
267.984	305.19
268.216	312.19
268.448	256.19
268.681	257.19
268.913	272.19
269.145	283.19
269.377	286.19
269.609	281.19
269.841	259.19
270.073	293.19
270.306	316.19
270.538	301.19
270.77	299.19
271.002	287.19
271.234	316.19
271.466	299.19
271.698	305.19
271.93	283.19
272.162	294.19
272.394	295.19
272.626	296.19
272.858	296.19
273.09	297.19
273.322	245.19
273.553	276.19
273.785	281.19
274.017	357.19
274.249	456.19
274.481	475.19
274.713	507.19
274.945	575.19
275.176	584.19
275.408	537.19
275.64	519.19
275.872	480.19
276.104	415.19
276.335	394.19
276.567	379.19
276.799	391.19
277.031	405.19
277.262	324.19
277.494	279.19
277.726	238.19
277.957	288.19
278.189	296.19
278.421	297.19
278.652	313.19
278.884	278.19
279.115	263.19
279.347	273.19
279.579	257.19
279.81	269.19
280.042	279.19
280.273	277.19
280.505	261.19
280.736	235.19
280.968	228.19
281.199	255.19
281.431	261.19
281.662	256.19
281.894	264.19
282.125	265.19
282.356	308.19
282.588	298.19
282.819	271.19
283.051	291.19
283.282	333.19
283.513	382.19
283.745	417.19
283.976	426.19
284.207	397.19
284.439	409.19
284.67	392.19
284.901	337.19
285.132	383.19
285.364	406.19
285.595	357.19
285.826	375.19
286.057	389.19
286.288	355.19
286.52	402.19
286.751	420.19
286.982	416.19
287.213	376.19
287.444	338.19
287.675	371.19
287.906	360.19
288.138	313.19
288.369	310.19
288.6	276.19
288.831	286.19
289.062	323.19
289.293	355.19
289.524	354.19
289.755	322.19
289.986	348.19
290.217	307.19
290.448	260.19
290.679	227.19
290.91	227.19
291.141	225.19
291.371	227.19
291.602	229.19
291.833	223.19
292.064	230.19
292.295	263.19
292.526	297.19
292.757	316.19
292.987	323.19
293.218	317.19
293.449	356.19
293.68	366.19
293.91	342.19
294.141	371.19
294.372	341.19
294.603	301.19
294.833	316.19
295.064	393.19
295.295	395.19
295.525	311.19
295.756	259.19
295.987	235.19
296.217	231.19
296.448	240.19
296.679	245.19
296.909	269.19
297.14	283.19
297.37	284.19
297.601	295.19
297.831	258.19
298.062	275.19
298.292	284.19
298.523	327.19
298.753	339.19
298.984	340.19
299.214	282.19
299.445	226.19
299.675	236.19
299.905	229.19
300.136	213.19
300.366	257.19
300.597	255.19
300.827	239.19
301.057	213.19
301.288	229.19
301.518	243.19
301.748	265.19
301.979	301.19
302.209	305.19
302.439	319.19
302.669	259.19
302.9	268.19
303.13	257.19
303.36	262.19
303.59	235.19
303.82	264.19
304.051	255.19
304.281	275.19
304.511	273.19
304.741	237.19
304.971	272.19
305.201	287.19
305.431	268.19
305.661	233.19
305.891	242.19
306.121	249.19
306.352	225.19
306.582	192.19
306.812	202.19
307.042	211.19
307.272	210.19
307.502	196.19
307.731	214.19
307.961	233.19
308.191	200.19
308.421	189.19
308.651	187.19
308.881	192.19
309.111	192.19
309.341	184.19
309.571	204.19
309.8	203.19
310.03	209.19
310.26	226.19
310.49	204.19
310.72	185.19
310.949	203.19
311.179	212.19
311.409	215.19
311.639	241.19
311.868	292.19
312.098	345.19
312.328	383.19
312.557	359.19
312.787	358.19
313.017	320.19
313.246	360.19
313.476	397.19
313.706	339.19
313.935	275.19
314.165	227.19
314.394	214.19
314.624	230.19
314.853	246.19
315.083	213.19
315.312	222.19
315.542	235.19
315.771	207.19
316.001	203.19
316.23	190.19
316.46	197.19
316.689	198.19
316.919	206.19
317.148	217.19
317.377	211.19
317.607	217.19
317.836	214.19
318.065	217.19
318.295	268.19
318.524	238.19
318.753	209.19
318.983	219.19
319.212	215.19
319.441	207.19
319.67	239.19
319.9	265.19
320.129	249.19
320.358	215.19
320.587	214.19
320.816	216.19
321.046	248.19
321.275	248.19
321.504	265.19
321.733	231.19
321.962	236.19
322.191	235.19
322.42	230.19
322.649	224.19
322.878	234.19
323.108	261.19
323.337	227.19
323.566	223.19
323.795	243.19
324.024	241.19
324.253	222.19
324.482	235.19
324.71	244.19
324.939	251.19
325.168	245.19
325.397	218.19
325.626	223.19
325.855	204.19
326.084	214.19
326.313	208.19
326.542	213.19
326.77	189.19
326.999	214.19
327.228	217.19
327.457	217.19
327.686	220.19
327.914	201.19
328.143	210.19
328.372	209.19
328.6	199.19
328.829	198.19
329.058	212.19
329.287	187.19
329.515	196.19
329.744	210.19
329.972	195.19
330.201	201.19
330.43	219.19
330.658	200.19
330.887	229.19
331.115	216.19
331.344	230.19
331.572	234.19
331.801	207.19
332.03	210.19
332.258	227.19
332.486	207.19
332.715	230.19
332.943	212.19
333.172	229.19
333.4	224.19
333.629	258.19
333.857	266.19
334.085	264.19
334.314	237.19
334.542	249.19
334.771	225.19
334.999	218.19
335.227	223.19
335.455	240.19
335.684	233.19
335.912	264.19
336.14	291.19
336.369	272.19
336.597	257.19
336.825	291.19
337.053	326.19
337.281	279.19
337.51	226.19
337.738	237.19
337.966	226.19
338.194	250.19
338.422	237.19
338.65	207.19
338.878	208.19
339.106	201.19
339.334	228.19
339.562	231.19
339.79	214.19
340.018	237.19
340.246	228.19
340.474	254.19
340.702	251.19
340.93	272.19
341.158	275.19
341.386	244.19
341.614	241.19
341.842	236.19
342.07	238.19
342.298	283.19
342.526	267.19
342.754	244.19
342.981	224.19
343.209	236.19
343.437	255.19
343.665	256.19
343.893	251.19
344.12	282.19
344.348	341.19
344.576	297.19
344.804	264.19
345.031	229.19
345.259	227.19
345.487	215.19
345.714	232.19
345.942	244.19
346.17	247.19
346.397	260.19
346.625	217.19
346.853	224.19
347.08	218.19
347.308	242.19
347.535	265.19
347.763	267.19
347.99	229.19
348.218	212.19
348.445	222.19
348.673	215.19
348.9	223.19
349.128	249.19
349.355	250.19
349.583	228.19
349.81	230.19
350.037	217.19
350.265	199.19
350.492	181.19
350.72	204.19
350.947	207.19
351.174	194.19
351.402	214.19
351.629	214.19
351.856	225.19
352.083	201.19
352.311	214.19
352.538	231.19
352.765	240.19
352.992	220.19
353.22	205.19
353.447	233.19
353.674	210.19
353.901	209.19
354.128	207.19
354.355	201.19
354.583	230.19
354.81	233.19
355.037	224.19
355.264	227.19
355.491	228.19
355.718	230.19
355.945	239.19
356.172	239.19
356.399	229.19
356.626	271.19
356.853	328.19
357.08	324.19
357.307	353.19
357.534	295.19
357.761	294.19
357.988	383.19
358.215	391.19
358.441	356.19
358.668	303.19
358.895	299.19
359.122	260.19
359.349	259.19
359.576	295.19
359.802	239.19
360.029	228.19
360.256	233.19
360.483	271.19
360.709	329.19
360.936	328.19
361.163	264.19
361.39	222.19
361.616	217.19
361.843	245.19
362.07	272.19
362.296	278.19
362.523	234.19
362.749	241.19
362.976	210.19
363.203	264.19
363.429	281.19
363.656	226.19
363.882	229.19
364.109	230.19
364.335	226.19
364.562	213.19
364.788	235.19
365.015	264.19
365.241	235.19
365.468	212.19
365.694	192.19
365.92	210.19
366.147	189.19
366.373	189.19
366.599	183.19
366.826	198.19
367.052	195.19
367.278	189.19
367.505	205.19
367.731	221.19
367.957	221.19
368.184	230.19
368.41	208.19
368.636	214.19
368.862	240.19
369.089	212.19
369.315	208.19
369.541	187.19
369.767	211.19
369.993	200.19
370.219	196.19
370.445	235.19
370.672	237.19
370.898	238.19
371.124	232.19
371.35	222.19
371.576	227.19
371.802	231.19
372.028	257.19
372.254	288.19
372.48	244.19
372.706	242.19
372.932	242.19
373.158	245.19
373.384	262.19
373.61	339.19
373.835	350.19
374.061	288.19
374.287	232.19
374.513	287.19
374.739	333.19
374.965	342.19
375.191	335.19
375.416	263.19
375.642	232.19
375.868	261.19
376.094	273.19
376.319	246.19
376.545	271.19
376.771	285.19
376.997	254.19
377.222	209.19
377.448	197.19
377.674	187.19
377.899	190.19
378.125	196.19
378.35	187.19
378.576	181.19
378.802	190.19
379.027	202.19
379.253	221.19
379.478	224.19
379.704	241.19
379.929	251.19
380.155	236.19
380.38	221.19
380.606	220.19
380.831	247.19
381.057	239.19
381.282	247.19
381.507	247.19
381.733	293.19
381.958	302.19
382.184	317.19
382.409	355.19
382.634	346.19
382.86	346.19
383.085	306.19
383.31	251.19
383.535	274.19
383.761	275.19
383.986	248.19
384.211	294.19
384.436	280.19
384.662	239.19
384.887	246.19
385.112	245.19
385.337	243.19
385.562	251.19
385.787	264.19
386.013	272.19
386.238	294.19
386.463	263.19
386.688	225.19
386.913	209.19
387.138	224.19
387.363	213.19
387.588	241.19
387.813	224.19
388.038	251.19
388.263	236.19
388.488	221.19
388.713	259.19
388.938	269.19
389.163	240.19
389.387	220.19
389.612	219.19
389.837	199.19
390.062	230.19
390.287	237.19
390.512	261.19
390.736	227.19
390.961	207.19
391.186	200.19
391.411	214.19
391.636	207.19
391.86	223.19
392.085	241.19
392.31	231.19
392.534	249.19
392.759	248.19
392.984	232.19
393.208	236.19
393.433	214.19
393.658	212.19
393.882	226.19
394.107	204.19
394.331	193.19
394.556	211.19
394.78	210.19
395.005	209.19
395.229	221.19
395.454	211.19
395.678	216.19
395.903	214.19
396.127	223.19
396.352	228.19
396.576	232.19
396.801	238.19
397.025	237.19
397.249	263.19
397.474	238.19
397.698	227.19
397.922	225.19
398.147	236.19
398.371	238.19
398.595	248.19
398.82	237.19
399.044	237.19
399.268	252.19
399.492	281.19
399.717	295.19
399.941	291.19
400.165	269.19
400.389	248.19
400.613	257.19
400.837	228.19
401.062	226.19
401.286	211.19
401.51	231.19
401.734	227.19
401.958	237.19
402.182	239.19
402.406	231.19
402.63	231.19
402.854	259.19
403.078	272.19
403.302	339.19
403.526	359.19
403.75	329.19
403.974	269.19
404.198	286.19
404.422	304.19
404.645	303.19
404.869	352.19
405.093	284.19
405.317	264.19
405.541	242.19
405.765	260.19
405.988	252.19
406.212	259.19
406.436	295.19
406.66	307.19
406.883	286.19
407.107	297.19
407.331	315.19
407.555	303.19
407.778	271.19
408.002	257.19
408.226	276.19
408.449	256.19
408.673	265.19
408.896	266.19
409.12	243.19
409.344	230.19
409.567	214.19
409.791	239.19
410.014	237.19
410.238	250.19
410.461	232.19
410.685	241.19
410.908	241.19
411.132	247.19
411.355	216.19
411.578	249.19
411.802	236.19
412.025	257.19
412.249	251.19
412.472	230.19
412.695	241.19
412.919	236.19
413.142	244.19
413.365	241.19
413.589	271.19
413.812	221.19
414.035	240.19
414.258	230.19
414.482	236.19
414.705	236.19
414.928	228.19
415.151	216.19
415.374	215.19
415.597	239.19
415.821	237.19
416.044	235.19
416.267	252.19
416.49	226.19
416.713	229.19
416.936	240.19
417.159	223.19
417.382	236.19
417.605	229.19
417.828	236.19
418.051	236.19
418.274	248.19
418.497	226.19
418.72	232.19
418.943	249.19
419.166	230.19
419.389	283.19
419.611	274.19
419.834	273.19
420.057	271.19
420.28	250.19
420.503	241.19
420.726	240.19
420.948	221.19
421.171	227.19
421.394	233.19
421.617	220.19
421.839	256.19
422.062	236.19
422.285	235.19
422.507	238.19
422.73	244.19
422.953	226.19
423.175	239.19
423.398	236.19
423.621	255.19
423.843	255.19
424.066	274.19
424.288	253.19
424.511	249.19
424.733	227.19
424.956	262.19
425.178	263.19
425.401	300.19
425.623	355.19
425.846	293.19
426.068	243.19
426.291	254.19
426.513	261.19
426.735	241.19
426.958	241.19
427.18	250.19
427.402	322.19
427.625	338.19
427.847	309.19
428.069	219.19
428.292	235.19
428.514	229.19
428.736	219.19
428.958	223.19
429.181	291.19
429.403	268.19
429.625	219.19
429.847	212.19
430.069	215.19
430.292	222.19
430.514	229.19
430.736	235.19
430.958	265.19
431.18	257.19
431.402	206.19
431.624	214.19
431.846	213.19
432.068	210.19
432.29	223.19
432.512	232.19
432.734	264.19
432.956	273.19
433.178	230.19
433.4	217.19
433.622	232.19
433.844	227.19
434.066	230.19
434.287	230.19
434.509	226.19
434.731	247.19
434.953	228.19
435.175	254.19
435.397	259.19
435.618	248.19
435.84	219.19
436.062	231.19
436.284	215.19
436.505	226.19
436.727	221.19
436.949	217.19
437.17	212.19
437.392	221.19
437.614	222.19
437.835	209.19
438.057	227.19
438.278	221.19
438.5	292.19
438.721	311.19
438.943	249.19
439.165	209.19
439.386	191.19
439.608	203.19
439.829	214.19
440.05	211.19
440.272	218.19
440.493	249.19
440.715	283.19
440.936	222.19
441.158	242.19
441.379	227.19
441.6	246.19
441.822	259.19
442.043	237.19
442.264	229.19
442.486	227.19
442.707	231.19
442.928	244.19
443.149	238.19
443.371	235.19
443.592	245.19
443.813	224.19
444.034	245.19
444.255	238.19
444.476	249.19
444.698	261.19
444.919	259.19
445.14	339.19
445.361	293.19
445.582	255.19
445.803	252.19
446.024	243.19
446.245	219.19
446.466	220.19
446.687	247.19
446.908	249.19
447.129	226.19
447.35	210.19
447.571	209.19
447.792	223.19
448.013	191.19
448.234	184.19
448.455	205.19
448.675	207.19
448.896	192.19
449.117	217.19
449.338	216.19
449.559	222.19
449.779	218.19
450	231.19
450.221	210.19
450.442	229.19
450.662	215.19
450.883	222.19
451.104	211.19
451.324	228.19
451.545	224.19
451.766	234.19
451.986	215.19
452.207	190.19
452.428	205.19
452.648	213.19
452.869	212.19
453.089	220.19
453.31	219.19
453.53	213.19
453.751	203.19
453.971	193.19
454.192	212.19
454.412	227.19
454.633	206.19
454.853	216.19
455.073	210.19
455.294	183.19
455.514	196.19
455.734	205.19
455.955	212.19
456.175	201.19
456.395	213.19
456.616	196.19
456.836	198.19
457.056	178.19
457.276	189.19
457.497	185.19
457.717	192.19
457.937	204.19
458.157	191.19
458.377	205.19
458.598	204.19
458.818	227.19
459.038	224.19
459.258	224.19
459.478	226.19
459.698	221.19
459.918	264.19
460.138	242.19
460.358	253.19
460.578	232.19
460.798	258.19
461.018	249.19
461.238	237.19
461.458	227.19
461.678	233.19
461.898	226.19
462.118	230.19
462.338	256.19
462.558	262.19
462.777	273.19
462.997	281.19
463.217	290.19
463.437	293.19
463.657	274.19
463.876	257.19
464.096	245.19
464.316	262.19
464.536	269.19
464.755	279.19
464.975	275.19
465.195	285.19
465.414	248.19
465.634	263.19
465.854	241.19
466.073	223.19
466.293	230.19
466.512	215.19
466.732	263.19
466.951	275.19
467.171	238.19
467.391	219.19
467.61	219.19
467.829	225.19
468.049	230.19
468.268	239.19
468.488	223.19
468.707	222.19
468.927	248.19
469.146	275.19
469.365	249.19
469.585	237.19
469.804	245.19
470.023	252.19
470.243	258.19
470.462	231.19
470.681	236.19
470.901	235.19
471.12	235.19
471.339	257.19
471.558	228.19
471.777	231.19
471.997	243.19
472.216	266.19
472.435	269.19
472.654	235.19
472.873	224.19
473.092	248.19
473.311	246.19
473.53	227.19
473.749	223.19
473.968	229.19
474.187	237.19
474.406	227.19
474.625	234.19
474.844	231.19
475.063	236.19
475.282	243.19
475.501	263.19
475.72	281.19
475.939	254.19
476.158	250.19
476.377	291.19
476.596	310.19
476.814	337.19
477.033	293.19
477.252	263.19
477.471	237.19
477.69	259.19
477.908	271.19
478.127	288.19
478.346	265.19
478.564	288.19
478.783	270.19
479.002	280.19
479.22	287.19
479.439	339.19
479.658	303.19
479.876	274.19
480.095	265.19
480.313	295.19
480.532	278.19
480.751	276.19
480.969	272.19
481.188	279.19
481.406	305.19
481.624	276.19
481.843	269.19
482.061	238.19
482.28	303.19
482.498	352.19
482.717	321.19
482.935	265.19
483.153	276.19
483.372	262.19
483.59	246.19
483.808	244.19
484.027	239.19
484.245	239.19
484.463	239.19
484.681	262.19
484.9	244.19
485.118	271.19
485.336	257.19
485.554	248.19
485.772	255.19
485.99	256.19
486.209	309.19
486.427	295.19
486.645	285.19
486.863	290.19
487.081	281.19
487.299	317.19
487.517	280.19
487.735	278.19
487.953	308.19
488.171	293.19
488.389	265.19
488.607	250.19
488.825	269.19
489.043	288.19
489.261	304.19
489.479	310.19
489.696	288.19
489.914	269.19
490.132	262.19
490.35	273.19
490.568	261.19
490.786	261.19
491.003	260.19
491.221	265.19
491.439	263.19
491.657	274.19
491.874	301.19
492.092	327.19
492.31	366.19
492.527	332.19
492.745	326.19
492.963	289.19
493.18	287.19
493.398	288.19
493.615	291.19
493.833	282.19
494.05	280.19
494.268	296.19
494.485	291.19
494.703	275.19
494.92	279.19
495.138	284.19
495.355	274.19
495.573	283.19
495.79	283.19
496.008	350.19
496.225	299.19
496.442	288.19
496.66	297.19
496.877	293.19
497.094	315.19
497.312	293.19
497.529	288.19
497.746	296.19
497.963	294.19
498.181	353.19
498.398	338.19
498.615	347.19
498.832	378.19
499.049	394.19
499.267	376.19
499.484	363.19
499.701	396.19
499.918	457.19
500.135	485.19
500.352	529.19
500.569	545.19
500.786	541.19
501.003	555.19
501.22	503.19
501.437	433.19
501.654	380.19
501.871	367.19
502.088	356.19
502.305	345.19
502.522	340.19
