Data from NickelSpatula.Lamp.E10.P2_HRD10591_11-58-00-530.txt Node
Date: Tue Jul 23 11:58:00 EDT 2019
User: cochatt
Spectrometer: HR+D1059
Trigger mode: 1
Integration Time (sec): 1.000000E-1
Scans to average: 1
Electric dark correction enabled: true
Nonlinearity correction enabled: false
Boxcar width: 0
XAxis mode: Wavelengths
Number of Pixels in Spectrum: 2048
>>>>>Begin Spectral Data<<<<<
223.165	-1.75
223.4	-1.75
223.635	-1.75
223.869	-12.75
224.104	-26.75
224.338	-12.75
224.573	-4.75
224.808	-3.75
225.042	-13.75
225.277	-4.75
225.511	-13.75
225.746	2.25
225.98	16.25
226.215	5.25
226.449	14.25
226.683	14.25
226.918	15.25
227.152	27.25
227.387	17.25
227.621	33.25
227.856	47.25
228.09	46.25
228.324	48.25
228.559	58.25
228.793	74.25
229.027	159.25
229.262	157.25
229.496	149.25
229.73	166.25
229.964	177.25
230.199	222.25
230.433	223.25
230.667	210.25
230.901	199.25
231.136	201.25
231.37	208.25
231.604	222.25
231.838	241.25
232.072	244.25
232.306	247.25
232.541	234.25
232.775	246.25
233.009	266.25
233.243	306.25
233.477	305.25
233.711	326.25
233.945	322.25
234.179	331.25
234.413	349.25
234.647	378.25
234.881	452.25
235.115	419.25
235.349	388.25
235.583	352.25
235.817	358.25
236.051	375.25
236.285	382.25
236.519	450.25
236.753	434.25
236.987	420.25
237.221	422.25
237.455	422.25
237.689	418.25
237.922	450.25
238.156	448.25
238.39	544.25
238.624	666.25
238.858	580.25
239.091	492.25
239.325	498.25
239.559	471.25
239.793	537.25
240.027	645.25
240.26	592.25
240.494	576.25
240.728	603.25
240.961	693.25
241.195	640.25
241.429	622.25
241.662	610.25
241.896	531.25
242.13	473.25
242.363	442.25
242.597	450.25
242.83	559.25
243.064	546.25
243.298	582.25
243.531	614.25
243.765	623.25
243.998	636.25
244.232	610.25
244.465	606.25
244.699	595.25
244.932	658.25
245.166	620.25
245.399	550.25
245.633	536.25
245.866	572.25
246.099	611.25
246.333	709.25
246.566	767.25
246.8	774.25
247.033	723.25
247.266	710.25
247.5	673.25
247.733	677.25
247.966	675.25
248.2	678.25
248.433	735.25
248.666	825.25
248.899	852.25
249.133	861.25
249.366	966.25
249.599	1041.25
249.832	922.25
250.066	830.25
250.299	826.25
250.532	772.25
250.765	793.25
250.998	719.25
251.231	679.25
251.465	760.25
251.698	813.25
251.931	798.25
252.164	844.25
252.397	918.25
252.63	1057.25
252.863	1153.25
253.096	1205.25
253.329	1137.25
253.562	1088.25
253.795	1226.25
254.028	1306.25
254.261	1333.25
254.494	1262.25
254.727	1134.25
254.96	1101.25
255.193	1161.25
255.426	1109.25
255.659	858.25
255.892	772.25
256.124	836.25
256.357	981.25
256.59	1194.25
256.823	1139.25
257.056	952.25
257.289	905.25
257.521	953.25
257.754	1115.25
257.987	1267.25
258.22	1087.25
258.452	985.25
258.685	1105.25
258.918	1243.25
259.151	1197.25
259.383	1309.25
259.616	1466.25
259.849	1544.25
260.081	1699.25
260.314	1891.25
260.547	1443.25
260.779	1476.25
261.012	1751.25
261.244	1596.25
261.477	1652.25
261.71	1532.25
261.942	1314.25
262.175	1282.25
262.407	1239.25
262.64	1282.25
262.872	1536.25
263.105	1650.25
263.337	1697.25
263.57	1503.25
263.802	1030.25
264.035	888.25
264.267	883.25
264.499	760.25
264.732	667.25
264.964	702.25
265.197	723.25
265.429	740.25
265.661	813.25
265.894	842.25
266.126	880.25
266.358	1032.25
266.591	1254.25
266.823	1492.25
267.055	1370.25
267.287	1209.25
267.52	1226.25
267.752	1267.25
267.984	1403.25
268.216	1367.25
268.448	1106.25
268.681	1102.25
268.913	1152.25
269.145	1263.25
269.377	1298.25
269.609	1299.25
269.841	1225.25
270.073	1295.25
270.306	1346.25
270.538	1366.25
270.77	1390.25
271.002	1387.25
271.234	1440.25
271.466	1492.25
271.698	1430.25
271.93	1416.25
272.162	1409.25
272.394	1384.25
272.626	1399.25
272.858	1436.25
273.09	1479.25
273.322	1283.25
273.553	1248.25
273.785	1450.25
274.017	1976.25
274.249	2398.25
274.481	2474.25
274.713	2689.25
274.945	3098.25
275.176	3204.25
275.408	2828.25
275.64	2587.25
275.872	2606.25
276.104	2243.25
276.335	1893.25
276.567	1862.25
276.799	1935.25
277.031	2055.25
277.262	1585.25
277.494	1258.25
277.726	1195.25
277.957	1283.25
278.189	1468.25
278.421	1420.25
278.652	1431.25
278.884	1351.25
279.115	1209.25
279.347	1161.25
279.579	1197.25
279.81	1176.25
280.042	1229.25
280.273	1212.25
280.505	1146.25
280.736	987.25
280.968	990.25
281.199	1072.25
281.431	1218.25
281.662	1231.25
281.894	1130.25
282.125	1264.25
282.356	1335.25
282.588	1357.25
282.819	1211.25
283.051	1355.25
283.282	1673.25
283.513	1926.25
283.745	2165.25
283.976	2146.25
284.207	1943.25
284.439	2078.25
284.67	1978.25
284.901	1761.25
285.132	1901.25
285.364	1976.25
285.595	1854.25
285.826	1917.25
286.057	2038.25
286.288	1936.25
286.52	1957.25
286.751	2059.25
286.982	2044.25
287.213	1750.25
287.444	1711.25
287.675	1839.25
287.906	1789.25
288.138	1536.25
288.369	1346.25
288.6	1241.25
288.831	1324.25
289.062	1533.25
289.293	1662.25
289.524	1565.25
289.755	1578.25
289.986	1613.25
290.217	1409.25
290.448	1120.25
290.679	942.25
290.91	902.25
291.141	906.25
291.371	926.25
291.602	967.25
291.833	997.25
292.064	1022.25
292.295	1164.25
292.526	1366.25
292.757	1408.25
292.987	1509.25
293.218	1539.25
293.449	1567.25
293.68	1669.25
293.91	1572.25
294.141	1602.25
294.372	1519.25
294.603	1392.25
294.833	1550.25
295.064	1800.25
295.295	1665.25
295.525	1281.25
295.756	1135.25
295.987	991.25
296.217	998.25
296.448	994.25
296.679	1078.25
296.909	1193.25
297.14	1274.25
297.37	1370.25
297.601	1333.25
297.831	1175.25
298.062	1262.25
298.292	1390.25
298.523	1519.25
298.753	1746.25
298.984	1530.25
299.214	1236.25
299.445	1054.25
299.675	1014.25
299.905	1009.25
300.136	1040.25
300.366	1157.25
300.597	1118.25
300.827	1006.25
301.057	965.25
301.288	970.25
301.518	1021.25
301.748	1212.25
301.979	1282.25
302.209	1436.25
302.439	1396.25
302.669	1172.25
302.9	1217.25
303.13	1140.25
303.36	1080.25
303.59	1046.25
303.82	1051.25
304.051	1176.25
304.281	1318.25
304.511	1247.25
304.741	1111.25
304.971	1185.25
305.201	1247.25
305.431	1174.25
305.661	1032.25
305.891	1033.25
306.121	1054.25
306.352	953.25
306.582	852.25
306.812	848.25
307.042	839.25
307.272	802.25
307.502	789.25
307.731	867.25
307.961	912.25
308.191	840.25
308.421	804.25
308.651	790.25
308.881	738.25
309.111	770.25
309.341	794.25
309.571	856.25
309.8	905.25
310.03	903.25
310.26	970.25
310.49	934.25
310.72	863.25
310.949	856.25
311.179	845.25
311.409	913.25
311.639	1084.25
311.868	1366.25
312.098	1772.25
312.328	1910.25
312.557	1816.25
312.787	1813.25
313.017	1654.25
313.246	1770.25
313.476	1964.25
313.706	1579.25
313.935	1301.25
314.165	1031.25
314.394	938.25
314.624	935.25
314.853	982.25
315.083	1022.25
315.312	994.25
315.542	977.25
315.771	909.25
316.001	855.25
316.23	824.25
316.46	841.25
316.689	828.25
316.919	870.25
317.148	901.25
317.377	865.25
317.607	863.25
317.836	952.25
318.065	1068.25
318.295	1200.25
318.524	1111.25
318.753	979.25
318.983	914.25
319.212	902.25
319.441	989.25
319.67	1092.25
319.9	1201.25
320.129	1127.25
320.358	913.25
320.587	925.25
320.816	974.25
321.046	1127.25
321.275	1275.25
321.504	1231.25
321.733	1258.25
321.962	1160.25
322.191	1123.25
322.42	1058.25
322.649	1091.25
322.878	1188.25
323.108	1194.25
323.337	1054.25
323.566	1074.25
323.795	1040.25
324.024	974.25
324.253	987.25
324.482	942.25
324.71	1034.25
324.939	1196.25
325.168	1099.25
325.397	905.25
325.626	902.25
325.855	883.25
326.084	923.25
326.313	859.25
326.542	808.25
326.77	852.25
326.999	909.25
327.228	932.25
327.457	966.25
327.686	1013.25
327.914	860.25
328.143	854.25
328.372	797.25
328.6	837.25
328.829	861.25
329.058	886.25
329.287	882.25
329.515	872.25
329.744	886.25
329.972	820.25
330.201	774.25
330.43	842.25
330.658	925.25
330.887	1066.25
331.115	1013.25
331.344	970.25
331.572	936.25
331.801	867.25
332.03	864.25
332.258	846.25
332.486	945.25
332.715	940.25
332.943	865.25
333.172	863.25
333.4	920.25
333.629	997.25
333.857	1116.25
334.085	1095.25
334.314	1072.25
334.542	1027.25
334.771	978.25
334.999	946.25
335.227	920.25
335.455	930.25
335.684	1003.25
335.912	1197.25
336.14	1255.25
336.369	1225.25
336.597	1182.25
336.825	1342.25
337.053	1491.25
337.281	1196.25
337.51	967.25
337.738	960.25
337.966	1025.25
338.194	1150.25
338.422	1070.25
338.65	962.25
338.878	887.25
339.106	887.25
339.334	1007.25
339.562	1043.25
339.79	981.25
340.018	945.25
340.246	1011.25
340.474	1159.25
340.702	1221.25
340.93	1279.25
341.158	1273.25
341.386	1063.25
341.614	1078.25
341.842	1078.25
342.07	1145.25
342.298	1303.25
342.526	1334.25
342.754	1150.25
342.981	1069.25
343.209	1043.25
343.437	1106.25
343.665	1156.25
343.893	1165.25
344.12	1360.25
344.348	1530.25
344.576	1390.25
344.804	1161.25
345.031	1005.25
345.259	945.25
345.487	990.25
345.714	995.25
345.942	1051.25
346.17	1173.25
346.397	1104.25
346.625	967.25
346.853	948.25
347.08	917.25
347.308	963.25
347.535	1083.25
347.763	1103.25
347.99	953.25
348.218	918.25
348.445	944.25
348.673	959.25
348.9	983.25
349.128	1040.25
349.355	1095.25
349.583	1021.25
349.81	998.25
350.037	909.25
350.265	794.25
350.492	771.25
350.72	794.25
350.947	808.25
351.174	882.25
351.402	914.25
351.629	934.25
351.856	931.25
352.083	855.25
352.311	909.25
352.538	1057.25
352.765	1122.25
352.992	1028.25
353.22	964.25
353.447	952.25
353.674	961.25
353.901	950.25
354.128	945.25
354.355	971.25
354.583	950.25
354.81	938.25
355.037	963.25
355.264	985.25
355.491	1064.25
355.718	1152.25
355.945	1088.25
356.172	1071.25
356.399	1082.25
356.626	1279.25
356.853	1545.25
357.08	1642.25
357.307	1675.25
357.534	1301.25
357.761	1365.25
357.988	1694.25
358.215	1946.25
358.441	1835.25
358.668	1600.25
358.895	1461.25
359.122	1164.25
359.349	1189.25
359.576	1275.25
359.802	1036.25
360.029	919.25
360.256	1015.25
360.483	1228.25
360.709	1534.25
360.936	1600.25
361.163	1383.25
361.39	1079.25
361.616	1020.25
361.843	1187.25
362.07	1450.25
362.296	1340.25
362.523	1028.25
362.749	920.25
362.976	976.25
363.203	1169.25
363.429	1283.25
363.656	1025.25
363.882	969.25
364.109	962.25
364.335	961.25
364.562	957.25
364.788	1098.25
365.015	1284.25
365.241	1134.25
365.468	930.25
365.694	818.25
365.92	808.25
366.147	782.25
366.373	783.25
366.599	777.25
366.826	800.25
367.052	803.25
367.278	797.25
367.505	809.25
367.731	904.25
367.957	970.25
368.184	1003.25
368.41	971.25
368.636	1002.25
368.862	1025.25
369.089	984.25
369.315	886.25
369.541	880.25
369.767	864.25
369.993	823.25
370.219	848.25
370.445	875.25
370.672	983.25
370.898	1066.25
371.124	1067.25
371.35	940.25
371.576	882.25
371.802	955.25
372.028	1105.25
372.254	1294.25
372.48	1106.25
372.706	1002.25
372.932	1070.25
373.158	1127.25
373.384	1337.25
373.61	1767.25
373.835	1779.25
374.061	1329.25
374.287	1130.25
374.513	1352.25
374.739	1567.25
374.965	1638.25
375.191	1614.25
375.416	1139.25
375.642	1010.25
375.868	1139.25
376.094	1317.25
376.319	1132.25
376.545	1249.25
376.771	1330.25
376.997	1144.25
377.222	853.25
377.448	734.25
377.674	736.25
377.899	721.25
378.125	747.25
378.35	724.25
378.576	762.25
378.802	843.25
379.027	912.25
379.253	848.25
379.478	890.25
379.704	993.25
379.929	1063.25
380.155	1049.25
380.38	916.25
380.606	982.25
380.831	1079.25
381.057	962.25
381.282	986.25
381.507	1148.25
381.733	1402.25
381.958	1485.25
382.184	1606.25
382.409	1638.25
382.634	1576.25
382.86	1678.25
383.085	1375.25
383.31	1098.25
383.535	1176.25
383.761	1182.25
383.986	1141.25
384.211	1363.25
384.436	1326.25
384.662	1026.25
384.887	1002.25
385.112	1011.25
385.337	1029.25
385.562	980.25
385.787	1092.25
386.013	1191.25
386.238	1219.25
386.463	992.25
386.688	935.25
386.913	931.25
387.138	882.25
387.363	930.25
387.588	958.25
387.813	964.25
388.038	1072.25
388.263	971.25
388.488	943.25
388.713	1092.25
388.938	1160.25
389.163	974.25
389.387	894.25
389.612	885.25
389.837	922.25
390.062	961.25
390.287	965.25
390.512	1013.25
390.736	926.25
390.961	886.25
391.186	839.25
391.411	820.25
391.636	859.25
391.86	916.25
392.085	1006.25
392.31	983.25
392.534	930.25
392.759	904.25
392.984	982.25
393.208	943.25
393.433	885.25
393.658	806.25
393.882	783.25
394.107	768.25
394.331	796.25
394.556	763.25
394.78	808.25
395.005	862.25
395.229	854.25
395.454	829.25
395.678	847.25
395.903	864.25
396.127	851.25
396.352	878.25
396.576	952.25
396.801	959.25
397.025	1067.25
397.249	1106.25
397.474	903.25
397.698	919.25
397.922	960.25
398.147	880.25
398.371	901.25
398.595	928.25
398.82	938.25
399.044	933.25
399.268	998.25
399.492	1041.25
399.717	1058.25
399.941	1093.25
400.165	1050.25
400.389	1014.25
400.613	1037.25
400.837	1022.25
401.062	911.25
401.286	882.25
401.51	896.25
401.734	900.25
401.958	918.25
402.182	896.25
402.406	894.25
402.63	906.25
402.854	932.25
403.078	1065.25
403.302	1269.25
403.526	1324.25
403.75	1190.25
403.974	1007.25
404.198	1081.25
404.422	1179.25
404.645	1421.25
404.869	1536.25
405.093	1158.25
405.317	989.25
405.541	980.25
405.765	1020.25
405.988	1003.25
406.212	1079.25
406.436	1298.25
406.66	1388.25
406.883	1131.25
407.107	1132.25
407.331	1345.25
407.555	1234.25
407.778	1088.25
408.002	1070.25
408.226	1035.25
408.449	1036.25
408.673	994.25
408.896	941.25
409.12	882.25
409.344	921.25
409.567	854.25
409.791	884.25
410.014	903.25
410.238	877.25
410.461	883.25
410.685	877.25
410.908	911.25
411.132	928.25
411.355	924.25
411.578	916.25
411.802	932.25
412.025	978.25
412.249	962.25
412.472	920.25
412.695	929.25
412.919	933.25
413.142	982.25
413.365	1023.25
413.589	999.25
413.812	925.25
414.035	910.25
414.258	918.25
414.482	1036.25
414.705	1041.25
414.928	894.25
415.151	844.25
415.374	884.25
415.597	928.25
415.821	890.25
416.044	892.25
416.267	898.25
416.49	870.25
416.713	849.25
416.936	841.25
417.159	853.25
417.382	880.25
417.605	884.25
417.828	889.25
418.051	926.25
418.274	966.25
418.497	928.25
418.72	952.25
418.943	944.25
419.166	955.25
419.389	1011.25
419.611	997.25
419.834	1002.25
420.057	1100.25
420.28	1103.25
420.503	991.25
420.726	922.25
420.948	886.25
421.171	890.25
421.394	879.25
421.617	853.25
421.839	839.25
422.062	898.25
422.285	922.25
422.507	942.25
422.73	935.25
422.953	973.25
423.175	939.25
423.398	916.25
423.621	1006.25
423.843	1032.25
424.066	979.25
424.288	922.25
424.511	900.25
424.733	898.25
424.956	943.25
425.178	1068.25
425.401	1183.25
425.623	1340.25
425.846	1118.25
426.068	993.25
426.291	1092.25
426.513	1031.25
426.735	926.25
426.958	993.25
427.18	1153.25
427.402	1469.25
427.625	1415.25
427.847	1174.25
428.069	893.25
428.292	901.25
428.514	877.25
428.736	875.25
428.958	951.25
429.181	1117.25
429.403	954.25
429.625	887.25
429.847	840.25
430.069	861.25
430.292	863.25
430.514	867.25
430.736	916.25
430.958	1179.25
431.18	1082.25
431.402	851.25
431.624	774.25
431.846	833.25
432.068	792.25
432.29	826.25
432.512	918.25
432.734	1187.25
432.956	1122.25
433.178	878.25
433.4	822.25
433.622	821.25
433.844	901.25
434.066	909.25
434.287	890.25
434.509	888.25
434.731	904.25
434.953	847.25
435.175	874.25
435.397	1018.25
435.618	898.25
435.84	807.25
436.062	825.25
436.284	826.25
436.505	784.25
436.727	802.25
436.949	803.25
437.17	835.25
437.392	858.25
437.614	826.25
437.835	814.25
438.057	860.25
438.278	1013.25
438.5	1350.25
438.721	1364.25
438.943	922.25
439.165	806.25
439.386	777.25
439.608	790.25
439.829	771.25
440.05	810.25
440.272	857.25
440.493	1003.25
440.715	1238.25
440.936	981.25
441.158	844.25
441.379	862.25
441.6	949.25
441.822	997.25
442.043	899.25
442.264	867.25
442.486	894.25
442.707	853.25
442.928	868.25
443.149	898.25
443.371	882.25
443.592	909.25
443.813	926.25
444.034	879.25
444.255	895.25
444.476	922.25
444.698	918.25
444.919	934.25
445.14	1054.25
445.361	1016.25
445.582	957.25
445.803	892.25
446.024	928.25
446.245	944.25
446.466	901.25
446.687	871.25
446.908	892.25
447.129	810.25
447.35	789.25
447.571	775.25
447.792	773.25
448.013	786.25
448.234	764.25
448.455	791.25
448.675	785.25
448.896	796.25
449.117	785.25
449.338	770.25
449.559	827.25
449.779	879.25
450	863.25
450.221	822.25
450.442	796.25
450.662	784.25
450.883	795.25
451.104	814.25
451.324	764.25
451.545	787.25
451.766	777.25
451.986	755.25
452.207	772.25
452.428	776.25
452.648	773.25
452.869	796.25
453.089	816.25
453.31	837.25
453.53	744.25
453.751	739.25
453.971	726.25
454.192	751.25
454.412	778.25
454.633	752.25
454.853	746.25
455.073	735.25
455.294	716.25
455.514	732.25
455.734	781.25
455.955	796.25
456.175	838.25
456.395	759.25
456.616	713.25
456.836	706.25
457.056	701.25
457.276	701.25
457.497	691.25
457.717	704.25
457.937	706.25
458.157	699.25
458.377	737.25
458.598	738.25
458.818	781.25
459.038	785.25
459.258	815.25
459.478	833.25
459.698	883.25
459.918	931.25
460.138	868.25
460.358	899.25
460.578	832.25
460.798	863.25
461.018	892.25
461.238	849.25
461.458	859.25
461.678	887.25
461.898	938.25
462.118	948.25
462.338	945.25
462.558	964.25
462.777	1003.25
462.997	1004.25
463.217	971.25
463.437	1052.25
463.657	1015.25
463.876	955.25
464.096	933.25
464.316	942.25
464.536	962.25
464.755	1030.25
464.975	1004.25
465.195	949.25
465.414	972.25
465.634	947.25
465.854	899.25
466.073	880.25
466.293	877.25
466.512	930.25
466.732	983.25
466.951	1013.25
467.171	918.25
467.391	890.25
467.61	876.25
467.829	913.25
468.049	955.25
468.268	874.25
468.488	857.25
468.707	921.25
468.927	1075.25
469.146	1130.25
469.365	1010.25
469.585	949.25
469.804	995.25
470.023	1073.25
470.243	948.25
470.462	879.25
470.681	887.25
470.901	930.25
471.12	984.25
471.339	973.25
471.558	909.25
471.777	930.25
471.997	986.25
472.216	1104.25
472.435	1073.25
472.654	974.25
472.873	939.25
473.092	979.25
473.311	1015.25
473.53	953.25
473.749	930.25
473.968	986.25
474.187	945.25
474.406	932.25
474.625	915.25
474.844	948.25
475.063	1022.25
475.282	1021.25
475.501	1038.25
475.72	1104.25
475.939	1077.25
476.158	1091.25
476.377	1222.25
476.596	1433.25
476.814	1486.25
477.033	1245.25
477.252	1059.25
477.471	971.25
477.69	972.25
477.908	1090.25
478.127	1138.25
478.346	1060.25
478.564	1117.25
478.783	1099.25
479.002	1116.25
479.22	1275.25
479.439	1419.25
479.658	1227.25
479.876	1115.25
480.095	1213.25
480.313	1217.25
480.532	1125.25
480.751	1078.25
480.969	1120.25
481.188	1282.25
481.406	1281.25
481.624	1221.25
481.843	1140.25
482.061	1037.25
482.28	1162.25
482.498	1481.25
482.717	1381.25
482.935	1178.25
483.153	1099.25
483.372	1054.25
483.59	1051.25
483.808	1044.25
484.027	1049.25
484.245	972.25
484.463	982.25
484.681	1022.25
484.9	1100.25
485.118	1158.25
485.336	1121.25
485.554	1018.25
485.772	1068.25
485.99	1130.25
486.209	1222.25
486.427	1213.25
486.645	1184.25
486.863	1236.25
487.081	1234.25
487.299	1350.25
487.517	1330.25
487.735	1170.25
487.953	1242.25
488.171	1243.25
488.389	1165.25
488.607	1074.25
488.825	1127.25
489.043	1260.25
489.261	1429.25
489.479	1521.25
489.696	1304.25
489.914	1176.25
490.132	1105.25
490.35	1106.25
490.568	1083.25
490.786	1067.25
491.003	1122.25
491.221	1124.25
491.439	1119.25
491.657	1125.25
491.874	1217.25
492.092	1454.25
492.31	1735.25
492.527	1719.25
492.745	1485.25
492.963	1310.25
493.18	1290.25
493.398	1304.25
493.615	1300.25
493.833	1226.25
494.05	1211.25
494.268	1252.25
494.485	1219.25
494.703	1203.25
494.92	1218.25
