Data from NickelSpatula.Lamp.E10.P2_HRD10591_11-56-56-534.txt Node
Date: Tue Jul 23 11:56:56 EDT 2019
User: cochatt
Spectrometer: HR+D1059
Trigger mode: 1
Integration Time (sec): 1.000000E-1
Scans to average: 1
Electric dark correction enabled: true
Nonlinearity correction enabled: false
Boxcar width: 0
XAxis mode: Wavelengths
Number of Pixels in Spectrum: 2048
>>>>>Begin Spectral Data<<<<<
223.165	-15.06
223.4	-15.06
223.635	-15.06
223.869	-12.06
224.104	-8.06
224.338	-10.06
224.573	-6.06
224.808	-24.06
225.042	-8.06
225.277	-2.06
225.511	-1.06
225.746	-3.06
225.98	8.94
226.215	2.94
226.449	16.94
226.683	16.94
226.918	14.94
227.152	28.94
227.387	30.94
227.621	32.94
227.856	32.94
228.09	49.94
228.324	50.94
228.559	65.94
228.793	95.94
229.027	131.94
229.262	165.94
229.496	151.94
229.73	157.94
229.964	187.94
230.199	213.94
230.433	217.94
230.667	200.94
230.901	186.94
231.136	174.94
231.37	211.94
231.604	204.94
231.838	237.94
232.072	237.94
232.306	227.94
232.541	255.94
232.775	232.94
233.009	255.94
233.243	289.94
233.477	306.94
233.711	335.94
233.945	315.94
234.179	302.94
234.413	323.94
234.647	370.94
234.881	430.94
235.115	393.94
235.349	374.94
235.583	340.94
235.817	307.94
236.051	380.94
236.285	401.94
236.519	437.94
236.753	402.94
236.987	387.94
237.221	384.94
237.455	396.94
237.689	417.94
237.922	439.94
238.156	441.94
238.39	500.94
238.624	616.94
238.858	550.94
239.091	473.94
239.325	472.94
239.559	467.94
239.793	499.94
240.027	608.94
240.26	583.94
240.494	557.94
240.728	552.94
240.961	657.94
241.195	584.94
241.429	598.94
241.662	567.94
241.896	484.94
242.13	457.94
242.363	434.94
242.597	449.94
242.83	518.94
243.064	503.94
243.298	570.94
243.531	623.94
243.765	628.94
243.998	588.94
244.232	569.94
244.465	578.94
244.699	559.94
244.932	627.94
245.166	599.94
245.399	527.94
245.633	530.94
245.866	560.94
246.099	580.94
246.333	673.94
246.566	720.94
246.8	729.94
247.033	686.94
247.266	660.94
247.5	630.94
247.733	623.94
247.966	630.94
248.2	633.94
248.433	722.94
248.666	781.94
248.899	775.94
249.133	801.94
249.366	936.94
249.599	995.94
249.832	887.94
250.066	760.94
250.299	795.94
250.532	776.94
250.765	762.94
250.998	697.94
251.231	665.94
251.465	740.94
251.698	790.94
251.931	764.94
252.164	780.94
252.397	865.94
252.63	987.94
252.863	1086.94
253.096	1111.94
253.329	1084.94
253.562	1039.94
253.795	1158.94
254.028	1271.94
254.261	1280.94
254.494	1162.94
254.727	1053.94
254.96	1069.94
255.193	1088.94
255.426	1074.94
255.659	818.94
255.892	761.94
256.124	839.94
256.357	976.94
256.59	1140.94
256.823	1075.94
257.056	917.94
257.289	861.94
257.521	922.94
257.754	1115.94
257.987	1244.94
258.22	1087.94
258.452	979.94
258.685	1108.94
258.918	1201.94
259.151	1211.94
259.383	1235.94
259.616	1452.94
259.849	1527.94
260.081	1621.94
260.314	1795.94
260.547	1432.94
260.779	1451.94
261.012	1661.94
261.244	1550.94
261.477	1571.94
261.71	1473.94
261.942	1239.94
262.175	1205.94
262.407	1181.94
262.64	1203.94
262.872	1408.94
263.105	1541.94
263.337	1625.94
263.57	1430.94
263.802	995.94
264.035	860.94
264.267	855.94
264.499	741.94
264.732	705.94
264.964	677.94
265.197	679.94
265.429	718.94
265.661	782.94
265.894	817.94
266.126	869.94
266.358	994.94
266.591	1156.94
266.823	1407.94
267.055	1357.94
267.287	1179.94
267.52	1220.94
267.752	1298.94
267.984	1438.94
268.216	1331.94
268.448	1086.94
268.681	1083.94
268.913	1167.94
269.145	1186.94
269.377	1269.94
269.609	1245.94
269.841	1230.94
270.073	1245.94
270.306	1332.94
270.538	1356.94
270.77	1383.94
271.002	1359.94
271.234	1425.94
271.466	1440.94
271.698	1368.94
271.93	1323.94
272.162	1343.94
272.394	1338.94
272.626	1292.94
272.858	1340.94
273.09	1422.94
273.322	1219.94
273.553	1167.94
273.785	1342.94
274.017	1821.94
274.249	2197.94
274.481	2331.94
274.713	2503.94
274.945	2893.94
275.176	3015.94
275.408	2668.94
275.64	2467.94
275.872	2442.94
276.104	2093.94
276.335	1797.94
276.567	1825.94
276.799	1883.94
277.031	1965.94
277.262	1556.94
277.494	1179.94
277.726	1149.94
277.957	1246.94
278.189	1409.94
278.421	1384.94
278.652	1364.94
278.884	1321.94
279.115	1142.94
279.347	1126.94
279.579	1148.94
279.81	1131.94
280.042	1163.94
280.273	1155.94
280.505	1095.94
280.736	984.94
280.968	984.94
281.199	1086.94
281.431	1210.94
281.662	1199.94
281.894	1151.94
282.125	1223.94
282.356	1269.94
282.588	1315.94
282.819	1199.94
283.051	1348.94
283.282	1617.94
283.513	1863.94
283.745	2083.94
283.976	2091.94
284.207	1931.94
284.439	1987.94
284.67	1886.94
284.901	1695.94
285.132	1825.94
285.364	1942.94
285.595	1789.94
285.826	1871.94
286.057	1923.94
286.288	1849.94
286.52	1874.94
286.751	2014.94
286.982	1937.94
287.213	1731.94
287.444	1679.94
287.675	1793.94
287.906	1758.94
288.138	1484.94
288.369	1338.94
288.6	1239.94
288.831	1325.94
289.062	1531.94
289.293	1659.94
289.524	1561.94
289.755	1549.94
289.986	1607.94
290.217	1435.94
290.448	1091.94
290.679	906.94
290.91	870.94
291.141	917.94
291.371	903.94
291.602	945.94
291.833	945.94
292.064	1000.94
292.295	1141.94
292.526	1308.94
292.757	1384.94
292.987	1489.94
293.218	1489.94
293.449	1559.94
293.68	1643.94
293.91	1578.94
294.141	1597.94
294.372	1453.94
294.603	1369.94
294.833	1499.94
295.064	1799.94
295.295	1689.94
295.525	1287.94
295.756	1092.94
295.987	930.94
296.217	957.94
296.448	963.94
296.679	987.94
296.909	1098.94
297.14	1172.94
297.37	1316.94
297.601	1246.94
297.831	1094.94
298.062	1154.94
298.292	1315.94
298.523	1421.94
298.753	1604.94
298.984	1451.94
299.214	1162.94
299.445	1006.94
299.675	931.94
299.905	918.94
300.136	964.94
300.366	1036.94
300.597	1017.94
300.827	946.94
301.057	890.94
301.288	894.94
301.518	934.94
301.748	1073.94
301.979	1140.94
302.209	1205.94
302.439	1224.94
302.669	1081.94
302.9	1160.94
303.13	1071.94
303.36	1008.94
303.59	998.94
303.82	996.94
304.051	1143.94
304.281	1235.94
304.511	1179.94
304.741	1063.94
304.971	1092.94
305.201	1193.94
305.431	1111.94
305.661	955.94
305.891	949.94
306.121	929.94
306.352	869.94
306.582	817.94
306.812	788.94
307.042	785.94
307.272	754.94
307.502	754.94
307.731	808.94
307.961	840.94
308.191	784.94
308.421	759.94
308.651	753.94
308.881	734.94
309.111	716.94
309.341	748.94
309.571	823.94
309.8	860.94
310.03	832.94
310.26	860.94
310.49	865.94
310.72	816.94
310.949	815.94
311.179	834.94
311.409	879.94
311.639	1037.94
311.868	1299.94
312.098	1683.94
312.328	1824.94
312.557	1753.94
312.787	1742.94
313.017	1556.94
313.246	1713.94
313.476	1861.94
313.706	1490.94
313.935	1223.94
314.165	980.94
314.394	911.94
314.624	933.94
314.853	969.94
315.083	971.94
315.312	940.94
315.542	927.94
315.771	845.94
316.001	791.94
316.23	783.94
316.46	784.94
316.689	782.94
316.919	831.94
317.148	849.94
317.377	830.94
317.607	805.94
317.836	886.94
318.065	999.94
318.295	1111.94
318.524	1090.94
318.753	906.94
318.983	884.94
319.212	830.94
319.441	909.94
319.67	1031.94
319.9	1099.94
320.129	1033.94
320.358	910.94
320.587	891.94
320.816	934.94
321.046	1069.94
321.275	1178.94
321.504	1129.94
321.733	1132.94
321.962	1059.94
322.191	1005.94
322.42	968.94
322.649	969.94
322.878	1046.94
323.108	1046.94
323.337	997.94
323.566	981.94
323.795	977.94
324.024	878.94
324.253	896.94
324.482	878.94
324.71	947.94
324.939	1060.94
325.168	982.94
325.397	862.94
325.626	857.94
325.855	827.94
326.084	848.94
326.313	801.94
326.542	771.94
326.77	785.94
326.999	814.94
327.228	887.94
327.457	922.94
327.686	894.94
327.914	801.94
328.143	744.94
328.372	771.94
328.6	788.94
328.829	801.94
329.058	822.94
329.287	837.94
329.515	831.94
329.744	839.94
329.972	796.94
330.201	771.94
330.43	800.94
330.658	871.94
330.887	976.94
331.115	981.94
331.344	931.94
331.572	897.94
331.801	840.94
332.03	820.94
332.258	860.94
332.486	912.94
332.715	950.94
332.943	851.94
333.172	847.94
333.4	895.94
333.629	993.94
333.857	1065.94
334.085	1026.94
334.314	1037.94
334.542	994.94
334.771	942.94
334.999	921.94
335.227	879.94
335.455	887.94
335.684	978.94
335.912	1111.94
336.14	1229.94
336.369	1227.94
336.597	1153.94
336.825	1280.94
337.053	1398.94
337.281	1143.94
337.51	894.94
337.738	896.94
337.966	972.94
338.194	1052.94
338.422	1000.94
338.65	881.94
338.878	829.94
339.106	863.94
339.334	941.94
339.562	971.94
339.79	933.94
340.018	891.94
340.246	980.94
340.474	1097.94
340.702	1133.94
340.93	1171.94
341.158	1189.94
341.386	989.94
341.614	960.94
341.842	980.94
342.07	1029.94
342.298	1199.94
342.526	1249.94
342.754	1069.94
342.981	982.94
343.209	934.94
343.437	1029.94
343.665	1081.94
343.893	1065.94
344.12	1203.94
344.348	1414.94
344.576	1255.94
344.804	1067.94
345.031	952.94
345.259	884.94
345.487	894.94
345.714	913.94
345.942	980.94
346.17	1074.94
346.397	1025.94
346.625	913.94
346.853	868.94
347.08	853.94
347.308	899.94
347.535	1012.94
347.763	1032.94
347.99	896.94
348.218	837.94
348.445	909.94
348.673	899.94
348.9	899.94
349.128	955.94
349.355	968.94
349.583	956.94
349.81	896.94
350.037	863.94
350.265	787.94
350.492	751.94
350.72	710.94
350.947	771.94
351.174	808.94
351.402	859.94
351.629	847.94
351.856	829.94
352.083	811.94
352.311	840.94
352.538	912.94
352.765	941.94
352.992	904.94
353.22	901.94
353.447	900.94
353.674	855.94
353.901	849.94
354.128	836.94
354.355	841.94
354.583	856.94
354.81	873.94
355.037	879.94
355.264	875.94
355.491	930.94
355.718	936.94
355.945	944.94
356.172	939.94
356.399	961.94
356.626	1103.94
356.853	1286.94
357.08	1375.94
357.307	1415.94
357.534	1138.94
357.761	1127.94
357.988	1415.94
358.215	1598.94
358.441	1520.94
358.668	1307.94
358.895	1232.94
359.122	1010.94
359.349	1040.94
359.576	1124.94
359.802	934.94
360.029	825.94
360.256	865.94
360.483	1056.94
360.709	1309.94
360.936	1277.94
361.163	1168.94
361.39	943.94
361.616	917.94
361.843	1002.94
362.07	1205.94
362.296	1137.94
362.523	913.94
362.749	845.94
362.976	867.94
363.203	1009.94
363.429	1113.94
363.656	950.94
363.882	872.94
364.109	895.94
364.335	860.94
364.562	861.94
364.788	943.94
365.015	1058.94
365.241	987.94
365.468	827.94
365.694	766.94
365.92	744.94
366.147	725.94
366.373	730.94
366.599	732.94
366.826	734.94
367.052	755.94
367.278	747.94
367.505	732.94
367.731	783.94
367.957	871.94
368.184	902.94
368.41	896.94
368.636	890.94
368.862	888.94
369.089	875.94
369.315	819.94
369.541	777.94
369.767	783.94
369.993	745.94
370.219	793.94
370.445	789.94
370.672	867.94
370.898	926.94
371.124	941.94
371.35	830.94
371.576	828.94
371.802	871.94
372.028	980.94
372.254	1071.94
372.48	946.94
372.706	903.94
372.932	949.94
373.158	985.94
373.384	1109.94
373.61	1402.94
373.835	1457.94
374.061	1145.94
374.287	1003.94
374.513	1119.94
374.739	1309.94
374.965	1353.94
375.191	1319.94
375.416	1003.94
375.642	875.94
375.868	1005.94
376.094	1112.94
376.319	976.94
376.545	1060.94
376.771	1128.94
376.997	975.94
377.222	781.94
377.448	720.94
377.674	716.94
377.899	703.94
378.125	692.94
378.35	671.94
378.576	719.94
378.802	789.94
379.027	792.94
379.253	782.94
379.478	824.94
379.704	888.94
379.929	920.94
380.155	933.94
380.38	841.94
380.606	883.94
380.831	956.94
381.057	887.94
381.282	864.94
381.507	980.94
381.733	1187.94
381.958	1229.94
382.184	1306.94
382.409	1352.94
382.634	1337.94
382.86	1379.94
383.085	1192.94
383.31	960.94
383.535	1040.94
383.761	1053.94
383.986	1019.94
384.211	1163.94
384.436	1144.94
384.662	911.94
384.887	909.94
385.112	931.94
385.337	924.94
385.562	913.94
385.787	973.94
386.013	1049.94
386.238	1054.94
386.463	923.94
386.688	894.94
386.913	856.94
387.138	827.94
387.363	850.94
387.588	883.94
387.813	900.94
388.038	953.94
388.263	888.94
388.488	865.94
388.713	955.94
388.938	1051.94
389.163	921.94
389.387	844.94
389.612	819.94
389.837	851.94
390.062	846.94
390.287	883.94
390.512	893.94
390.736	829.94
390.961	792.94
391.186	807.94
391.411	818.94
391.636	822.94
391.86	840.94
392.085	896.94
392.31	900.94
392.534	876.94
392.759	841.94
392.984	899.94
393.208	859.94
393.433	813.94
393.658	780.94
393.882	760.94
394.107	725.94
394.331	734.94
394.556	768.94
394.78	781.94
395.005	804.94
395.229	818.94
395.454	817.94
395.678	816.94
395.903	847.94
396.127	815.94
396.352	843.94
396.576	875.94
396.801	878.94
397.025	963.94
397.249	1020.94
397.474	883.94
397.698	840.94
397.922	906.94
398.147	845.94
398.371	872.94
398.595	899.94
398.82	897.94
399.044	916.94
399.268	990.94
399.492	1011.94
399.717	1028.94
399.941	1027.94
400.165	1026.94
400.389	998.94
400.613	966.94
400.837	979.94
401.062	909.94
401.286	891.94
401.51	875.94
401.734	856.94
401.958	877.94
402.182	858.94
402.406	887.94
402.63	887.94
402.854	904.94
403.078	1009.94
403.302	1223.94
403.526	1220.94
403.75	1087.94
403.974	979.94
404.198	1030.94
404.422	1111.94
404.645	1244.94
404.869	1345.94
405.093	1089.94
405.317	951.94
405.541	948.94
405.765	979.94
405.988	972.94
406.212	1025.94
406.436	1149.94
406.66	1238.94
406.883	1047.94
407.107	1077.94
407.331	1225.94
407.555	1183.94
407.778	1035.94
408.002	1005.94
408.226	983.94
408.449	1018.94
408.673	965.94
408.896	939.94
409.12	901.94
409.344	907.94
409.567	863.94
409.791	913.94
410.014	881.94
410.238	861.94
410.461	863.94
410.685	884.94
410.908	885.94
411.132	873.94
411.355	887.94
411.578	923.94
411.802	889.94
412.025	945.94
412.249	919.94
412.472	896.94
412.695	921.94
412.919	895.94
413.142	888.94
413.365	971.94
413.589	979.94
413.812	950.94
414.035	872.94
414.258	867.94
414.482	952.94
414.705	951.94
414.928	846.94
415.151	845.94
415.374	867.94
415.597	877.94
415.821	856.94
416.044	839.94
416.267	849.94
416.49	819.94
416.713	846.94
416.936	831.94
417.159	831.94
417.382	865.94
417.605	859.94
417.828	871.94
418.051	882.94
418.274	867.94
418.497	880.94
418.72	884.94
418.943	888.94
419.166	892.94
419.389	965.94
419.611	948.94
419.834	966.94
420.057	1023.94
420.28	1005.94
420.503	923.94
420.726	881.94
420.948	830.94
421.171	851.94
421.394	861.94
421.617	856.94
421.839	875.94
422.062	906.94
422.285	892.94
422.507	877.94
422.73	889.94
422.953	931.94
423.175	867.94
423.398	937.94
423.621	933.94
423.843	976.94
424.066	937.94
424.288	871.94
424.511	880.94
424.733	856.94
424.956	896.94
425.178	959.94
425.401	1089.94
425.623	1204.94
425.846	1021.94
426.068	951.94
426.291	968.94
426.513	948.94
426.735	878.94
426.958	945.94
427.18	1062.94
427.402	1236.94
427.625	1271.94
427.847	1068.94
428.069	862.94
428.292	841.94
428.514	851.94
428.736	807.94
428.958	892.94
429.181	1003.94
429.403	909.94
429.625	841.94
429.847	799.94
430.069	835.94
430.292	857.94
430.514	836.94
430.736	865.94
430.958	1019.94
431.18	947.94
431.402	815.94
431.624	780.94
431.846	784.94
432.068	770.94
432.29	809.94
432.512	861.94
432.734	1090.94
432.956	1006.94
433.178	841.94
433.4	816.94
433.622	830.94
433.844	830.94
434.066	905.94
434.287	863.94
434.509	870.94
434.731	875.94
434.953	834.94
435.175	897.94
435.397	952.94
435.618	848.94
435.84	797.94
436.062	796.94
436.284	815.94
436.505	779.94
436.727	797.94
436.949	769.94
437.17	803.94
437.392	820.94
437.614	799.94
437.835	778.94
438.057	815.94
438.278	880.94
438.5	1174.94
438.721	1197.94
438.943	880.94
439.165	764.94
439.386	741.94
439.608	763.94
439.829	773.94
440.05	766.94
440.272	809.94
440.493	925.94
440.715	1091.94
440.936	887.94
441.158	820.94
441.379	811.94
441.6	905.94
441.822	956.94
442.043	865.94
442.264	845.94
442.486	850.94
442.707	836.94
442.928	823.94
443.149	835.94
443.371	866.94
443.592	908.94
443.813	887.94
444.034	868.94
444.255	889.94
444.476	916.94
444.698	923.94
444.919	948.94
445.14	1009.94
445.361	1006.94
445.582	922.94
445.803	916.94
446.024	928.94
446.245	888.94
446.466	900.94
446.687	855.94
446.908	814.94
447.129	772.94
447.35	779.94
447.571	786.94
447.792	792.94
448.013	761.94
448.234	763.94
448.455	764.94
448.675	777.94
448.896	783.94
449.117	776.94
449.338	789.94
449.559	795.94
449.779	827.94
450	838.94
450.221	802.94
450.442	800.94
450.662	782.94
450.883	776.94
451.104	805.94
451.324	755.94
451.545	783.94
451.766	805.94
451.986	760.94
452.207	747.94
452.428	765.94
452.648	764.94
452.869	785.94
453.089	767.94
453.31	802.94
453.53	715.94
453.751	699.94
453.971	694.94
454.192	744.94
454.412	751.94
454.633	701.94
454.853	729.94
455.073	708.94
455.294	716.94
455.514	722.94
455.734	739.94
455.955	765.94
456.175	813.94
456.395	738.94
456.616	720.94
456.836	689.94
457.056	678.94
457.276	673.94
457.497	696.94
457.717	687.94
457.937	691.94
458.157	718.94
458.377	716.94
458.598	709.94
458.818	747.94
459.038	775.94
459.258	795.94
459.478	840.94
459.698	877.94
459.918	872.94
460.138	880.94
460.358	870.94
460.578	861.94
460.798	896.94
461.018	854.94
461.238	815.94
461.458	855.94
461.678	851.94
461.898	897.94
462.118	911.94
462.338	914.94
462.558	917.94
462.777	935.94
462.997	961.94
463.217	967.94
463.437	1021.94
463.657	1000.94
463.876	917.94
464.096	927.94
464.316	935.94
464.536	965.94
464.755	983.94
464.975	975.94
465.195	928.94
465.414	960.94
465.634	924.94
465.854	922.94
466.073	831.94
466.293	852.94
466.512	909.94
466.732	976.94
466.951	982.94
467.171	883.94
467.391	856.94
467.61	821.94
467.829	879.94
468.049	905.94
468.268	836.94
468.488	839.94
468.707	875.94
468.927	1026.94
469.146	1092.94
469.365	1005.94
469.585	907.94
469.804	985.94
470.023	1026.94
470.243	925.94
470.462	906.94
470.681	888.94
470.901	910.94
471.12	920.94
471.339	917.94
471.558	879.94
471.777	907.94
471.997	985.94
472.216	1069.94
472.435	1019.94
472.654	935.94
472.873	910.94
473.092	961.94
473.311	1013.94
473.53	909.94
473.749	899.94
473.968	941.94
474.187	920.94
474.406	894.94
474.625	906.94
474.844	954.94
475.063	971.94
475.282	974.94
475.501	1042.94
475.72	1075.94
475.939	1041.94
476.158	1080.94
476.377	1176.94
476.596	1363.94
476.814	1430.94
477.033	1186.94
477.252	1045.94
477.471	952.94
477.69	980.94
477.908	1080.94
478.127	1114.94
478.346	1067.94
478.564	1112.94
478.783	1039.94
479.002	1052.94
479.22	1228.94
479.439	1343.94
479.658	1197.94
479.876	1087.94
480.095	1180.94
480.313	1206.94
480.532	1104.94
480.751	1070.94
480.969	1080.94
481.188	1227.94
481.406	1220.94
481.624	1167.94
481.843	1069.94
482.061	1043.94
482.28	1157.94
482.498	1359.94
482.717	1334.94
482.935	1141.94
483.153	1078.94
483.372	1006.94
483.59	1016.94
483.808	1028.94
484.027	1004.94
484.245	945.94
484.463	955.94
484.681	1040.94
484.9	1053.94
485.118	1136.94
485.336	1099.94
485.554	1005.94
485.772	1023.94
485.99	1119.94
486.209	1208.94
486.427	1182.94
486.645	1117.94
486.863	1167.94
487.081	1169.94
487.299	1256.94
487.517	1179.94
487.735	1168.94
487.953	1179.94
488.171	1216.94
488.389	1135.94
488.607	1067.94
488.825	1078.94
489.043	1177.94
489.261	1325.94
489.479	1359.94
489.696	1241.94
489.914	1127.94
490.132	1071.94
490.35	1067.94
490.568	1084.94
490.786	1065.94
491.003	1103.94
491.221	1128.94
491.439	1102.94
491.657	1125.94
491.874	1169.94
492.092	1335.94
492.31	1499.94
492.527	1539.94
492.745	1378.94
492.963	1240.94
493.18	1244.94
493.398	1254.94
493.615	1253.94
493.833	1213.94
494.05	1148.94
494.268	1190.94
494.485	1204.94
494.703	1162.94
494.92	1180.94
495.138	1150.94
495.355	1156.94
495.573	1175.94
495.79	1265.94
496.008	1518.94
496.225	1386.94
