Data from NickelSpatula.Lamp.E5.5.P2_HRD10591_11-50-50-564.txt Node
Date: Tue Jul 23 11:50:50 EDT 2019
User: cochatt
Spectrometer: HR+D1059
Trigger mode: 1
Integration Time (sec): 1.000000E-1
Scans to average: 1
Electric dark correction enabled: true
Nonlinearity correction enabled: false
Boxcar width: 0
XAxis mode: Wavelengths
Number of Pixels in Spectrum: 2048
>>>>>Begin Spectral Data<<<<<
223.165	-5.06
223.4	-5.06
223.635	-5.06
223.869	-27.06
224.104	-18.06
224.338	-12.06
224.573	-26.06
224.808	-11.06
225.042	-15.06
225.277	-10.06
225.511	-1.06
225.746	0.94
225.98	15.94
226.215	12.94
226.449	18.94
226.683	20.94
226.918	29.94
227.152	25.94
227.387	29.94
227.621	45.94
227.856	46.94
228.09	45.94
228.324	56.94
228.559	54.94
228.793	66.94
229.027	64.94
229.262	63.94
229.496	67.94
229.73	90.94
229.964	73.94
230.199	84.94
230.433	92.94
230.667	80.94
230.901	81.94
231.136	84.94
231.37	93.94
231.604	84.94
231.838	94.94
232.072	81.94
232.306	94.94
232.541	84.94
232.775	96.94
233.009	97.94
233.243	100.94
233.477	98.94
233.711	100.94
233.945	108.94
234.179	90.94
234.413	118.94
234.647	110.94
234.881	104.94
235.115	112.94
235.349	107.94
235.583	101.94
235.817	92.94
236.051	109.94
236.285	104.94
236.519	91.94
236.753	112.94
236.987	109.94
237.221	109.94
237.455	113.94
237.689	102.94
237.922	116.94
238.156	116.94
238.39	110.94
238.624	130.94
238.858	134.94
239.091	114.94
239.325	126.94
239.559	115.94
239.793	126.94
240.027	134.94
240.26	121.94
240.494	128.94
240.728	125.94
240.961	144.94
241.195	125.94
241.429	132.94
241.662	135.94
241.896	136.94
242.13	126.94
242.363	118.94
242.597	113.94
242.83	130.94
243.064	118.94
243.298	128.94
243.531	114.94
243.765	158.94
243.998	146.94
244.232	120.94
244.465	139.94
244.699	122.94
244.932	138.94
245.166	130.94
245.399	128.94
245.633	124.94
245.866	137.94
246.099	136.94
246.333	139.94
246.566	144.94
246.8	149.94
247.033	153.94
247.266	140.94
247.5	136.94
247.733	138.94
247.966	135.94
248.2	135.94
248.433	157.94
248.666	156.94
248.899	150.94
249.133	159.94
249.366	179.94
249.599	171.94
249.832	172.94
250.066	157.94
250.299	161.94
250.532	152.94
250.765	146.94
250.998	131.94
251.231	122.94
251.465	137.94
251.698	155.94
251.931	133.94
252.164	148.94
252.397	174.94
252.63	176.94
252.863	205.94
253.096	204.94
253.329	196.94
253.562	197.94
253.795	207.94
254.028	220.94
254.261	233.94
254.494	216.94
254.727	189.94
254.96	213.94
255.193	211.94
255.426	194.94
255.659	181.94
255.892	156.94
256.124	156.94
256.357	186.94
256.59	200.94
256.823	197.94
257.056	185.94
257.289	175.94
257.521	181.94
257.754	198.94
257.987	234.94
258.22	188.94
258.452	191.94
258.685	212.94
258.918	208.94
259.151	206.94
259.383	228.94
259.616	235.94
259.849	239.94
260.081	255.94
260.314	283.94
260.547	227.94
260.779	248.94
261.012	276.94
261.244	253.94
261.477	244.94
261.71	233.94
261.942	233.94
262.175	213.94
262.407	207.94
262.64	216.94
262.872	233.94
263.105	266.94
263.337	257.94
263.57	255.94
263.802	192.94
264.035	174.94
264.267	173.94
264.499	149.94
264.732	152.94
264.964	150.94
265.197	162.94
265.429	163.94
265.661	179.94
265.894	191.94
266.126	179.94
266.358	188.94
266.591	208.94
266.823	225.94
267.055	229.94
267.287	224.94
267.52	220.94
267.752	236.94
267.984	240.94
268.216	224.94
268.448	223.94
268.681	206.94
268.913	208.94
269.145	234.94
269.377	223.94
269.609	225.94
269.841	214.94
270.073	233.94
270.306	245.94
270.538	245.94
270.77	249.94
271.002	237.94
271.234	250.94
271.466	251.94
271.698	240.94
271.93	242.94
272.162	225.94
272.394	250.94
272.626	243.94
272.858	238.94
273.09	234.94
273.322	219.94
273.553	192.94
273.785	209.94
274.017	280.94
274.249	322.94
274.481	356.94
274.713	376.94
274.945	409.94
275.176	413.94
275.408	385.94
275.64	351.94
275.872	367.94
276.104	330.94
276.335	293.94
276.567	287.94
276.799	299.94
277.031	318.94
277.262	262.94
277.494	216.94
277.726	217.94
277.957	234.94
278.189	252.94
278.421	257.94
278.652	237.94
278.884	243.94
279.115	203.94
279.347	232.94
279.579	204.94
279.81	197.94
280.042	222.94
280.273	248.94
280.505	216.94
280.736	212.94
280.968	213.94
281.199	206.94
281.431	220.94
281.662	225.94
281.894	220.94
282.125	214.94
282.356	241.94
282.588	240.94
282.819	208.94
283.051	243.94
283.282	261.94
283.513	291.94
283.745	325.94
283.976	313.94
284.207	306.94
284.439	322.94
284.67	302.94
284.901	276.94
285.132	298.94
285.364	307.94
285.595	290.94
285.826	316.94
286.057	314.94
286.288	304.94
286.52	280.94
286.751	318.94
286.982	328.94
287.213	298.94
287.444	273.94
287.675	289.94
287.906	301.94
288.138	269.94
288.369	245.94
288.6	232.94
288.831	270.94
289.062	268.94
289.293	307.94
289.524	278.94
289.755	269.94
289.986	282.94
290.217	256.94
290.448	207.94
290.679	186.94
290.91	182.94
291.141	195.94
291.371	208.94
291.602	198.94
291.833	198.94
292.064	201.94
292.295	216.94
292.526	242.94
292.757	232.94
292.987	269.94
293.218	277.94
293.449	291.94
293.68	284.94
293.91	276.94
294.141	298.94
294.372	271.94
294.603	243.94
294.833	267.94
295.064	296.94
295.295	325.94
295.525	251.94
295.756	225.94
295.987	204.94
296.217	196.94
296.448	206.94
296.679	182.94
296.909	241.94
297.14	232.94
297.37	224.94
297.601	236.94
297.831	211.94
298.062	240.94
298.292	234.94
298.523	269.94
298.753	282.94
298.984	248.94
299.214	224.94
299.445	201.94
299.675	216.94
299.905	186.94
300.136	205.94
300.366	224.94
300.597	239.94
300.827	202.94
301.057	205.94
301.288	219.94
301.518	223.94
301.748	227.94
301.979	250.94
302.209	260.94
302.439	261.94
302.669	227.94
302.9	245.94
303.13	218.94
303.36	218.94
303.59	204.94
303.82	225.94
304.051	236.94
304.281	232.94
304.511	236.94
304.741	227.94
304.971	220.94
305.201	236.94
305.431	221.94
305.661	205.94
305.891	211.94
306.121	206.94
306.352	200.94
306.582	193.94
306.812	182.94
307.042	181.94
307.272	187.94
307.502	178.94
307.731	186.94
307.961	190.94
308.191	172.94
308.421	168.94
308.651	166.94
308.881	167.94
309.111	158.94
309.341	184.94
309.571	182.94
309.8	186.94
310.03	186.94
310.26	204.94
310.49	206.94
310.72	182.94
310.949	189.94
311.179	184.94
311.409	174.94
311.639	235.94
311.868	237.94
312.098	261.94
312.328	322.94
312.557	296.94
312.787	281.94
313.017	291.94
313.246	277.94
313.476	317.94
313.706	280.94
313.935	237.94
314.165	208.94
314.394	201.94
314.624	208.94
314.853	192.94
315.083	222.94
315.312	207.94
315.542	198.94
315.771	176.94
316.001	182.94
316.23	181.94
316.46	179.94
316.689	173.94
316.919	180.94
317.148	188.94
317.377	184.94
317.607	199.94
317.836	189.94
318.065	197.94
318.295	216.94
318.524	217.94
318.753	179.94
318.983	185.94
319.212	197.94
319.441	202.94
319.67	192.94
319.9	206.94
320.129	205.94
320.358	207.94
320.587	184.94
320.816	202.94
321.046	226.94
321.275	228.94
321.504	217.94
321.733	224.94
321.962	200.94
322.191	220.94
322.42	189.94
322.649	202.94
322.878	219.94
323.108	222.94
323.337	198.94
323.566	215.94
323.795	213.94
324.024	193.94
324.253	211.94
324.482	197.94
324.71	211.94
324.939	220.94
325.168	211.94
325.397	187.94
325.626	201.94
325.855	197.94
326.084	195.94
326.313	189.94
326.542	176.94
326.77	200.94
326.999	186.94
327.228	195.94
327.457	194.94
327.686	213.94
327.914	176.94
328.143	174.94
328.372	179.94
328.6	175.94
328.829	182.94
329.058	188.94
329.287	194.94
329.515	189.94
329.744	197.94
329.972	192.94
330.201	188.94
330.43	178.94
330.658	192.94
330.887	201.94
331.115	193.94
331.344	201.94
331.572	195.94
331.801	206.94
332.03	174.94
332.258	205.94
332.486	201.94
332.715	203.94
332.943	191.94
333.172	206.94
333.4	231.94
333.629	226.94
333.857	236.94
334.085	224.94
334.314	216.94
334.542	212.94
334.771	195.94
334.999	197.94
335.227	201.94
335.455	211.94
335.684	212.94
335.912	235.94
336.14	244.94
336.369	240.94
336.597	237.94
336.825	242.94
337.053	259.94
337.281	225.94
337.51	197.94
337.738	216.94
337.966	194.94
338.194	208.94
338.422	227.94
338.65	201.94
338.878	196.94
339.106	194.94
339.334	195.94
339.562	203.94
339.79	196.94
340.018	191.94
340.246	191.94
340.474	203.94
340.702	217.94
340.93	222.94
341.158	239.94
341.386	216.94
341.614	208.94
341.842	210.94
342.07	208.94
342.298	244.94
342.526	214.94
342.754	213.94
342.981	221.94
343.209	188.94
343.437	221.94
343.665	238.94
343.893	237.94
344.12	266.94
344.348	283.94
344.576	278.94
344.804	230.94
345.031	212.94
345.259	184.94
345.487	208.94
345.714	200.94
345.942	204.94
346.17	212.94
346.397	224.94
346.625	211.94
346.853	217.94
347.08	196.94
347.308	202.94
347.535	216.94
347.763	223.94
347.99	234.94
348.218	215.94
348.445	211.94
348.673	193.94
348.9	188.94
349.128	214.94
349.355	211.94
349.583	228.94
349.81	205.94
350.037	200.94
350.265	184.94
350.492	162.94
350.72	180.94
350.947	189.94
351.174	190.94
351.402	161.94
351.629	204.94
351.856	188.94
352.083	199.94
352.311	188.94
352.538	197.94
352.765	217.94
352.992	210.94
353.22	204.94
353.447	222.94
353.674	199.94
353.901	206.94
354.128	207.94
354.355	199.94
354.583	196.94
354.81	208.94
355.037	217.94
355.264	223.94
355.491	205.94
355.718	210.94
355.945	200.94
356.172	210.94
356.399	205.94
356.626	248.94
356.853	273.94
357.08	307.94
357.307	297.94
357.534	268.94
357.761	264.94
357.988	321.94
358.215	336.94
358.441	306.94
358.668	273.94
358.895	278.94
359.122	235.94
359.349	236.94
359.576	268.94
359.802	232.94
360.029	206.94
360.256	206.94
360.483	240.94
360.709	286.94
360.936	280.94
361.163	258.94
361.39	228.94
361.616	200.94
361.843	246.94
362.07	262.94
362.296	228.94
362.523	195.94
362.749	198.94
362.976	202.94
363.203	238.94
363.429	236.94
363.656	209.94
363.882	198.94
364.109	208.94
364.335	197.94
364.562	192.94
364.788	221.94
365.015	261.94
365.241	224.94
365.468	196.94
365.694	203.94
365.92	190.94
366.147	170.94
366.373	186.94
366.599	194.94
366.826	190.94
367.052	188.94
367.278	185.94
367.505	173.94
367.731	192.94
367.957	192.94
368.184	195.94
368.41	224.94
368.636	219.94
368.862	213.94
369.089	198.94
369.315	207.94
369.541	180.94
369.767	176.94
369.993	193.94
370.219	188.94
370.445	196.94
370.672	222.94
370.898	219.94
371.124	206.94
371.35	197.94
371.576	182.94
371.802	207.94
372.028	217.94
372.254	254.94
372.48	230.94
372.706	221.94
372.932	240.94
373.158	222.94
373.384	246.94
373.61	304.94
373.835	316.94
374.061	251.94
374.287	235.94
374.513	274.94
374.739	286.94
374.965	311.94
375.191	304.94
375.416	244.94
375.642	215.94
375.868	237.94
376.094	259.94
376.319	236.94
376.545	260.94
376.771	248.94
376.997	238.94
377.222	196.94
377.448	177.94
377.674	183.94
377.899	174.94
378.125	180.94
378.35	177.94
378.576	183.94
378.802	179.94
379.027	208.94
379.253	214.94
379.478	210.94
379.704	219.94
379.929	207.94
380.155	217.94
380.38	196.94
380.606	200.94
380.831	236.94
381.057	221.94
381.282	202.94
381.507	224.94
381.733	255.94
381.958	257.94
382.184	285.94
382.409	299.94
382.634	310.94
382.86	298.94
383.085	269.94
383.31	248.94
383.535	249.94
383.761	254.94
383.986	261.94
384.211	267.94
384.436	268.94
384.662	229.94
384.887	230.94
385.112	219.94
385.337	225.94
385.562	214.94
385.787	234.94
386.013	268.94
386.238	251.94
386.463	228.94
386.688	214.94
386.913	210.94
387.138	202.94
387.363	193.94
387.588	229.94
387.813	206.94
388.038	261.94
388.263	223.94
388.488	219.94
388.713	252.94
388.938	255.94
389.163	214.94
389.387	201.94
389.612	198.94
389.837	205.94
390.062	207.94
390.287	201.94
390.512	232.94
390.736	218.94
390.961	194.94
391.186	200.94
391.411	203.94
391.636	221.94
391.86	204.94
392.085	224.94
392.31	228.94
392.534	228.94
392.759	229.94
392.984	220.94
393.208	211.94
393.433	211.94
393.658	198.94
393.882	201.94
394.107	192.94
394.331	185.94
394.556	205.94
394.78	208.94
395.005	190.94
395.229	193.94
395.454	216.94
395.678	211.94
395.903	221.94
396.127	192.94
396.352	210.94
396.576	216.94
396.801	234.94
397.025	244.94
397.249	240.94
397.474	216.94
397.698	210.94
397.922	211.94
398.147	204.94
398.371	190.94
398.595	223.94
398.82	226.94
399.044	226.94
399.268	232.94
399.492	285.94
399.717	262.94
399.941	286.94
400.165	268.94
400.389	226.94
400.613	226.94
400.837	240.94
401.062	205.94
401.286	209.94
401.51	220.94
401.734	217.94
401.958	217.94
402.182	224.94
402.406	222.94
402.63	237.94
402.854	236.94
403.078	275.94
403.302	345.94
403.526	351.94
403.75	300.94
403.974	277.94
404.198	280.94
404.422	286.94
404.645	292.94
404.869	315.94
405.093	266.94
405.317	234.94
405.541	232.94
405.765	225.94
405.988	258.94
406.212	249.94
406.436	272.94
406.66	299.94
406.883	260.94
407.107	254.94
407.331	276.94
407.555	296.94
407.778	269.94
408.002	279.94
408.226	259.94
408.449	268.94
408.673	250.94
408.896	232.94
409.12	232.94
409.344	228.94
409.567	240.94
409.791	225.94
410.014	248.94
410.238	211.94
410.461	214.94
410.685	232.94
410.908	217.94
411.132	231.94
411.355	214.94
411.578	217.94
411.802	217.94
412.025	226.94
412.249	233.94
412.472	245.94
412.695	236.94
412.919	222.94
413.142	232.94
413.365	232.94
413.589	242.94
413.812	218.94
414.035	208.94
414.258	229.94
414.482	226.94
414.705	237.94
414.928	220.94
415.151	228.94
415.374	215.94
415.597	210.94
415.821	211.94
416.044	206.94
416.267	217.94
416.49	208.94
416.713	203.94
416.936	214.94
417.159	220.94
417.382	221.94
417.605	204.94
417.828	223.94
418.051	224.94
418.274	227.94
418.497	225.94
418.72	245.94
418.943	220.94
419.166	244.94
419.389	241.94
419.611	234.94
419.834	236.94
420.057	244.94
420.28	249.94
420.503	235.94
420.726	227.94
420.948	216.94
421.171	215.94
421.394	220.94
421.617	197.94
421.839	235.94
422.062	211.94
422.285	220.94
422.507	227.94
422.73	233.94
422.953	250.94
423.175	241.94
423.398	236.94
423.621	242.94
423.843	271.94
424.066	226.94
424.288	223.94
424.511	209.94
424.733	228.94
424.956	236.94
425.178	253.94
425.401	269.94
425.623	322.94
425.846	280.94
426.068	232.94
426.291	240.94
426.513	230.94
426.735	207.94
426.958	237.94
427.18	257.94
427.402	316.94
427.625	318.94
427.847	297.94
428.069	216.94
428.292	218.94
428.514	234.94
428.736	208.94
428.958	248.94
429.181	287.94
429.403	252.94
429.625	221.94
429.847	227.94
430.069	203.94
430.292	220.94
430.514	215.94
430.736	209.94
430.958	260.94
431.18	248.94
431.402	221.94
431.624	198.94
431.846	207.94
432.068	219.94
432.29	221.94
432.512	216.94
432.734	260.94
432.956	236.94
433.178	212.94
433.4	205.94
433.622	189.94
433.844	228.94
434.066	223.94
434.287	236.94
434.509	223.94
434.731	246.94
434.953	230.94
435.175	235.94
435.397	258.94
435.618	218.94
435.84	225.94
436.062	212.94
436.284	215.94
436.505	205.94
436.727	202.94
436.949	191.94
437.17	208.94
437.392	204.94
437.614	216.94
437.835	190.94
438.057	220.94
438.278	238.94
438.5	254.94
438.721	260.94
438.943	232.94
439.165	198.94
439.386	196.94
439.608	205.94
439.829	190.94
440.05	217.94
440.272	194.94
440.493	214.94
440.715	258.94
440.936	229.94
441.158	207.94
441.379	198.94
441.6	242.94
441.822	257.94
442.043	207.94
442.264	206.94
442.486	235.94
442.707	240.94
442.928	220.94
443.149	218.94
443.371	216.94
443.592	218.94
443.813	240.94
444.034	234.94
444.255	222.94
444.476	251.94
444.698	240.94
444.919	246.94
445.14	350.94
445.361	304.94
445.582	236.94
445.803	233.94
446.024	243.94
446.245	225.94
446.466	222.94
446.687	208.94
446.908	212.94
447.129	222.94
447.35	201.94
447.571	202.94
447.792	187.94
448.013	201.94
448.234	184.94
448.455	206.94
448.675	198.94
448.896	198.94
449.117	181.94
449.338	197.94
449.559	204.94
449.779	207.94
450	214.94
450.221	208.94
450.442	200.94
450.662	193.94
450.883	196.94
451.104	196.94
451.324	206.94
451.545	201.94
451.766	181.94
451.986	208.94
452.207	189.94
452.428	205.94
452.648	176.94
452.869	197.94
453.089	197.94
453.31	195.94
453.53	186.94
453.751	204.94
453.971	196.94
454.192	197.94
454.412	201.94
454.633	190.94
454.853	197.94
455.073	171.94
455.294	175.94
455.514	190.94
455.734	195.94
455.955	187.94
456.175	194.94
456.395	205.94
456.616	182.94
456.836	178.94
457.056	175.94
457.276	174.94
457.497	185.94
457.717	204.94
457.937	197.94
458.157	179.94
458.377	179.94
458.598	192.94
458.818	196.94
459.038	200.94
459.258	212.94
459.478	196.94
459.698	223.94
459.918	217.94
460.138	207.94
460.358	236.94
460.578	244.94
460.798	226.94
461.018	217.94
461.238	224.94
461.458	229.94
461.678	231.94
461.898	215.94
462.118	224.94
462.338	244.94
462.558	227.94
462.777	255.94
462.997	265.94
463.217	298.94
463.437	273.94
463.657	254.94
463.876	253.94
464.096	256.94
464.316	252.94
464.536	265.94
464.755	258.94
464.975	257.94
465.195	258.94
465.414	253.94
465.634	234.94
465.854	218.94
466.073	220.94
466.293	211.94
466.512	211.94
466.732	216.94
466.951	220.94
467.171	226.94
467.391	199.94
467.61	208.94
467.829	197.94
468.049	213.94
468.268	212.94
468.488	206.94
468.707	204.94
468.927	217.94
469.146	221.94
469.365	229.94
469.585	222.94
469.804	217.94
470.023	245.94
470.243	210.94
470.462	207.94
470.681	228.94
470.901	210.94
471.12	210.94
471.339	220.94
471.558	203.94
471.777	209.94
471.997	206.94
472.216	240.94
472.435	231.94
472.654	219.94
472.873	212.94
473.092	216.94
473.311	223.94
473.53	197.94
473.749	206.94
473.968	210.94
474.187	204.94
474.406	208.94
474.625	219.94
474.844	217.94
475.063	206.94
475.282	215.94
475.501	219.94
475.72	256.94
475.939	235.94
476.158	224.94
476.377	267.94
476.596	293.94
476.814	282.94
477.033	261.94
477.252	238.94
477.471	230.94
477.69	219.94
477.908	236.94
478.127	234.94
478.346	229.94
478.564	290.94
478.783	263.94
479.002	268.94
479.22	282.94
479.439	275.94
479.658	245.94
479.876	235.94
480.095	256.94
480.313	276.94
480.532	273.94
480.751	262.94
480.969	253.94
481.188	255.94
481.406	266.94
481.624	250.94
481.843	237.94
482.061	244.94
482.28	241.94
482.498	291.94
482.717	294.94
482.935	241.94
483.153	244.94
483.372	213.94
483.59	220.94
483.808	219.94
484.027	219.94
484.245	228.94
484.463	228.94
484.681	230.94
484.9	253.94
485.118	273.94
485.336	253.94
485.554	239.94
485.772	222.94
485.99	241.94
486.209	259.94
486.427	254.94
486.645	272.94
486.863	254.94
487.081	250.94
487.299	264.94
487.517	262.94
487.735	259.94
487.953	249.94
488.171	256.94
488.389	256.94
488.607	232.94
488.825	277.94
489.043	263.94
489.261	278.94
489.479	279.94
489.696	248.94
489.914	254.94
490.132	244.94
490.35	229.94
490.568	243.94
490.786	251.94
491.003	256.94
491.221	241.94
491.439	246.94
491.657	229.94
491.874	252.94
492.092	268.94
492.31	317.94
492.527	325.94
492.745	274.94
492.963	269.94
493.18	241.94
493.398	282.94
493.615	263.94
493.833	265.94
494.05	250.94
494.268	273.94
494.485	260.94
494.703	240.94
494.92	273.94
495.138	252.94
495.355	270.94
495.573	253.94
495.79	275.94
496.008	331.94
496.225	287.94
496.442	267.94
496.66	270.94
496.877	279.94
497.094	273.94
497.312	269.94
497.529	265.94
497.746	277.94
497.963	274.94
498.181	305.94
498.398	313.94
498.615	317.94
498.832	340.94
499.049	341.94
499.267	339.94
499.484	366.94
499.701	380.94
499.918	418.94
500.135	468.94
500.352	501.94
500.569	547.94
500.786	542.94
501.003	519.94
501.22	441.94
501.437	406.94
501.654	360.94
501.871	352.94
502.088	358.94
502.305	342.94
502.522	320.94
