Data from NickelSpatula.Lamp.E10.P2_HRD10591_11-58-34-528.txt Node
Date: Tue Jul 23 11:58:34 EDT 2019
User: cochatt
Spectrometer: HR+D1059
Trigger mode: 1
Integration Time (sec): 1.000000E-1
Scans to average: 1
Electric dark correction enabled: true
Nonlinearity correction enabled: false
Boxcar width: 0
XAxis mode: Wavelengths
Number of Pixels in Spectrum: 2048
>>>>>Begin Spectral Data<<<<<
223.165	-12.25
223.4	-12.25
223.635	-12.25
223.869	-8.25
224.104	-22.25
224.338	-11.25
224.573	4.75
224.808	-13.25
225.042	-7.25
225.277	2.75
225.511	-13.25
225.746	0.75
225.98	3.75
226.215	3.75
226.449	14.75
226.683	12.75
226.918	15.75
227.152	28.75
227.387	44.75
227.621	25.75
227.856	25.75
228.09	52.75
228.324	46.75
228.559	53.75
228.793	80.75
229.027	136.75
229.262	142.75
229.496	153.75
229.73	154.75
229.964	176.75
230.199	208.75
230.433	210.75
230.667	202.75
230.901	209.75
231.136	186.75
231.37	211.75
231.604	229.75
231.838	241.75
232.072	243.75
232.306	254.75
232.541	237.75
232.775	241.75
233.009	264.75
233.243	293.75
233.477	298.75
233.711	361.75
233.945	337.75
234.179	326.75
234.413	354.75
234.647	401.75
234.881	476.75
235.115	438.75
235.349	386.75
235.583	368.75
235.817	350.75
236.051	400.75
236.285	420.75
236.519	472.75
236.753	431.75
236.987	433.75
237.221	413.75
237.455	428.75
237.689	425.75
237.922	473.75
238.156	490.75
238.39	534.75
238.624	662.75
238.858	589.75
239.091	497.75
239.325	528.75
239.559	482.75
239.793	539.75
240.027	676.75
240.26	610.75
240.494	585.75
240.728	580.75
240.961	657.75
241.195	640.75
241.429	617.75
241.662	634.75
241.896	533.75
242.13	494.75
242.363	460.75
242.597	448.75
242.83	542.75
243.064	556.75
243.298	560.75
243.531	629.75
243.765	644.75
243.998	623.75
244.232	611.75
244.465	592.75
244.699	578.75
244.932	653.75
245.166	634.75
245.399	540.75
245.633	540.75
245.866	567.75
246.099	651.75
246.333	722.75
246.566	791.75
246.8	760.75
247.033	765.75
247.266	663.75
247.5	688.75
247.733	681.75
247.966	671.75
248.2	681.75
248.433	742.75
248.666	833.75
248.899	861.75
249.133	866.75
249.366	965.75
249.599	1054.75
249.832	968.75
250.066	822.75
250.299	872.75
250.532	836.75
250.765	793.75
250.998	719.75
251.231	714.75
251.465	775.75
251.698	852.75
251.931	807.75
252.164	840.75
252.397	935.75
252.63	1077.75
252.863	1174.75
253.096	1211.75
253.329	1163.75
253.562	1097.75
253.795	1288.75
254.028	1360.75
254.261	1406.75
254.494	1248.75
254.727	1158.75
254.96	1132.75
255.193	1178.75
255.426	1147.75
255.659	877.75
255.892	791.75
256.124	862.75
256.357	1047.75
256.59	1222.75
256.823	1110.75
257.056	959.75
257.289	904.75
257.521	945.75
257.754	1124.75
257.987	1267.75
258.22	1102.75
258.452	993.75
258.685	1152.75
258.918	1295.75
259.151	1243.75
259.383	1306.75
259.616	1519.75
259.849	1590.75
260.081	1715.75
260.314	1900.75
260.547	1476.75
260.779	1456.75
261.012	1732.75
261.244	1628.75
261.477	1671.75
261.71	1521.75
261.942	1305.75
262.175	1276.75
262.407	1240.75
262.64	1254.75
262.872	1528.75
263.105	1652.75
263.337	1704.75
263.57	1550.75
263.802	1033.75
264.035	902.75
264.267	882.75
264.499	789.75
264.732	708.75
264.964	693.75
265.197	729.75
265.429	780.75
265.661	843.75
265.894	863.75
266.126	925.75
266.358	1001.75
266.591	1246.75
266.823	1498.75
267.055	1385.75
267.287	1257.75
267.52	1273.75
267.752	1313.75
267.984	1438.75
268.216	1378.75
268.448	1089.75
268.681	1102.75
268.913	1208.75
269.145	1280.75
269.377	1320.75
269.609	1292.75
269.841	1188.75
270.073	1318.75
270.306	1363.75
270.538	1368.75
270.77	1371.75
271.002	1400.75
271.234	1452.75
271.466	1502.75
271.698	1481.75
271.93	1460.75
272.162	1428.75
272.394	1385.75
272.626	1410.75
272.858	1472.75
273.09	1498.75
273.322	1314.75
273.553	1304.75
273.785	1507.75
274.017	1996.75
274.249	2409.75
274.481	2570.75
274.713	2785.75
274.945	3235.75
275.176	3314.75
275.408	2880.75
275.64	2661.75
275.872	2640.75
276.104	2271.75
276.335	1949.75
276.567	1904.75
276.799	1960.75
277.031	2072.75
277.262	1602.75
277.494	1249.75
277.726	1184.75
277.957	1326.75
278.189	1489.75
278.421	1463.75
278.652	1394.75
278.884	1348.75
279.115	1255.75
279.347	1186.75
279.579	1215.75
279.81	1203.75
280.042	1203.75
280.273	1220.75
280.505	1126.75
280.736	993.75
280.968	1025.75
281.199	1109.75
281.431	1234.75
281.662	1213.75
281.894	1162.75
282.125	1241.75
282.356	1326.75
282.588	1392.75
282.819	1256.75
283.051	1367.75
283.282	1717.75
283.513	1966.75
283.745	2193.75
283.976	2209.75
284.207	2012.75
284.439	2103.75
284.67	2022.75
284.901	1763.75
285.132	1943.75
285.364	1993.75
285.595	1879.75
285.826	1991.75
286.057	2031.75
286.288	1964.75
286.52	2064.75
286.751	2131.75
286.982	2126.75
287.213	1845.75
287.444	1816.75
287.675	1845.75
287.906	1810.75
288.138	1536.75
288.369	1341.75
288.6	1256.75
288.831	1331.75
289.062	1554.75
289.293	1688.75
289.524	1604.75
289.755	1599.75
289.986	1645.75
290.217	1426.75
290.448	1128.75
290.679	924.75
290.91	901.75
291.141	940.75
291.371	998.75
291.602	943.75
291.833	991.75
292.064	1042.75
292.295	1212.75
292.526	1438.75
292.757	1446.75
292.987	1529.75
293.218	1543.75
293.449	1607.75
293.68	1661.75
293.91	1578.75
294.141	1616.75
294.372	1521.75
294.603	1398.75
294.833	1576.75
295.064	1842.75
295.295	1746.75
295.525	1304.75
295.756	1128.75
295.987	1016.75
296.217	1017.75
296.448	1032.75
296.679	1116.75
296.909	1222.75
297.14	1291.75
297.37	1446.75
297.601	1337.75
297.831	1204.75
298.062	1244.75
298.292	1448.75
298.523	1548.75
298.753	1758.75
298.984	1575.75
299.214	1253.75
299.445	1078.75
299.675	1009.75
299.905	1026.75
300.136	1071.75
300.366	1188.75
300.597	1131.75
300.827	1011.75
301.057	977.75
301.288	1010.75
301.518	1057.75
301.748	1210.75
301.979	1316.75
302.209	1443.75
302.439	1415.75
302.669	1219.75
302.9	1231.75
303.13	1154.75
303.36	1096.75
303.59	1054.75
303.82	1096.75
304.051	1215.75
304.281	1330.75
304.511	1298.75
304.741	1128.75
304.971	1205.75
305.201	1262.75
305.431	1192.75
305.661	1024.75
305.891	1061.75
306.121	1091.75
306.352	969.75
306.582	867.75
306.812	860.75
307.042	858.75
307.272	793.75
307.502	806.75
307.731	876.75
307.961	905.75
308.191	841.75
308.421	796.75
308.651	802.75
308.881	784.75
309.111	767.75
309.341	768.75
309.571	879.75
309.8	903.75
310.03	929.75
310.26	1002.75
310.49	946.75
310.72	861.75
310.949	865.75
311.179	889.75
311.409	930.75
311.639	1104.75
311.868	1399.75
312.098	1798.75
312.328	1938.75
312.557	1836.75
312.787	1836.75
313.017	1650.75
313.246	1829.75
313.476	1979.75
313.706	1620.75
313.935	1266.75
314.165	1012.75
314.394	929.75
314.624	930.75
314.853	1013.75
315.083	1016.75
315.312	1026.75
315.542	1024.75
315.771	965.75
316.001	864.75
316.23	860.75
316.46	828.75
316.689	826.75
316.919	863.75
317.148	891.75
317.377	889.75
317.607	872.75
317.836	960.75
318.065	1104.75
318.295	1234.75
318.524	1153.75
318.753	984.75
318.983	906.75
319.212	930.75
319.441	993.75
319.67	1092.75
319.9	1196.75
320.129	1112.75
320.358	950.75
320.587	934.75
320.816	1027.75
321.046	1167.75
321.275	1344.75
321.504	1347.75
321.733	1277.75
321.962	1208.75
322.191	1141.75
322.42	1070.75
322.649	1136.75
322.878	1181.75
323.108	1200.75
323.337	1104.75
323.566	1091.75
323.795	1039.75
324.024	1030.75
324.253	969.75
324.482	959.75
324.71	1048.75
324.939	1183.75
325.168	1076.75
325.397	928.75
325.626	900.75
325.855	917.75
326.084	904.75
326.313	873.75
326.542	820.75
326.77	878.75
326.999	900.75
327.228	938.75
327.457	1012.75
327.686	1007.75
327.914	896.75
328.143	804.75
328.372	807.75
328.6	816.75
328.829	874.75
329.058	885.75
329.287	884.75
329.515	888.75
329.744	889.75
329.972	804.75
330.201	784.75
330.43	830.75
330.658	949.75
330.887	1074.75
331.115	1016.75
331.344	996.75
331.572	957.75
331.801	894.75
332.03	850.75
332.258	865.75
332.486	955.75
332.715	982.75
332.943	904.75
333.172	881.75
333.4	962.75
333.629	1012.75
333.857	1116.75
334.085	1085.75
334.314	1093.75
334.542	1058.75
334.771	950.75
334.999	944.75
335.227	914.75
335.455	918.75
335.684	997.75
335.912	1169.75
336.14	1328.75
336.369	1264.75
336.597	1215.75
336.825	1367.75
337.053	1532.75
337.281	1208.75
337.51	1000.75
337.738	954.75
337.966	1034.75
338.194	1174.75
338.422	1102.75
338.65	944.75
338.878	858.75
339.106	929.75
339.334	1007.75
339.562	1085.75
339.79	1004.75
340.018	950.75
340.246	1022.75
340.474	1183.75
340.702	1268.75
340.93	1312.75
341.158	1267.75
341.386	1080.75
341.614	1096.75
341.842	1076.75
342.07	1152.75
342.298	1304.75
342.526	1362.75
342.754	1185.75
342.981	1081.75
343.209	1032.75
343.437	1104.75
343.665	1169.75
343.893	1164.75
344.12	1384.75
344.348	1597.75
344.576	1395.75
344.804	1160.75
345.031	1023.75
345.259	969.75
345.487	997.75
345.714	1010.75
345.942	1088.75
346.17	1190.75
346.397	1141.75
346.625	980.75
346.853	951.75
347.08	962.75
347.308	1001.75
347.535	1113.75
347.763	1162.75
347.99	972.75
348.218	921.75
348.445	944.75
348.673	961.75
348.9	991.75
349.128	1038.75
349.355	1066.75
349.583	1038.75
349.81	1013.75
350.037	926.75
350.265	836.75
350.492	804.75
350.72	791.75
350.947	818.75
351.174	881.75
351.402	935.75
351.629	975.75
351.856	930.75
352.083	873.75
352.311	994.75
352.538	1070.75
352.765	1144.75
352.992	1025.75
353.22	977.75
353.447	992.75
353.674	957.75
353.901	954.75
354.128	981.75
354.355	988.75
354.583	972.75
354.81	932.75
355.037	1005.75
355.264	969.75
355.491	1060.75
355.718	1152.75
355.945	1122.75
356.172	1076.75
356.399	1066.75
356.626	1348.75
356.853	1588.75
357.08	1660.75
357.307	1726.75
357.534	1351.75
357.761	1374.75
357.988	1713.75
358.215	2014.75
358.441	1903.75
358.668	1604.75
358.895	1490.75
359.122	1200.75
359.349	1201.75
359.576	1277.75
359.802	1052.75
360.029	927.75
360.256	1040.75
360.483	1259.75
360.709	1537.75
360.936	1637.75
361.163	1432.75
361.39	1113.75
361.616	1058.75
361.843	1216.75
362.07	1463.75
362.296	1338.75
362.523	1049.75
362.749	920.75
362.976	978.75
363.203	1207.75
363.429	1322.75
363.656	1050.75
363.882	957.75
364.109	978.75
364.335	994.75
364.562	952.75
364.788	1122.75
365.015	1303.75
365.241	1167.75
365.468	933.75
365.694	812.75
365.92	805.75
366.147	794.75
366.373	786.75
366.599	806.75
366.826	800.75
367.052	829.75
367.278	839.75
367.505	831.75
367.731	921.75
367.957	993.75
368.184	1025.75
368.41	1022.75
368.636	986.75
368.862	1015.75
369.089	1018.75
369.315	907.75
369.541	888.75
369.767	893.75
369.993	829.75
370.219	851.75
370.445	904.75
370.672	993.75
370.898	1091.75
371.124	1060.75
371.35	937.75
371.576	866.75
371.802	961.75
372.028	1143.75
372.254	1310.75
372.48	1150.75
372.706	1022.75
372.932	1078.75
373.158	1109.75
373.384	1361.75
373.61	1792.75
373.835	1821.75
374.061	1339.75
374.287	1151.75
374.513	1373.75
374.739	1636.75
374.965	1684.75
375.191	1663.75
375.416	1152.75
375.642	1009.75
375.868	1182.75
376.094	1336.75
376.319	1136.75
376.545	1295.75
376.771	1347.75
376.997	1121.75
377.222	841.75
377.448	741.75
377.674	771.75
377.899	733.75
378.125	709.75
378.35	733.75
378.576	778.75
378.802	844.75
379.027	908.75
379.253	895.75
379.478	903.75
379.704	1034.75
379.929	1076.75
380.155	1063.75
380.38	946.75
380.606	1013.75
380.831	1093.75
381.057	994.75
381.282	966.75
381.507	1166.75
381.733	1441.75
381.958	1498.75
382.184	1611.75
382.409	1678.75
382.634	1629.75
382.86	1708.75
383.085	1432.75
383.31	1119.75
383.535	1216.75
383.761	1198.75
383.986	1155.75
384.211	1378.75
384.436	1315.75
384.662	1069.75
384.887	968.75
385.112	1031.75
385.337	1026.75
385.562	966.75
385.787	1108.75
386.013	1232.75
386.238	1232.75
386.463	1009.75
386.688	981.75
386.913	930.75
387.138	885.75
387.363	944.75
387.588	973.75
387.813	982.75
388.038	1076.75
388.263	998.75
388.488	938.75
388.713	1075.75
388.938	1162.75
389.163	997.75
389.387	905.75
389.612	922.75
389.837	939.75
390.062	950.75
390.287	991.75
390.512	992.75
390.736	934.75
390.961	874.75
391.186	860.75
391.411	810.75
391.636	848.75
391.86	924.75
392.085	1007.75
392.31	997.75
392.534	932.75
392.759	946.75
392.984	984.75
393.208	969.75
393.433	846.75
393.658	827.75
393.882	783.75
394.107	784.75
394.331	783.75
394.556	792.75
394.78	797.75
395.005	832.75
395.229	847.75
395.454	858.75
395.678	884.75
395.903	916.75
396.127	880.75
396.352	887.75
396.576	942.75
396.801	991.75
397.025	1089.75
397.249	1087.75
397.474	949.75
397.698	900.75
397.922	937.75
398.147	922.75
398.371	914.75
398.595	954.75
398.82	936.75
399.044	920.75
399.268	989.75
399.492	1062.75
399.717	1072.75
399.941	1095.75
400.165	1060.75
400.389	1056.75
400.613	1056.75
400.837	1020.75
401.062	919.75
401.286	902.75
401.51	898.75
401.734	912.75
401.958	944.75
402.182	890.75
402.406	916.75
402.63	913.75
402.854	938.75
403.078	1064.75
403.302	1269.75
403.526	1297.75
403.75	1197.75
403.974	1044.75
404.198	1051.75
404.422	1239.75
404.645	1437.75
404.869	1548.75
405.093	1143.75
405.317	1004.75
405.541	981.75
405.765	997.75
405.988	983.75
406.212	1111.75
406.436	1282.75
406.66	1404.75
406.883	1129.75
407.107	1174.75
407.331	1366.75
407.555	1284.75
407.778	1084.75
408.002	1072.75
408.226	1036.75
408.449	1050.75
408.673	1034.75
408.896	957.75
409.12	927.75
409.344	889.75
409.567	889.75
409.791	909.75
410.014	843.75
410.238	886.75
410.461	902.75
410.685	893.75
410.908	908.75
411.132	912.75
411.355	950.75
411.578	954.75
411.802	944.75
412.025	1008.75
412.249	965.75
412.472	935.75
412.695	953.75
412.919	951.75
413.142	964.75
413.365	1046.75
413.589	1075.75
413.812	966.75
414.035	899.75
414.258	950.75
414.482	1061.75
414.705	1070.75
414.928	913.75
415.151	862.75
415.374	889.75
415.597	892.75
415.821	896.75
416.044	887.75
416.267	889.75
416.49	885.75
416.713	868.75
416.936	881.75
417.159	844.75
417.382	862.75
417.605	904.75
417.828	888.75
418.051	906.75
418.274	924.75
418.497	916.75
418.72	917.75
418.943	970.75
419.166	970.75
419.389	1017.75
419.611	1006.75
419.834	1020.75
420.057	1097.75
420.28	1117.75
420.503	1024.75
420.726	910.75
420.948	838.75
421.171	892.75
421.394	878.75
421.617	867.75
421.839	889.75
422.062	936.75
422.285	906.75
422.507	948.75
422.73	943.75
422.953	973.75
423.175	948.75
423.398	931.75
423.621	1014.75
423.843	1049.75
424.066	977.75
424.288	944.75
424.511	914.75
424.733	925.75
424.956	973.75
425.178	1076.75
425.401	1221.75
425.623	1401.75
425.846	1141.75
426.068	987.75
426.291	1111.75
426.513	999.75
426.735	943.75
426.958	999.75
427.18	1150.75
427.402	1492.75
427.625	1430.75
427.847	1178.75
428.069	900.75
428.292	898.75
428.514	898.75
428.736	836.75
428.958	954.75
429.181	1111.75
429.403	970.75
429.625	859.75
429.847	866.75
430.069	858.75
430.292	911.75
430.514	872.75
430.736	958.75
430.958	1177.75
431.18	1074.75
431.402	863.75
431.624	824.75
431.846	816.75
432.068	790.75
432.29	824.75
432.512	931.75
432.734	1210.75
432.956	1126.75
433.178	853.75
433.4	820.75
433.622	854.75
433.844	864.75
434.066	932.75
434.287	890.75
434.509	880.75
434.731	922.75
434.953	863.75
435.175	888.75
435.397	1038.75
435.618	912.75
435.84	819.75
436.062	825.75
436.284	821.75
436.505	796.75
436.727	790.75
436.949	792.75
437.17	816.75
437.392	862.75
437.614	855.75
437.835	804.75
438.057	836.75
438.278	945.75
438.5	1402.75
438.721	1366.75
438.943	944.75
439.165	820.75
439.386	768.75
439.608	800.75
439.829	788.75
440.05	779.75
440.272	850.75
440.493	1002.75
440.715	1215.75
440.936	970.75
441.158	851.75
441.379	838.75
441.6	979.75
441.822	1002.75
442.043	878.75
442.264	880.75
442.486	878.75
442.707	834.75
442.928	851.75
443.149	878.75
443.371	904.75
443.592	945.75
443.813	902.75
444.034	880.75
444.255	912.75
444.476	949.75
444.698	929.75
444.919	940.75
445.14	1038.75
445.361	1041.75
445.582	965.75
445.803	926.75
446.024	922.75
446.245	947.75
446.466	912.75
446.687	867.75
446.908	900.75
447.129	854.75
447.35	805.75
447.571	813.75
447.792	772.75
448.013	785.75
448.234	799.75
448.455	788.75
448.675	790.75
448.896	809.75
449.117	807.75
449.338	781.75
449.559	829.75
449.779	886.75
450	826.75
450.221	826.75
450.442	816.75
450.662	779.75
450.883	777.75
451.104	822.75
451.324	752.75
451.545	801.75
451.766	791.75
451.986	768.75
452.207	766.75
452.428	775.75
452.648	755.75
452.869	831.75
453.089	826.75
453.31	825.75
453.53	770.75
453.751	753.75
453.971	736.75
454.192	772.75
454.412	781.75
454.633	727.75
454.853	760.75
455.073	741.75
455.294	735.75
455.514	729.75
455.734	773.75
455.955	812.75
456.175	823.75
456.395	742.75
456.616	677.75
456.836	710.75
457.056	694.75
457.276	699.75
457.497	721.75
457.717	699.75
457.937	703.75
458.157	714.75
458.377	726.75
458.598	742.75
458.818	746.75
459.038	819.75
459.258	830.75
459.478	861.75
459.698	881.75
459.918	904.75
460.138	865.75
460.358	886.75
460.578	866.75
460.798	887.75
461.018	896.75
461.238	844.75
461.458	890.75
461.678	886.75
461.898	953.75
462.118	931.75
462.338	907.75
462.558	961.75
462.777	972.75
462.997	980.75
463.217	1010.75
463.437	1018.75
463.657	1010.75
463.876	930.75
464.096	977.75
464.316	980.75
464.536	965.75
464.755	993.75
464.975	1004.75
465.195	998.75
465.414	1010.75
465.634	968.75
465.854	917.75
466.073	865.75
466.293	862.75
466.512	929.75
466.732	1008.75
466.951	1038.75
467.171	930.75
467.391	865.75
467.61	878.75
467.829	919.75
468.049	910.75
468.268	872.75
468.488	864.75
468.707	914.75
468.927	1097.75
469.146	1168.75
469.365	1046.75
469.585	962.75
469.804	994.75
470.023	1078.75
470.243	966.75
470.462	901.75
470.681	928.75
470.901	906.75
471.12	984.75
471.339	1000.75
471.558	907.75
471.777	946.75
471.997	1020.75
472.216	1129.75
472.435	1093.75
472.654	952.75
472.873	936.75
473.092	1026.75
473.311	1061.75
473.53	965.75
473.749	952.75
473.968	994.75
474.187	984.75
474.406	958.75
474.625	940.75
474.844	973.75
475.063	1032.75
475.282	1044.75
475.501	1085.75
475.72	1153.75
475.939	1093.75
476.158	1108.75
476.377	1302.75
476.596	1454.75
476.814	1481.75
477.033	1260.75
477.252	1084.75
477.471	1032.75
477.69	1009.75
477.908	1067.75
478.127	1200.75
478.346	1068.75
478.564	1132.75
478.783	1078.75
479.002	1104.75
479.22	1282.75
479.439	1417.75
479.658	1216.75
479.876	1133.75
480.095	1194.75
480.313	1247.75
480.532	1138.75
480.751	1074.75
480.969	1136.75
481.188	1287.75
481.406	1289.75
481.624	1230.75
481.843	1130.75
482.061	1071.75
482.28	1171.75
482.498	1436.75
482.717	1358.75
482.935	1209.75
483.153	1157.75
483.372	1061.75
483.59	1076.75
483.808	1070.75
484.027	1048.75
484.245	998.75
484.463	969.75
484.681	1053.75
484.9	1120.75
485.118	1207.75
485.336	1117.75
485.554	1063.75
485.772	1076.75
485.99	1166.75
486.209	1233.75
486.427	1235.75
486.645	1213.75
486.863	1280.75
487.081	1237.75
487.299	1386.75
487.517	1347.75
487.735	1204.75
487.953	1208.75
488.171	1245.75
488.389	1165.75
488.607	1116.75
488.825	1167.75
489.043	1240.75
489.261	1432.75
489.479	1530.75
489.696	1308.75
489.914	1193.75
490.132	1128.75
490.35	1106.75
490.568	1135.75
490.786	1112.75
491.003	1157.75
491.221	1158.75
491.439	1136.75
491.657	1123.75
491.874	1204.75
492.092	1509.75
492.31	1776.75
492.527	1769.75
492.745	1505.75
492.963	1333.75
493.18	1294.75
493.398	1298.75
493.615	1314.75
493.833	1237.75
494.05	1216.75
494.268	1225.75
494.485	1243.75
