Data from NickelSpatula.Lamp.E5.5.P2_HRD10591_11-53-03-552.txt Node
Date: Tue Jul 23 11:53:03 EDT 2019
User: cochatt
Spectrometer: HR+D1059
Trigger mode: 1
Integration Time (sec): 1.000000E-1
Scans to average: 1
Electric dark correction enabled: true
Nonlinearity correction enabled: false
Boxcar width: 0
XAxis mode: Wavelengths
Number of Pixels in Spectrum: 2048
>>>>>Begin Spectral Data<<<<<
223.165	-19.44
223.4	-19.44
223.635	-19.44
223.869	-22.44
224.104	-5.44
224.338	-10.44
224.573	-5.44
224.808	-4.44
225.042	-11.44
225.277	-11.44
225.511	-0.44
225.746	2.56
225.98	6.56
226.215	7.56
226.449	22.56
226.683	5.56
226.918	23.56
227.152	22.56
227.387	36.56
227.621	33.56
227.856	46.56
228.09	49.56
228.324	54.56
228.559	60.56
228.793	62.56
229.027	76.56
229.262	88.56
229.496	88.56
229.73	82.56
229.964	77.56
230.199	77.56
230.433	104.56
230.667	91.56
230.901	93.56
231.136	95.56
231.37	94.56
231.604	87.56
231.838	107.56
232.072	107.56
232.306	107.56
232.541	93.56
232.775	101.56
233.009	109.56
233.243	107.56
233.477	115.56
233.711	132.56
233.945	113.56
234.179	116.56
234.413	116.56
234.647	131.56
234.881	140.56
235.115	138.56
235.349	132.56
235.583	115.56
235.817	109.56
236.051	113.56
236.285	131.56
236.519	132.56
236.753	135.56
236.987	126.56
237.221	136.56
237.455	130.56
237.689	125.56
237.922	123.56
238.156	132.56
238.39	162.56
238.624	178.56
238.858	177.56
239.091	155.56
239.325	148.56
239.559	148.56
239.793	149.56
240.027	176.56
240.26	152.56
240.494	154.56
240.728	164.56
240.961	194.56
241.195	172.56
241.429	163.56
241.662	173.56
241.896	154.56
242.13	138.56
242.363	132.56
242.597	145.56
242.83	138.56
243.064	152.56
243.298	174.56
243.531	151.56
243.765	183.56
243.998	163.56
244.232	172.56
244.465	168.56
244.699	156.56
244.932	178.56
245.166	158.56
245.399	145.56
245.633	151.56
245.866	158.56
246.099	151.56
246.333	178.56
246.566	202.56
246.8	185.56
247.033	198.56
247.266	190.56
247.5	186.56
247.733	161.56
247.966	172.56
248.2	165.56
248.433	186.56
248.666	192.56
248.899	204.56
249.133	224.56
249.366	235.56
249.599	236.56
249.832	222.56
250.066	199.56
250.299	192.56
250.532	205.56
250.765	194.56
250.998	199.56
251.231	190.56
251.465	180.56
251.698	186.56
251.931	212.56
252.164	209.56
252.397	219.56
252.63	237.56
252.863	275.56
253.096	283.56
253.329	265.56
253.562	245.56
253.795	293.56
254.028	312.56
254.261	322.56
254.494	297.56
254.727	261.56
254.96	254.56
255.193	277.56
255.426	282.56
255.659	200.56
255.892	203.56
256.124	215.56
256.357	230.56
256.59	280.56
256.823	267.56
257.056	225.56
257.289	212.56
257.521	238.56
257.754	274.56
257.987	303.56
258.22	263.56
258.452	239.56
258.685	263.56
258.918	265.56
259.151	276.56
259.383	301.56
259.616	350.56
259.849	343.56
260.081	366.56
260.314	400.56
260.547	320.56
260.779	323.56
261.012	388.56
261.244	362.56
261.477	371.56
261.71	356.56
261.942	284.56
262.175	301.56
262.407	267.56
262.64	277.56
262.872	338.56
263.105	345.56
263.337	388.56
263.57	325.56
263.802	234.56
264.035	225.56
264.267	219.56
264.499	191.56
264.732	181.56
264.964	176.56
265.197	191.56
265.429	205.56
265.661	198.56
265.894	208.56
266.126	224.56
266.358	265.56
266.591	294.56
266.823	317.56
267.055	319.56
267.287	319.56
267.52	307.56
267.752	296.56
267.984	324.56
268.216	306.56
268.448	283.56
268.681	257.56
268.913	279.56
269.145	292.56
269.377	294.56
269.609	300.56
269.841	296.56
270.073	292.56
270.306	302.56
270.538	332.56
270.77	325.56
271.002	309.56
271.234	347.56
271.466	340.56
271.698	321.56
271.93	316.56
272.162	324.56
272.394	315.56
272.626	316.56
272.858	323.56
273.09	312.56
273.322	308.56
273.553	288.56
273.785	294.56
274.017	397.56
274.249	471.56
274.481	477.56
274.713	538.56
274.945	623.56
275.176	638.56
275.408	587.56
275.64	510.56
275.872	524.56
276.104	468.56
276.335	410.56
276.567	384.56
276.799	420.56
277.031	422.56
277.262	334.56
277.494	274.56
277.726	266.56
277.957	302.56
278.189	332.56
278.421	315.56
278.652	314.56
278.884	291.56
279.115	278.56
279.347	254.56
279.579	280.56
279.81	295.56
280.042	269.56
280.273	288.56
280.505	256.56
280.736	250.56
280.968	245.56
281.199	250.56
281.431	270.56
281.662	282.56
281.894	267.56
282.125	288.56
282.356	312.56
282.588	317.56
282.819	280.56
283.051	282.56
283.282	349.56
283.513	403.56
283.745	450.56
283.976	438.56
284.207	419.56
284.439	419.56
284.67	412.56
284.901	385.56
285.132	411.56
285.364	408.56
285.595	383.56
285.826	416.56
286.057	431.56
286.288	405.56
286.52	451.56
286.751	440.56
286.982	431.56
287.213	380.56
287.444	370.56
287.675	376.56
287.906	405.56
288.138	342.56
288.369	309.56
288.6	289.56
288.831	303.56
289.062	359.56
289.293	395.56
289.524	359.56
289.755	346.56
289.986	373.56
290.217	330.56
290.448	254.56
290.679	238.56
290.91	230.56
291.141	223.56
291.371	233.56
291.602	230.56
291.833	236.56
292.064	236.56
292.295	279.56
292.526	318.56
292.757	330.56
292.987	346.56
293.218	356.56
293.449	354.56
293.68	375.56
293.91	372.56
294.141	378.56
294.372	360.56
294.603	307.56
294.833	331.56
295.064	411.56
295.295	412.56
295.525	293.56
295.756	268.56
295.987	245.56
296.217	236.56
296.448	269.56
296.679	257.56
296.909	270.56
297.14	282.56
297.37	306.56
297.601	303.56
297.831	268.56
298.062	269.56
298.292	317.56
298.523	326.56
298.753	374.56
298.984	353.56
299.214	298.56
299.445	246.56
299.675	252.56
299.905	239.56
300.136	237.56
300.366	273.56
300.597	265.56
300.827	236.56
301.057	231.56
301.288	235.56
301.518	239.56
301.748	265.56
301.979	296.56
302.209	326.56
302.439	311.56
302.669	275.56
302.9	279.56
303.13	271.56
303.36	272.56
303.59	258.56
303.82	257.56
304.051	286.56
304.281	304.56
304.511	305.56
304.741	262.56
304.971	285.56
305.201	298.56
305.431	263.56
305.661	242.56
305.891	226.56
306.121	231.56
306.352	213.56
306.582	206.56
306.812	198.56
307.042	211.56
307.272	186.56
307.502	212.56
307.731	215.56
307.961	219.56
308.191	223.56
308.421	193.56
308.651	196.56
308.881	198.56
309.111	190.56
309.341	203.56
309.571	219.56
309.8	222.56
310.03	210.56
310.26	231.56
310.49	221.56
310.72	226.56
310.949	220.56
311.179	216.56
311.409	210.56
311.639	254.56
311.868	314.56
312.098	358.56
312.328	398.56
312.557	378.56
312.787	386.56
313.017	360.56
313.246	374.56
313.476	414.56
313.706	332.56
313.935	302.56
314.165	225.56
314.394	215.56
314.624	228.56
314.853	231.56
315.083	249.56
315.312	227.56
315.542	228.56
315.771	229.56
316.001	202.56
316.23	195.56
316.46	188.56
316.689	200.56
316.919	197.56
317.148	199.56
317.377	209.56
317.607	204.56
317.836	208.56
318.065	247.56
318.295	286.56
318.524	265.56
318.753	224.56
318.983	204.56
319.212	218.56
319.441	225.56
319.67	243.56
319.9	256.56
320.129	252.56
320.358	223.56
320.587	210.56
320.816	222.56
321.046	246.56
321.275	291.56
321.504	292.56
321.733	277.56
321.962	262.56
322.191	248.56
322.42	244.56
322.649	236.56
322.878	266.56
323.108	256.56
323.337	264.56
323.566	247.56
323.795	226.56
324.024	228.56
324.253	219.56
324.482	214.56
324.71	244.56
324.939	257.56
325.168	254.56
325.397	220.56
325.626	224.56
325.855	223.56
326.084	217.56
326.313	216.56
326.542	206.56
326.77	199.56
326.999	214.56
327.228	216.56
327.457	243.56
327.686	237.56
327.914	205.56
328.143	209.56
328.372	196.56
328.6	198.56
328.829	197.56
329.058	205.56
329.287	210.56
329.515	200.56
329.744	214.56
329.972	212.56
330.201	209.56
330.43	208.56
330.658	209.56
330.887	235.56
331.115	238.56
331.344	211.56
331.572	241.56
331.801	221.56
332.03	206.56
332.258	211.56
332.486	211.56
332.715	242.56
332.943	228.56
333.172	219.56
333.4	234.56
333.629	241.56
333.857	271.56
334.085	275.56
334.314	276.56
334.542	250.56
334.771	218.56
334.999	211.56
335.227	227.56
335.455	240.56
335.684	250.56
335.912	272.56
336.14	288.56
336.369	269.56
336.597	278.56
336.825	307.56
337.053	343.56
337.281	287.56
337.51	236.56
337.738	232.56
337.966	232.56
338.194	255.56
338.422	250.56
338.65	216.56
338.878	199.56
339.106	219.56
339.334	238.56
339.562	254.56
339.79	232.56
340.018	216.56
340.246	241.56
340.474	268.56
340.702	274.56
340.93	266.56
341.158	297.56
341.386	250.56
341.614	245.56
341.842	233.56
342.07	246.56
342.298	284.56
342.526	302.56
342.754	268.56
342.981	247.56
343.209	237.56
343.437	257.56
343.665	285.56
343.893	260.56
344.12	319.56
344.348	346.56
344.576	323.56
344.804	278.56
345.031	232.56
345.259	221.56
345.487	226.56
345.714	238.56
345.942	252.56
346.17	273.56
346.397	256.56
346.625	234.56
346.853	220.56
347.08	219.56
347.308	237.56
347.535	266.56
347.763	279.56
347.99	243.56
348.218	221.56
348.445	230.56
348.673	213.56
348.9	213.56
349.128	244.56
349.355	261.56
349.583	248.56
349.81	247.56
350.037	220.56
350.265	201.56
350.492	187.56
350.72	202.56
350.947	176.56
351.174	206.56
351.402	219.56
351.629	220.56
351.856	213.56
352.083	202.56
352.311	215.56
352.538	236.56
352.765	252.56
352.992	242.56
353.22	227.56
353.447	215.56
353.674	218.56
353.901	225.56
354.128	209.56
354.355	219.56
354.583	226.56
354.81	206.56
355.037	238.56
355.264	224.56
355.491	243.56
355.718	256.56
355.945	255.56
356.172	230.56
356.399	240.56
356.626	288.56
356.853	336.56
357.08	368.56
357.307	370.56
357.534	300.56
357.761	314.56
357.988	362.56
358.215	423.56
358.441	389.56
358.668	339.56
358.895	312.56
359.122	266.56
359.349	270.56
359.576	302.56
359.802	250.56
360.029	226.56
360.256	234.56
360.483	275.56
360.709	350.56
360.936	343.56
361.163	313.56
361.39	263.56
361.616	242.56
361.843	271.56
362.07	320.56
362.296	291.56
362.523	232.56
362.749	234.56
362.976	227.56
363.203	260.56
363.429	269.56
363.656	252.56
363.882	224.56
364.109	229.56
364.335	239.56
364.562	215.56
364.788	244.56
365.015	288.56
365.241	265.56
365.468	226.56
365.694	195.56
365.92	200.56
366.147	205.56
366.373	195.56
366.599	187.56
366.826	205.56
367.052	200.56
367.278	212.56
367.505	215.56
367.731	218.56
367.957	244.56
368.184	231.56
368.41	217.56
368.636	233.56
368.862	217.56
369.089	236.56
369.315	224.56
369.541	228.56
369.767	214.56
369.993	206.56
370.219	211.56
370.445	212.56
370.672	214.56
370.898	250.56
371.124	242.56
371.35	226.56
371.576	221.56
371.802	218.56
372.028	254.56
372.254	305.56
372.48	240.56
372.706	233.56
372.932	252.56
373.158	260.56
373.384	295.56
373.61	369.56
373.835	390.56
374.061	305.56
374.287	250.56
374.513	315.56
374.739	353.56
374.965	351.56
375.191	334.56
375.416	270.56
375.642	227.56
375.868	270.56
376.094	302.56
376.319	251.56
376.545	272.56
376.771	282.56
376.997	246.56
377.222	213.56
377.448	198.56
377.674	181.56
377.899	200.56
378.125	198.56
378.35	198.56
378.576	192.56
378.802	190.56
379.027	220.56
379.253	201.56
379.478	217.56
379.704	240.56
379.929	244.56
380.155	240.56
380.38	229.56
380.606	242.56
380.831	238.56
381.057	241.56
381.282	245.56
381.507	246.56
381.733	296.56
381.958	310.56
382.184	339.56
382.409	347.56
382.634	367.56
382.86	366.56
383.085	314.56
383.31	261.56
383.535	281.56
383.761	280.56
383.986	242.56
384.211	314.56
384.436	315.56
384.662	271.56
384.887	222.56
385.112	232.56
385.337	251.56
385.562	239.56
385.787	268.56
386.013	295.56
386.238	288.56
386.463	235.56
386.688	251.56
386.913	237.56
387.138	214.56
387.363	234.56
387.588	252.56
387.813	238.56
388.038	266.56
388.263	237.56
388.488	221.56
388.713	263.56
388.938	294.56
389.163	252.56
389.387	215.56
389.612	221.56
389.837	235.56
390.062	242.56
390.287	243.56
390.512	237.56
390.736	223.56
390.961	226.56
391.186	207.56
391.411	193.56
391.636	206.56
391.86	225.56
392.085	252.56
392.31	248.56
392.534	233.56
392.759	222.56
392.984	244.56
393.208	242.56
393.433	225.56
393.658	219.56
393.882	219.56
394.107	204.56
394.331	203.56
394.556	201.56
394.78	198.56
395.005	203.56
395.229	225.56
395.454	232.56
395.678	220.56
395.903	215.56
396.127	219.56
396.352	215.56
396.576	224.56
396.801	219.56
397.025	248.56
397.249	270.56
397.474	216.56
397.698	221.56
397.922	234.56
398.147	206.56
398.371	216.56
398.595	231.56
398.82	226.56
399.044	234.56
399.268	262.56
399.492	286.56
399.717	270.56
399.941	312.56
400.165	282.56
400.389	251.56
400.613	223.56
400.837	238.56
401.062	241.56
401.286	226.56
401.51	227.56
401.734	223.56
401.958	239.56
402.182	241.56
402.406	226.56
402.63	231.56
402.854	265.56
403.078	298.56
403.302	366.56
403.526	370.56
403.75	343.56
403.974	274.56
404.198	298.56
404.422	310.56
404.645	325.56
404.869	360.56
405.093	290.56
405.317	251.56
405.541	258.56
405.765	260.56
405.988	253.56
406.212	257.56
406.436	291.56
406.66	320.56
406.883	290.56
407.107	282.56
407.331	316.56
407.555	310.56
407.778	292.56
408.002	268.56
408.226	263.56
408.449	272.56
408.673	287.56
408.896	254.56
409.12	240.56
409.344	227.56
409.567	236.56
409.791	238.56
410.014	228.56
410.238	233.56
410.461	238.56
410.685	247.56
410.908	254.56
411.132	264.56
411.355	246.56
411.578	222.56
411.802	242.56
412.025	258.56
412.249	245.56
412.472	239.56
412.695	240.56
412.919	225.56
413.142	242.56
413.365	271.56
413.589	245.56
413.812	224.56
414.035	222.56
414.258	227.56
414.482	247.56
414.705	245.56
414.928	219.56
415.151	237.56
415.374	220.56
415.597	222.56
415.821	215.56
416.044	219.56
416.267	223.56
416.49	218.56
416.713	229.56
416.936	222.56
417.159	226.56
417.382	200.56
417.605	234.56
417.828	239.56
418.051	220.56
418.274	215.56
418.497	246.56
418.72	210.56
418.943	236.56
419.166	250.56
419.389	258.56
419.611	240.56
419.834	269.56
420.057	270.56
420.28	260.56
420.503	251.56
420.726	227.56
420.948	213.56
421.171	238.56
421.394	232.56
421.617	231.56
421.839	230.56
422.062	238.56
422.285	226.56
422.507	251.56
422.73	250.56
422.953	232.56
423.175	250.56
423.398	244.56
423.621	271.56
423.843	268.56
424.066	259.56
424.288	250.56
424.511	234.56
424.733	236.56
424.956	241.56
425.178	270.56
425.401	310.56
425.623	348.56
425.846	282.56
426.068	254.56
426.291	255.56
426.513	262.56
426.735	248.56
426.958	267.56
427.18	293.56
427.402	336.56
427.625	358.56
427.847	302.56
428.069	241.56
428.292	218.56
428.514	242.56
428.736	225.56
428.958	260.56
429.181	315.56
429.403	261.56
429.625	228.56
429.847	204.56
430.069	226.56
430.292	211.56
430.514	205.56
430.736	223.56
430.958	291.56
431.18	264.56
431.402	219.56
431.624	230.56
431.846	219.56
432.068	202.56
432.29	222.56
432.512	213.56
432.734	284.56
432.956	278.56
433.178	235.56
433.4	228.56
433.622	210.56
433.844	237.56
434.066	236.56
434.287	242.56
434.509	241.56
434.731	248.56
434.953	230.56
435.175	242.56
435.397	258.56
435.618	229.56
435.84	228.56
436.062	200.56
436.284	212.56
436.505	204.56
436.727	217.56
436.949	213.56
437.17	215.56
437.392	219.56
437.614	222.56
437.835	217.56
438.057	208.56
438.278	240.56
438.5	295.56
438.721	340.56
438.943	230.56
439.165	205.56
439.386	215.56
439.608	206.56
439.829	226.56
440.05	183.56
440.272	209.56
440.493	262.56
440.715	294.56
440.936	260.56
441.158	234.56
441.379	242.56
441.6	256.56
441.822	268.56
442.043	241.56
442.264	228.56
442.486	224.56
442.707	229.56
442.928	224.56
443.149	253.56
443.371	228.56
443.592	223.56
443.813	234.56
444.034	231.56
444.255	225.56
444.476	245.56
444.698	252.56
444.919	259.56
445.14	361.56
445.361	300.56
445.582	254.56
445.803	234.56
446.024	215.56
446.245	233.56
446.466	234.56
446.687	248.56
446.908	215.56
447.129	219.56
447.35	209.56
447.571	197.56
447.792	208.56
448.013	223.56
448.234	199.56
448.455	224.56
448.675	201.56
448.896	214.56
449.117	204.56
449.338	218.56
449.559	221.56
449.779	219.56
450	235.56
450.221	227.56
450.442	222.56
450.662	216.56
450.883	243.56
451.104	220.56
451.324	224.56
451.545	230.56
451.766	216.56
451.986	203.56
452.207	187.56
452.428	207.56
452.648	207.56
452.869	233.56
453.089	223.56
453.31	233.56
453.53	207.56
453.751	189.56
453.971	211.56
454.192	200.56
454.412	218.56
454.633	198.56
454.853	203.56
455.073	202.56
455.294	196.56
455.514	196.56
455.734	205.56
455.955	190.56
456.175	223.56
456.395	204.56
456.616	201.56
456.836	206.56
457.056	168.56
457.276	197.56
457.497	182.56
457.717	176.56
457.937	205.56
458.157	190.56
458.377	199.56
458.598	194.56
458.818	204.56
459.038	195.56
459.258	215.56
459.478	234.56
459.698	228.56
459.918	240.56
460.138	234.56
460.358	254.56
460.578	250.56
460.798	250.56
461.018	248.56
461.238	252.56
461.458	224.56
461.678	241.56
461.898	256.56
462.118	241.56
462.338	242.56
462.558	265.56
462.777	248.56
462.997	280.56
463.217	268.56
463.437	286.56
463.657	276.56
463.876	273.56
464.096	263.56
464.316	261.56
464.536	280.56
464.755	273.56
464.975	278.56
465.195	268.56
465.414	247.56
465.634	260.56
465.854	251.56
466.073	211.56
466.293	215.56
466.512	236.56
466.732	243.56
466.951	252.56
467.171	220.56
467.391	211.56
467.61	214.56
467.829	224.56
468.049	225.56
468.268	216.56
468.488	226.56
468.707	221.56
468.927	242.56
469.146	271.56
469.365	253.56
469.585	239.56
469.804	242.56
470.023	268.56
470.243	261.56
470.462	238.56
470.681	235.56
470.901	241.56
471.12	227.56
471.339	250.56
471.558	222.56
471.777	229.56
471.997	244.56
472.216	286.56
472.435	254.56
472.654	243.56
472.873	224.56
473.092	243.56
473.311	258.56
473.53	234.56
473.749	215.56
473.968	237.56
474.187	249.56
474.406	232.56
474.625	218.56
474.844	234.56
475.063	254.56
475.282	255.56
475.501	247.56
475.72	275.56
475.939	256.56
476.158	269.56
476.377	283.56
476.596	332.56
476.814	357.56
477.033	308.56
477.252	256.56
477.471	228.56
477.69	231.56
477.908	268.56
478.127	284.56
478.346	277.56
478.564	290.56
478.783	256.56
479.002	263.56
479.22	305.56
479.439	322.56
479.658	271.56
479.876	277.56
480.095	285.56
480.313	287.56
480.532	280.56
480.751	272.56
480.969	277.56
481.188	302.56
481.406	295.56
481.624	286.56
481.843	257.56
482.061	259.56
482.28	283.56
482.498	339.56
482.717	325.56
482.935	285.56
483.153	271.56
483.372	269.56
483.59	255.56
483.808	269.56
484.027	285.56
484.245	244.56
484.463	237.56
484.681	260.56
484.9	263.56
485.118	278.56
485.336	280.56
485.554	260.56
485.772	258.56
485.99	298.56
486.209	298.56
486.427	287.56
486.645	282.56
486.863	282.56
487.081	304.56
487.299	306.56
487.517	301.56
487.735	277.56
487.953	288.56
488.171	269.56
488.389	286.56
488.607	258.56
488.825	254.56
489.043	283.56
489.261	307.56
489.479	337.56
489.696	281.56
489.914	287.56
490.132	262.56
490.35	272.56
490.568	284.56
490.786	279.56
491.003	266.56
491.221	268.56
491.439	271.56
491.657	272.56
491.874	280.56
492.092	325.56
492.31	366.56
492.527	342.56
492.745	343.56
492.963	286.56
493.18	305.56
493.398	311.56
493.615	295.56
493.833	276.56
494.05	271.56
494.268	282.56
494.485	278.56
494.703	261.56
494.92	283.56
495.138	291.56
495.355	269.56
495.573	295.56
495.79	301.56
496.008	383.56
496.225	324.56
496.442	306.56
496.66	295.56
496.877	300.56
497.094	311.56
497.312	286.56
497.529	306.56
497.746	300.56
497.963	302.56
498.181	323.56
498.398	365.56
498.615	364.56
498.832	382.56
499.049	381.56
499.267	366.56
499.484	387.56
499.701	408.56
499.918	436.56
500.135	493.56
500.352	499.56
500.569	523.56
500.786	556.56
501.003	545.56
501.22	480.56
501.437	439.56
501.654	396.56
501.871	383.56
502.088	366.56
502.305	347.56
502.522	326.56
