Data from NickelSpatula_HRD10591_16-35-27-126.txt Node
Date: Mon Jul 22 16:35:27 EDT 2019
User: cochatt
Spectrometer: HR+D1059
Trigger mode: 1
Integration Time (sec): 1.000000E-1
Scans to average: 1
Electric dark correction enabled: true
Nonlinearity correction enabled: false
Boxcar width: 0
XAxis mode: Wavelengths
Number of Pixels in Spectrum: 2048
>>>>>Begin Spectral Data<<<<<
223.165	-29.38
223.4	-29.38
223.635	-29.38
223.869	-17.38
224.104	-22.38
224.338	-12.38
224.573	-7.38
224.808	-18.38
225.042	-2.38
225.277	-9.38
225.511	0.62
225.746	18.62
225.98	18.62
226.215	9.62
226.449	11.62
226.683	11.62
226.918	12.62
227.152	35.62
227.387	38.62
227.621	27.62
227.856	41.62
228.09	36.62
228.324	48.62
228.559	57.62
228.793	53.62
229.027	59.62
229.262	69.62
229.496	77.62
229.73	82.62
229.964	78.62
230.199	96.62
230.433	106.62
230.667	90.62
230.901	99.62
231.136	88.62
231.37	114.62
231.604	100.62
231.838	119.62
232.072	100.62
232.306	85.62
232.541	118.62
232.775	102.62
233.009	104.62
233.243	112.62
233.477	110.62
233.711	133.62
233.945	119.62
234.179	122.62
234.413	118.62
234.647	119.62
234.881	124.62
235.115	137.62
235.349	123.62
235.583	125.62
235.817	120.62
236.051	116.62
236.285	144.62
236.519	123.62
236.753	130.62
236.987	131.62
237.221	132.62
237.455	108.62
237.689	128.62
237.922	125.62
238.156	136.62
238.39	149.62
238.624	158.62
238.858	148.62
239.091	131.62
239.325	160.62
239.559	133.62
239.793	144.62
240.027	168.62
240.26	158.62
240.494	149.62
240.728	145.62
240.961	169.62
241.195	155.62
241.429	152.62
241.662	149.62
241.896	143.62
242.13	144.62
242.363	156.62
242.597	138.62
242.83	165.62
243.064	152.62
243.298	161.62
243.531	174.62
243.765	160.62
243.998	171.62
244.232	161.62
244.465	163.62
244.699	151.62
244.932	168.62
245.166	170.62
245.399	165.62
245.633	147.62
245.866	169.62
246.099	156.62
246.333	186.62
246.566	203.62
246.8	171.62
247.033	193.62
247.266	176.62
247.5	176.62
247.733	178.62
247.966	173.62
248.2	178.62
248.433	182.62
248.666	188.62
248.899	201.62
249.133	193.62
249.366	210.62
249.599	225.62
249.832	217.62
250.066	202.62
250.299	196.62
250.532	194.62
250.765	184.62
250.998	193.62
251.231	195.62
251.465	186.62
251.698	198.62
251.931	179.62
252.164	193.62
252.397	210.62
252.63	245.62
252.863	242.62
253.096	256.62
253.329	242.62
253.562	260.62
253.795	273.62
254.028	291.62
254.261	285.62
254.494	278.62
254.727	262.62
254.96	254.62
255.193	248.62
255.426	266.62
255.659	203.62
255.892	196.62
256.124	194.62
256.357	221.62
256.59	262.62
256.823	256.62
257.056	201.62
257.289	208.62
257.521	227.62
257.754	266.62
257.987	268.62
258.22	232.62
258.452	215.62
258.685	261.62
258.918	262.62
259.151	250.62
259.383	279.62
259.616	316.62
259.849	317.62
260.081	309.62
260.314	367.62
260.547	298.62
260.779	295.62
261.012	326.62
261.244	322.62
261.477	332.62
261.71	306.62
261.942	282.62
262.175	261.62
262.407	260.62
262.64	276.62
262.872	286.62
263.105	323.62
263.337	346.62
263.57	317.62
263.802	230.62
264.035	216.62
264.267	203.62
264.499	190.62
264.732	172.62
264.964	174.62
265.197	168.62
265.429	193.62
265.661	210.62
265.894	198.62
266.126	195.62
266.358	224.62
266.591	286.62
266.823	329.62
267.055	304.62
267.287	274.62
267.52	273.62
267.752	282.62
267.984	300.62
268.216	283.62
268.448	256.62
268.681	240.62
268.913	257.62
269.145	284.62
269.377	283.62
269.609	283.62
269.841	265.62
270.073	281.62
270.306	300.62
270.538	312.62
270.77	295.62
271.002	286.62
271.234	313.62
271.466	321.62
271.698	301.62
271.93	297.62
272.162	299.62
272.394	275.62
272.626	294.62
272.858	308.62
273.09	320.62
273.322	277.62
273.553	280.62
273.785	288.62
274.017	358.62
274.249	430.62
274.481	456.62
274.713	481.62
274.945	563.62
275.176	585.62
275.408	522.62
275.64	472.62
275.872	478.62
276.104	408.62
276.335	384.62
276.567	382.62
276.799	379.62
277.031	412.62
277.262	338.62
277.494	260.62
277.726	275.62
277.957	259.62
278.189	306.62
278.421	294.62
278.652	290.62
278.884	290.62
279.115	262.62
279.347	262.62
279.579	281.62
279.81	272.62
280.042	266.62
280.273	280.62
280.505	265.62
280.736	228.62
280.968	220.62
281.199	236.62
281.431	268.62
281.662	258.62
281.894	241.62
282.125	266.62
282.356	281.62
282.588	290.62
282.819	263.62
283.051	276.62
283.282	344.62
283.513	380.62
283.745	398.62
283.976	399.62
284.207	373.62
284.439	414.62
284.67	377.62
284.901	331.62
285.132	382.62
285.364	397.62
285.595	366.62
285.826	391.62
286.057	396.62
286.288	380.62
286.52	403.62
286.751	405.62
286.982	398.62
287.213	376.62
287.444	350.62
287.675	367.62
287.906	372.62
288.138	320.62
288.369	294.62
288.6	261.62
288.831	275.62
289.062	325.62
289.293	345.62
289.524	335.62
289.755	337.62
289.986	321.62
290.217	282.62
290.448	254.62
290.679	212.62
290.91	208.62
291.141	199.62
291.371	232.62
291.602	222.62
291.833	206.62
292.064	217.62
292.295	269.62
292.526	308.62
292.757	279.62
292.987	310.62
293.218	317.62
293.449	328.62
293.68	339.62
293.91	327.62
294.141	341.62
294.372	319.62
294.603	296.62
294.833	305.62
295.064	361.62
295.295	349.62
295.525	275.62
295.756	248.62
295.987	206.62
296.217	208.62
296.448	221.62
296.679	234.62
296.909	232.62
297.14	269.62
297.37	318.62
297.601	279.62
297.831	231.62
298.062	260.62
298.292	291.62
298.523	314.62
298.753	336.62
298.984	316.62
299.214	259.62
299.445	231.62
299.675	230.62
299.905	220.62
300.136	207.62
300.366	249.62
300.597	246.62
300.827	228.62
301.057	221.62
301.288	213.62
301.518	252.62
301.748	263.62
301.979	275.62
302.209	288.62
302.439	295.62
302.669	259.62
302.9	252.62
303.13	246.62
303.36	238.62
303.59	237.62
303.82	237.62
304.051	266.62
304.281	286.62
304.511	282.62
304.741	252.62
304.971	246.62
305.201	260.62
305.431	269.62
305.661	223.62
305.891	241.62
306.121	212.62
306.352	218.62
306.582	193.62
306.812	182.62
307.042	197.62
307.272	192.62
307.502	185.62
307.731	201.62
307.961	209.62
308.191	189.62
308.421	190.62
308.651	183.62
308.881	164.62
309.111	173.62
309.341	172.62
309.571	203.62
309.8	214.62
310.03	212.62
310.26	220.62
310.49	211.62
310.72	182.62
310.949	188.62
311.179	198.62
311.409	195.62
311.639	205.62
311.868	285.62
312.098	337.62
312.328	370.62
312.557	348.62
312.787	341.62
313.017	323.62
313.246	345.62
313.476	371.62
313.706	326.62
313.935	269.62
314.165	239.62
314.394	201.62
314.624	202.62
314.853	222.62
315.083	233.62
315.312	226.62
315.542	216.62
315.771	213.62
316.001	185.62
316.23	184.62
316.46	188.62
316.689	188.62
316.919	187.62
317.148	197.62
317.377	170.62
317.607	181.62
317.836	206.62
318.065	226.62
318.295	245.62
318.524	228.62
318.753	212.62
318.983	209.62
319.212	190.62
319.441	213.62
319.67	257.62
319.9	237.62
320.129	233.62
320.358	197.62
320.587	214.62
320.816	217.62
321.046	244.62
321.275	258.62
321.504	269.62
321.733	251.62
321.962	253.62
322.191	229.62
322.42	224.62
322.649	221.62
322.878	252.62
323.108	246.62
323.337	241.62
323.566	226.62
323.795	216.62
324.024	216.62
324.253	212.62
324.482	220.62
324.71	226.62
324.939	246.62
325.168	239.62
325.397	202.62
325.626	187.62
325.855	196.62
326.084	193.62
326.313	181.62
326.542	170.62
326.77	198.62
326.999	197.62
327.228	194.62
327.457	200.62
327.686	202.62
327.914	190.62
328.143	185.62
328.372	186.62
328.6	170.62
328.829	180.62
329.058	186.62
329.287	185.62
329.515	185.62
329.744	181.62
329.972	178.62
330.201	183.62
330.43	180.62
330.658	193.62
330.887	217.62
331.115	206.62
331.344	197.62
331.572	217.62
331.801	189.62
332.03	182.62
332.258	192.62
332.486	193.62
332.715	201.62
332.943	201.62
333.172	180.62
333.4	198.62
333.629	216.62
333.857	234.62
334.085	216.62
334.314	216.62
334.542	231.62
334.771	222.62
334.999	206.62
335.227	189.62
335.455	202.62
335.684	226.62
335.912	230.62
336.14	235.62
336.369	263.62
336.597	218.62
336.825	254.62
337.053	300.62
337.281	242.62
337.51	219.62
337.738	209.62
337.966	200.62
338.194	231.62
338.422	215.62
338.65	192.62
338.878	196.62
339.106	183.62
339.334	222.62
339.562	210.62
339.79	201.62
340.018	193.62
340.246	201.62
340.474	235.62
340.702	220.62
340.93	260.62
341.158	264.62
341.386	229.62
341.614	204.62
341.842	231.62
342.07	226.62
342.298	263.62
342.526	265.62
342.754	247.62
342.981	219.62
343.209	204.62
343.437	203.62
343.665	241.62
343.893	221.62
344.12	252.62
344.348	294.62
344.576	289.62
344.804	241.62
345.031	231.62
345.259	184.62
345.487	208.62
345.714	218.62
345.942	231.62
346.17	230.62
346.397	225.62
346.625	199.62
346.853	196.62
347.08	199.62
347.308	206.62
347.535	235.62
347.763	218.62
347.99	196.62
348.218	192.62
348.445	203.62
348.673	197.62
348.9	189.62
349.128	218.62
349.355	214.62
349.583	208.62
349.81	197.62
350.037	189.62
350.265	171.62
350.492	182.62
350.72	167.62
350.947	181.62
351.174	194.62
351.402	197.62
351.629	203.62
351.856	190.62
352.083	195.62
352.311	186.62
352.538	213.62
352.765	230.62
352.992	210.62
353.22	226.62
353.447	231.62
353.674	199.62
353.901	200.62
354.128	204.62
354.355	211.62
354.583	233.62
354.81	227.62
355.037	230.62
355.264	229.62
355.491	226.62
355.718	230.62
355.945	237.62
356.172	220.62
356.399	227.62
356.626	252.62
356.853	315.62
357.08	352.62
357.307	352.62
357.534	292.62
357.761	284.62
357.988	346.62
358.215	378.62
358.441	361.62
358.668	316.62
358.895	310.62
359.122	275.62
359.349	241.62
359.576	275.62
359.802	238.62
360.029	223.62
360.256	211.62
360.483	248.62
360.709	308.62
360.936	316.62
361.163	299.62
361.39	236.62
361.616	200.62
361.843	244.62
362.07	276.62
362.296	267.62
362.523	232.62
362.749	196.62
362.976	213.62
363.203	234.62
363.429	244.62
363.656	226.62
363.882	200.62
364.109	222.62
364.335	222.62
364.562	198.62
364.788	225.62
365.015	256.62
365.241	260.62
365.468	213.62
365.694	180.62
365.92	184.62
366.147	167.62
366.373	170.62
366.599	183.62
366.826	168.62
367.052	180.62
367.278	181.62
367.505	189.62
367.731	192.62
367.957	192.62
368.184	206.62
368.41	210.62
368.636	219.62
368.862	228.62
369.089	212.62
369.315	190.62
369.541	187.62
369.767	189.62
369.993	187.62
370.219	195.62
370.445	195.62
370.672	202.62
370.898	224.62
371.124	219.62
371.35	194.62
371.576	181.62
371.802	194.62
372.028	211.62
372.254	247.62
372.48	214.62
372.706	209.62
372.932	212.62
373.158	217.62
373.384	256.62
373.61	309.62
373.835	330.62
374.061	255.62
374.287	223.62
374.513	281.62
374.739	309.62
374.965	304.62
375.191	317.62
375.416	233.62
375.642	209.62
375.868	235.62
376.094	254.62
376.319	231.62
376.545	233.62
376.771	248.62
376.997	217.62
377.222	197.62
377.448	176.62
377.674	170.62
377.899	165.62
378.125	173.62
378.35	170.62
378.576	173.62
378.802	184.62
379.027	202.62
379.253	212.62
379.478	204.62
379.704	221.62
379.929	238.62
380.155	225.62
380.38	182.62
380.606	197.62
380.831	232.62
381.057	229.62
381.282	201.62
381.507	234.62
381.733	277.62
381.958	271.62
382.184	295.62
382.409	312.62
382.634	327.62
382.86	330.62
383.085	288.62
383.31	245.62
383.535	244.62
383.761	264.62
383.986	244.62
384.211	266.62
384.436	264.62
384.662	222.62
384.887	223.62
385.112	223.62
385.337	232.62
385.562	222.62
385.787	228.62
386.013	249.62
386.238	248.62
386.463	212.62
386.688	203.62
386.913	210.62
387.138	194.62
387.363	198.62
387.588	210.62
387.813	218.62
388.038	225.62
388.263	210.62
388.488	207.62
388.713	236.62
388.938	243.62
389.163	212.62
389.387	191.62
389.612	199.62
389.837	215.62
390.062	200.62
390.287	207.62
390.512	217.62
390.736	200.62
390.961	184.62
391.186	182.62
391.411	185.62
391.636	206.62
391.86	199.62
392.085	213.62
392.31	234.62
392.534	199.62
392.759	199.62
392.984	211.62
393.208	222.62
393.433	177.62
393.658	171.62
393.882	168.62
394.107	177.62
394.331	176.62
394.556	178.62
394.78	183.62
395.005	189.62
395.229	180.62
395.454	174.62
395.678	187.62
395.903	198.62
396.127	189.62
396.352	188.62
396.576	212.62
396.801	213.62
397.025	232.62
397.249	253.62
397.474	195.62
397.698	198.62
397.922	207.62
398.147	197.62
398.371	189.62
398.595	200.62
398.82	208.62
399.044	216.62
399.268	216.62
399.492	205.62
399.717	206.62
399.941	204.62
400.165	205.62
400.389	207.62
400.613	209.62
400.837	216.62
401.062	188.62
401.286	203.62
401.51	174.62
401.734	181.62
401.958	188.62
402.182	179.62
402.406	188.62
402.63	197.62
402.854	200.62
403.078	242.62
403.302	269.62
403.526	301.62
403.75	262.62
403.974	219.62
404.198	232.62
404.422	258.62
404.645	281.62
404.869	291.62
405.093	252.62
405.317	218.62
405.541	197.62
405.765	227.62
405.988	214.62
406.212	237.62
406.436	250.62
406.66	264.62
406.883	231.62
407.107	224.62
407.331	265.62
407.555	244.62
407.778	240.62
408.002	229.62
408.226	231.62
408.449	232.62
408.673	222.62
408.896	200.62
409.12	186.62
409.344	191.62
409.567	194.62
409.791	182.62
410.014	208.62
410.238	184.62
410.461	192.62
410.685	189.62
410.908	174.62
411.132	193.62
411.355	180.62
411.578	202.62
411.802	187.62
412.025	183.62
412.249	191.62
412.472	195.62
412.695	192.62
412.919	194.62
413.142	221.62
413.365	215.62
413.589	237.62
413.812	197.62
414.035	194.62
414.258	183.62
414.482	220.62
414.705	213.62
414.928	182.62
415.151	193.62
415.374	174.62
415.597	202.62
415.821	198.62
416.044	179.62
416.267	168.62
416.49	184.62
416.713	180.62
416.936	177.62
417.159	182.62
417.382	188.62
417.605	180.62
417.828	183.62
418.051	192.62
418.274	188.62
418.497	192.62
418.72	192.62
418.943	210.62
419.166	206.62
419.389	219.62
419.611	202.62
419.834	213.62
420.057	219.62
420.28	221.62
420.503	214.62
420.726	197.62
420.948	178.62
421.171	194.62
421.394	187.62
421.617	190.62
421.839	173.62
422.062	196.62
422.285	200.62
422.507	179.62
422.73	203.62
422.953	215.62
423.175	213.62
423.398	201.62
423.621	229.62
423.843	241.62
424.066	213.62
424.288	199.62
424.511	185.62
424.733	187.62
424.956	196.62
425.178	229.62
425.401	257.62
425.623	287.62
425.846	229.62
426.068	217.62
426.291	236.62
426.513	233.62
426.735	204.62
426.958	215.62
427.18	237.62
427.402	297.62
427.625	314.62
427.847	245.62
428.069	208.62
428.292	218.62
428.514	187.62
428.736	172.62
428.958	210.62
429.181	252.62
429.403	215.62
429.625	201.62
429.847	201.62
430.069	196.62
430.292	199.62
430.514	174.62
430.736	189.62
430.958	231.62
431.18	206.62
431.402	182.62
431.624	163.62
431.846	156.62
432.068	174.62
432.29	168.62
432.512	188.62
432.734	238.62
432.956	235.62
433.178	196.62
433.4	181.62
433.622	182.62
433.844	196.62
434.066	224.62
434.287	202.62
434.509	186.62
434.731	211.62
434.953	196.62
435.175	203.62
435.397	213.62
435.618	205.62
435.84	179.62
436.062	177.62
436.284	188.62
436.505	182.62
436.727	157.62
436.949	167.62
437.17	182.62
437.392	182.62
437.614	181.62
437.835	173.62
438.057	189.62
438.278	188.62
438.5	267.62
438.721	278.62
438.943	194.62
439.165	171.62
439.386	168.62
439.608	173.62
439.829	158.62
440.05	179.62
440.272	165.62
440.493	183.62
440.715	255.62
440.936	208.62
441.158	181.62
441.379	183.62
441.6	212.62
441.822	226.62
442.043	168.62
442.264	179.62
442.486	192.62
442.707	197.62
442.928	195.62
443.149	192.62
443.371	181.62
443.592	195.62
443.813	184.62
444.034	186.62
444.255	203.62
444.476	193.62
444.698	193.62
444.919	211.62
445.14	317.62
445.361	279.62
445.582	217.62
445.803	219.62
446.024	208.62
446.245	229.62
446.466	220.62
446.687	209.62
446.908	198.62
447.129	187.62
447.35	185.62
447.571	171.62
447.792	161.62
448.013	176.62
448.234	169.62
448.455	166.62
448.675	166.62
448.896	185.62
449.117	184.62
449.338	177.62
449.559	183.62
449.779	193.62
450	200.62
450.221	196.62
450.442	181.62
450.662	182.62
450.883	171.62
451.104	194.62
451.324	160.62
451.545	189.62
451.766	180.62
451.986	173.62
452.207	169.62
452.428	176.62
452.648	160.62
452.869	194.62
453.089	192.62
453.31	196.62
453.53	170.62
453.751	185.62
453.971	171.62
454.192	184.62
454.412	184.62
454.633	163.62
454.853	182.62
455.073	165.62
455.294	149.62
455.514	170.62
455.734	181.62
455.955	182.62
456.175	163.62
456.395	168.62
456.616	165.62
456.836	172.62
457.056	162.62
457.276	180.62
457.497	157.62
457.717	169.62
457.937	160.62
458.157	153.62
458.377	156.62
458.598	167.62
458.818	169.62
459.038	186.62
459.258	173.62
459.478	182.62
459.698	178.62
459.918	189.62
460.138	184.62
460.358	202.62
460.578	200.62
460.798	192.62
461.018	181.62
461.238	186.62
461.458	196.62
461.678	197.62
461.898	195.62
462.118	205.62
462.338	198.62
462.558	198.62
462.777	224.62
462.997	209.62
463.217	211.62
463.437	222.62
463.657	217.62
463.876	201.62
464.096	206.62
464.316	201.62
464.536	193.62
464.755	235.62
464.975	221.62
465.195	225.62
465.414	221.62
465.634	208.62
465.854	197.62
466.073	190.62
466.293	185.62
466.512	201.62
466.732	216.62
466.951	221.62
467.171	209.62
467.391	184.62
467.61	168.62
467.829	194.62
468.049	197.62
468.268	178.62
468.488	179.62
468.707	197.62
468.927	206.62
469.146	218.62
469.365	215.62
469.585	202.62
469.804	197.62
470.023	214.62
470.243	214.62
470.462	210.62
470.681	190.62
470.901	189.62
471.12	205.62
471.339	213.62
471.558	186.62
471.777	196.62
471.997	216.62
472.216	237.62
472.435	216.62
472.654	204.62
472.873	226.62
473.092	216.62
473.311	227.62
473.53	212.62
473.749	208.62
473.968	223.62
474.187	208.62
474.406	202.62
474.625	184.62
474.844	193.62
475.063	206.62
475.282	231.62
475.501	225.62
475.72	253.62
475.939	227.62
476.158	225.62
476.377	287.62
476.596	282.62
476.814	299.62
477.033	260.62
477.252	220.62
477.471	209.62
477.69	200.62
477.908	224.62
478.127	250.62
478.346	208.62
478.564	265.62
478.783	224.62
479.002	223.62
479.22	243.62
479.439	276.62
479.658	232.62
479.876	227.62
480.095	212.62
480.313	245.62
480.532	227.62
480.751	237.62
480.969	206.62
481.188	233.62
481.406	235.62
481.624	244.62
481.843	209.62
482.061	215.62
482.28	241.62
482.498	294.62
482.717	287.62
482.935	243.62
483.153	227.62
483.372	225.62
483.59	204.62
483.808	205.62
484.027	216.62
484.245	194.62
484.463	201.62
484.681	198.62
484.9	211.62
485.118	228.62
485.336	220.62
485.554	201.62
485.772	209.62
485.99	223.62
486.209	236.62
486.427	240.62
486.645	232.62
486.863	236.62
487.081	227.62
487.299	272.62
487.517	277.62
487.735	235.62
487.953	238.62
488.171	258.62
488.389	221.62
488.607	220.62
488.825	240.62
489.043	267.62
489.261	289.62
489.479	305.62
489.696	259.62
489.914	241.62
490.132	213.62
490.35	219.62
490.568	226.62
490.786	218.62
491.003	230.62
491.221	242.62
491.439	233.62
491.657	224.62
491.874	246.62
492.092	285.62
492.31	386.62
492.527	365.62
492.745	293.62
492.963	261.62
493.18	251.62
493.398	249.62
493.615	277.62
493.833	258.62
494.05	265.62
494.268	246.62
494.485	235.62
494.703	226.62
494.92	244.62
495.138	216.62
495.355	215.62
495.573	230.62
495.79	258.62
496.008	370.62
496.225	303.62
496.442	248.62
496.66	273.62
496.877	276.62
497.094	263.62
497.312	256.62
497.529	244.62
497.746	256.62
497.963	245.62
498.181	264.62
498.398	270.62
498.615	312.62
498.832	312.62
499.049	302.62
499.267	296.62
499.484	281.62
499.701	294.62
499.918	342.62
500.135	358.62
500.352	368.62
500.569	364.62
500.786	396.62
501.003	388.62
501.22	348.62
501.437	329.62
501.654	290.62
501.871	290.62
502.088	300.62
502.305	289.62
502.522	282.62
