Data from NickelSpatula_HRD10591_16-36-00-126.txt Node
Date: Mon Jul 22 16:36:00 EDT 2019
User: cochatt
Spectrometer: HR+D1059
Trigger mode: 1
Integration Time (sec): 1.000000E-1
Scans to average: 1
Electric dark correction enabled: true
Nonlinearity correction enabled: false
Boxcar width: 0
XAxis mode: Wavelengths
Number of Pixels in Spectrum: 2048
>>>>>Begin Spectral Data<<<<<
223.165	-18.94
223.4	-18.94
223.635	-18.94
223.869	-17.94
224.104	-21.94
224.338	-9.94
224.573	-6.94
224.808	-21.94
225.042	6.06
225.277	-22.94
225.511	-0.94
225.746	6.06
225.98	8.06
226.215	5.06
226.449	12.06
226.683	23.06
226.918	19.06
227.152	42.06
227.387	20.06
227.621	30.06
227.856	37.06
228.09	46.06
228.324	44.06
228.559	53.06
228.793	58.06
229.027	62.06
229.262	76.06
229.496	58.06
229.73	85.06
229.964	80.06
230.199	98.06
230.433	87.06
230.667	88.06
230.901	88.06
231.136	89.06
231.37	83.06
231.604	105.06
231.838	93.06
232.072	106.06
232.306	92.06
232.541	100.06
232.775	101.06
233.009	101.06
233.243	103.06
233.477	105.06
233.711	96.06
233.945	95.06
234.179	95.06
234.413	106.06
234.647	121.06
234.881	115.06
235.115	123.06
235.349	99.06
235.583	109.06
235.817	98.06
236.051	113.06
236.285	113.06
236.519	129.06
236.753	108.06
236.987	104.06
237.221	110.06
237.455	115.06
237.689	114.06
237.922	121.06
238.156	118.06
238.39	105.06
238.624	107.06
238.858	126.06
239.091	108.06
239.325	120.06
239.559	108.06
239.793	113.06
240.027	133.06
240.26	125.06
240.494	124.06
240.728	119.06
240.961	139.06
241.195	123.06
241.429	117.06
241.662	122.06
241.896	102.06
242.13	113.06
242.363	117.06
242.597	101.06
242.83	129.06
243.064	119.06
243.298	128.06
243.531	128.06
243.765	140.06
243.998	129.06
244.232	149.06
244.465	127.06
244.699	111.06
244.932	141.06
245.166	123.06
245.399	105.06
245.633	125.06
245.866	121.06
246.099	131.06
246.333	120.06
246.566	149.06
246.8	149.06
247.033	147.06
247.266	125.06
247.5	135.06
247.733	141.06
247.966	122.06
248.2	131.06
248.433	147.06
248.666	137.06
248.899	149.06
249.133	159.06
249.366	173.06
249.599	155.06
249.832	159.06
250.066	165.06
250.299	152.06
250.532	141.06
250.765	144.06
250.998	139.06
251.231	126.06
251.465	157.06
251.698	148.06
251.931	146.06
252.164	147.06
252.397	161.06
252.63	173.06
252.863	170.06
253.096	181.06
253.329	177.06
253.562	174.06
253.795	191.06
254.028	205.06
254.261	196.06
254.494	189.06
254.727	174.06
254.96	183.06
255.193	189.06
255.426	174.06
255.659	146.06
255.892	151.06
256.124	148.06
256.357	165.06
256.59	189.06
256.823	163.06
257.056	166.06
257.289	151.06
257.521	159.06
257.754	169.06
257.987	174.06
258.22	186.06
258.452	170.06
258.685	177.06
258.918	189.06
259.151	179.06
259.383	203.06
259.616	211.06
259.849	212.06
260.081	199.06
260.314	233.06
260.547	205.06
260.779	196.06
261.012	234.06
261.244	225.06
261.477	211.06
261.71	199.06
261.942	194.06
262.175	179.06
262.407	185.06
262.64	200.06
262.872	208.06
263.105	222.06
263.337	222.06
263.57	193.06
263.802	165.06
264.035	140.06
264.267	143.06
264.499	126.06
264.732	140.06
264.964	129.06
265.197	145.06
265.429	143.06
265.661	157.06
265.894	148.06
266.126	157.06
266.358	153.06
266.591	183.06
266.823	213.06
267.055	200.06
267.287	179.06
267.52	181.06
267.752	191.06
267.984	191.06
268.216	183.06
268.448	175.06
268.681	172.06
268.913	197.06
269.145	185.06
269.377	187.06
269.609	179.06
269.841	167.06
270.073	179.06
270.306	196.06
270.538	193.06
270.77	198.06
271.002	214.06
271.234	210.06
271.466	197.06
271.698	221.06
271.93	202.06
272.162	198.06
272.394	207.06
272.626	183.06
272.858	211.06
273.09	213.06
273.322	198.06
273.553	174.06
273.785	206.06
274.017	241.06
274.249	279.06
274.481	285.06
274.713	300.06
274.945	331.06
275.176	354.06
275.408	326.06
275.64	303.06
275.872	307.06
276.104	260.06
276.335	238.06
276.567	245.06
276.799	257.06
277.031	251.06
277.262	219.06
277.494	173.06
277.726	198.06
277.957	194.06
278.189	214.06
278.421	206.06
278.652	200.06
278.884	194.06
279.115	173.06
279.347	191.06
279.579	173.06
279.81	187.06
280.042	169.06
280.273	177.06
280.505	166.06
280.736	163.06
280.968	155.06
281.199	164.06
281.431	170.06
281.662	176.06
281.894	167.06
282.125	175.06
282.356	189.06
282.588	185.06
282.819	181.06
283.051	180.06
283.282	213.06
283.513	237.06
283.745	261.06
283.976	246.06
284.207	254.06
284.439	261.06
284.67	265.06
284.901	234.06
285.132	238.06
285.364	234.06
285.595	222.06
285.826	252.06
286.057	258.06
286.288	226.06
286.52	254.06
286.751	257.06
286.982	245.06
287.213	226.06
287.444	236.06
287.675	225.06
287.906	238.06
288.138	209.06
288.369	219.06
288.6	175.06
288.831	197.06
289.062	218.06
289.293	214.06
289.524	221.06
289.755	217.06
289.986	227.06
290.217	197.06
290.448	169.06
290.679	153.06
290.91	151.06
291.141	141.06
291.371	147.06
291.602	154.06
291.833	154.06
292.064	168.06
292.295	175.06
292.526	192.06
292.757	207.06
292.987	203.06
293.218	223.06
293.449	209.06
293.68	232.06
293.91	228.06
294.141	232.06
294.372	187.06
294.603	201.06
294.833	222.06
295.064	228.06
295.295	245.06
295.525	179.06
295.756	172.06
295.987	147.06
296.217	173.06
296.448	177.06
296.679	150.06
296.909	171.06
297.14	171.06
297.37	204.06
297.601	179.06
297.831	160.06
298.062	176.06
298.292	219.06
298.523	207.06
298.753	231.06
298.984	218.06
299.214	177.06
299.445	161.06
299.675	154.06
299.905	156.06
300.136	165.06
300.366	161.06
300.597	149.06
300.827	162.06
301.057	161.06
301.288	159.06
301.518	164.06
301.748	168.06
301.979	187.06
302.209	195.06
302.439	171.06
302.669	169.06
302.9	172.06
303.13	170.06
303.36	164.06
303.59	179.06
303.82	181.06
304.051	179.06
304.281	185.06
304.511	187.06
304.741	171.06
304.971	179.06
305.201	180.06
305.431	159.06
305.661	159.06
305.891	172.06
306.121	166.06
306.352	171.06
306.582	148.06
306.812	126.06
307.042	133.06
307.272	146.06
307.502	132.06
307.731	127.06
307.961	149.06
308.191	125.06
308.421	141.06
308.651	131.06
308.881	131.06
309.111	136.06
309.341	158.06
309.571	141.06
309.8	153.06
310.03	149.06
310.26	158.06
310.49	159.06
310.72	144.06
310.949	144.06
311.179	133.06
311.409	155.06
311.639	157.06
311.868	180.06
312.098	227.06
312.328	239.06
312.557	241.06
312.787	241.06
313.017	221.06
313.246	224.06
313.476	234.06
313.706	210.06
313.935	166.06
314.165	149.06
314.394	147.06
314.624	142.06
314.853	157.06
315.083	152.06
315.312	153.06
315.542	156.06
315.771	151.06
316.001	131.06
316.23	131.06
316.46	134.06
316.689	150.06
316.919	139.06
317.148	140.06
317.377	134.06
317.607	132.06
317.836	156.06
318.065	151.06
318.295	161.06
318.524	173.06
318.753	158.06
318.983	141.06
319.212	148.06
319.441	151.06
319.67	169.06
319.9	161.06
320.129	169.06
320.358	153.06
320.587	149.06
320.816	139.06
321.046	163.06
321.275	191.06
321.504	191.06
321.733	178.06
321.962	173.06
322.191	163.06
322.42	160.06
322.649	175.06
322.878	186.06
323.108	177.06
323.337	163.06
323.566	171.06
323.795	158.06
324.024	145.06
324.253	147.06
324.482	156.06
324.71	158.06
324.939	161.06
325.168	155.06
325.397	154.06
325.626	142.06
325.855	158.06
326.084	149.06
326.313	142.06
326.542	144.06
326.77	135.06
326.999	138.06
327.228	155.06
327.457	128.06
327.686	136.06
327.914	142.06
328.143	129.06
328.372	118.06
328.6	149.06
328.829	144.06
329.058	136.06
329.287	135.06
329.515	128.06
329.744	137.06
329.972	134.06
330.201	136.06
330.43	137.06
330.658	155.06
330.887	146.06
331.115	135.06
331.344	142.06
331.572	153.06
331.801	136.06
332.03	132.06
332.258	129.06
332.486	139.06
332.715	147.06
332.943	131.06
333.172	140.06
333.4	151.06
333.629	151.06
333.857	142.06
334.085	170.06
334.314	163.06
334.542	139.06
334.771	148.06
334.999	151.06
335.227	153.06
335.455	135.06
335.684	154.06
335.912	149.06
336.14	185.06
336.369	175.06
336.597	181.06
336.825	194.06
337.053	203.06
337.281	175.06
337.51	134.06
337.738	138.06
337.966	154.06
338.194	164.06
338.422	149.06
338.65	145.06
338.878	143.06
339.106	147.06
339.334	155.06
339.562	151.06
339.79	153.06
340.018	144.06
340.246	169.06
340.474	164.06
340.702	165.06
340.93	166.06
341.158	179.06
341.386	165.06
341.614	147.06
341.842	149.06
342.07	153.06
342.298	180.06
342.526	195.06
342.754	177.06
342.981	145.06
343.209	166.06
343.437	184.06
343.665	182.06
343.893	166.06
344.12	189.06
344.348	198.06
344.576	210.06
344.804	161.06
345.031	161.06
345.259	143.06
345.487	156.06
345.714	147.06
345.942	168.06
346.17	180.06
346.397	176.06
346.625	163.06
346.853	152.06
347.08	137.06
347.308	144.06
347.535	159.06
347.763	177.06
347.99	151.06
348.218	143.06
348.445	161.06
348.673	170.06
348.9	147.06
349.128	174.06
349.355	170.06
349.583	147.06
349.81	147.06
350.037	137.06
350.265	127.06
350.492	121.06
350.72	136.06
350.947	147.06
351.174	140.06
351.402	147.06
351.629	137.06
351.856	148.06
352.083	138.06
352.311	137.06
352.538	171.06
352.765	175.06
352.992	164.06
353.22	166.06
353.447	150.06
353.674	154.06
353.901	142.06
354.128	155.06
354.355	166.06
354.583	158.06
354.81	159.06
355.037	172.06
355.264	183.06
355.491	170.06
355.718	180.06
355.945	161.06
356.172	163.06
356.399	160.06
356.626	181.06
356.853	217.06
357.08	238.06
357.307	233.06
357.534	193.06
357.761	193.06
357.988	220.06
358.215	229.06
358.441	217.06
358.668	209.06
358.895	206.06
359.122	160.06
359.349	174.06
359.576	186.06
359.802	169.06
360.029	145.06
360.256	168.06
360.483	182.06
360.709	224.06
360.936	218.06
361.163	191.06
361.39	163.06
361.616	165.06
361.843	194.06
362.07	192.06
362.296	174.06
362.523	155.06
362.749	150.06
362.976	140.06
363.203	183.06
363.429	183.06
363.656	161.06
363.882	147.06
364.109	154.06
364.335	155.06
364.562	154.06
364.788	157.06
365.015	165.06
365.241	181.06
365.468	155.06
365.694	139.06
365.92	140.06
366.147	137.06
366.373	135.06
366.599	129.06
366.826	144.06
367.052	129.06
367.278	145.06
367.505	135.06
367.731	152.06
367.957	149.06
368.184	153.06
368.41	161.06
368.636	157.06
368.862	149.06
369.089	162.06
369.315	158.06
369.541	139.06
369.767	135.06
369.993	139.06
370.219	137.06
370.445	155.06
370.672	152.06
370.898	166.06
371.124	165.06
371.35	139.06
371.576	147.06
371.802	144.06
372.028	160.06
372.254	186.06
372.48	183.06
372.706	159.06
372.932	158.06
373.158	150.06
373.384	182.06
373.61	230.06
373.835	217.06
374.061	171.06
374.287	167.06
374.513	190.06
374.739	212.06
374.965	226.06
375.191	207.06
375.416	155.06
375.642	159.06
375.868	162.06
376.094	187.06
376.319	161.06
376.545	172.06
376.771	179.06
376.997	170.06
377.222	131.06
377.448	133.06
377.674	133.06
377.899	130.06
378.125	125.06
378.35	122.06
378.576	135.06
378.802	133.06
379.027	161.06
379.253	165.06
379.478	154.06
379.704	157.06
379.929	149.06
380.155	167.06
380.38	158.06
380.606	149.06
380.831	177.06
381.057	155.06
381.282	159.06
381.507	169.06
381.733	174.06
381.958	199.06
382.184	223.06
382.409	226.06
382.634	233.06
382.86	228.06
383.085	200.06
383.31	183.06
383.535	193.06
383.761	175.06
383.986	162.06
384.211	192.06
384.436	194.06
384.662	152.06
384.887	155.06
385.112	147.06
385.337	157.06
385.562	163.06
385.787	168.06
386.013	187.06
386.238	173.06
386.463	165.06
386.688	140.06
386.913	140.06
387.138	150.06
387.363	147.06
387.588	152.06
387.813	157.06
388.038	165.06
388.263	146.06
388.488	162.06
388.713	173.06
388.938	183.06
389.163	149.06
389.387	137.06
389.612	151.06
389.837	145.06
390.062	163.06
390.287	143.06
390.512	141.06
390.736	142.06
390.961	156.06
391.186	131.06
391.411	136.06
391.636	149.06
391.86	147.06
392.085	149.06
392.31	160.06
392.534	153.06
392.759	161.06
392.984	153.06
393.208	147.06
393.433	130.06
393.658	138.06
393.882	134.06
394.107	130.06
394.331	136.06
394.556	133.06
394.78	136.06
395.005	141.06
395.229	140.06
395.454	146.06
395.678	153.06
395.903	155.06
396.127	117.06
396.352	149.06
396.576	158.06
396.801	173.06
397.025	162.06
397.249	187.06
397.474	163.06
397.698	152.06
397.922	158.06
398.147	136.06
398.371	139.06
398.595	134.06
398.82	149.06
399.044	149.06
399.268	177.06
399.492	165.06
399.717	154.06
399.941	166.06
400.165	143.06
400.389	142.06
400.613	161.06
400.837	161.06
401.062	156.06
401.286	148.06
401.51	156.06
401.734	149.06
401.958	153.06
402.182	164.06
402.406	137.06
402.63	143.06
402.854	153.06
403.078	157.06
403.302	196.06
403.526	207.06
403.75	195.06
403.974	177.06
404.198	177.06
404.422	185.06
404.645	210.06
404.869	191.06
405.093	162.06
405.317	154.06
405.541	155.06
405.765	153.06
405.988	171.06
406.212	154.06
406.436	183.06
406.66	210.06
406.883	163.06
407.107	172.06
407.331	185.06
407.555	181.06
407.778	169.06
408.002	162.06
408.226	162.06
408.449	174.06
408.673	148.06
408.896	147.06
409.12	139.06
409.344	161.06
409.567	133.06
409.791	142.06
410.014	141.06
410.238	140.06
410.461	145.06
410.685	137.06
410.908	143.06
411.132	152.06
411.355	147.06
411.578	146.06
411.802	141.06
412.025	151.06
412.249	153.06
412.472	157.06
412.695	142.06
412.919	139.06
413.142	154.06
413.365	164.06
413.589	153.06
413.812	155.06
414.035	149.06
414.258	142.06
414.482	158.06
414.705	161.06
414.928	145.06
415.151	139.06
415.374	163.06
415.597	166.06
415.821	148.06
416.044	147.06
416.267	137.06
416.49	143.06
416.713	124.06
416.936	146.06
417.159	133.06
417.382	141.06
417.605	149.06
417.828	147.06
418.051	155.06
418.274	164.06
418.497	157.06
418.72	148.06
418.943	154.06
419.166	145.06
419.389	168.06
419.611	159.06
419.834	154.06
420.057	180.06
420.28	161.06
420.503	169.06
420.726	138.06
420.948	151.06
421.171	135.06
421.394	155.06
421.617	149.06
421.839	121.06
422.062	147.06
422.285	142.06
422.507	143.06
422.73	157.06
422.953	168.06
423.175	155.06
423.398	149.06
423.621	165.06
423.843	144.06
424.066	139.06
424.288	152.06
424.511	141.06
424.733	152.06
424.956	167.06
425.178	166.06
425.401	194.06
425.623	191.06
425.846	163.06
426.068	162.06
426.291	178.06
426.513	164.06
426.735	149.06
426.958	163.06
427.18	170.06
427.402	197.06
427.625	213.06
427.847	195.06
428.069	143.06
428.292	149.06
428.514	155.06
428.736	163.06
428.958	165.06
429.181	177.06
429.403	166.06
429.625	143.06
429.847	144.06
430.069	161.06
430.292	174.06
430.514	156.06
430.736	141.06
430.958	189.06
431.18	173.06
431.402	159.06
431.624	150.06
431.846	132.06
432.068	159.06
432.29	161.06
432.512	164.06
432.734	163.06
432.956	174.06
433.178	138.06
433.4	131.06
433.622	156.06
433.844	161.06
434.066	164.06
434.287	156.06
434.509	148.06
434.731	154.06
434.953	155.06
435.175	156.06
435.397	187.06
435.618	146.06
435.84	140.06
436.062	143.06
436.284	155.06
436.505	126.06
436.727	141.06
436.949	131.06
437.17	153.06
437.392	153.06
437.614	159.06
437.835	119.06
438.057	163.06
438.278	154.06
438.5	218.06
438.721	187.06
438.943	151.06
439.165	150.06
439.386	126.06
439.608	146.06
439.829	129.06
440.05	128.06
440.272	149.06
440.493	151.06
440.715	173.06
440.936	146.06
441.158	168.06
441.379	124.06
441.6	159.06
441.822	173.06
442.043	153.06
442.264	168.06
442.486	158.06
442.707	144.06
442.928	155.06
443.149	152.06
443.371	154.06
443.592	155.06
443.813	147.06
444.034	143.06
444.255	151.06
444.476	162.06
444.698	143.06
444.919	165.06
445.14	279.06
445.361	226.06
445.582	167.06
445.803	157.06
446.024	150.06
446.245	171.06
446.466	151.06
446.687	142.06
446.908	168.06
447.129	140.06
447.35	141.06
447.571	141.06
447.792	129.06
448.013	140.06
448.234	151.06
448.455	140.06
448.675	131.06
448.896	143.06
449.117	141.06
449.338	159.06
449.559	148.06
449.779	151.06
450	148.06
450.221	137.06
450.442	152.06
450.662	143.06
450.883	155.06
451.104	138.06
451.324	145.06
451.545	154.06
451.766	138.06
451.986	139.06
452.207	141.06
452.428	151.06
452.648	150.06
452.869	163.06
453.089	146.06
453.31	140.06
453.53	143.06
453.751	141.06
453.971	135.06
454.192	145.06
454.412	142.06
454.633	133.06
454.853	138.06
455.073	127.06
455.294	131.06
455.514	140.06
455.734	129.06
455.955	139.06
456.175	149.06
456.395	133.06
456.616	141.06
456.836	139.06
457.056	120.06
457.276	116.06
457.497	137.06
457.717	120.06
457.937	134.06
458.157	137.06
458.377	147.06
458.598	149.06
458.818	141.06
459.038	146.06
459.258	139.06
459.478	142.06
459.698	149.06
459.918	158.06
460.138	148.06
460.358	140.06
460.578	118.06
460.798	160.06
461.018	138.06
461.238	141.06
461.458	143.06
461.678	169.06
461.898	157.06
462.118	165.06
462.338	168.06
462.558	147.06
462.777	151.06
462.997	166.06
463.217	157.06
463.437	156.06
463.657	163.06
463.876	161.06
464.096	150.06
464.316	166.06
464.536	148.06
464.755	160.06
464.975	158.06
465.195	159.06
465.414	166.06
465.634	161.06
465.854	160.06
466.073	142.06
466.293	137.06
466.512	164.06
466.732	153.06
466.951	158.06
467.171	149.06
467.391	145.06
467.61	151.06
467.829	163.06
468.049	157.06
468.268	149.06
468.488	155.06
468.707	158.06
468.927	171.06
469.146	166.06
469.365	149.06
469.585	162.06
469.804	168.06
470.023	173.06
470.243	174.06
470.462	152.06
470.681	149.06
470.901	147.06
471.12	172.06
471.339	150.06
471.558	144.06
471.777	151.06
471.997	188.06
472.216	179.06
472.435	175.06
472.654	165.06
472.873	138.06
473.092	161.06
473.311	174.06
473.53	163.06
473.749	157.06
473.968	157.06
474.187	157.06
474.406	151.06
474.625	147.06
474.844	154.06
475.063	166.06
475.282	151.06
475.501	164.06
475.72	191.06
475.939	173.06
476.158	168.06
476.377	200.06
476.596	210.06
476.814	208.06
477.033	188.06
477.252	169.06
477.471	166.06
477.69	162.06
477.908	166.06
478.127	172.06
478.346	183.06
478.564	185.06
478.783	170.06
479.002	183.06
479.22	193.06
479.439	197.06
479.658	197.06
479.876	170.06
480.095	178.06
480.313	177.06
480.532	173.06
480.751	163.06
480.969	163.06
481.188	185.06
481.406	205.06
481.624	195.06
481.843	167.06
482.061	172.06
482.28	155.06
482.498	199.06
482.717	222.06
482.935	181.06
483.153	171.06
483.372	162.06
483.59	163.06
483.808	156.06
484.027	166.06
484.245	158.06
484.463	164.06
484.681	156.06
484.9	175.06
485.118	181.06
485.336	161.06
485.554	154.06
485.772	158.06
485.99	187.06
486.209	191.06
486.427	170.06
486.645	185.06
486.863	170.06
487.081	169.06
487.299	192.06
487.517	193.06
487.735	166.06
487.953	169.06
488.171	175.06
488.389	172.06
488.607	157.06
488.825	162.06
489.043	189.06
489.261	215.06
489.479	223.06
489.696	182.06
489.914	163.06
490.132	157.06
490.35	156.06
490.568	172.06
490.786	175.06
491.003	163.06
491.221	189.06
491.439	181.06
491.657	185.06
491.874	170.06
492.092	201.06
492.31	248.06
492.527	244.06
492.745	192.06
492.963	193.06
493.18	187.06
493.398	189.06
493.615	190.06
493.833	193.06
494.05	193.06
494.268	181.06
494.485	167.06
494.703	186.06
494.92	185.06
495.138	173.06
495.355	185.06
495.573	185.06
495.79	200.06
496.008	260.06
496.225	206.06
496.442	194.06
496.66	216.06
496.877	221.06
497.094	198.06
497.312	185.06
497.529	176.06
497.746	206.06
497.963	191.06
498.181	200.06
498.398	203.06
498.615	204.06
498.832	216.06
499.049	226.06
499.267	195.06
499.484	205.06
499.701	204.06
499.918	221.06
500.135	234.06
500.352	259.06
500.569	265.06
500.786	285.06
501.003	255.06
501.22	250.06
501.437	214.06
501.654	242.06
501.871	219.06
502.088	228.06
502.305	197.06
502.522	206.06
502.739	213.06
