Data from NickelSpatula_HRD10591_16-33-36-126.txt Node
Date: Mon Jul 22 16:33:36 EDT 2019
User: cochatt
Spectrometer: HR+D1059
Trigger mode: 1
Integration Time (sec): 1.000000E-1
Scans to average: 1
Electric dark correction enabled: true
Nonlinearity correction enabled: false
Boxcar width: 0
XAxis mode: Wavelengths
Number of Pixels in Spectrum: 2048
>>>>>Begin Spectral Data<<<<<
223.165	-20.19
223.4	-20.19
223.635	-20.19
223.869	-11.19
224.104	-30.19
224.338	2.81
224.573	-15.19
224.808	-20.19
225.042	-21.19
225.277	-4.19
225.511	6.81
225.746	-2.19
225.98	3.81
226.215	7.81
226.449	17.81
226.683	26.81
226.918	15.81
227.152	42.81
227.387	34.81
227.621	33.81
227.856	41.81
228.09	40.81
228.324	41.81
228.559	54.81
228.793	58.81
229.027	66.81
229.262	76.81
229.496	82.81
229.73	68.81
229.964	92.81
230.199	86.81
230.433	91.81
230.667	93.81
230.901	84.81
231.136	90.81
231.37	91.81
231.604	86.81
231.838	114.81
232.072	108.81
232.306	92.81
232.541	103.81
232.775	100.81
233.009	91.81
233.243	105.81
233.477	115.81
233.711	110.81
233.945	129.81
234.179	122.81
234.413	122.81
234.647	117.81
234.881	125.81
235.115	121.81
235.349	128.81
235.583	122.81
235.817	114.81
236.051	115.81
236.285	125.81
236.519	123.81
236.753	121.81
236.987	135.81
237.221	127.81
237.455	123.81
237.689	131.81
237.922	137.81
238.156	123.81
238.39	148.81
238.624	171.81
238.858	158.81
239.091	135.81
239.325	137.81
239.559	125.81
239.793	147.81
240.027	154.81
240.26	150.81
240.494	132.81
240.728	136.81
240.961	158.81
241.195	146.81
241.429	162.81
241.662	171.81
241.896	131.81
242.13	121.81
242.363	120.81
242.597	130.81
242.83	145.81
243.064	152.81
243.298	146.81
243.531	161.81
243.765	165.81
243.998	156.81
244.232	151.81
244.465	146.81
244.699	146.81
244.932	162.81
245.166	153.81
245.399	157.81
245.633	136.81
245.866	142.81
246.099	158.81
246.333	191.81
246.566	166.81
246.8	184.81
247.033	175.81
247.266	165.81
247.5	148.81
247.733	169.81
247.966	147.81
248.2	168.81
248.433	174.81
248.666	179.81
248.899	190.81
249.133	195.81
249.366	190.81
249.599	235.81
249.832	223.81
250.066	183.81
250.299	178.81
250.532	187.81
250.765	170.81
250.998	176.81
251.231	161.81
251.465	178.81
251.698	185.81
251.931	186.81
252.164	190.81
252.397	193.81
252.63	204.81
252.863	222.81
253.096	264.81
253.329	241.81
253.562	240.81
253.795	254.81
254.028	286.81
254.261	280.81
254.494	265.81
254.727	223.81
254.96	231.81
255.193	248.81
255.426	254.81
255.659	205.81
255.892	178.81
256.124	200.81
256.357	235.81
256.59	245.81
256.823	266.81
257.056	223.81
257.289	201.81
257.521	196.81
257.754	247.81
257.987	277.81
258.22	246.81
258.452	209.81
258.685	240.81
258.918	245.81
259.151	260.81
259.383	273.81
259.616	306.81
259.849	303.81
260.081	334.81
260.314	359.81
260.547	299.81
260.779	300.81
261.012	350.81
261.244	324.81
261.477	332.81
261.71	296.81
261.942	265.81
262.175	251.81
262.407	242.81
262.64	264.81
262.872	271.81
263.105	308.81
263.337	334.81
263.57	303.81
263.802	227.81
264.035	185.81
264.267	197.81
264.499	168.81
264.732	168.81
264.964	177.81
265.197	178.81
265.429	190.81
265.661	195.81
265.894	187.81
266.126	185.81
266.358	240.81
266.591	254.81
266.823	292.81
267.055	298.81
267.287	246.81
267.52	261.81
267.752	283.81
267.984	304.81
268.216	286.81
268.448	241.81
268.681	248.81
268.913	261.81
269.145	274.81
269.377	269.81
269.609	282.81
269.841	258.81
270.073	257.81
270.306	291.81
270.538	287.81
270.77	295.81
271.002	296.81
271.234	296.81
271.466	319.81
271.698	294.81
271.93	288.81
272.162	276.81
272.394	277.81
272.626	262.81
272.858	291.81
273.09	288.81
273.322	244.81
273.553	247.81
273.785	258.81
274.017	338.81
274.249	413.81
274.481	423.81
274.713	467.81
274.945	531.81
275.176	596.81
275.408	515.81
275.64	472.81
275.872	471.81
276.104	414.81
276.335	362.81
276.567	350.81
276.799	367.81
277.031	411.81
277.262	302.81
277.494	259.81
277.726	241.81
277.957	252.81
278.189	300.81
278.421	280.81
278.652	275.81
278.884	266.81
279.115	256.81
279.347	265.81
279.579	248.81
279.81	254.81
280.042	251.81
280.273	260.81
280.505	252.81
280.736	236.81
280.968	218.81
281.199	227.81
281.431	264.81
281.662	258.81
281.894	224.81
282.125	236.81
282.356	267.81
282.588	248.81
282.819	250.81
283.051	274.81
283.282	327.81
283.513	368.81
283.745	402.81
283.976	409.81
284.207	370.81
284.439	391.81
284.67	373.81
284.901	328.81
285.132	353.81
285.364	382.81
285.595	340.81
285.826	374.81
286.057	363.81
286.288	374.81
286.52	371.81
286.751	388.81
286.982	378.81
287.213	340.81
287.444	346.81
287.675	366.81
287.906	346.81
288.138	312.81
288.369	276.81
288.6	259.81
288.831	250.81
289.062	296.81
289.293	344.81
289.524	332.81
289.755	314.81
289.986	321.81
290.217	287.81
290.448	255.81
290.679	203.81
290.91	189.81
291.141	190.81
291.371	210.81
291.602	215.81
291.833	215.81
292.064	217.81
292.295	236.81
292.526	259.81
292.757	285.81
292.987	306.81
293.218	314.81
293.449	317.81
293.68	336.81
293.91	299.81
294.141	324.81
294.372	301.81
294.603	275.81
294.833	294.81
295.064	344.81
295.295	358.81
295.525	256.81
295.756	243.81
295.987	220.81
296.217	202.81
296.448	196.81
296.679	226.81
296.909	232.81
297.14	249.81
297.37	278.81
297.601	290.81
297.831	223.81
298.062	238.81
298.292	271.81
298.523	297.81
298.753	322.81
298.984	291.81
299.214	250.81
299.445	225.81
299.675	184.81
299.905	200.81
300.136	214.81
300.366	214.81
300.597	232.81
300.827	185.81
301.057	204.81
301.288	192.81
301.518	226.81
301.748	235.81
301.979	254.81
302.209	250.81
302.439	254.81
302.669	232.81
302.9	233.81
303.13	231.81
303.36	221.81
303.59	213.81
303.82	232.81
304.051	247.81
304.281	246.81
304.511	258.81
304.741	222.81
304.971	235.81
305.201	247.81
305.431	267.81
305.661	203.81
305.891	222.81
306.121	216.81
306.352	198.81
306.582	190.81
306.812	182.81
307.042	191.81
307.272	181.81
307.502	180.81
307.731	195.81
307.961	185.81
308.191	177.81
308.421	177.81
308.651	185.81
308.881	170.81
309.111	168.81
309.341	174.81
309.571	183.81
309.8	193.81
310.03	207.81
310.26	188.81
310.49	198.81
310.72	195.81
310.949	187.81
311.179	188.81
311.409	149.81
311.639	212.81
311.868	255.81
312.098	327.81
312.328	359.81
312.557	363.81
312.787	358.81
313.017	299.81
313.246	322.81
313.476	369.81
313.706	289.81
313.935	244.81
314.165	203.81
314.394	195.81
314.624	203.81
314.853	196.81
315.083	211.81
315.312	201.81
315.542	195.81
315.771	198.81
316.001	176.81
316.23	180.81
316.46	178.81
316.689	186.81
316.919	175.81
317.148	182.81
317.377	181.81
317.607	201.81
317.836	186.81
318.065	223.81
318.295	242.81
318.524	230.81
318.753	189.81
318.983	200.81
319.212	193.81
319.441	190.81
319.67	194.81
319.9	220.81
320.129	227.81
320.358	203.81
320.587	196.81
320.816	202.81
321.046	233.81
321.275	256.81
321.504	218.81
321.733	214.81
321.962	221.81
322.191	215.81
322.42	218.81
322.649	203.81
322.878	228.81
323.108	222.81
323.337	208.81
323.566	214.81
323.795	199.81
324.024	210.81
324.253	199.81
324.482	198.81
324.71	201.81
324.939	238.81
325.168	194.81
325.397	184.81
325.626	192.81
325.855	185.81
326.084	184.81
326.313	185.81
326.542	181.81
326.77	185.81
326.999	179.81
327.228	207.81
327.457	199.81
327.686	192.81
327.914	188.81
328.143	170.81
328.372	170.81
328.6	180.81
328.829	177.81
329.058	190.81
329.287	188.81
329.515	193.81
329.744	190.81
329.972	161.81
330.201	169.81
330.43	168.81
330.658	180.81
330.887	204.81
331.115	198.81
331.344	211.81
331.572	194.81
331.801	184.81
332.03	174.81
332.258	196.81
332.486	191.81
332.715	207.81
332.943	195.81
333.172	189.81
333.4	211.81
333.629	206.81
333.857	228.81
334.085	217.81
334.314	221.81
334.542	216.81
334.771	195.81
334.999	185.81
335.227	186.81
335.455	182.81
335.684	195.81
335.912	214.81
336.14	264.81
336.369	243.81
336.597	234.81
336.825	260.81
337.053	271.81
337.281	237.81
337.51	190.81
337.738	203.81
337.966	207.81
338.194	221.81
338.422	215.81
338.65	209.81
338.878	195.81
339.106	193.81
339.334	187.81
339.562	204.81
339.79	206.81
340.018	204.81
340.246	190.81
340.474	238.81
340.702	228.81
340.93	225.81
341.158	228.81
341.386	218.81
341.614	207.81
341.842	207.81
342.07	207.81
342.298	240.81
342.526	254.81
342.754	219.81
342.981	208.81
343.209	199.81
343.437	213.81
343.665	214.81
343.893	201.81
344.12	244.81
344.348	273.81
344.576	278.81
344.804	223.81
345.031	211.81
345.259	197.81
345.487	191.81
345.714	195.81
345.942	206.81
346.17	224.81
346.397	222.81
346.625	194.81
346.853	163.81
347.08	184.81
347.308	200.81
347.535	212.81
347.763	214.81
347.99	184.81
348.218	192.81
348.445	200.81
348.673	188.81
348.9	199.81
349.128	199.81
349.355	209.81
349.583	218.81
349.81	213.81
350.037	184.81
350.265	180.81
350.492	166.81
350.72	161.81
350.947	163.81
351.174	184.81
351.402	184.81
351.629	178.81
351.856	184.81
352.083	177.81
352.311	188.81
352.538	191.81
352.765	208.81
352.992	179.81
353.22	189.81
353.447	210.81
353.674	192.81
353.901	196.81
354.128	184.81
354.355	186.81
354.583	180.81
354.81	202.81
355.037	181.81
355.264	199.81
355.491	214.81
355.718	206.81
355.945	204.81
356.172	198.81
356.399	204.81
356.626	216.81
356.853	266.81
357.08	290.81
357.307	305.81
357.534	234.81
357.761	239.81
357.988	274.81
358.215	323.81
358.441	307.81
358.668	273.81
358.895	251.81
359.122	224.81
359.349	208.81
359.576	229.81
359.802	184.81
360.029	189.81
360.256	183.81
360.483	212.81
360.709	252.81
360.936	275.81
361.163	259.81
361.39	211.81
361.616	194.81
361.843	204.81
362.07	256.81
362.296	239.81
362.523	204.81
362.749	170.81
362.976	181.81
363.203	205.81
363.429	209.81
363.656	203.81
363.882	190.81
364.109	189.81
364.335	194.81
364.562	180.81
364.788	196.81
365.015	226.81
365.241	226.81
365.468	189.81
365.694	165.81
365.92	169.81
366.147	180.81
366.373	157.81
366.599	163.81
366.826	160.81
367.052	170.81
367.278	158.81
367.505	150.81
367.731	174.81
367.957	192.81
368.184	198.81
368.41	184.81
368.636	190.81
368.862	199.81
369.089	202.81
369.315	176.81
369.541	173.81
369.767	184.81
369.993	177.81
370.219	168.81
370.445	174.81
370.672	174.81
370.898	190.81
371.124	201.81
371.35	171.81
371.576	164.81
371.802	187.81
372.028	168.81
372.254	225.81
372.48	195.81
372.706	191.81
372.932	227.81
373.158	214.81
373.384	221.81
373.61	270.81
373.835	288.81
374.061	214.81
374.287	203.81
374.513	245.81
374.739	268.81
374.965	264.81
375.191	263.81
375.416	212.81
375.642	190.81
375.868	211.81
376.094	240.81
376.319	186.81
376.545	221.81
376.771	234.81
376.997	218.81
377.222	196.81
377.448	172.81
377.674	159.81
377.899	177.81
378.125	159.81
378.35	168.81
378.576	144.81
378.802	166.81
379.027	183.81
379.253	194.81
379.478	198.81
379.704	178.81
379.929	210.81
380.155	209.81
380.38	194.81
380.606	193.81
380.831	212.81
381.057	200.81
381.282	186.81
381.507	208.81
381.733	231.81
381.958	249.81
382.184	256.81
382.409	265.81
382.634	276.81
382.86	276.81
383.085	242.81
383.31	229.81
383.535	228.81
383.761	235.81
383.986	204.81
384.211	255.81
384.436	242.81
384.662	212.81
384.887	210.81
385.112	208.81
385.337	201.81
385.562	209.81
385.787	207.81
386.013	226.81
386.238	223.81
386.463	199.81
386.688	202.81
386.913	187.81
387.138	184.81
387.363	204.81
387.588	197.81
387.813	196.81
388.038	236.81
388.263	207.81
388.488	189.81
388.713	218.81
388.938	221.81
389.163	195.81
389.387	188.81
389.612	189.81
389.837	193.81
390.062	199.81
390.287	226.81
390.512	202.81
390.736	207.81
390.961	186.81
391.186	196.81
391.411	194.81
391.636	202.81
391.86	175.81
392.085	212.81
392.31	226.81
392.534	204.81
392.759	191.81
392.984	208.81
393.208	198.81
393.433	199.81
393.658	196.81
393.882	181.81
394.107	178.81
394.331	183.81
394.556	180.81
394.78	174.81
395.005	178.81
395.229	176.81
395.454	184.81
395.678	175.81
395.903	204.81
396.127	187.81
396.352	176.81
396.576	220.81
396.801	217.81
397.025	223.81
397.249	235.81
397.474	183.81
397.698	192.81
397.922	202.81
398.147	196.81
398.371	196.81
398.595	211.81
398.82	212.81
399.044	209.81
399.268	218.81
399.492	227.81
399.717	219.81
399.941	216.81
400.165	218.81
400.389	216.81
400.613	224.81
400.837	215.81
401.062	187.81
401.286	183.81
401.51	186.81
401.734	185.81
401.958	187.81
402.182	194.81
402.406	202.81
402.63	191.81
402.854	206.81
403.078	220.81
403.302	278.81
403.526	281.81
403.75	247.81
403.974	220.81
404.198	227.81
404.422	242.81
404.645	263.81
404.869	286.81
405.093	238.81
405.317	232.81
405.541	222.81
405.765	201.81
405.988	215.81
406.212	215.81
406.436	226.81
406.66	262.81
406.883	233.81
407.107	248.81
407.331	262.81
407.555	265.81
407.778	220.81
408.002	219.81
408.226	214.81
408.449	231.81
408.673	215.81
408.896	204.81
409.12	204.81
409.344	196.81
409.567	190.81
409.791	194.81
410.014	175.81
410.238	192.81
410.461	198.81
410.685	190.81
410.908	186.81
411.132	215.81
411.355	203.81
411.578	217.81
411.802	192.81
412.025	190.81
412.249	211.81
412.472	220.81
412.695	198.81
412.919	190.81
413.142	204.81
413.365	209.81
413.589	217.81
413.812	205.81
414.035	189.81
414.258	194.81
414.482	201.81
414.705	208.81
414.928	205.81
415.151	194.81
415.374	201.81
415.597	192.81
415.821	195.81
416.044	188.81
416.267	198.81
416.49	208.81
416.713	209.81
416.936	197.81
417.159	186.81
417.382	183.81
417.605	204.81
417.828	199.81
418.051	191.81
418.274	193.81
418.497	202.81
418.72	200.81
418.943	189.81
419.166	210.81
419.389	229.81
419.611	203.81
419.834	200.81
420.057	230.81
420.28	223.81
420.503	195.81
420.726	198.81
420.948	195.81
421.171	182.81
421.394	194.81
421.617	199.81
421.839	193.81
422.062	203.81
422.285	181.81
422.507	198.81
422.73	211.81
422.953	215.81
423.175	186.81
423.398	204.81
423.621	182.81
423.843	215.81
424.066	188.81
424.288	217.81
424.511	202.81
424.733	189.81
424.956	195.81
425.178	220.81
425.401	242.81
425.623	265.81
425.846	234.81
426.068	207.81
426.291	218.81
426.513	218.81
426.735	202.81
426.958	202.81
427.18	208.81
427.402	279.81
427.625	250.81
427.847	240.81
428.069	215.81
428.292	208.81
428.514	196.81
428.736	176.81
428.958	199.81
429.181	224.81
429.403	193.81
429.625	183.81
429.847	187.81
430.069	188.81
430.292	192.81
430.514	199.81
430.736	196.81
430.958	220.81
431.18	215.81
431.402	172.81
431.624	182.81
431.846	179.81
432.068	173.81
432.29	181.81
432.512	202.81
432.734	223.81
432.956	224.81
433.178	198.81
433.4	198.81
433.622	194.81
433.844	182.81
434.066	211.81
434.287	221.81
434.509	207.81
434.731	212.81
434.953	193.81
435.175	195.81
435.397	211.81
435.618	199.81
435.84	188.81
436.062	187.81
436.284	181.81
436.505	196.81
436.727	184.81
436.949	163.81
437.17	171.81
437.392	177.81
437.614	180.81
437.835	190.81
438.057	163.81
438.278	194.81
438.5	243.81
438.721	253.81
438.943	198.81
439.165	178.81
439.386	184.81
439.608	181.81
439.829	156.81
440.05	166.81
440.272	182.81
440.493	210.81
440.715	230.81
440.936	192.81
441.158	170.81
441.379	193.81
441.6	211.81
441.822	211.81
442.043	201.81
442.264	184.81
442.486	186.81
442.707	187.81
442.928	198.81
443.149	189.81
443.371	201.81
443.592	193.81
443.813	190.81
444.034	207.81
444.255	207.81
444.476	208.81
444.698	195.81
444.919	190.81
445.14	326.81
445.361	251.81
445.582	211.81
445.803	201.81
446.024	210.81
446.245	201.81
446.466	192.81
446.687	178.81
446.908	194.81
447.129	171.81
447.35	176.81
447.571	189.81
447.792	180.81
448.013	176.81
448.234	168.81
448.455	163.81
448.675	183.81
448.896	174.81
449.117	168.81
449.338	183.81
449.559	182.81
449.779	182.81
450	201.81
450.221	197.81
450.442	185.81
450.662	178.81
450.883	169.81
451.104	177.81
451.324	164.81
451.545	177.81
451.766	170.81
451.986	187.81
452.207	191.81
452.428	178.81
452.648	158.81
452.869	167.81
453.089	175.81
453.31	169.81
453.53	166.81
453.751	161.81
453.971	156.81
454.192	176.81
454.412	174.81
454.633	170.81
454.853	191.81
455.073	166.81
455.294	180.81
455.514	167.81
455.734	179.81
455.955	183.81
456.175	174.81
456.395	169.81
456.616	158.81
456.836	153.81
457.056	162.81
457.276	153.81
457.497	161.81
457.717	163.81
457.937	153.81
458.157	157.81
458.377	165.81
458.598	161.81
458.818	186.81
459.038	188.81
459.258	184.81
459.478	191.81
459.698	192.81
459.918	201.81
460.138	209.81
460.358	199.81
460.578	193.81
460.798	201.81
461.018	202.81
461.238	183.81
461.458	199.81
461.678	198.81
461.898	209.81
462.118	218.81
462.338	203.81
462.558	212.81
462.777	232.81
462.997	222.81
463.217	220.81
463.437	252.81
463.657	228.81
463.876	205.81
464.096	226.81
464.316	222.81
464.536	218.81
464.755	223.81
464.975	221.81
465.195	223.81
465.414	225.81
465.634	207.81
465.854	196.81
466.073	189.81
466.293	178.81
466.512	192.81
466.732	196.81
466.951	203.81
467.171	190.81
467.391	187.81
467.61	180.81
467.829	197.81
468.049	186.81
468.268	170.81
468.488	180.81
468.707	183.81
468.927	201.81
469.146	227.81
469.365	218.81
469.585	183.81
469.804	215.81
470.023	206.81
470.243	210.81
470.462	183.81
470.681	181.81
470.901	192.81
471.12	205.81
471.339	203.81
471.558	190.81
471.777	189.81
471.997	186.81
472.216	226.81
472.435	226.81
472.654	192.81
472.873	207.81
473.092	206.81
473.311	205.81
473.53	202.81
473.749	203.81
473.968	207.81
474.187	206.81
474.406	188.81
474.625	200.81
474.844	223.81
475.063	208.81
475.282	204.81
475.501	232.81
475.72	230.81
475.939	231.81
476.158	227.81
476.377	249.81
476.596	266.81
476.814	294.81
477.033	249.81
477.252	214.81
477.471	187.81
477.69	214.81
477.908	207.81
478.127	237.81
478.346	219.81
478.564	255.81
478.783	224.81
479.002	224.81
479.22	258.81
479.439	279.81
479.658	240.81
479.876	239.81
480.095	232.81
480.313	241.81
480.532	208.81
480.751	228.81
480.969	238.81
481.188	272.81
481.406	246.81
481.624	236.81
481.843	220.81
482.061	217.81
482.28	241.81
482.498	298.81
482.717	287.81
482.935	242.81
483.153	234.81
483.372	212.81
483.59	209.81
483.808	197.81
484.027	216.81
484.245	208.81
484.463	198.81
484.681	220.81
484.9	210.81
485.118	240.81
485.336	225.81
485.554	198.81
485.772	212.81
485.99	246.81
486.209	240.81
486.427	238.81
486.645	243.81
486.863	218.81
487.081	240.81
487.299	268.81
487.517	276.81
487.735	239.81
487.953	240.81
488.171	248.81
488.389	219.81
488.607	214.81
488.825	211.81
489.043	239.81
489.261	276.81
489.479	304.81
489.696	243.81
489.914	210.81
490.132	199.81
490.35	212.81
490.568	221.81
490.786	222.81
491.003	230.81
491.221	222.81
491.439	230.81
491.657	201.81
491.874	249.81
492.092	274.81
492.31	308.81
492.527	308.81
492.745	283.81
492.963	247.81
493.18	257.81
493.398	235.81
493.615	256.81
493.833	259.81
494.05	235.81
494.268	251.81
494.485	246.81
494.703	234.81
494.92	235.81
495.138	257.81
495.355	233.81
495.573	218.81
495.79	254.81
496.008	319.81
496.225	283.81
496.442	247.81
496.66	249.81
496.877	266.81
497.094	272.81
497.312	264.81
497.529	251.81
497.746	240.81
497.963	250.81
498.181	262.81
498.398	282.81
498.615	304.81
498.832	315.81
499.049	329.81
499.267	312.81
499.484	327.81
499.701	339.81
499.918	373.81
500.135	382.81
500.352	390.81
500.569	417.81
500.786	435.81
501.003	404.81
501.22	388.81
501.437	374.81
501.654	351.81
501.871	329.81
502.088	330.81
502.305	292.81
502.522	278.81
502.739	290.81
