Data from NickelSpatula_HRD10591_16-36-31-126.txt Node
Date: Mon Jul 22 16:36:31 EDT 2019
User: cochatt
Spectrometer: HR+D1059
Trigger mode: 1
Integration Time (sec): 1.000000E-1
Scans to average: 1
Electric dark correction enabled: true
Nonlinearity correction enabled: false
Boxcar width: 0
XAxis mode: Wavelengths
Number of Pixels in Spectrum: 2048
>>>>>Begin Spectral Data<<<<<
223.165	-23.88
223.4	-23.88
223.635	-23.88
223.869	-5.88
224.104	-12.88
224.338	-12.88
224.573	-17.88
224.808	-10.88
225.042	-9.88
225.277	-7.88
225.511	-11.88
225.746	1.12
225.98	1.12
226.215	21.12
226.449	15.12
226.683	18.12
226.918	28.12
227.152	29.12
227.387	35.12
227.621	28.12
227.856	39.12
228.09	37.12
228.324	48.12
228.559	54.12
228.793	56.12
229.027	66.12
229.262	64.12
229.496	80.12
229.73	80.12
229.964	74.12
230.199	79.12
230.433	72.12
230.667	82.12
230.901	86.12
231.136	90.12
231.37	89.12
231.604	98.12
231.838	75.12
232.072	106.12
232.306	86.12
232.541	89.12
232.775	69.12
233.009	87.12
233.243	94.12
233.477	86.12
233.711	96.12
233.945	84.12
234.179	92.12
234.413	84.12
234.647	89.12
234.881	91.12
235.115	87.12
235.349	101.12
235.583	92.12
235.817	83.12
236.051	98.12
236.285	88.12
236.519	116.12
236.753	90.12
236.987	91.12
237.221	68.12
237.455	82.12
237.689	92.12
237.922	103.12
238.156	105.12
238.39	117.12
238.624	96.12
238.858	88.12
239.091	89.12
239.325	98.12
239.559	114.12
239.793	91.12
240.027	110.12
240.26	117.12
240.494	106.12
240.728	112.12
240.961	106.12
241.195	115.12
241.429	86.12
241.662	103.12
241.896	94.12
242.13	115.12
242.363	93.12
242.597	96.12
242.83	116.12
243.064	100.12
243.298	111.12
243.531	104.12
243.765	123.12
243.998	115.12
244.232	103.12
244.465	112.12
244.699	102.12
244.932	120.12
245.166	104.12
245.399	107.12
245.633	89.12
245.866	91.12
246.099	118.12
246.333	105.12
246.566	119.12
246.8	114.12
247.033	116.12
247.266	113.12
247.5	106.12
247.733	112.12
247.966	110.12
248.2	103.12
248.433	104.12
248.666	113.12
248.899	117.12
249.133	109.12
249.366	123.12
249.599	135.12
249.832	132.12
250.066	134.12
250.299	121.12
250.532	118.12
250.765	110.12
250.998	106.12
251.231	97.12
251.465	116.12
251.698	119.12
251.931	111.12
252.164	122.12
252.397	132.12
252.63	146.12
252.863	142.12
253.096	144.12
253.329	129.12
253.562	135.12
253.795	151.12
254.028	148.12
254.261	132.12
254.494	138.12
254.727	130.12
254.96	123.12
255.193	144.12
255.426	123.12
255.659	118.12
255.892	109.12
256.124	116.12
256.357	136.12
256.59	136.12
256.823	127.12
257.056	117.12
257.289	112.12
257.521	128.12
257.754	118.12
257.987	138.12
258.22	122.12
258.452	132.12
258.685	142.12
258.918	143.12
259.151	150.12
259.383	142.12
259.616	141.12
259.849	157.12
260.081	152.12
260.314	151.12
260.547	140.12
260.779	155.12
261.012	168.12
261.244	163.12
261.477	159.12
261.71	148.12
261.942	133.12
262.175	150.12
262.407	140.12
262.64	148.12
262.872	175.12
263.105	155.12
263.337	162.12
263.57	174.12
263.802	127.12
264.035	105.12
264.267	121.12
264.499	118.12
264.732	114.12
264.964	97.12
265.197	108.12
265.429	107.12
265.661	130.12
265.894	122.12
266.126	116.12
266.358	134.12
266.591	149.12
266.823	153.12
267.055	139.12
267.287	126.12
267.52	139.12
267.752	144.12
267.984	142.12
268.216	138.12
268.448	128.12
268.681	136.12
268.913	139.12
269.145	146.12
269.377	149.12
269.609	134.12
269.841	139.12
270.073	147.12
270.306	150.12
270.538	145.12
270.77	152.12
271.002	153.12
271.234	165.12
271.466	155.12
271.698	158.12
271.93	156.12
272.162	128.12
272.394	143.12
272.626	146.12
272.858	161.12
273.09	166.12
273.322	138.12
273.553	132.12
273.785	148.12
274.017	164.12
274.249	201.12
274.481	187.12
274.713	212.12
274.945	249.12
275.176	223.12
275.408	225.12
275.64	202.12
275.872	206.12
276.104	194.12
276.335	170.12
276.567	171.12
276.799	177.12
277.031	165.12
277.262	148.12
277.494	138.12
277.726	137.12
277.957	135.12
278.189	148.12
278.421	150.12
278.652	160.12
278.884	137.12
279.115	117.12
279.347	125.12
279.579	119.12
279.81	138.12
280.042	133.12
280.273	136.12
280.505	136.12
280.736	122.12
280.968	130.12
281.199	117.12
281.431	131.12
281.662	126.12
281.894	134.12
282.125	136.12
282.356	145.12
282.588	133.12
282.819	138.12
283.051	147.12
283.282	160.12
283.513	162.12
283.745	175.12
283.976	186.12
284.207	197.12
284.439	177.12
284.67	167.12
284.901	156.12
285.132	178.12
285.364	176.12
285.595	164.12
285.826	186.12
286.057	176.12
286.288	179.12
286.52	171.12
286.751	170.12
286.982	180.12
287.213	158.12
287.444	150.12
287.675	161.12
287.906	160.12
288.138	151.12
288.369	151.12
288.6	136.12
288.831	136.12
289.062	168.12
289.293	157.12
289.524	178.12
289.755	162.12
289.986	167.12
290.217	152.12
290.448	122.12
290.679	118.12
290.91	125.12
291.141	122.12
291.371	124.12
291.602	120.12
291.833	126.12
292.064	127.12
292.295	146.12
292.526	138.12
292.757	151.12
292.987	146.12
293.218	145.12
293.449	160.12
293.68	164.12
293.91	162.12
294.141	147.12
294.372	150.12
294.603	141.12
294.833	135.12
295.064	162.12
295.295	150.12
295.525	136.12
295.756	139.12
295.987	122.12
296.217	130.12
296.448	121.12
296.679	124.12
296.909	116.12
297.14	153.12
297.37	145.12
297.601	128.12
297.831	120.12
298.062	127.12
298.292	130.12
298.523	148.12
298.753	148.12
298.984	132.12
299.214	121.12
299.445	120.12
299.675	121.12
299.905	114.12
300.136	120.12
300.366	127.12
300.597	120.12
300.827	121.12
301.057	115.12
301.288	119.12
301.518	119.12
301.748	117.12
301.979	121.12
302.209	130.12
302.439	131.12
302.669	131.12
302.9	130.12
303.13	120.12
303.36	124.12
303.59	123.12
303.82	126.12
304.051	130.12
304.281	121.12
304.511	127.12
304.741	124.12
304.971	114.12
305.201	122.12
305.431	139.12
305.661	137.12
305.891	130.12
306.121	123.12
306.352	116.12
306.582	113.12
306.812	117.12
307.042	99.12
307.272	100.12
307.502	114.12
307.731	107.12
307.961	113.12
308.191	115.12
308.421	104.12
308.651	112.12
308.881	107.12
309.111	126.12
309.341	120.12
309.571	107.12
309.8	118.12
310.03	124.12
310.26	121.12
310.49	122.12
310.72	120.12
310.949	95.12
311.179	117.12
311.409	118.12
311.639	131.12
311.868	129.12
312.098	152.12
312.328	174.12
312.557	160.12
312.787	158.12
313.017	167.12
313.246	160.12
313.476	168.12
313.706	149.12
313.935	125.12
314.165	95.12
314.394	104.12
314.624	114.12
314.853	119.12
315.083	103.12
315.312	124.12
315.542	105.12
315.771	116.12
316.001	111.12
316.23	124.12
316.46	112.12
316.689	115.12
316.919	110.12
317.148	115.12
317.377	120.12
317.607	112.12
317.836	113.12
318.065	130.12
318.295	131.12
318.524	136.12
318.753	108.12
318.983	118.12
319.212	126.12
319.441	113.12
319.67	119.12
319.9	122.12
320.129	113.12
320.358	132.12
320.587	117.12
320.816	116.12
321.046	136.12
321.275	130.12
321.504	135.12
321.733	129.12
321.962	131.12
322.191	125.12
322.42	118.12
322.649	115.12
322.878	132.12
323.108	116.12
323.337	115.12
323.566	123.12
323.795	123.12
324.024	119.12
324.253	118.12
324.482	116.12
324.71	132.12
324.939	129.12
325.168	121.12
325.397	121.12
325.626	121.12
325.855	114.12
326.084	121.12
326.313	115.12
326.542	112.12
326.77	113.12
326.999	105.12
327.228	121.12
327.457	112.12
327.686	121.12
327.914	108.12
328.143	110.12
328.372	106.12
328.6	108.12
328.829	117.12
329.058	114.12
329.287	106.12
329.515	113.12
329.744	102.12
329.972	95.12
330.201	124.12
330.43	112.12
330.658	102.12
330.887	123.12
331.115	116.12
331.344	124.12
331.572	122.12
331.801	113.12
332.03	104.12
332.258	119.12
332.486	121.12
332.715	126.12
332.943	114.12
333.172	124.12
333.4	122.12
333.629	116.12
333.857	108.12
334.085	112.12
334.314	128.12
334.542	127.12
334.771	129.12
334.999	103.12
335.227	105.12
335.455	103.12
335.684	115.12
335.912	118.12
336.14	120.12
336.369	145.12
336.597	134.12
336.825	134.12
337.053	147.12
337.281	142.12
337.51	133.12
337.738	108.12
337.966	116.12
338.194	117.12
338.422	119.12
338.65	129.12
338.878	117.12
339.106	116.12
339.334	116.12
339.562	126.12
339.79	118.12
340.018	132.12
340.246	126.12
340.474	136.12
340.702	130.12
340.93	144.12
341.158	128.12
341.386	129.12
341.614	124.12
341.842	108.12
342.07	118.12
342.298	129.12
342.526	130.12
342.754	116.12
342.981	114.12
343.209	108.12
343.437	132.12
343.665	126.12
343.893	124.12
344.12	136.12
344.348	152.12
344.576	141.12
344.804	119.12
345.031	114.12
345.259	103.12
345.487	124.12
345.714	121.12
345.942	124.12
346.17	123.12
346.397	128.12
346.625	124.12
346.853	114.12
347.08	116.12
347.308	112.12
347.535	124.12
347.763	118.12
347.99	124.12
348.218	122.12
348.445	112.12
348.673	123.12
348.9	118.12
349.128	127.12
349.355	129.12
349.583	121.12
349.81	119.12
350.037	96.12
350.265	102.12
350.492	103.12
350.72	113.12
350.947	114.12
351.174	94.12
351.402	122.12
351.629	126.12
351.856	117.12
352.083	118.12
352.311	117.12
352.538	120.12
352.765	123.12
352.992	125.12
353.22	127.12
353.447	118.12
353.674	124.12
353.901	106.12
354.128	116.12
354.355	120.12
354.583	114.12
354.81	117.12
355.037	123.12
355.264	114.12
355.491	121.12
355.718	119.12
355.945	120.12
356.172	107.12
356.399	110.12
356.626	112.12
356.853	140.12
357.08	137.12
357.307	130.12
357.534	124.12
357.761	134.12
357.988	136.12
358.215	148.12
358.441	151.12
358.668	143.12
358.895	150.12
359.122	130.12
359.349	134.12
359.576	124.12
359.802	130.12
360.029	123.12
360.256	110.12
360.483	120.12
360.709	127.12
360.936	147.12
361.163	121.12
361.39	113.12
361.616	127.12
361.843	126.12
362.07	145.12
362.296	128.12
362.523	114.12
362.749	114.12
362.976	119.12
363.203	120.12
363.429	135.12
363.656	118.12
363.882	110.12
364.109	110.12
364.335	105.12
364.562	133.12
364.788	126.12
365.015	125.12
365.241	129.12
365.468	104.12
365.694	106.12
365.92	119.12
366.147	112.12
366.373	100.12
366.599	96.12
366.826	116.12
367.052	107.12
367.278	106.12
367.505	99.12
367.731	112.12
367.957	107.12
368.184	103.12
368.41	116.12
368.636	110.12
368.862	128.12
369.089	118.12
369.315	103.12
369.541	107.12
369.767	111.12
369.993	119.12
370.219	113.12
370.445	112.12
370.672	101.12
370.898	115.12
371.124	132.12
371.35	110.12
371.576	122.12
371.802	123.12
372.028	104.12
372.254	122.12
372.48	118.12
372.706	121.12
372.932	115.12
373.158	135.12
373.384	141.12
373.61	146.12
373.835	143.12
374.061	112.12
374.287	109.12
374.513	144.12
374.739	131.12
374.965	144.12
375.191	131.12
375.416	107.12
375.642	108.12
375.868	135.12
376.094	128.12
376.319	124.12
376.545	127.12
376.771	126.12
376.997	116.12
377.222	106.12
377.448	121.12
377.674	108.12
377.899	98.12
378.125	109.12
378.35	105.12
378.576	118.12
378.802	100.12
379.027	122.12
379.253	117.12
379.478	119.12
379.704	129.12
379.929	131.12
380.155	114.12
380.38	111.12
380.606	126.12
380.831	130.12
381.057	129.12
381.282	126.12
381.507	123.12
381.733	135.12
381.958	140.12
382.184	132.12
382.409	144.12
382.634	158.12
382.86	130.12
383.085	130.12
383.31	123.12
383.535	126.12
383.761	137.12
383.986	126.12
384.211	128.12
384.436	123.12
384.662	134.12
384.887	126.12
385.112	117.12
385.337	110.12
385.562	104.12
385.787	121.12
386.013	126.12
386.238	128.12
386.463	122.12
386.688	119.12
386.913	108.12
387.138	115.12
387.363	115.12
387.588	129.12
387.813	124.12
388.038	123.12
388.263	125.12
388.488	118.12
388.713	123.12
388.938	120.12
389.163	112.12
389.387	115.12
389.612	116.12
389.837	117.12
390.062	120.12
390.287	126.12
390.512	120.12
390.736	114.12
390.961	108.12
391.186	110.12
391.411	118.12
391.636	117.12
391.86	123.12
392.085	128.12
392.31	118.12
392.534	118.12
392.759	124.12
392.984	125.12
393.208	135.12
393.433	144.12
393.658	126.12
393.882	108.12
394.107	104.12
394.331	113.12
394.556	106.12
394.78	115.12
395.005	108.12
395.229	101.12
395.454	115.12
395.678	133.12
395.903	113.12
396.127	120.12
396.352	115.12
396.576	115.12
396.801	137.12
397.025	123.12
397.249	124.12
397.474	104.12
397.698	112.12
397.922	117.12
398.147	114.12
398.371	111.12
398.595	121.12
398.82	126.12
399.044	118.12
399.268	121.12
399.492	136.12
399.717	124.12
399.941	123.12
400.165	115.12
400.389	116.12
400.613	115.12
400.837	118.12
401.062	124.12
401.286	127.12
401.51	105.12
401.734	106.12
401.958	119.12
402.182	113.12
402.406	114.12
402.63	120.12
402.854	121.12
403.078	128.12
403.302	132.12
403.526	144.12
403.75	151.12
403.974	121.12
404.198	126.12
404.422	131.12
404.645	133.12
404.869	159.12
405.093	144.12
405.317	118.12
405.541	116.12
405.765	124.12
405.988	106.12
406.212	135.12
406.436	150.12
406.66	139.12
406.883	134.12
407.107	142.12
407.331	155.12
407.555	121.12
407.778	132.12
408.002	122.12
408.226	131.12
408.449	116.12
408.673	117.12
408.896	114.12
409.12	118.12
409.344	120.12
409.567	121.12
409.791	123.12
410.014	118.12
410.238	117.12
410.461	117.12
410.685	109.12
410.908	110.12
411.132	114.12
411.355	124.12
411.578	122.12
411.802	116.12
412.025	121.12
412.249	122.12
412.472	147.12
412.695	122.12
412.919	121.12
413.142	116.12
413.365	122.12
413.589	124.12
413.812	134.12
414.035	112.12
414.258	117.12
414.482	110.12
414.705	126.12
414.928	116.12
415.151	118.12
415.374	116.12
415.597	112.12
415.821	126.12
416.044	130.12
416.267	111.12
416.49	118.12
416.713	102.12
416.936	113.12
417.159	116.12
417.382	115.12
417.605	126.12
417.828	108.12
418.051	126.12
418.274	122.12
418.497	117.12
418.72	117.12
418.943	121.12
419.166	131.12
419.389	132.12
419.611	116.12
419.834	143.12
420.057	123.12
420.28	128.12
420.503	125.12
420.726	104.12
420.948	114.12
421.171	116.12
421.394	119.12
421.617	110.12
421.839	128.12
422.062	128.12
422.285	123.12
422.507	110.12
422.73	119.12
422.953	130.12
423.175	130.12
423.398	118.12
423.621	115.12
423.843	138.12
424.066	117.12
424.288	130.12
424.511	123.12
424.733	122.12
424.956	126.12
425.178	131.12
425.401	134.12
425.623	131.12
425.846	133.12
426.068	103.12
426.291	122.12
426.513	110.12
426.735	116.12
426.958	119.12
427.18	139.12
427.402	149.12
427.625	135.12
427.847	138.12
428.069	114.12
428.292	114.12
428.514	116.12
428.736	121.12
428.958	117.12
429.181	132.12
429.403	120.12
429.625	126.12
429.847	128.12
430.069	123.12
430.292	126.12
430.514	120.12
430.736	133.12
430.958	117.12
431.18	125.12
431.402	122.12
431.624	110.12
431.846	122.12
432.068	118.12
432.29	117.12
432.512	120.12
432.734	123.12
432.956	109.12
433.178	120.12
433.4	126.12
433.622	122.12
433.844	124.12
434.066	127.12
434.287	114.12
434.509	121.12
434.731	135.12
434.953	111.12
435.175	122.12
435.397	123.12
435.618	119.12
435.84	117.12
436.062	113.12
436.284	120.12
436.505	121.12
436.727	118.12
436.949	112.12
437.17	116.12
437.392	116.12
437.614	110.12
437.835	115.12
438.057	123.12
438.278	113.12
438.5	133.12
438.721	119.12
438.943	118.12
439.165	108.12
439.386	106.12
439.608	99.12
439.829	106.12
440.05	121.12
440.272	135.12
440.493	127.12
440.715	133.12
440.936	131.12
441.158	118.12
441.379	112.12
441.6	131.12
441.822	118.12
442.043	121.12
442.264	125.12
442.486	126.12
442.707	108.12
442.928	113.12
443.149	113.12
443.371	125.12
443.592	116.12
443.813	120.12
444.034	130.12
444.255	129.12
444.476	119.12
444.698	131.12
444.919	120.12
445.14	252.12
445.361	197.12
445.582	130.12
445.803	122.12
446.024	129.12
446.245	132.12
446.466	111.12
446.687	110.12
446.908	113.12
447.129	120.12
447.35	105.12
447.571	113.12
447.792	130.12
448.013	117.12
448.234	107.12
448.455	116.12
448.675	115.12
448.896	122.12
449.117	120.12
449.338	116.12
449.559	113.12
449.779	130.12
450	126.12
450.221	113.12
450.442	124.12
450.662	116.12
450.883	108.12
451.104	108.12
451.324	111.12
451.545	117.12
451.766	107.12
451.986	119.12
452.207	116.12
452.428	104.12
452.648	116.12
452.869	114.12
453.089	107.12
453.31	129.12
453.53	119.12
453.751	118.12
453.971	96.12
454.192	114.12
454.412	112.12
454.633	120.12
454.853	116.12
455.073	122.12
455.294	117.12
455.514	100.12
455.734	118.12
455.955	114.12
456.175	107.12
456.395	108.12
456.616	107.12
456.836	105.12
457.056	106.12
457.276	108.12
457.497	112.12
457.717	112.12
457.937	100.12
458.157	105.12
458.377	103.12
458.598	111.12
458.818	106.12
459.038	118.12
459.258	112.12
459.478	117.12
459.698	121.12
459.918	123.12
460.138	132.12
460.358	116.12
460.578	128.12
460.798	123.12
461.018	128.12
461.238	122.12
461.458	123.12
461.678	120.12
461.898	123.12
462.118	124.12
462.338	116.12
462.558	133.12
462.777	124.12
462.997	99.12
463.217	140.12
463.437	128.12
463.657	128.12
463.876	111.12
464.096	119.12
464.316	103.12
464.536	118.12
464.755	128.12
464.975	110.12
465.195	131.12
465.414	107.12
465.634	113.12
465.854	122.12
466.073	121.12
466.293	105.12
466.512	116.12
466.732	110.12
466.951	118.12
467.171	111.12
467.391	113.12
467.61	123.12
467.829	137.12
468.049	116.12
468.268	118.12
468.488	110.12
468.707	125.12
468.927	106.12
469.146	125.12
469.365	140.12
469.585	152.12
469.804	125.12
470.023	122.12
470.243	113.12
470.462	98.12
470.681	116.12
470.901	116.12
471.12	123.12
471.339	118.12
471.558	121.12
471.777	147.12
471.997	130.12
472.216	139.12
472.435	121.12
472.654	130.12
472.873	119.12
473.092	128.12
473.311	117.12
473.53	123.12
473.749	117.12
473.968	119.12
474.187	121.12
474.406	121.12
474.625	125.12
474.844	127.12
475.063	141.12
475.282	131.12
475.501	113.12
475.72	133.12
475.939	120.12
476.158	128.12
476.377	142.12
476.596	157.12
476.814	148.12
477.033	148.12
477.252	140.12
477.471	132.12
477.69	123.12
477.908	130.12
478.127	144.12
478.346	126.12
478.564	136.12
478.783	129.12
479.002	139.12
479.22	146.12
479.439	142.12
479.658	124.12
479.876	128.12
480.095	125.12
480.313	129.12
480.532	143.12
480.751	143.12
480.969	136.12
481.188	144.12
481.406	142.12
481.624	147.12
481.843	128.12
482.061	125.12
482.28	134.12
482.498	146.12
482.717	148.12
482.935	139.12
483.153	145.12
483.372	122.12
483.59	124.12
483.808	120.12
484.027	123.12
484.245	127.12
484.463	127.12
484.681	122.12
484.9	128.12
485.118	134.12
485.336	136.12
485.554	132.12
485.772	137.12
485.99	130.12
486.209	135.12
486.427	138.12
486.645	117.12
486.863	145.12
487.081	142.12
487.299	142.12
487.517	132.12
487.735	137.12
487.953	123.12
488.171	131.12
488.389	137.12
488.607	119.12
488.825	128.12
489.043	128.12
489.261	141.12
489.479	131.12
489.696	138.12
489.914	135.12
490.132	124.12
490.35	134.12
490.568	134.12
490.786	123.12
491.003	128.12
491.221	134.12
491.439	131.12
491.657	136.12
491.874	138.12
492.092	158.12
492.31	160.12
492.527	156.12
492.745	142.12
492.963	139.12
493.18	155.12
493.398	139.12
493.615	137.12
493.833	150.12
494.05	142.12
494.268	141.12
494.485	137.12
494.703	142.12
494.92	134.12
495.138	156.12
495.355	136.12
495.573	131.12
495.79	138.12
496.008	162.12
496.225	141.12
496.442	144.12
496.66	145.12
496.877	152.12
497.094	145.12
497.312	122.12
497.529	127.12
497.746	134.12
497.963	152.12
498.181	140.12
498.398	172.12
498.615	162.12
498.832	158.12
499.049	156.12
499.267	144.12
499.484	156.12
499.701	162.12
499.918	160.12
500.135	176.12
500.352	188.12
500.569	179.12
500.786	192.12
501.003	175.12
501.22	159.12
501.437	152.12
501.654	148.12
501.871	154.12
502.088	160.12
502.305	146.12
502.522	144.12
502.739	145.12
502.956	136.12
503.172	140.12
503.389	121.12
