Data from NickelSpatula.Lamp.E10.P2_HRD10591_11-57-25-533.txt Node
Date: Tue Jul 23 11:57:25 EDT 2019
User: cochatt
Spectrometer: HR+D1059
Trigger mode: 1
Integration Time (sec): 1.000000E-1
Scans to average: 1
Electric dark correction enabled: true
Nonlinearity correction enabled: false
Boxcar width: 0
XAxis mode: Wavelengths
Number of Pixels in Spectrum: 2048
>>>>>Begin Spectral Data<<<<<
223.165	-9.44
223.4	-9.44
223.635	-9.44
223.869	-28.44
224.104	-12.44
224.338	-19.44
224.573	-28.44
224.808	-18.44
225.042	-8.44
225.277	-3.44
225.511	6.56
225.746	8.56
225.98	12.56
226.215	6.56
226.449	15.56
226.683	28.56
226.918	33.56
227.152	16.56
227.387	31.56
227.621	34.56
227.856	51.56
228.09	54.56
228.324	48.56
228.559	53.56
228.793	70.56
229.027	142.56
229.262	159.56
229.496	157.56
229.73	161.56
229.964	178.56
230.199	204.56
230.433	220.56
230.667	210.56
230.901	203.56
231.136	208.56
231.37	216.56
231.604	226.56
231.838	248.56
232.072	249.56
232.306	254.56
232.541	239.56
232.775	265.56
233.009	246.56
233.243	293.56
233.477	306.56
233.711	358.56
233.945	332.56
234.179	325.56
234.413	339.56
234.647	383.56
234.881	470.56
235.115	415.56
235.349	403.56
235.583	361.56
235.817	357.56
236.051	378.56
236.285	416.56
236.519	458.56
236.753	426.56
236.987	413.56
237.221	407.56
237.455	414.56
237.689	432.56
237.922	452.56
238.156	466.56
238.39	545.56
238.624	668.56
238.858	595.56
239.091	480.56
239.325	514.56
239.559	474.56
239.793	530.56
240.027	637.56
240.26	591.56
240.494	569.56
240.728	592.56
240.961	696.56
241.195	640.56
241.429	632.56
241.662	594.56
241.896	530.56
242.13	478.56
242.363	476.56
242.597	482.56
242.83	525.56
243.064	503.56
243.298	596.56
243.531	628.56
243.765	651.56
243.998	629.56
244.232	599.56
244.465	626.56
244.699	564.56
244.932	650.56
245.166	644.56
245.399	562.56
245.633	530.56
245.866	562.56
246.099	623.56
246.333	694.56
246.566	762.56
246.8	766.56
247.033	737.56
247.266	693.56
247.5	690.56
247.733	696.56
247.966	645.56
248.2	688.56
248.433	769.56
248.666	831.56
248.899	809.56
249.133	860.56
249.366	991.56
249.599	1064.56
249.832	933.56
250.066	820.56
250.299	869.56
250.532	823.56
250.765	837.56
250.998	742.56
251.231	697.56
251.465	798.56
251.698	818.56
251.931	764.56
252.164	849.56
252.397	936.56
252.63	1042.56
252.863	1143.56
253.096	1198.56
253.329	1133.56
253.562	1108.56
253.795	1202.56
254.028	1350.56
254.261	1392.56
254.494	1256.56
254.727	1118.56
254.96	1102.56
255.193	1157.56
255.426	1120.56
255.659	856.56
255.892	808.56
256.124	850.56
256.357	1050.56
256.59	1220.56
256.823	1166.56
257.056	964.56
257.289	903.56
257.521	962.56
257.754	1167.56
257.987	1289.56
258.22	1084.56
258.452	989.56
258.685	1158.56
258.918	1299.56
259.151	1249.56
259.383	1294.56
259.616	1554.56
259.849	1592.56
260.081	1690.56
260.314	1906.56
260.547	1479.56
260.779	1477.56
261.012	1687.56
261.244	1642.56
261.477	1641.56
261.71	1545.56
261.942	1284.56
262.175	1272.56
262.407	1245.56
262.64	1251.56
262.872	1550.56
263.105	1641.56
263.337	1724.56
263.57	1529.56
263.802	1031.56
264.035	879.56
264.267	861.56
264.499	782.56
264.732	704.56
264.964	714.56
265.197	695.56
265.429	767.56
265.661	812.56
265.894	872.56
266.126	904.56
266.358	1030.56
266.591	1235.56
266.823	1492.56
267.055	1390.56
267.287	1248.56
267.52	1250.56
267.752	1358.56
267.984	1451.56
268.216	1375.56
268.448	1101.56
268.681	1111.56
268.913	1218.56
269.145	1278.56
269.377	1284.56
269.609	1293.56
269.841	1216.56
270.073	1304.56
270.306	1375.56
270.538	1359.56
270.77	1431.56
271.002	1398.56
271.234	1500.56
271.466	1539.56
271.698	1408.56
271.93	1383.56
272.162	1403.56
272.394	1406.56
272.626	1393.56
272.858	1436.56
273.09	1475.56
273.322	1316.56
273.553	1268.56
273.785	1480.56
274.017	1970.56
274.249	2398.56
274.481	2516.56
274.713	2750.56
274.945	3140.56
275.176	3186.56
275.408	2791.56
275.64	2633.56
275.872	2633.56
276.104	2244.56
276.335	1905.56
276.567	1926.56
276.799	1951.56
277.031	2092.56
277.262	1592.56
277.494	1248.56
277.726	1177.56
277.957	1312.56
278.189	1510.56
278.421	1464.56
278.652	1415.56
278.884	1370.56
279.115	1278.56
279.347	1171.56
279.579	1184.56
279.81	1189.56
280.042	1191.56
280.273	1227.56
280.505	1141.56
280.736	987.56
280.968	1022.56
281.199	1125.56
281.431	1255.56
281.662	1222.56
281.894	1192.56
282.125	1261.56
282.356	1346.56
282.588	1369.56
282.819	1231.56
283.051	1393.56
283.282	1656.56
283.513	1943.56
283.745	2177.56
283.976	2150.56
284.207	1993.56
284.439	2114.56
284.67	2001.56
284.901	1785.56
285.132	1941.56
285.364	2022.56
285.595	1895.56
285.826	1980.56
286.057	2014.56
286.288	1969.56
286.52	2054.56
286.751	2100.56
286.982	2128.56
287.213	1813.56
287.444	1802.56
287.675	1833.56
287.906	1834.56
288.138	1545.56
288.369	1337.56
288.6	1300.56
288.831	1364.56
289.062	1569.56
289.293	1689.56
289.524	1598.56
289.755	1606.56
289.986	1617.56
290.217	1444.56
290.448	1125.56
290.679	973.56
290.91	910.56
291.141	909.56
291.371	957.56
291.602	981.56
291.833	982.56
292.064	1036.56
292.295	1190.56
292.526	1382.56
292.757	1430.56
292.987	1537.56
293.218	1594.56
293.449	1578.56
293.68	1681.56
293.91	1601.56
294.141	1625.56
294.372	1518.56
294.603	1399.56
294.833	1556.56
295.064	1810.56
295.295	1710.56
295.525	1299.56
295.756	1157.56
295.987	946.56
296.217	1000.56
296.448	1026.56
296.679	1081.56
296.909	1178.56
297.14	1252.56
297.37	1417.56
297.601	1332.56
297.831	1114.56
298.062	1263.56
298.292	1396.56
298.523	1518.56
298.753	1699.56
298.984	1580.56
299.214	1232.56
299.445	1042.56
299.675	1008.56
299.905	1003.56
300.136	999.56
300.366	1121.56
300.597	1111.56
300.827	981.56
301.057	936.56
301.288	953.56
301.518	1030.56
301.748	1162.56
301.979	1263.56
302.209	1392.56
302.439	1363.56
302.669	1187.56
302.9	1192.56
303.13	1151.56
303.36	1071.56
303.59	1023.56
303.82	1095.56
304.051	1232.56
304.281	1330.56
304.511	1256.56
304.741	1109.56
304.971	1176.56
305.201	1262.56
305.431	1186.56
305.661	1012.56
305.891	1020.56
306.121	1018.56
306.352	926.56
306.582	861.56
306.812	833.56
307.042	818.56
307.272	791.56
307.502	812.56
307.731	866.56
307.961	872.56
308.191	855.56
308.421	785.56
308.651	798.56
308.881	749.56
309.111	770.56
309.341	812.56
309.571	898.56
309.8	880.56
310.03	913.56
310.26	962.56
310.49	957.56
310.72	846.56
310.949	844.56
311.179	849.56
311.409	911.56
311.639	1097.56
311.868	1385.56
312.098	1751.56
312.328	1920.56
312.557	1840.56
312.787	1877.56
313.017	1662.56
313.246	1799.56
313.476	1944.56
313.706	1599.56
313.935	1272.56
314.165	1046.56
314.394	947.56
314.624	955.56
314.853	1005.56
315.083	1010.56
315.312	993.56
315.542	993.56
315.771	919.56
316.001	842.56
316.23	814.56
316.46	838.56
316.689	838.56
316.919	842.56
317.148	900.56
317.377	858.56
317.607	878.56
317.836	925.56
318.065	1068.56
318.295	1212.56
318.524	1125.56
318.753	976.56
318.983	928.56
319.212	879.56
319.441	960.56
319.67	1096.56
319.9	1160.56
320.129	1082.56
320.358	943.56
320.587	892.56
320.816	1001.56
321.046	1113.56
321.275	1240.56
321.504	1280.56
321.733	1236.56
321.962	1186.56
322.191	1122.56
322.42	1041.56
322.649	1077.56
322.878	1129.56
323.108	1156.56
323.337	1068.56
323.566	1045.56
323.795	1016.56
324.024	1008.56
324.253	937.56
324.482	929.56
324.71	1001.56
324.939	1164.56
325.168	1072.56
325.397	893.56
325.626	892.56
325.855	890.56
326.084	903.56
326.313	852.56
326.542	828.56
326.77	853.56
326.999	881.56
327.228	956.56
327.457	984.56
327.686	982.56
327.914	861.56
328.143	827.56
328.372	792.56
328.6	841.56
328.829	835.56
329.058	851.56
329.287	873.56
329.515	886.56
329.744	844.56
329.972	830.56
330.201	797.56
330.43	830.56
330.658	929.56
330.887	1041.56
331.115	1011.56
331.344	1005.56
331.572	953.56
331.801	859.56
332.03	826.56
332.258	887.56
332.486	934.56
332.715	958.56
332.943	899.56
333.172	909.56
333.4	918.56
333.629	1009.56
333.857	1088.56
334.085	1114.56
334.314	1088.56
334.542	1018.56
334.771	959.56
334.999	918.56
335.227	914.56
335.455	948.56
335.684	1010.56
335.912	1187.56
336.14	1290.56
336.369	1240.56
336.597	1208.56
336.825	1344.56
337.053	1448.56
337.281	1185.56
337.51	980.56
337.738	960.56
337.966	1040.56
338.194	1164.56
338.422	1092.56
338.65	966.56
338.878	865.56
339.106	890.56
339.334	978.56
339.562	1063.56
339.79	998.56
340.018	950.56
340.246	1043.56
340.474	1144.56
340.702	1230.56
340.93	1260.56
341.158	1263.56
341.386	1081.56
341.614	1056.56
341.842	1088.56
342.07	1114.56
342.298	1286.56
342.526	1328.56
342.754	1151.56
342.981	1062.56
343.209	1010.56
343.437	1104.56
343.665	1166.56
343.893	1148.56
344.12	1334.56
344.348	1509.56
344.576	1380.56
344.804	1166.56
345.031	970.56
345.259	934.56
345.487	967.56
345.714	1001.56
345.942	1064.56
346.17	1156.56
346.397	1091.56
346.625	960.56
346.853	948.56
347.08	925.56
347.308	959.56
347.535	1063.56
347.763	1093.56
347.99	963.56
348.218	914.56
348.445	972.56
348.673	940.56
348.9	980.56
349.128	1029.56
349.355	1044.56
349.583	998.56
349.81	986.56
350.037	920.56
350.265	822.56
350.492	764.56
350.72	775.56
350.947	802.56
351.174	849.56
351.402	867.56
351.629	949.56
351.856	903.56
352.083	866.56
352.311	934.56
352.538	1028.56
352.765	1064.56
352.992	974.56
353.22	906.56
353.447	973.56
353.674	914.56
353.901	900.56
354.128	954.56
354.355	970.56
354.583	958.56
354.81	947.56
355.037	978.56
355.264	955.56
355.491	1022.56
355.718	1073.56
355.945	1087.56
356.172	1012.56
356.399	1009.56
356.626	1228.56
356.853	1482.56
357.08	1587.56
357.307	1608.56
357.534	1246.56
357.761	1317.56
357.988	1631.56
358.215	1850.56
358.441	1794.56
358.668	1477.56
358.895	1372.56
359.122	1138.56
359.349	1127.56
359.576	1234.56
359.802	1019.56
360.029	916.56
360.256	983.56
360.483	1180.56
360.709	1470.56
360.936	1509.56
361.163	1343.56
361.39	1061.56
361.616	969.56
361.843	1158.56
362.07	1412.56
362.296	1276.56
362.523	1007.56
362.749	896.56
362.976	961.56
363.203	1137.56
363.429	1257.56
363.656	1013.56
363.882	944.56
364.109	933.56
364.335	943.56
364.562	947.56
364.788	1090.56
365.015	1212.56
365.241	1079.56
365.468	911.56
365.694	828.56
365.92	779.56
366.147	750.56
366.373	781.56
366.599	748.56
366.826	778.56
367.052	808.56
367.278	792.56
367.505	799.56
367.731	871.56
367.957	961.56
368.184	968.56
368.41	927.56
368.636	938.56
368.862	996.56
369.089	969.56
369.315	870.56
369.541	872.56
369.767	845.56
369.993	825.56
370.219	842.56
370.445	869.56
370.672	951.56
370.898	1038.56
371.124	986.56
371.35	918.56
371.576	890.56
371.802	945.56
372.028	1087.56
372.254	1205.56
372.48	1070.56
372.706	995.56
372.932	1040.56
373.158	1058.56
373.384	1261.56
373.61	1702.56
373.835	1679.56
374.061	1276.56
374.287	1089.56
374.513	1254.56
374.739	1496.56
374.965	1577.56
375.191	1528.56
375.416	1085.56
375.642	996.56
375.868	1107.56
376.094	1267.56
376.319	1081.56
376.545	1218.56
376.771	1253.56
376.997	1114.56
377.222	844.56
377.448	720.56
377.674	730.56
377.899	744.56
378.125	728.56
378.35	722.56
378.576	761.56
378.802	824.56
379.027	865.56
379.253	862.56
379.478	907.56
379.704	983.56
379.929	1041.56
380.155	1015.56
380.38	897.56
380.606	943.56
380.831	1022.56
381.057	975.56
381.282	946.56
381.507	1090.56
381.733	1365.56
381.958	1392.56
382.184	1511.56
382.409	1582.56
382.634	1569.56
382.86	1607.56
383.085	1311.56
383.31	1071.56
383.535	1130.56
383.761	1148.56
383.986	1097.56
384.211	1271.56
384.436	1279.56
384.662	990.56
384.887	983.56
385.112	989.56
385.337	1004.56
385.562	942.56
385.787	1016.56
386.013	1144.56
386.238	1145.56
386.463	961.56
386.688	931.56
386.913	910.56
387.138	897.56
387.363	920.56
387.588	932.56
387.813	963.56
388.038	1028.56
388.263	947.56
388.488	937.56
388.713	1044.56
388.938	1134.56
389.163	962.56
389.387	878.56
389.612	891.56
389.837	899.56
390.062	894.56
390.287	949.56
390.512	962.56
390.736	903.56
390.961	853.56
391.186	839.56
391.411	821.56
391.636	846.56
391.86	876.56
392.085	952.56
392.31	969.56
392.534	909.56
392.759	892.56
392.984	948.56
393.208	942.56
393.433	861.56
393.658	809.56
393.882	775.56
394.107	798.56
394.331	807.56
394.556	773.56
394.78	818.56
395.005	819.56
395.229	846.56
395.454	854.56
395.678	853.56
395.903	881.56
396.127	872.56
396.352	871.56
396.576	930.56
396.801	970.56
397.025	1032.56
397.249	1081.56
397.474	899.56
397.698	903.56
397.922	928.56
398.147	919.56
398.371	903.56
398.595	949.56
398.82	942.56
399.044	953.56
399.268	997.56
399.492	1027.56
399.717	1031.56
399.941	1083.56
400.165	1049.56
400.389	1033.56
400.613	1052.56
400.837	1006.56
401.062	932.56
401.286	886.56
401.51	895.56
401.734	881.56
401.958	903.56
402.182	884.56
402.406	864.56
402.63	901.56
402.854	911.56
403.078	1034.56
403.302	1225.56
403.526	1300.56
403.75	1168.56
403.974	1052.56
404.198	1068.56
404.422	1203.56
404.645	1384.56
404.869	1518.56
405.093	1135.56
405.317	979.56
405.541	973.56
405.765	959.56
405.988	1032.56
406.212	1063.56
406.436	1257.56
406.66	1337.56
406.883	1111.56
407.107	1131.56
407.331	1312.56
407.555	1232.56
407.778	1101.56
408.002	1030.56
408.226	1019.56
408.449	1040.56
408.673	1001.56
408.896	918.56
409.12	920.56
409.344	889.56
409.567	904.56
409.791	913.56
410.014	898.56
410.238	870.56
410.461	885.56
410.685	874.56
410.908	904.56
411.132	901.56
411.355	916.56
411.578	929.56
411.802	960.56
412.025	985.56
412.249	992.56
412.472	942.56
412.695	953.56
412.919	962.56
413.142	988.56
413.365	1056.56
413.589	1009.56
413.812	948.56
414.035	914.56
414.258	915.56
414.482	1022.56
414.705	1033.56
414.928	885.56
415.151	867.56
415.374	882.56
415.597	908.56
415.821	917.56
416.044	891.56
416.267	866.56
416.49	872.56
416.713	871.56
416.936	829.56
417.159	839.56
417.382	880.56
417.605	880.56
417.828	894.56
418.051	899.56
418.274	918.56
418.497	908.56
418.72	914.56
418.943	920.56
419.166	971.56
419.389	989.56
419.611	1013.56
419.834	992.56
420.057	1060.56
420.28	1044.56
420.503	963.56
420.726	901.56
420.948	889.56
421.171	882.56
421.394	860.56
421.617	862.56
421.839	866.56
422.062	907.56
422.285	900.56
422.507	938.56
422.73	953.56
422.953	954.56
423.175	950.56
423.398	953.56
423.621	983.56
423.843	1027.56
424.066	966.56
424.288	926.56
424.511	914.56
424.733	912.56
424.956	937.56
425.178	1038.56
425.401	1161.56
425.623	1340.56
425.846	1120.56
426.068	979.56
426.291	1040.56
426.513	1026.56
426.735	926.56
426.958	976.56
427.18	1115.56
427.402	1392.56
427.625	1424.56
427.847	1152.56
428.069	927.56
428.292	907.56
428.514	884.56
428.736	853.56
428.958	916.56
429.181	1060.56
429.403	950.56
429.625	890.56
429.847	861.56
430.069	873.56
430.292	895.56
430.514	865.56
430.736	921.56
430.958	1132.56
431.18	1023.56
431.402	860.56
431.624	806.56
431.846	805.56
432.068	774.56
432.29	816.56
432.512	889.56
432.734	1173.56
432.956	1082.56
433.178	878.56
433.4	881.56
433.622	855.56
433.844	860.56
434.066	923.56
434.287	897.56
434.509	888.56
434.731	899.56
434.953	868.56
435.175	904.56
435.397	1007.56
435.618	876.56
435.84	824.56
436.062	818.56
436.284	839.56
436.505	820.56
436.727	782.56
436.949	822.56
437.17	837.56
437.392	864.56
437.614	823.56
437.835	825.56
438.057	855.56
438.278	943.56
438.5	1300.56
438.721	1294.56
438.943	928.56
439.165	835.56
439.386	773.56
439.608	777.56
439.829	782.56
440.05	784.56
440.272	852.56
440.493	961.56
440.715	1162.56
440.936	945.56
441.158	846.56
441.379	866.56
441.6	954.56
441.822	1018.56
442.043	899.56
442.264	871.56
442.486	866.56
442.707	868.56
442.928	864.56
443.149	917.56
443.371	916.56
443.592	949.56
443.813	904.56
444.034	898.56
444.255	910.56
444.476	936.56
444.698	913.56
444.919	960.56
445.14	1060.56
445.361	1025.56
445.582	964.56
445.803	915.56
446.024	912.56
446.245	920.56
446.466	934.56
446.687	876.56
446.908	876.56
447.129	852.56
447.35	815.56
447.571	818.56
447.792	790.56
448.013	800.56
448.234	785.56
448.455	792.56
448.675	824.56
448.896	825.56
449.117	797.56
449.338	795.56
449.559	834.56
449.779	860.56
450	855.56
450.221	849.56
450.442	812.56
450.662	778.56
450.883	789.56
451.104	841.56
451.324	802.56
451.545	793.56
451.766	817.56
451.986	777.56
452.207	749.56
452.428	768.56
452.648	782.56
452.869	806.56
453.089	828.56
453.31	835.56
453.53	763.56
453.751	774.56
453.971	745.56
454.192	761.56
454.412	766.56
454.633	736.56
454.853	738.56
455.073	726.56
455.294	725.56
455.514	750.56
455.734	780.56
455.955	814.56
456.175	843.56
456.395	754.56
456.616	718.56
456.836	711.56
457.056	691.56
457.276	709.56
457.497	711.56
457.717	724.56
457.937	713.56
458.157	720.56
458.377	713.56
458.598	731.56
458.818	753.56
459.038	815.56
459.258	817.56
459.478	832.56
459.698	882.56
459.918	901.56
460.138	870.56
460.358	904.56
460.578	876.56
460.798	910.56
461.018	893.56
461.238	860.56
461.458	864.56
461.678	900.56
461.898	956.56
462.118	916.56
462.338	896.56
462.558	924.56
462.777	1003.56
462.997	1019.56
463.217	986.56
463.437	1038.56
463.657	1026.56
463.876	961.56
464.096	985.56
464.316	944.56
464.536	975.56
464.755	994.56
464.975	993.56
465.195	942.56
465.414	1005.56
465.634	955.56
465.854	964.56
466.073	878.56
466.293	858.56
466.512	908.56
466.732	999.56
466.951	1036.56
467.171	949.56
467.391	868.56
467.61	868.56
467.829	915.56
468.049	916.56
468.268	873.56
468.488	869.56
468.707	895.56
468.927	1045.56
469.146	1117.56
469.365	1005.56
469.585	934.56
469.804	994.56
470.023	1084.56
470.243	965.56
470.462	918.56
470.681	921.56
470.901	924.56
471.12	968.56
471.339	967.56
471.558	921.56
471.777	925.56
471.997	977.56
472.216	1092.56
472.435	1085.56
472.654	983.56
472.873	948.56
473.092	1004.56
473.311	1046.56
473.53	939.56
473.749	905.56
473.968	968.56
474.187	980.56
474.406	955.56
474.625	906.56
474.844	962.56
475.063	1040.56
475.282	1024.56
475.501	1065.56
475.72	1125.56
475.939	1080.56
476.158	1077.56
476.377	1239.56
476.596	1417.56
476.814	1523.56
477.033	1241.56
477.252	1045.56
477.471	1005.56
477.69	1023.56
477.908	1094.56
478.127	1154.56
478.346	1048.56
478.564	1110.56
478.783	1071.56
479.002	1123.56
479.22	1286.56
479.439	1407.56
479.658	1201.56
479.876	1140.56
480.095	1223.56
480.313	1203.56
480.532	1156.56
480.751	1082.56
480.969	1121.56
481.188	1239.56
481.406	1294.56
481.624	1250.56
481.843	1111.56
482.061	1062.56
482.28	1214.56
482.498	1430.56
482.717	1360.56
482.935	1185.56
483.153	1116.56
483.372	1060.56
483.59	1077.56
483.808	1065.56
484.027	1054.56
484.245	987.56
484.463	1009.56
484.681	1021.56
484.9	1077.56
485.118	1185.56
485.336	1156.56
485.554	1045.56
485.772	1079.56
485.99	1135.56
486.209	1204.56
486.427	1223.56
486.645	1178.56
486.863	1220.56
487.081	1232.56
487.299	1358.56
487.517	1322.56
487.735	1181.56
487.953	1222.56
488.171	1250.56
488.389	1193.56
488.607	1098.56
488.825	1148.56
489.043	1224.56
489.261	1430.56
489.479	1509.56
489.696	1285.56
489.914	1185.56
490.132	1111.56
490.35	1110.56
490.568	1117.56
490.786	1110.56
491.003	1131.56
491.221	1148.56
491.439	1109.56
491.657	1152.56
491.874	1219.56
492.092	1441.56
492.31	1654.56
492.527	1693.56
492.745	1500.56
492.963	1343.56
493.18	1260.56
493.398	1304.56
493.615	1302.56
493.833	1237.56
494.05	1254.56
494.268	1244.56
494.485	1238.56
494.703	1199.56
494.92	1223.56
