Data from NickelSpatula.Lamp.E5.5.P2_HRD10591_11-51-41-559.txt Node
Date: Tue Jul 23 11:51:41 EDT 2019
User: cochatt
Spectrometer: HR+D1059
Trigger mode: 1
Integration Time (sec): 1.000000E-1
Scans to average: 1
Electric dark correction enabled: true
Nonlinearity correction enabled: false
Boxcar width: 0
XAxis mode: Wavelengths
Number of Pixels in Spectrum: 2048
>>>>>Begin Spectral Data<<<<<
223.165	-9.75
223.4	-9.75
223.635	-9.75
223.869	-13.75
224.104	-25.75
224.338	-19.75
224.573	-30.75
224.808	-2.75
225.042	-5.75
225.277	-1.75
225.511	-0.75
225.746	0.25
225.98	4.25
226.215	5.25
226.449	11.25
226.683	28.25
226.918	28.25
227.152	33.25
227.387	24.25
227.621	30.25
227.856	34.25
228.09	54.25
228.324	54.25
228.559	50.25
228.793	64.25
229.027	78.25
229.262	82.25
229.496	77.25
229.73	75.25
229.964	93.25
230.199	84.25
230.433	95.25
230.667	100.25
230.901	98.25
231.136	104.25
231.37	103.25
231.604	99.25
231.838	113.25
232.072	118.25
232.306	115.25
232.541	107.25
232.775	104.25
233.009	90.25
233.243	121.25
233.477	106.25
233.711	108.25
233.945	113.25
234.179	105.25
234.413	116.25
234.647	141.25
234.881	157.25
235.115	129.25
235.349	131.25
235.583	131.25
235.817	118.25
236.051	123.25
236.285	139.25
236.519	138.25
236.753	150.25
236.987	141.25
237.221	114.25
237.455	117.25
237.689	131.25
237.922	129.25
238.156	145.25
238.39	147.25
238.624	154.25
238.858	146.25
239.091	137.25
239.325	140.25
239.559	124.25
239.793	148.25
240.027	170.25
240.26	150.25
240.494	163.25
240.728	162.25
240.961	176.25
241.195	156.25
241.429	165.25
241.662	156.25
241.896	144.25
242.13	138.25
242.363	138.25
242.597	133.25
242.83	169.25
243.064	146.25
243.298	131.25
243.531	170.25
243.765	189.25
243.998	159.25
244.232	152.25
244.465	166.25
244.699	161.25
244.932	176.25
245.166	161.25
245.399	168.25
245.633	155.25
245.866	153.25
246.099	157.25
246.333	184.25
246.566	176.25
246.8	176.25
247.033	184.25
247.266	165.25
247.5	187.25
247.733	173.25
247.966	160.25
248.2	178.25
248.433	184.25
248.666	195.25
248.899	197.25
249.133	192.25
249.366	220.25
249.599	230.25
249.832	221.25
250.066	191.25
250.299	191.25
250.532	185.25
250.765	185.25
250.998	164.25
251.231	172.25
251.465	176.25
251.698	194.25
251.931	188.25
252.164	197.25
252.397	223.25
252.63	212.25
252.863	231.25
253.096	258.25
253.329	257.25
253.562	254.25
253.795	266.25
254.028	270.25
254.261	311.25
254.494	277.25
254.727	246.25
254.96	247.25
255.193	250.25
255.426	241.25
255.659	194.25
255.892	188.25
256.124	206.25
256.357	240.25
256.59	260.25
256.823	240.25
257.056	228.25
257.289	203.25
257.521	233.25
257.754	257.25
257.987	297.25
258.22	246.25
258.452	225.25
258.685	240.25
258.918	270.25
259.151	273.25
259.383	268.25
259.616	310.25
259.849	333.25
260.081	326.25
260.314	376.25
260.547	309.25
260.779	318.25
261.012	368.25
261.244	305.25
261.477	320.25
261.71	326.25
261.942	280.25
262.175	282.25
262.407	269.25
262.64	272.25
262.872	311.25
263.105	343.25
263.337	366.25
263.57	321.25
263.802	242.25
264.035	221.25
264.267	200.25
264.499	191.25
264.732	185.25
264.964	168.25
265.197	190.25
265.429	193.25
265.661	182.25
265.894	202.25
266.126	225.25
266.358	225.25
266.591	268.25
266.823	305.25
267.055	313.25
267.287	260.25
267.52	265.25
267.752	297.25
267.984	313.25
268.216	292.25
268.448	244.25
268.681	229.25
268.913	254.25
269.145	286.25
269.377	274.25
269.609	270.25
269.841	280.25
270.073	275.25
270.306	301.25
270.538	297.25
270.77	294.25
271.002	289.25
271.234	319.25
271.466	328.25
271.698	295.25
271.93	295.25
272.162	278.25
272.394	280.25
272.626	279.25
272.858	289.25
273.09	304.25
273.322	273.25
273.553	272.25
273.785	314.25
274.017	360.25
274.249	446.25
274.481	451.25
274.713	496.25
274.945	554.25
275.176	579.25
275.408	519.25
275.64	484.25
275.872	483.25
276.104	408.25
276.335	390.25
276.567	353.25
276.799	378.25
277.031	394.25
277.262	326.25
277.494	286.25
277.726	263.25
277.957	276.25
278.189	289.25
278.421	284.25
278.652	294.25
278.884	275.25
279.115	270.25
279.347	270.25
279.579	266.25
279.81	300.25
280.042	258.25
280.273	277.25
280.505	247.25
280.736	226.25
280.968	225.25
281.199	256.25
281.431	278.25
281.662	272.25
281.894	267.25
282.125	266.25
282.356	282.25
282.588	301.25
282.819	272.25
283.051	273.25
283.282	341.25
283.513	375.25
283.745	438.25
283.976	436.25
284.207	375.25
284.439	379.25
284.67	402.25
284.901	347.25
285.132	380.25
285.364	388.25
285.595	380.25
285.826	386.25
286.057	398.25
286.288	388.25
286.52	378.25
286.751	417.25
286.982	397.25
287.213	378.25
287.444	353.25
287.675	353.25
287.906	382.25
288.138	318.25
288.369	302.25
288.6	270.25
288.831	276.25
289.062	331.25
289.293	335.25
289.524	333.25
289.755	330.25
289.986	324.25
290.217	316.25
290.448	258.25
290.679	213.25
290.91	223.25
291.141	204.25
291.371	221.25
291.602	223.25
291.833	213.25
292.064	226.25
292.295	257.25
292.526	304.25
292.757	284.25
292.987	342.25
293.218	336.25
293.449	355.25
293.68	362.25
293.91	342.25
294.141	358.25
294.372	342.25
294.603	298.25
294.833	330.25
295.064	381.25
295.295	389.25
295.525	284.25
295.756	253.25
295.987	241.25
296.217	233.25
296.448	246.25
296.679	253.25
296.909	251.25
297.14	275.25
297.37	305.25
297.601	301.25
297.831	262.25
298.062	277.25
298.292	301.25
298.523	304.25
298.753	356.25
298.984	335.25
299.214	274.25
299.445	238.25
299.675	242.25
299.905	245.25
300.136	239.25
300.366	260.25
300.597	230.25
300.827	241.25
301.057	224.25
301.288	238.25
301.518	247.25
301.748	284.25
301.979	281.25
302.209	308.25
302.439	308.25
302.669	278.25
302.9	273.25
303.13	255.25
303.36	248.25
303.59	262.25
303.82	244.25
304.051	293.25
304.281	302.25
304.511	306.25
304.741	249.25
304.971	261.25
305.201	279.25
305.431	278.25
305.661	237.25
305.891	221.25
306.121	230.25
306.352	227.25
306.582	207.25
306.812	211.25
307.042	200.25
307.272	199.25
307.502	197.25
307.731	209.25
307.961	209.25
308.191	224.25
308.421	208.25
308.651	213.25
308.881	208.25
309.111	176.25
309.341	205.25
309.571	218.25
309.8	213.25
310.03	207.25
310.26	222.25
310.49	201.25
310.72	215.25
310.949	199.25
311.179	213.25
311.409	204.25
311.639	216.25
311.868	296.25
312.098	356.25
312.328	390.25
312.557	361.25
312.787	386.25
313.017	346.25
313.246	371.25
313.476	390.25
313.706	339.25
313.935	290.25
314.165	231.25
314.394	217.25
314.624	221.25
314.853	248.25
315.083	250.25
315.312	225.25
315.542	214.25
315.771	204.25
316.001	207.25
316.23	201.25
316.46	202.25
316.689	199.25
316.919	212.25
317.148	207.25
317.377	207.25
317.607	201.25
317.836	213.25
318.065	226.25
318.295	273.25
318.524	232.25
318.753	215.25
318.983	209.25
319.212	217.25
319.441	207.25
319.67	223.25
319.9	240.25
320.129	253.25
320.358	222.25
320.587	215.25
320.816	232.25
321.046	247.25
321.275	276.25
321.504	271.25
321.733	265.25
321.962	262.25
322.191	247.25
322.42	247.25
322.649	253.25
322.878	257.25
323.108	266.25
323.337	221.25
323.566	228.25
323.795	223.25
324.024	234.25
324.253	219.25
324.482	209.25
324.71	237.25
324.939	253.25
325.168	263.25
325.397	214.25
325.626	198.25
325.855	230.25
326.084	223.25
326.313	220.25
326.542	204.25
326.77	228.25
326.999	220.25
327.228	212.25
327.457	233.25
327.686	230.25
327.914	216.25
328.143	215.25
328.372	206.25
328.6	194.25
328.829	211.25
329.058	207.25
329.287	201.25
329.515	221.25
329.744	211.25
329.972	213.25
330.201	193.25
330.43	205.25
330.658	210.25
330.887	252.25
331.115	227.25
331.344	236.25
331.572	226.25
331.801	210.25
332.03	200.25
332.258	194.25
332.486	219.25
332.715	217.25
332.943	220.25
333.172	217.25
333.4	235.25
333.629	275.25
333.857	260.25
334.085	258.25
334.314	264.25
334.542	253.25
334.771	236.25
334.999	238.25
335.227	212.25
335.455	206.25
335.684	257.25
335.912	268.25
336.14	293.25
336.369	276.25
336.597	270.25
336.825	301.25
337.053	320.25
337.281	255.25
337.51	226.25
337.738	223.25
337.966	227.25
338.194	248.25
338.422	224.25
338.65	232.25
338.878	218.25
339.106	202.25
339.334	221.25
339.562	240.25
339.79	230.25
340.018	213.25
340.246	222.25
340.474	252.25
340.702	253.25
340.93	279.25
341.158	288.25
341.386	254.25
341.614	230.25
341.842	220.25
342.07	239.25
342.298	276.25
342.526	293.25
342.754	250.25
342.981	252.25
343.209	244.25
343.437	238.25
343.665	249.25
343.893	271.25
344.12	317.25
344.348	366.25
344.576	313.25
344.804	263.25
345.031	240.25
345.259	227.25
345.487	231.25
345.714	234.25
345.942	248.25
346.17	249.25
346.397	256.25
346.625	246.25
346.853	232.25
347.08	232.25
347.308	233.25
347.535	257.25
347.763	271.25
347.99	229.25
348.218	207.25
348.445	220.25
348.673	235.25
348.9	226.25
349.128	264.25
349.355	250.25
349.583	232.25
349.81	238.25
350.037	224.25
350.265	211.25
350.492	204.25
350.72	202.25
350.947	200.25
351.174	220.25
351.402	218.25
351.629	223.25
351.856	210.25
352.083	205.25
352.311	217.25
352.538	232.25
352.765	254.25
352.992	236.25
353.22	221.25
353.447	236.25
353.674	208.25
353.901	227.25
354.128	226.25
354.355	213.25
354.583	218.25
354.81	245.25
355.037	231.25
355.264	224.25
355.491	220.25
355.718	240.25
355.945	240.25
356.172	242.25
356.399	226.25
356.626	264.25
356.853	318.25
357.08	360.25
357.307	349.25
357.534	300.25
357.761	300.25
357.988	360.25
358.215	394.25
358.441	383.25
358.668	310.25
358.895	308.25
359.122	265.25
359.349	278.25
359.576	296.25
359.802	251.25
360.029	224.25
360.256	245.25
360.483	278.25
360.709	338.25
360.936	352.25
361.163	321.25
361.39	237.25
361.616	244.25
361.843	255.25
362.07	293.25
362.296	277.25
362.523	232.25
362.749	218.25
362.976	229.25
363.203	264.25
363.429	285.25
363.656	272.25
363.882	230.25
364.109	210.25
364.335	221.25
364.562	214.25
364.788	237.25
365.015	288.25
365.241	256.25
365.468	197.25
365.694	202.25
365.92	212.25
366.147	194.25
366.373	194.25
366.599	200.25
366.826	205.25
367.052	218.25
367.278	183.25
367.505	194.25
367.731	213.25
367.957	232.25
368.184	231.25
368.41	224.25
368.636	221.25
368.862	252.25
369.089	237.25
369.315	213.25
369.541	212.25
369.767	210.25
369.993	201.25
370.219	213.25
370.445	230.25
370.672	231.25
370.898	264.25
371.124	236.25
371.35	226.25
371.576	225.25
371.802	210.25
372.028	256.25
372.254	277.25
372.48	266.25
372.706	214.25
372.932	258.25
373.158	265.25
373.384	281.25
373.61	356.25
373.835	361.25
374.061	284.25
374.287	269.25
374.513	293.25
374.739	341.25
374.965	355.25
375.191	350.25
375.416	267.25
375.642	228.25
375.868	263.25
376.094	307.25
376.319	250.25
376.545	271.25
376.771	274.25
376.997	264.25
377.222	214.25
377.448	200.25
377.674	197.25
377.899	190.25
378.125	196.25
378.35	191.25
378.576	212.25
378.802	219.25
379.027	219.25
379.253	223.25
379.478	217.25
379.704	232.25
379.929	248.25
380.155	239.25
380.38	210.25
380.606	246.25
380.831	250.25
381.057	235.25
381.282	215.25
381.507	269.25
381.733	297.25
381.958	325.25
382.184	319.25
382.409	357.25
382.634	342.25
382.86	361.25
383.085	310.25
383.31	270.25
383.535	272.25
383.761	274.25
383.986	271.25
384.211	312.25
384.436	300.25
384.662	242.25
384.887	246.25
385.112	242.25
385.337	258.25
385.562	253.25
385.787	262.25
386.013	290.25
386.238	270.25
386.463	257.25
386.688	233.25
386.913	225.25
387.138	213.25
387.363	229.25
387.588	232.25
387.813	250.25
388.038	242.25
388.263	238.25
388.488	220.25
388.713	257.25
388.938	281.25
389.163	236.25
389.387	224.25
389.612	219.25
389.837	227.25
390.062	233.25
390.287	240.25
390.512	238.25
390.736	226.25
390.961	237.25
391.186	227.25
391.411	205.25
391.636	198.25
391.86	236.25
392.085	250.25
392.31	241.25
392.534	248.25
392.759	221.25
392.984	260.25
393.208	250.25
393.433	228.25
393.658	209.25
393.882	200.25
394.107	200.25
394.331	219.25
394.556	195.25
394.78	209.25
395.005	220.25
395.229	212.25
395.454	227.25
395.678	223.25
395.903	226.25
396.127	216.25
396.352	232.25
396.576	228.25
396.801	224.25
397.025	256.25
397.249	283.25
397.474	232.25
397.698	222.25
397.922	217.25
398.147	226.25
398.371	231.25
398.595	264.25
398.82	238.25
399.044	227.25
399.268	266.25
399.492	293.25
399.717	303.25
399.941	297.25
400.165	251.25
400.389	249.25
400.613	267.25
400.837	247.25
401.062	233.25
401.286	232.25
401.51	217.25
401.734	238.25
401.958	242.25
402.182	238.25
402.406	236.25
402.63	249.25
402.854	256.25
403.078	280.25
403.302	370.25
403.526	388.25
403.75	349.25
403.974	301.25
404.198	306.25
404.422	322.25
404.645	312.25
404.869	334.25
405.093	294.25
405.317	275.25
405.541	264.25
405.765	265.25
405.988	254.25
406.212	263.25
406.436	301.25
406.66	302.25
406.883	293.25
407.107	284.25
407.331	311.25
407.555	328.25
407.778	264.25
408.002	263.25
408.226	254.25
408.449	264.25
408.673	260.25
408.896	242.25
409.12	246.25
409.344	243.25
409.567	260.25
409.791	252.25
410.014	255.25
410.238	248.25
410.461	254.25
410.685	249.25
410.908	236.25
411.132	226.25
411.355	262.25
411.578	242.25
411.802	229.25
412.025	238.25
412.249	252.25
412.472	230.25
412.695	258.25
412.919	254.25
413.142	249.25
413.365	263.25
413.589	272.25
413.812	252.25
414.035	234.25
414.258	234.25
414.482	239.25
414.705	248.25
414.928	222.25
415.151	232.25
415.374	223.25
415.597	233.25
415.821	230.25
416.044	231.25
416.267	243.25
416.49	239.25
416.713	240.25
416.936	223.25
417.159	236.25
417.382	241.25
417.605	219.25
417.828	246.25
418.051	237.25
418.274	235.25
418.497	240.25
418.72	232.25
418.943	256.25
419.166	266.25
419.389	245.25
419.611	255.25
419.834	256.25
420.057	266.25
420.28	272.25
420.503	245.25
420.726	218.25
420.948	249.25
421.171	235.25
421.394	221.25
421.617	230.25
421.839	233.25
422.062	245.25
422.285	231.25
422.507	245.25
422.73	234.25
422.953	229.25
423.175	240.25
423.398	265.25
423.621	264.25
423.843	272.25
424.066	264.25
424.288	242.25
424.511	224.25
424.733	225.25
424.956	241.25
425.178	260.25
425.401	312.25
425.623	359.25
425.846	291.25
426.068	252.25
426.291	268.25
426.513	237.25
426.735	253.25
426.958	263.25
427.18	273.25
427.402	325.25
427.625	364.25
427.847	323.25
428.069	228.25
428.292	247.25
428.514	243.25
428.736	239.25
428.958	253.25
429.181	305.25
429.403	277.25
429.625	219.25
429.847	239.25
430.069	235.25
430.292	244.25
430.514	226.25
430.736	240.25
430.958	266.25
431.18	256.25
431.402	221.25
431.624	222.25
431.846	209.25
432.068	222.25
432.29	234.25
432.512	232.25
432.734	284.25
432.956	275.25
433.178	232.25
433.4	229.25
433.622	216.25
433.844	252.25
434.066	264.25
434.287	260.25
434.509	239.25
434.731	236.25
434.953	236.25
435.175	261.25
435.397	270.25
435.618	240.25
435.84	231.25
436.062	227.25
436.284	227.25
436.505	225.25
436.727	212.25
436.949	223.25
437.17	210.25
437.392	222.25
437.614	214.25
437.835	198.25
438.057	226.25
438.278	229.25
438.5	302.25
438.721	310.25
438.943	250.25
439.165	216.25
439.386	210.25
439.608	224.25
439.829	201.25
440.05	229.25
440.272	240.25
440.493	234.25
440.715	286.25
440.936	262.25
441.158	236.25
441.379	252.25
441.6	270.25
441.822	284.25
442.043	218.25
442.264	228.25
442.486	252.25
442.707	236.25
442.928	234.25
443.149	225.25
443.371	249.25
443.592	257.25
443.813	247.25
444.034	236.25
444.255	248.25
444.476	258.25
444.698	259.25
444.919	276.25
445.14	343.25
445.361	296.25
445.582	283.25
445.803	245.25
446.024	244.25
446.245	267.25
446.466	243.25
446.687	232.25
446.908	211.25
447.129	218.25
447.35	194.25
447.571	191.25
447.792	225.25
448.013	214.25
448.234	215.25
448.455	204.25
448.675	193.25
448.896	200.25
449.117	194.25
449.338	211.25
449.559	221.25
449.779	225.25
450	237.25
450.221	231.25
450.442	219.25
450.662	222.25
450.883	205.25
451.104	221.25
451.324	221.25
451.545	216.25
451.766	219.25
451.986	228.25
452.207	223.25
452.428	204.25
452.648	214.25
452.869	201.25
453.089	230.25
453.31	225.25
453.53	215.25
453.751	215.25
453.971	202.25
454.192	221.25
454.412	215.25
454.633	214.25
454.853	202.25
455.073	199.25
455.294	207.25
455.514	205.25
455.734	199.25
455.955	212.25
456.175	214.25
456.395	209.25
456.616	203.25
456.836	202.25
457.056	187.25
457.276	182.25
457.497	192.25
457.717	200.25
457.937	214.25
458.157	190.25
458.377	220.25
458.598	195.25
458.818	202.25
459.038	226.25
459.258	202.25
459.478	218.25
459.698	239.25
459.918	220.25
460.138	247.25
460.358	243.25
460.578	239.25
460.798	251.25
461.018	242.25
461.238	221.25
461.458	223.25
461.678	237.25
461.898	260.25
462.118	238.25
462.338	263.25
462.558	277.25
462.777	279.25
462.997	297.25
463.217	285.25
463.437	287.25
463.657	272.25
463.876	260.25
464.096	268.25
464.316	264.25
464.536	272.25
464.755	278.25
464.975	282.25
465.195	265.25
465.414	261.25
465.634	271.25
465.854	254.25
466.073	239.25
466.293	239.25
466.512	230.25
466.732	260.25
466.951	254.25
467.171	230.25
467.391	224.25
467.61	213.25
467.829	226.25
468.049	223.25
468.268	227.25
468.488	206.25
468.707	228.25
468.927	255.25
469.146	273.25
469.365	245.25
469.585	229.25
469.804	236.25
470.023	273.25
470.243	242.25
470.462	232.25
470.681	222.25
470.901	247.25
471.12	249.25
471.339	229.25
471.558	241.25
471.777	232.25
471.997	246.25
472.216	278.25
472.435	271.25
472.654	245.25
472.873	227.25
473.092	233.25
473.311	256.25
473.53	241.25
473.749	225.25
473.968	247.25
474.187	252.25
474.406	231.25
474.625	217.25
474.844	231.25
475.063	255.25
475.282	257.25
475.501	260.25
475.72	266.25
475.939	249.25
476.158	262.25
476.377	299.25
476.596	329.25
476.814	364.25
477.033	290.25
477.252	268.25
477.471	243.25
477.69	240.25
477.908	262.25
478.127	279.25
478.346	274.25
478.564	284.25
478.783	273.25
479.002	292.25
479.22	319.25
479.439	331.25
479.658	279.25
479.876	280.25
480.095	307.25
480.313	303.25
480.532	275.25
480.751	267.25
480.969	295.25
481.188	310.25
481.406	300.25
481.624	281.25
481.843	265.25
482.061	257.25
482.28	285.25
482.498	357.25
482.717	328.25
482.935	276.25
483.153	266.25
483.372	253.25
483.59	246.25
483.808	252.25
484.027	250.25
484.245	258.25
484.463	246.25
484.681	259.25
484.9	281.25
485.118	282.25
485.336	284.25
485.554	244.25
485.772	270.25
485.99	278.25
486.209	292.25
486.427	287.25
486.645	277.25
486.863	284.25
487.081	280.25
487.299	315.25
487.517	308.25
487.735	274.25
487.953	295.25
488.171	302.25
488.389	277.25
488.607	248.25
488.825	265.25
489.043	300.25
489.261	318.25
489.479	348.25
489.696	304.25
489.914	269.25
490.132	275.25
490.35	252.25
490.568	266.25
490.786	262.25
491.003	274.25
491.221	281.25
491.439	288.25
491.657	265.25
491.874	273.25
492.092	314.25
492.31	355.25
492.527	353.25
492.745	332.25
492.963	300.25
493.18	282.25
493.398	281.25
493.615	281.25
493.833	278.25
494.05	275.25
494.268	304.25
494.485	291.25
494.703	281.25
494.92	280.25
495.138	280.25
495.355	293.25
495.573	272.25
495.79	312.25
496.008	378.25
496.225	327.25
496.442	293.25
496.66	320.25
496.877	304.25
497.094	295.25
497.312	302.25
497.529	297.25
497.746	300.25
497.963	311.25
498.181	340.25
498.398	347.25
498.615	353.25
498.832	384.25
499.049	387.25
499.267	404.25
499.484	405.25
499.701	417.25
499.918	434.25
500.135	492.25
500.352	589.25
500.569	560.25
500.786	564.25
501.003	534.25
501.22	495.25
501.437	452.25
501.654	413.25
501.871	396.25
502.088	391.25
502.305	359.25
502.522	334.25
