Data from NickelSpatula.Lamp.E10.P2_HRD10591_11-57-41-531.txt Node
Date: Tue Jul 23 11:57:41 EDT 2019
User: cochatt
Spectrometer: HR+D1059
Trigger mode: 1
Integration Time (sec): 1.000000E-1
Scans to average: 1
Electric dark correction enabled: true
Nonlinearity correction enabled: false
Boxcar width: 0
XAxis mode: Wavelengths
Number of Pixels in Spectrum: 2048
>>>>>Begin Spectral Data<<<<<
223.165	-18.69
223.4	-18.69
223.635	-18.69
223.869	-16.69
224.104	-19.69
224.338	-13.69
224.573	-6.69
224.808	-26.69
225.042	-0.69
225.277	-0.69
225.511	-0.69
225.746	3.31
225.98	12.31
226.215	21.31
226.449	7.31
226.683	10.31
226.918	12.31
227.152	37.31
227.387	38.31
227.621	33.31
227.856	27.31
228.09	46.31
228.324	58.31
228.559	62.31
228.793	81.31
229.027	135.31
229.262	157.31
229.496	165.31
229.73	159.31
229.964	182.31
230.199	196.31
230.433	197.31
230.667	203.31
230.901	196.31
231.136	196.31
231.37	212.31
231.604	221.31
231.838	213.31
232.072	236.31
232.306	230.31
232.541	232.31
232.775	224.31
233.009	254.31
233.243	263.31
233.477	283.31
233.711	331.31
233.945	306.31
234.179	316.31
234.413	335.31
234.647	375.31
234.881	454.31
235.115	398.31
235.349	386.31
235.583	334.31
235.817	343.31
236.051	357.31
236.285	436.31
236.519	438.31
236.753	418.31
236.987	420.31
237.221	419.31
237.455	422.31
237.689	411.31
237.922	452.31
238.156	465.31
238.39	523.31
238.624	645.31
238.858	578.31
239.091	480.31
239.325	501.31
239.559	456.31
239.793	528.31
240.027	651.31
240.26	587.31
240.494	558.31
240.728	554.31
240.961	647.31
241.195	592.31
241.429	599.31
241.662	591.31
241.896	499.31
242.13	473.31
242.363	434.31
242.597	456.31
242.83	522.31
243.064	526.31
243.298	571.31
243.531	596.31
243.765	606.31
243.998	599.31
244.232	579.31
244.465	554.31
244.699	574.31
244.932	640.31
245.166	610.31
245.399	521.31
245.633	522.31
245.866	568.31
246.099	594.31
246.333	702.31
246.566	750.31
246.8	747.31
247.033	710.31
247.266	665.31
247.5	674.31
247.733	640.31
247.966	641.31
248.2	655.31
248.433	739.31
248.666	814.31
248.899	816.31
249.133	831.31
249.366	949.31
249.599	1009.31
249.832	889.31
250.066	782.31
250.299	810.31
250.532	766.31
250.765	761.31
250.998	710.31
251.231	688.31
251.465	750.31
251.698	800.31
251.931	751.31
252.164	813.31
252.397	896.31
252.63	1002.31
252.863	1087.31
253.096	1144.31
253.329	1096.31
253.562	1064.31
253.795	1141.31
254.028	1294.31
254.261	1335.31
254.494	1211.31
254.727	1086.31
254.96	1088.31
255.193	1141.31
255.426	1080.31
255.659	812.31
255.892	756.31
256.124	806.31
256.357	976.31
256.59	1146.31
256.823	1102.31
257.056	910.31
257.289	897.31
257.521	932.31
257.754	1105.31
257.987	1265.31
258.22	1059.31
258.452	962.31
258.685	1107.31
258.918	1224.31
259.151	1197.31
259.383	1265.31
259.616	1436.31
259.849	1510.31
260.081	1630.31
260.314	1820.31
260.547	1416.31
260.779	1410.31
261.012	1659.31
261.244	1568.31
261.477	1583.31
261.71	1478.31
261.942	1236.31
262.175	1231.31
262.407	1184.31
262.64	1232.31
262.872	1413.31
263.105	1556.31
263.337	1643.31
263.57	1481.31
263.802	995.31
264.035	885.31
264.267	829.31
264.499	726.31
264.732	683.31
264.964	660.31
265.197	684.31
265.429	753.31
265.661	782.31
265.894	829.31
266.126	876.31
266.358	996.31
266.591	1205.31
266.823	1434.31
267.055	1346.31
267.287	1159.31
267.52	1221.31
267.752	1317.31
267.984	1391.31
268.216	1315.31
268.448	1070.31
268.681	1086.31
268.913	1167.31
269.145	1222.31
269.377	1254.31
269.609	1271.31
269.841	1164.31
270.073	1253.31
270.306	1300.31
270.538	1335.31
270.77	1310.31
271.002	1335.31
271.234	1378.31
271.466	1428.31
271.698	1381.31
271.93	1367.31
272.162	1370.31
272.394	1333.31
272.626	1326.31
272.858	1394.31
273.09	1416.31
273.322	1271.31
273.553	1231.31
273.785	1453.31
274.017	1856.31
274.249	2318.31
274.481	2425.31
274.713	2624.31
274.945	3024.31
275.176	3090.31
275.408	2734.31
275.64	2508.31
275.872	2535.31
276.104	2100.31
276.335	1819.31
276.567	1849.31
276.799	1917.31
277.031	1976.31
277.262	1554.31
277.494	1188.31
277.726	1148.31
277.957	1292.31
278.189	1402.31
278.421	1415.31
278.652	1331.31
278.884	1293.31
279.115	1208.31
279.347	1154.31
279.579	1176.31
279.81	1188.31
280.042	1169.31
280.273	1213.31
280.505	1097.31
280.736	958.31
280.968	956.31
281.199	1025.31
281.431	1222.31
281.662	1178.31
281.894	1124.31
282.125	1213.31
282.356	1282.31
282.588	1326.31
282.819	1194.31
283.051	1323.31
283.282	1625.31
283.513	1850.31
283.745	2071.31
283.976	2111.31
284.207	1918.31
284.439	2000.31
284.67	1934.31
284.901	1720.31
285.132	1868.31
285.364	1954.31
285.595	1768.31
285.826	1907.31
286.057	1984.31
286.288	1911.31
286.52	1924.31
286.751	2014.31
286.982	2050.31
287.213	1738.31
287.444	1660.31
287.675	1772.31
287.906	1774.31
288.138	1536.31
288.369	1335.31
288.6	1238.31
288.831	1286.31
289.062	1486.31
289.293	1664.31
289.524	1526.31
289.755	1537.31
289.986	1580.31
290.217	1405.31
290.448	1062.31
290.679	907.31
290.91	888.31
291.141	904.31
291.371	944.31
291.602	940.31
291.833	916.31
292.064	1007.31
292.295	1175.31
292.526	1368.31
292.757	1373.31
292.987	1504.31
293.218	1530.31
293.449	1517.31
293.68	1584.31
293.91	1578.31
294.141	1559.31
294.372	1463.31
294.603	1353.31
294.833	1540.31
295.064	1770.31
295.295	1657.31
295.525	1259.31
295.756	1109.31
295.987	932.31
296.217	970.31
296.448	999.31
296.679	1089.31
296.909	1181.31
297.14	1242.31
297.37	1349.31
297.601	1320.31
297.831	1099.31
298.062	1219.31
298.292	1347.31
298.523	1491.31
298.753	1714.31
298.984	1503.31
299.214	1220.31
299.445	1019.31
299.675	1008.31
299.905	954.31
300.136	1003.31
300.366	1138.31
300.597	1097.31
300.827	968.31
301.057	950.31
301.288	970.31
301.518	1022.31
301.748	1136.31
301.979	1264.31
302.209	1336.31
302.439	1378.31
302.669	1183.31
302.9	1182.31
303.13	1098.31
303.36	1050.31
303.59	1029.31
303.82	1077.31
304.051	1202.31
304.281	1284.31
304.511	1232.31
304.741	1119.31
304.971	1139.31
305.201	1252.31
305.431	1141.31
305.661	1013.31
305.891	1000.31
306.121	1017.31
306.352	915.31
306.582	853.31
306.812	822.31
307.042	802.31
307.272	777.31
307.502	791.31
307.731	826.31
307.961	879.31
308.191	840.31
308.421	780.31
308.651	770.31
308.881	731.31
309.111	727.31
309.341	796.31
309.571	875.31
309.8	894.31
310.03	874.31
310.26	968.31
310.49	913.31
310.72	807.31
310.949	836.31
311.179	858.31
311.409	887.31
311.639	1055.31
311.868	1348.31
312.098	1719.31
312.328	1882.31
312.557	1810.31
312.787	1788.31
313.017	1586.31
313.246	1747.31
313.476	1920.31
313.706	1555.31
313.935	1233.31
314.165	1016.31
314.394	915.31
314.624	934.31
314.853	997.31
315.083	1034.31
315.312	975.31
315.542	962.31
315.771	910.31
316.001	821.31
316.23	807.31
316.46	807.31
316.689	837.31
316.919	849.31
317.148	856.31
317.377	865.31
317.607	880.31
317.836	914.31
318.065	1032.31
318.295	1164.31
318.524	1103.31
318.753	935.31
318.983	907.31
319.212	906.31
319.441	963.31
319.67	1095.31
319.9	1148.31
320.129	1084.31
320.358	916.31
320.587	902.31
320.816	979.31
321.046	1109.31
321.275	1227.31
321.504	1253.31
321.733	1194.31
321.962	1169.31
322.191	1103.31
322.42	1043.31
322.649	1053.31
322.878	1126.31
323.108	1138.31
323.337	1083.31
323.566	1054.31
323.795	1009.31
324.024	978.31
324.253	927.31
324.482	946.31
324.71	1049.31
324.939	1121.31
325.168	1082.31
325.397	878.31
325.626	841.31
325.855	865.31
326.084	876.31
326.313	819.31
326.542	796.31
326.77	844.31
326.999	861.31
327.228	944.31
327.457	946.31
327.686	974.31
327.914	857.31
328.143	812.31
328.372	783.31
328.6	828.31
328.829	849.31
329.058	859.31
329.287	847.31
329.515	883.31
329.744	846.31
329.972	810.31
330.201	780.31
330.43	808.31
330.658	913.31
330.887	1036.31
331.115	1002.31
331.344	958.31
331.572	942.31
331.801	882.31
332.03	814.31
332.258	854.31
332.486	928.31
332.715	974.31
332.943	864.31
333.172	850.31
333.4	916.31
333.629	1008.31
333.857	1091.31
334.085	1068.31
334.314	1044.31
334.542	1017.31
334.771	936.31
334.999	939.31
335.227	894.31
335.455	898.31
335.684	998.31
335.912	1150.31
336.14	1254.31
336.369	1224.31
336.597	1123.31
336.825	1326.31
337.053	1446.31
337.281	1186.31
337.51	939.31
337.738	922.31
337.966	994.31
338.194	1130.31
338.422	1036.31
338.65	911.31
338.878	824.31
339.106	864.31
339.334	997.31
339.562	1008.31
339.79	952.31
340.018	931.31
340.246	1005.31
340.474	1134.31
340.702	1181.31
340.93	1255.31
341.158	1268.31
341.386	1059.31
341.614	1064.31
341.842	1078.31
342.07	1088.31
342.298	1276.31
342.526	1361.31
342.754	1142.31
342.981	1052.31
343.209	1013.31
343.437	1081.31
343.665	1114.31
343.893	1122.31
344.12	1301.31
344.348	1487.31
344.576	1340.31
344.804	1137.31
345.031	947.31
345.259	945.31
345.487	976.31
345.714	987.31
345.942	1075.31
346.17	1122.31
346.397	1055.31
346.625	956.31
346.853	936.31
347.08	885.31
347.308	942.31
347.535	1100.31
347.763	1086.31
347.99	925.31
348.218	922.31
348.445	920.31
348.673	927.31
348.9	949.31
349.128	1004.31
349.355	1012.31
349.583	994.31
349.81	960.31
350.037	895.31
350.265	786.31
350.492	758.31
350.72	769.31
350.947	789.31
351.174	844.31
351.402	898.31
351.629	946.31
351.856	890.31
352.083	863.31
352.311	920.31
352.538	1014.31
352.765	1048.31
352.992	966.31
353.22	930.31
353.447	956.31
353.674	929.31
353.901	885.31
354.128	918.31
354.355	947.31
354.583	934.31
354.81	912.31
355.037	962.31
355.264	915.31
355.491	1019.31
355.718	1099.31
355.945	1049.31
356.172	1015.31
356.399	1069.31
356.626	1263.31
356.853	1538.31
357.08	1596.31
357.307	1676.31
357.534	1330.31
357.761	1316.31
357.988	1649.31
358.215	1896.31
358.441	1792.31
358.668	1515.31
358.895	1422.31
359.122	1160.31
359.349	1138.31
359.576	1255.31
359.802	1045.31
360.029	906.31
360.256	951.31
360.483	1170.31
360.709	1478.31
360.936	1552.31
361.163	1344.31
361.39	1082.31
361.616	988.31
361.843	1162.31
362.07	1412.31
362.296	1299.31
362.523	1003.31
362.749	907.31
362.976	949.31
363.203	1133.31
363.429	1271.31
363.656	1008.31
363.882	968.31
364.109	964.31
364.335	942.31
364.562	924.31
364.788	1046.31
365.015	1246.31
365.241	1089.31
365.468	926.31
365.694	799.31
365.92	775.31
366.147	775.31
366.373	748.31
366.599	775.31
366.826	804.31
367.052	784.31
367.278	782.31
367.505	814.31
367.731	858.31
367.957	963.31
368.184	979.31
368.41	966.31
368.636	962.31
368.862	997.31
369.089	960.31
369.315	876.31
369.541	831.31
369.767	852.31
369.993	792.31
370.219	803.31
370.445	878.31
370.672	958.31
370.898	1022.31
371.124	1047.31
371.35	903.31
371.576	848.31
371.802	933.31
372.028	1106.31
372.254	1222.31
372.48	1080.31
372.706	982.31
372.932	1018.31
373.158	1097.31
373.384	1264.31
373.61	1700.31
373.835	1715.31
374.061	1282.31
374.287	1112.31
374.513	1304.31
374.739	1567.31
374.965	1584.31
375.191	1551.31
375.416	1102.31
375.642	967.31
375.868	1121.31
376.094	1292.31
376.319	1084.31
376.545	1231.31
376.771	1254.31
376.997	1073.31
377.222	823.31
377.448	732.31
377.674	733.31
377.899	746.31
378.125	727.31
378.35	734.31
378.576	754.31
378.802	830.31
379.027	883.31
379.253	850.31
379.478	869.31
379.704	985.31
379.929	1022.31
380.155	1019.31
380.38	877.31
380.606	941.31
380.831	1042.31
381.057	978.31
381.282	944.31
381.507	1110.31
381.733	1368.31
381.958	1413.31
382.184	1496.31
382.409	1593.31
382.634	1528.31
382.86	1601.31
383.085	1358.31
383.31	1100.31
383.535	1118.31
383.761	1155.31
383.986	1117.31
384.211	1311.31
384.436	1278.31
384.662	977.31
384.887	938.31
385.112	986.31
385.337	996.31
385.562	925.31
385.787	1047.31
386.013	1117.31
386.238	1184.31
386.463	982.31
386.688	945.31
386.913	892.31
387.138	833.31
387.363	898.31
387.588	928.31
387.813	928.31
388.038	1056.31
388.263	934.31
388.488	910.31
388.713	1062.31
388.938	1138.31
389.163	974.31
389.387	854.31
389.612	890.31
389.837	890.31
390.062	910.31
390.287	970.31
390.512	968.31
390.736	899.31
390.961	856.31
391.186	835.31
391.411	808.31
391.636	836.31
391.86	887.31
392.085	965.31
392.31	930.31
392.534	916.31
392.759	922.31
392.984	935.31
393.208	921.31
393.433	847.31
393.658	777.31
393.882	793.31
394.107	766.31
394.331	753.31
394.556	774.31
394.78	787.31
395.005	807.31
395.229	822.31
395.454	863.31
395.678	843.31
395.903	876.31
396.127	854.31
396.352	876.31
396.576	916.31
396.801	964.31
397.025	1067.31
397.249	1087.31
397.474	902.31
397.698	888.31
397.922	935.31
398.147	871.31
398.371	886.31
398.595	916.31
398.82	912.31
399.044	942.31
399.268	970.31
399.492	1029.31
399.717	1026.31
399.941	1067.31
400.165	1027.31
400.389	1005.31
400.613	1022.31
400.837	1004.31
401.062	891.31
401.286	878.31
401.51	843.31
401.734	874.31
401.958	880.31
402.182	876.31
402.406	887.31
402.63	895.31
402.854	915.31
403.078	1038.31
403.302	1238.31
403.526	1275.31
403.75	1145.31
403.974	1003.31
404.198	1057.31
404.422	1178.31
404.645	1370.31
404.869	1476.31
405.093	1127.31
405.317	954.31
405.541	942.31
405.765	974.31
405.988	988.31
406.212	1060.31
406.436	1242.31
406.66	1336.31
406.883	1102.31
407.107	1116.31
407.331	1282.31
407.555	1248.31
407.778	1070.31
408.002	1022.31
408.226	1020.31
408.449	1019.31
408.673	995.31
408.896	916.31
409.12	883.31
409.344	870.31
409.567	863.31
409.791	871.31
410.014	876.31
410.238	874.31
410.461	888.31
410.685	874.31
410.908	905.31
411.132	878.31
411.355	915.31
411.578	940.31
411.802	892.31
412.025	960.31
412.249	954.31
412.472	931.31
412.695	942.31
412.919	886.31
413.142	947.31
413.365	1007.31
413.589	1016.31
413.812	908.31
414.035	898.31
414.258	900.31
414.482	1037.31
414.705	1018.31
414.928	890.31
415.151	840.31
415.374	867.31
415.597	887.31
415.821	908.31
416.044	847.31
416.267	827.31
416.49	828.31
416.713	855.31
416.936	829.31
417.159	822.31
417.382	848.31
417.605	861.31
417.828	881.31
418.051	902.31
418.274	906.31
418.497	899.31
418.72	898.31
418.943	902.31
419.166	942.31
419.389	990.31
419.611	987.31
419.834	1004.31
420.057	1058.31
420.28	1063.31
420.503	970.31
420.726	896.31
420.948	838.31
421.171	871.31
421.394	859.31
421.617	845.31
421.839	856.31
422.062	895.31
422.285	881.31
422.507	892.31
422.73	927.31
422.953	935.31
423.175	920.31
423.398	922.31
423.621	957.31
423.843	1027.31
424.066	936.31
424.288	902.31
424.511	883.31
424.733	909.31
424.956	928.31
425.178	1050.31
425.401	1134.31
425.623	1319.31
425.846	1120.31
426.068	942.31
426.291	1062.31
426.513	998.31
426.735	919.31
426.958	980.31
427.18	1122.31
427.402	1416.31
427.625	1338.31
427.847	1141.31
428.069	866.31
428.292	892.31
428.514	868.31
428.736	847.31
428.958	921.31
429.181	1087.31
429.403	946.31
429.625	857.31
429.847	821.31
430.069	852.31
430.292	884.31
430.514	812.31
430.736	892.31
430.958	1126.31
431.18	1032.31
431.402	814.31
431.624	794.31
431.846	792.31
432.068	795.31
432.29	823.31
432.512	894.31
432.734	1156.31
432.956	1042.31
433.178	840.31
433.4	805.31
433.622	821.31
433.844	878.31
434.066	894.31
434.287	882.31
434.509	852.31
434.731	901.31
434.953	854.31
435.175	890.31
435.397	983.31
435.618	844.31
435.84	805.31
436.062	805.31
436.284	840.31
436.505	795.31
436.727	749.31
436.949	770.31
437.17	810.31
437.392	867.31
437.614	802.31
437.835	781.31
438.057	803.31
438.278	946.31
438.5	1284.31
438.721	1305.31
438.943	916.31
439.165	778.31
439.386	770.31
439.608	766.31
439.829	770.31
440.05	768.31
440.272	820.31
440.493	956.31
440.715	1182.31
440.936	957.31
441.158	858.31
441.379	826.31
441.6	955.31
441.822	975.31
442.043	876.31
442.264	848.31
442.486	854.31
442.707	840.31
442.928	835.31
443.149	871.31
443.371	884.31
443.592	900.31
443.813	857.31
444.034	863.31
444.255	869.31
444.476	924.31
444.698	905.31
444.919	926.31
445.14	1009.31
445.361	978.31
445.582	906.31
445.803	875.31
446.024	923.31
446.245	901.31
446.466	897.31
446.687	863.31
446.908	856.31
447.129	830.31
447.35	806.31
447.571	780.31
447.792	782.31
448.013	749.31
448.234	768.31
448.455	778.31
448.675	777.31
448.896	794.31
449.117	774.31
449.338	828.31
449.559	768.31
449.779	822.31
450	867.31
450.221	806.31
450.442	812.31
450.662	768.31
450.883	786.31
451.104	816.31
451.324	774.31
451.545	783.31
451.766	729.31
451.986	754.31
452.207	754.31
452.428	765.31
452.648	744.31
452.869	801.31
453.089	840.31
453.31	792.31
453.53	725.31
453.751	727.31
453.971	726.31
454.192	775.31
454.412	785.31
454.633	725.31
454.853	722.31
455.073	716.31
455.294	711.31
455.514	718.31
455.734	751.31
455.955	784.31
456.175	814.31
456.395	751.31
456.616	692.31
456.836	686.31
457.056	688.31
457.276	703.31
457.497	711.31
457.717	686.31
457.937	688.31
458.157	702.31
458.377	693.31
458.598	723.31
458.818	743.31
459.038	802.31
459.258	810.31
459.478	834.31
459.698	886.31
459.918	861.31
460.138	862.31
460.358	861.31
460.578	848.31
460.798	869.31
461.018	855.31
461.238	837.31
461.458	824.31
461.678	866.31
461.898	906.31
462.118	892.31
462.338	934.31
462.558	904.31
462.777	955.31
462.997	1011.31
463.217	989.31
463.437	1011.31
463.657	992.31
463.876	951.31
464.096	960.31
464.316	945.31
464.536	938.31
464.755	1005.31
464.975	974.31
465.195	950.31
465.414	967.31
465.634	915.31
465.854	935.31
466.073	869.31
466.293	826.31
466.512	906.31
466.732	975.31
466.951	995.31
467.171	895.31
467.391	874.31
467.61	862.31
467.829	910.31
468.049	905.31
468.268	843.31
468.488	855.31
468.707	869.31
468.927	1032.31
469.146	1112.31
469.365	978.31
469.585	917.31
469.804	965.31
470.023	1056.31
470.243	935.31
470.462	898.31
470.681	880.31
470.901	894.31
471.12	939.31
471.339	960.31
471.558	892.31
471.777	910.31
471.997	945.31
472.216	1102.31
472.435	1063.31
472.654	950.31
472.873	935.31
473.092	968.31
473.311	1004.31
473.53	950.31
473.749	886.31
473.968	965.31
474.187	944.31
474.406	900.31
474.625	918.31
474.844	944.31
475.063	986.31
475.282	1026.31
475.501	1052.31
475.72	1096.31
475.939	1061.31
476.158	1047.31
476.377	1220.31
476.596	1408.31
476.814	1466.31
477.033	1195.31
477.252	1018.31
477.471	950.31
477.69	991.31
477.908	1072.31
478.127	1124.31
478.346	1028.31
478.564	1098.31
478.783	1031.31
479.002	1058.31
479.22	1230.31
479.439	1404.31
479.658	1203.31
479.876	1069.31
480.095	1160.31
480.313	1204.31
480.532	1084.31
480.751	1048.31
480.969	1106.31
481.188	1242.31
481.406	1253.31
481.624	1196.31
481.843	1108.31
482.061	1012.31
482.28	1160.31
482.498	1414.31
482.717	1331.31
482.935	1130.31
483.153	1061.31
483.372	1034.31
483.59	1032.31
483.808	1033.31
484.027	1012.31
484.245	987.31
484.463	985.31
484.681	1024.31
484.9	1093.31
485.118	1166.31
485.336	1075.31
485.554	1026.31
485.772	1068.31
485.99	1088.31
486.209	1166.31
486.427	1178.31
486.645	1161.31
486.863	1188.31
487.081	1195.31
487.299	1310.31
487.517	1253.31
487.735	1199.31
487.953	1204.31
488.171	1215.31
488.389	1146.31
488.607	1076.31
488.825	1176.31
489.043	1197.31
489.261	1388.31
489.479	1492.31
489.696	1260.31
489.914	1112.31
490.132	1088.31
490.35	1096.31
490.568	1085.31
490.786	1090.31
491.003	1108.31
491.221	1122.31
491.439	1100.31
491.657	1101.31
491.874	1184.31
492.092	1418.31
492.31	1694.31
492.527	1655.31
492.745	1446.31
492.963	1284.31
493.18	1240.31
493.398	1267.31
493.615	1216.31
493.833	1195.31
494.05	1191.31
494.268	1216.31
494.485	1234.31
494.703	1163.31
494.92	1175.31
495.138	1148.31
495.355	1150.31
