Data from NickelSpatula.Lamp.E5.5.P2_HRD10591_11-51-08-562.txt Node
Date: Tue Jul 23 11:51:08 EDT 2019
User: cochatt
Spectrometer: HR+D1059
Trigger mode: 1
Integration Time (sec): 1.000000E-1
Scans to average: 1
Electric dark correction enabled: true
Nonlinearity correction enabled: false
Boxcar width: 0
XAxis mode: Wavelengths
Number of Pixels in Spectrum: 2048
>>>>>Begin Spectral Data<<<<<
223.165	-26.88
223.4	-26.88
223.635	-26.88
223.869	-18.88
224.104	-15.88
224.338	-14.88
224.573	-13.88
224.808	-8.88
225.042	6.12
225.277	-10.88
225.511	-0.88
225.746	6.12
225.98	13.12
226.215	8.12
226.449	4.12
226.683	17.12
226.918	24.12
227.152	32.12
227.387	42.12
227.621	31.12
227.856	49.12
228.09	40.12
228.324	52.12
228.559	62.12
228.793	58.12
229.027	76.12
229.262	90.12
229.496	69.12
229.73	77.12
229.964	100.12
230.199	95.12
230.433	102.12
230.667	100.12
230.901	94.12
231.136	86.12
231.37	101.12
231.604	97.12
231.838	112.12
232.072	94.12
232.306	96.12
232.541	103.12
232.775	109.12
233.009	120.12
233.243	96.12
233.477	105.12
233.711	114.12
233.945	116.12
234.179	107.12
234.413	113.12
234.647	114.12
234.881	129.12
235.115	134.12
235.349	117.12
235.583	106.12
235.817	106.12
236.051	108.12
236.285	119.12
236.519	144.12
236.753	128.12
236.987	125.12
237.221	140.12
237.455	118.12
237.689	124.12
237.922	122.12
238.156	103.12
238.39	128.12
238.624	160.12
238.858	147.12
239.091	146.12
239.325	121.12
239.559	136.12
239.793	134.12
240.027	155.12
240.26	136.12
240.494	146.12
240.728	131.12
240.961	156.12
241.195	159.12
241.429	152.12
241.662	132.12
241.896	136.12
242.13	146.12
242.363	119.12
242.597	148.12
242.83	131.12
243.064	125.12
243.298	144.12
243.531	156.12
243.765	152.12
243.998	139.12
244.232	152.12
244.465	154.12
244.699	149.12
244.932	153.12
245.166	156.12
245.399	142.12
245.633	140.12
245.866	141.12
246.099	144.12
246.333	154.12
246.566	162.12
246.8	171.12
247.033	176.12
247.266	154.12
247.5	156.12
247.733	159.12
247.966	148.12
248.2	145.12
248.433	155.12
248.666	152.12
248.899	160.12
249.133	181.12
249.366	196.12
249.599	200.12
249.832	192.12
250.066	165.12
250.299	169.12
250.532	170.12
250.765	174.12
250.998	162.12
251.231	156.12
251.465	167.12
251.698	173.12
251.931	169.12
252.164	162.12
252.397	196.12
252.63	197.12
252.863	211.12
253.096	220.12
253.329	221.12
253.562	204.12
253.795	218.12
254.028	236.12
254.261	226.12
254.494	236.12
254.727	205.12
254.96	197.12
255.193	210.12
255.426	204.12
255.659	173.12
255.892	191.12
256.124	186.12
256.357	215.12
256.59	219.12
256.823	224.12
257.056	190.12
257.289	185.12
257.521	187.12
257.754	220.12
257.987	254.12
258.22	224.12
258.452	195.12
258.685	221.12
258.918	238.12
259.151	246.12
259.383	248.12
259.616	262.12
259.849	295.12
260.081	278.12
260.314	314.12
260.547	277.12
260.779	280.12
261.012	296.12
261.244	274.12
261.477	287.12
261.71	280.12
261.942	243.12
262.175	235.12
262.407	215.12
262.64	225.12
262.872	256.12
263.105	289.12
263.337	295.12
263.57	282.12
263.802	216.12
264.035	199.12
264.267	203.12
264.499	174.12
264.732	171.12
264.964	159.12
265.197	164.12
265.429	178.12
265.661	188.12
265.894	184.12
266.126	192.12
266.358	222.12
266.591	221.12
266.823	261.12
267.055	278.12
267.287	234.12
267.52	248.12
267.752	244.12
267.984	260.12
268.216	260.12
268.448	209.12
268.681	220.12
268.913	234.12
269.145	227.12
269.377	255.12
269.609	235.12
269.841	260.12
270.073	230.12
270.306	266.12
270.538	274.12
270.77	254.12
271.002	262.12
271.234	260.12
271.466	281.12
271.698	255.12
271.93	249.12
272.162	258.12
272.394	234.12
272.626	249.12
272.858	256.12
273.09	260.12
273.322	219.12
273.553	213.12
273.785	258.12
274.017	325.12
274.249	382.12
274.481	376.12
274.713	389.12
274.945	444.12
275.176	465.12
275.408	418.12
275.64	395.12
275.872	401.12
276.104	366.12
276.335	329.12
276.567	323.12
276.799	327.12
277.031	331.12
277.262	276.12
277.494	262.12
277.726	229.12
277.957	230.12
278.189	275.12
278.421	264.12
278.652	270.12
278.884	242.12
279.115	246.12
279.347	225.12
279.579	248.12
279.81	216.12
280.042	238.12
280.273	246.12
280.505	243.12
280.736	228.12
280.968	210.12
281.199	220.12
281.431	246.12
281.662	241.12
281.894	226.12
282.125	263.12
282.356	255.12
282.588	250.12
282.819	238.12
283.051	240.12
283.282	290.12
283.513	312.12
283.745	344.12
283.976	342.12
284.207	336.12
284.439	336.12
284.67	341.12
284.901	310.12
285.132	321.12
285.364	325.12
285.595	296.12
285.826	334.12
286.057	340.12
286.288	323.12
286.52	344.12
286.751	330.12
286.982	354.12
287.213	304.12
287.444	320.12
287.675	320.12
287.906	320.12
288.138	282.12
288.369	258.12
288.6	276.12
288.831	262.12
289.062	296.12
289.293	342.12
289.524	297.12
289.755	292.12
289.986	294.12
290.217	284.12
290.448	209.12
290.679	225.12
290.91	198.12
291.141	203.12
291.371	211.12
291.602	190.12
291.833	205.12
292.064	200.12
292.295	234.12
292.526	250.12
292.757	267.12
292.987	260.12
293.218	285.12
293.449	285.12
293.68	312.12
293.91	289.12
294.141	308.12
294.372	288.12
294.603	288.12
294.833	294.12
295.064	323.12
295.295	315.12
295.525	250.12
295.756	240.12
295.987	212.12
296.217	205.12
296.448	209.12
296.679	208.12
296.909	227.12
297.14	274.12
297.37	256.12
297.601	257.12
297.831	230.12
298.062	262.12
298.292	273.12
298.523	288.12
298.753	300.12
298.984	278.12
299.214	248.12
299.445	230.12
299.675	223.12
299.905	212.12
300.136	218.12
300.366	227.12
300.597	230.12
300.827	229.12
301.057	218.12
301.288	226.12
301.518	240.12
301.748	251.12
301.979	276.12
302.209	277.12
302.439	272.12
302.669	251.12
302.9	268.12
303.13	242.12
303.36	229.12
303.59	221.12
303.82	249.12
304.051	243.12
304.281	270.12
304.511	254.12
304.741	234.12
304.971	250.12
305.201	246.12
305.431	238.12
305.661	215.12
305.891	225.12
306.121	212.12
306.352	229.12
306.582	191.12
306.812	184.12
307.042	186.12
307.272	185.12
307.502	201.12
307.731	191.12
307.961	196.12
308.191	195.12
308.421	192.12
308.651	184.12
308.881	174.12
309.111	181.12
309.341	200.12
309.571	196.12
309.8	202.12
310.03	206.12
310.26	218.12
310.49	207.12
310.72	196.12
310.949	192.12
311.179	193.12
311.409	194.12
311.639	230.12
311.868	241.12
312.098	308.12
312.328	324.12
312.557	317.12
312.787	333.12
313.017	293.12
313.246	305.12
313.476	337.12
313.706	275.12
313.935	242.12
314.165	220.12
314.394	199.12
314.624	210.12
314.853	212.12
315.083	203.12
315.312	204.12
315.542	212.12
315.771	205.12
316.001	182.12
316.23	197.12
316.46	186.12
316.689	199.12
316.919	177.12
317.148	195.12
317.377	183.12
317.607	195.12
317.836	197.12
318.065	216.12
318.295	225.12
318.524	224.12
318.753	200.12
318.983	203.12
319.212	187.12
319.441	202.12
319.67	222.12
319.9	218.12
320.129	218.12
320.358	190.12
320.587	214.12
320.816	216.12
321.046	221.12
321.275	236.12
321.504	240.12
321.733	244.12
321.962	233.12
322.191	224.12
322.42	225.12
322.649	208.12
322.878	229.12
323.108	242.12
323.337	227.12
323.566	228.12
323.795	206.12
324.024	228.12
324.253	210.12
324.482	203.12
324.71	229.12
324.939	234.12
325.168	232.12
325.397	199.12
325.626	212.12
325.855	202.12
326.084	204.12
326.313	189.12
326.542	187.12
326.77	197.12
326.999	214.12
327.228	211.12
327.457	213.12
327.686	202.12
327.914	196.12
328.143	202.12
328.372	195.12
328.6	193.12
328.829	197.12
329.058	206.12
329.287	188.12
329.515	199.12
329.744	199.12
329.972	195.12
330.201	182.12
330.43	172.12
330.658	203.12
330.887	218.12
331.115	223.12
331.344	208.12
331.572	216.12
331.801	203.12
332.03	206.12
332.258	199.12
332.486	190.12
332.715	223.12
332.943	213.12
333.172	209.12
333.4	211.12
333.629	246.12
333.857	246.12
334.085	227.12
334.314	226.12
334.542	226.12
334.771	213.12
334.999	218.12
335.227	212.12
335.455	218.12
335.684	217.12
335.912	253.12
336.14	267.12
336.369	262.12
336.597	232.12
336.825	276.12
337.053	281.12
337.281	267.12
337.51	221.12
337.738	210.12
337.966	219.12
338.194	227.12
338.422	214.12
338.65	217.12
338.878	191.12
339.106	199.12
339.334	205.12
339.562	212.12
339.79	209.12
340.018	206.12
340.246	199.12
340.474	206.12
340.702	245.12
340.93	242.12
341.158	260.12
341.386	222.12
341.614	216.12
341.842	240.12
342.07	224.12
342.298	250.12
342.526	236.12
342.754	238.12
342.981	214.12
343.209	229.12
343.437	246.12
343.665	254.12
343.893	260.12
344.12	274.12
344.348	295.12
344.576	285.12
344.804	236.12
345.031	214.12
345.259	205.12
345.487	206.12
345.714	212.12
345.942	214.12
346.17	229.12
346.397	254.12
346.625	224.12
346.853	216.12
347.08	192.12
347.308	216.12
347.535	220.12
347.763	253.12
347.99	233.12
348.218	216.12
348.445	208.12
348.673	220.12
348.9	221.12
349.128	237.12
349.355	234.12
349.583	232.12
349.81	217.12
350.037	214.12
350.265	196.12
350.492	184.12
350.72	197.12
350.947	191.12
351.174	201.12
351.402	211.12
351.629	203.12
351.856	204.12
352.083	171.12
352.311	203.12
352.538	211.12
352.765	237.12
352.992	216.12
353.22	207.12
353.447	229.12
353.674	206.12
353.901	210.12
354.128	213.12
354.355	220.12
354.583	226.12
354.81	246.12
355.037	225.12
355.264	220.12
355.491	223.12
355.718	230.12
355.945	230.12
356.172	242.12
356.399	226.12
356.626	251.12
356.853	282.12
357.08	314.12
357.307	315.12
357.534	267.12
357.761	282.12
357.988	338.12
358.215	351.12
358.441	323.12
358.668	288.12
358.895	274.12
359.122	240.12
359.349	260.12
359.576	288.12
359.802	240.12
360.029	226.12
360.256	223.12
360.483	246.12
360.709	298.12
360.936	288.12
361.163	284.12
361.39	242.12
361.616	228.12
361.843	231.12
362.07	261.12
362.296	272.12
362.523	218.12
362.749	197.12
362.976	229.12
363.203	220.12
363.429	250.12
363.656	224.12
363.882	219.12
364.109	222.12
364.335	234.12
364.562	222.12
364.788	224.12
365.015	233.12
365.241	220.12
365.468	206.12
365.694	187.12
365.92	178.12
366.147	198.12
366.373	184.12
366.599	188.12
366.826	173.12
367.052	196.12
367.278	195.12
367.505	196.12
367.731	184.12
367.957	214.12
368.184	200.12
368.41	205.12
368.636	220.12
368.862	239.12
369.089	208.12
369.315	189.12
369.541	195.12
369.767	199.12
369.993	215.12
370.219	192.12
370.445	197.12
370.672	228.12
370.898	222.12
371.124	227.12
371.35	228.12
371.576	185.12
371.802	235.12
372.028	241.12
372.254	261.12
372.48	226.12
372.706	216.12
372.932	241.12
373.158	236.12
373.384	254.12
373.61	328.12
373.835	322.12
374.061	274.12
374.287	230.12
374.513	277.12
374.739	285.12
374.965	324.12
375.191	315.12
375.416	242.12
375.642	230.12
375.868	237.12
376.094	269.12
376.319	228.12
376.545	262.12
376.771	276.12
376.997	235.12
377.222	195.12
377.448	189.12
377.674	182.12
377.899	195.12
378.125	198.12
378.35	189.12
378.576	195.12
378.802	214.12
379.027	204.12
379.253	202.12
379.478	205.12
379.704	205.12
379.929	212.12
380.155	227.12
380.38	219.12
380.606	207.12
380.831	234.12
381.057	235.12
381.282	222.12
381.507	255.12
381.733	292.12
381.958	287.12
382.184	296.12
382.409	315.12
382.634	308.12
382.86	322.12
383.085	275.12
383.31	248.12
383.535	276.12
383.761	255.12
383.986	249.12
384.211	276.12
384.436	288.12
384.662	227.12
384.887	237.12
385.112	230.12
385.337	247.12
385.562	240.12
385.787	234.12
386.013	266.12
386.238	261.12
386.463	226.12
386.688	221.12
386.913	214.12
387.138	219.12
387.363	232.12
387.588	226.12
387.813	227.12
388.038	244.12
388.263	234.12
388.488	229.12
388.713	251.12
388.938	241.12
389.163	243.12
389.387	193.12
389.612	219.12
389.837	212.12
390.062	234.12
390.287	215.12
390.512	226.12
390.736	194.12
390.961	213.12
391.186	218.12
391.411	201.12
391.636	209.12
391.86	203.12
392.085	243.12
392.31	248.12
392.534	225.12
392.759	209.12
392.984	221.12
393.208	232.12
393.433	212.12
393.658	197.12
393.882	209.12
394.107	197.12
394.331	196.12
394.556	184.12
394.78	186.12
395.005	191.12
395.229	227.12
395.454	204.12
395.678	204.12
395.903	217.12
396.127	204.12
396.352	209.12
396.576	217.12
396.801	211.12
397.025	252.12
397.249	257.12
397.474	226.12
397.698	229.12
397.922	222.12
398.147	220.12
398.371	210.12
398.595	237.12
398.82	233.12
399.044	220.12
399.268	254.12
399.492	270.12
399.717	291.12
399.941	295.12
400.165	278.12
400.389	236.12
400.613	243.12
400.837	234.12
401.062	210.12
401.286	226.12
401.51	245.12
401.734	211.12
401.958	236.12
402.182	227.12
402.406	218.12
402.63	232.12
402.854	241.12
403.078	276.12
403.302	332.12
403.526	355.12
403.75	313.12
403.974	274.12
404.198	265.12
404.422	302.12
404.645	312.12
404.869	331.12
405.093	286.12
405.317	243.12
405.541	247.12
405.765	251.12
405.988	265.12
406.212	252.12
406.436	282.12
406.66	297.12
406.883	245.12
407.107	248.12
407.331	301.12
407.555	297.12
407.778	260.12
408.002	276.12
408.226	261.12
408.449	259.12
408.673	257.12
408.896	265.12
409.12	223.12
409.344	236.12
409.567	225.12
409.791	248.12
410.014	236.12
410.238	237.12
410.461	218.12
410.685	234.12
410.908	236.12
411.132	239.12
411.355	234.12
411.578	231.12
411.802	241.12
412.025	232.12
412.249	245.12
412.472	225.12
412.695	234.12
412.919	229.12
413.142	220.12
413.365	251.12
413.589	230.12
413.812	224.12
414.035	240.12
414.258	207.12
414.482	228.12
414.705	244.12
414.928	230.12
415.151	235.12
415.374	236.12
415.597	245.12
415.821	227.12
416.044	236.12
416.267	216.12
416.49	210.12
416.713	222.12
416.936	216.12
417.159	216.12
417.382	220.12
417.605	227.12
417.828	224.12
418.051	206.12
418.274	221.12
418.497	235.12
418.72	243.12
418.943	239.12
419.166	244.12
419.389	256.12
419.611	248.12
419.834	255.12
420.057	254.12
420.28	260.12
420.503	252.12
420.726	226.12
420.948	229.12
421.171	232.12
421.394	224.12
421.617	230.12
421.839	210.12
422.062	232.12
422.285	229.12
422.507	240.12
422.73	225.12
422.953	246.12
423.175	232.12
423.398	240.12
423.621	261.12
423.843	268.12
424.066	242.12
424.288	240.12
424.511	232.12
424.733	237.12
424.956	245.12
425.178	254.12
425.401	282.12
425.623	334.12
425.846	297.12
426.068	225.12
426.291	236.12
426.513	233.12
426.735	252.12
426.958	238.12
427.18	260.12
427.402	320.12
427.625	341.12
427.847	285.12
428.069	231.12
428.292	233.12
428.514	219.12
428.736	210.12
428.958	241.12
429.181	292.12
429.403	249.12
429.625	226.12
429.847	223.12
430.069	212.12
430.292	226.12
430.514	217.12
430.736	230.12
430.958	264.12
431.18	256.12
431.402	224.12
431.624	205.12
431.846	221.12
432.068	207.12
432.29	229.12
432.512	238.12
432.734	270.12
432.956	254.12
433.178	218.12
433.4	224.12
433.622	228.12
433.844	230.12
434.066	233.12
434.287	227.12
434.509	240.12
434.731	251.12
434.953	224.12
435.175	238.12
435.397	265.12
435.618	234.12
435.84	212.12
436.062	208.12
436.284	203.12
436.505	202.12
436.727	209.12
436.949	231.12
437.17	205.12
437.392	215.12
437.614	230.12
437.835	214.12
438.057	213.12
438.278	223.12
438.5	277.12
438.721	295.12
438.943	219.12
439.165	215.12
439.386	219.12
439.608	219.12
439.829	212.12
440.05	203.12
440.272	209.12
440.493	228.12
440.715	264.12
440.936	243.12
441.158	245.12
441.379	211.12
441.6	252.12
441.822	253.12
442.043	215.12
442.264	216.12
442.486	229.12
442.707	221.12
442.928	213.12
443.149	218.12
443.371	219.12
443.592	218.12
443.813	233.12
444.034	237.12
444.255	247.12
444.476	233.12
444.698	223.12
444.919	252.12
445.14	370.12
445.361	305.12
445.582	247.12
445.803	221.12
446.024	236.12
446.245	233.12
446.466	237.12
446.687	222.12
446.908	220.12
447.129	221.12
447.35	187.12
447.571	195.12
447.792	215.12
448.013	202.12
448.234	202.12
448.455	198.12
448.675	200.12
448.896	205.12
449.117	207.12
449.338	201.12
449.559	224.12
449.779	210.12
450	213.12
450.221	212.12
450.442	212.12
450.662	207.12
450.883	220.12
451.104	218.12
451.324	220.12
451.545	220.12
451.766	197.12
451.986	205.12
452.207	200.12
452.428	196.12
452.648	204.12
452.869	222.12
453.089	224.12
453.31	211.12
453.53	197.12
453.751	203.12
453.971	196.12
454.192	202.12
454.412	214.12
454.633	204.12
454.853	206.12
455.073	205.12
455.294	202.12
455.514	197.12
455.734	192.12
455.955	199.12
456.175	212.12
456.395	192.12
456.616	189.12
456.836	196.12
457.056	199.12
457.276	199.12
457.497	192.12
457.717	192.12
457.937	197.12
458.157	186.12
458.377	185.12
458.598	211.12
458.818	190.12
459.038	223.12
459.258	213.12
459.478	225.12
459.698	220.12
459.918	233.12
460.138	243.12
460.358	236.12
460.578	225.12
460.798	240.12
461.018	230.12
461.238	227.12
461.458	219.12
461.678	233.12
461.898	240.12
462.118	244.12
462.338	239.12
462.558	241.12
462.777	267.12
462.997	267.12
463.217	266.12
463.437	277.12
463.657	284.12
463.876	250.12
464.096	248.12
464.316	259.12
464.536	255.12
464.755	258.12
464.975	277.12
465.195	251.12
465.414	261.12
465.634	240.12
465.854	224.12
466.073	200.12
466.293	203.12
466.512	213.12
466.732	228.12
466.951	239.12
467.171	213.12
467.391	228.12
467.61	231.12
467.829	220.12
468.049	211.12
468.268	218.12
468.488	228.12
468.707	223.12
468.927	237.12
469.146	242.12
469.365	224.12
469.585	212.12
469.804	247.12
470.023	235.12
470.243	235.12
470.462	237.12
470.681	223.12
470.901	229.12
471.12	237.12
471.339	216.12
471.558	231.12
471.777	235.12
471.997	228.12
472.216	252.12
472.435	242.12
472.654	221.12
472.873	212.12
473.092	239.12
473.311	214.12
473.53	200.12
473.749	217.12
473.968	227.12
474.187	217.12
474.406	207.12
474.625	210.12
474.844	225.12
475.063	240.12
475.282	234.12
475.501	242.12
475.72	267.12
475.939	246.12
476.158	244.12
476.377	273.12
476.596	306.12
476.814	300.12
477.033	269.12
477.252	258.12
477.471	226.12
477.69	219.12
477.908	232.12
478.127	264.12
478.346	252.12
478.564	282.12
478.783	260.12
479.002	258.12
479.22	257.12
479.439	316.12
479.658	266.12
479.876	258.12
480.095	260.12
480.313	293.12
480.532	275.12
480.751	258.12
480.969	246.12
481.188	259.12
481.406	283.12
481.624	272.12
481.843	240.12
482.061	246.12
482.28	264.12
482.498	318.12
482.717	291.12
482.935	285.12
483.153	244.12
483.372	248.12
483.59	250.12
483.808	235.12
484.027	235.12
484.245	245.12
484.463	233.12
484.681	244.12
484.9	256.12
485.118	260.12
485.336	255.12
485.554	236.12
485.772	235.12
485.99	265.12
486.209	257.12
486.427	259.12
486.645	256.12
486.863	269.12
487.081	277.12
487.299	277.12
487.517	287.12
487.735	261.12
487.953	260.12
488.171	257.12
488.389	250.12
488.607	263.12
488.825	263.12
489.043	281.12
489.261	290.12
489.479	305.12
489.696	266.12
489.914	250.12
490.132	256.12
490.35	231.12
490.568	243.12
490.786	252.12
491.003	254.12
491.221	248.12
491.439	255.12
491.657	256.12
491.874	266.12
492.092	299.12
492.31	320.12
492.527	330.12
492.745	283.12
492.963	281.12
493.18	268.12
493.398	267.12
493.615	279.12
493.833	273.12
494.05	269.12
494.268	265.12
494.485	270.12
494.703	255.12
494.92	256.12
495.138	268.12
495.355	257.12
495.573	264.12
495.79	276.12
496.008	344.12
496.225	315.12
496.442	265.12
496.66	271.12
496.877	266.12
497.094	288.12
497.312	295.12
497.529	274.12
497.746	293.12
497.963	295.12
498.181	309.12
498.398	314.12
498.615	336.12
498.832	338.12
499.049	364.12
499.267	338.12
499.484	361.12
499.701	384.12
499.918	416.12
500.135	482.12
500.352	512.12
500.569	535.12
500.786	521.12
501.003	517.12
501.22	445.12
501.437	384.12
501.654	386.12
501.871	365.12
502.088	356.12
502.305	321.12
502.522	324.12
