Data from NickelSpatula.Lamp.E5.5.P2_HRD10591_11-51-35-560.txt Node
Date: Tue Jul 23 11:51:35 EDT 2019
User: cochatt
Spectrometer: HR+D1059
Trigger mode: 1
Integration Time (sec): 1.000000E-1
Scans to average: 1
Electric dark correction enabled: true
Nonlinearity correction enabled: false
Boxcar width: 0
XAxis mode: Wavelengths
Number of Pixels in Spectrum: 2048
>>>>>Begin Spectral Data<<<<<
223.165	-17.56
223.4	-17.56
223.635	-17.56
223.869	-15.56
224.104	-16.56
224.338	-17.56
224.573	-13.56
224.808	-23.56
225.042	-8.56
225.277	-10.56
225.511	2.44
225.746	4.44
225.98	-1.56
226.215	10.44
226.449	19.44
226.683	24.44
226.918	38.44
227.152	25.44
227.387	33.44
227.621	49.44
227.856	50.44
228.09	49.44
228.324	47.44
228.559	45.44
228.793	70.44
229.027	68.44
229.262	75.44
229.496	74.44
229.73	87.44
229.964	91.44
230.199	85.44
230.433	84.44
230.667	113.44
230.901	100.44
231.136	109.44
231.37	102.44
231.604	104.44
231.838	110.44
232.072	112.44
232.306	95.44
232.541	99.44
232.775	103.44
233.009	105.44
233.243	117.44
233.477	123.44
233.711	120.44
233.945	123.44
234.179	108.44
234.413	119.44
234.647	135.44
234.881	139.44
235.115	126.44
235.349	123.44
235.583	136.44
235.817	114.44
236.051	125.44
236.285	132.44
236.519	156.44
236.753	120.44
236.987	139.44
237.221	134.44
237.455	114.44
237.689	127.44
237.922	130.44
238.156	145.44
238.39	151.44
238.624	173.44
238.858	164.44
239.091	136.44
239.325	158.44
239.559	133.44
239.793	142.44
240.027	164.44
240.26	156.44
240.494	164.44
240.728	160.44
240.961	185.44
241.195	174.44
241.429	158.44
241.662	166.44
241.896	150.44
242.13	137.44
242.363	148.44
242.597	144.44
242.83	147.44
243.064	149.44
243.298	163.44
243.531	184.44
243.765	162.44
243.998	154.44
244.232	173.44
244.465	169.44
244.699	166.44
244.932	174.44
245.166	164.44
245.399	159.44
245.633	157.44
245.866	157.44
246.099	149.44
246.333	181.44
246.566	181.44
246.8	190.44
247.033	188.44
247.266	188.44
247.5	168.44
247.733	184.44
247.966	170.44
248.2	179.44
248.433	176.44
248.666	206.44
248.899	198.44
249.133	208.44
249.366	247.44
249.599	248.44
249.832	217.44
250.066	198.44
250.299	197.44
250.532	202.44
250.765	186.44
250.998	184.44
251.231	183.44
251.465	190.44
251.698	200.44
251.931	203.44
252.164	204.44
252.397	213.44
252.63	239.44
252.863	274.44
253.096	284.44
253.329	262.44
253.562	241.44
253.795	269.44
254.028	306.44
254.261	302.44
254.494	281.44
254.727	277.44
254.96	279.44
255.193	261.44
255.426	267.44
255.659	221.44
255.892	206.44
256.124	210.44
256.357	242.44
256.59	278.44
256.823	253.44
257.056	226.44
257.289	206.44
257.521	250.44
257.754	263.44
257.987	297.44
258.22	248.44
258.452	228.44
258.685	266.44
258.918	295.44
259.151	279.44
259.383	292.44
259.616	333.44
259.849	345.44
260.081	348.44
260.314	383.44
260.547	336.44
260.779	330.44
261.012	384.44
261.244	352.44
261.477	344.44
261.71	335.44
261.942	285.44
262.175	287.44
262.407	295.44
262.64	286.44
262.872	314.44
263.105	361.44
263.337	359.44
263.57	333.44
263.802	241.44
264.035	226.44
264.267	208.44
264.499	194.44
264.732	180.44
264.964	184.44
265.197	186.44
265.429	198.44
265.661	214.44
265.894	208.44
266.126	233.44
266.358	257.44
266.591	282.44
266.823	343.44
267.055	324.44
267.287	286.44
267.52	291.44
267.752	303.44
267.984	302.44
268.216	318.44
268.448	277.44
268.681	254.44
268.913	265.44
269.145	286.44
269.377	300.44
269.609	278.44
269.841	286.44
270.073	300.44
270.306	303.44
270.538	317.44
270.77	306.44
271.002	330.44
271.234	332.44
271.466	347.44
271.698	306.44
271.93	315.44
272.162	308.44
272.394	317.44
272.626	306.44
272.858	307.44
273.09	318.44
273.322	288.44
273.553	262.44
273.785	320.44
274.017	384.44
274.249	470.44
274.481	506.44
274.713	529.44
274.945	596.44
275.176	637.44
275.408	577.44
275.64	527.44
275.872	511.44
276.104	479.44
276.335	419.44
276.567	384.44
276.799	404.44
277.031	422.44
277.262	345.44
277.494	270.44
277.726	281.44
277.957	282.44
278.189	321.44
278.421	309.44
278.652	316.44
278.884	301.44
279.115	265.44
279.347	265.44
279.579	258.44
279.81	266.44
280.042	281.44
280.273	278.44
280.505	284.44
280.736	231.44
280.968	237.44
281.199	260.44
281.431	281.44
281.662	282.44
281.894	255.44
282.125	283.44
282.356	318.44
282.588	312.44
282.819	290.44
283.051	294.44
283.282	335.44
283.513	394.44
283.745	461.44
283.976	452.44
284.207	417.44
284.439	434.44
284.67	431.44
284.901	351.44
285.132	407.44
285.364	414.44
285.595	384.44
285.826	382.44
286.057	440.44
286.288	388.44
286.52	408.44
286.751	442.44
286.982	448.44
287.213	393.44
287.444	380.44
287.675	384.44
287.906	381.44
288.138	342.44
288.369	287.44
288.6	280.44
288.831	308.44
289.062	348.44
289.293	361.44
289.524	350.44
289.755	331.44
289.986	376.44
290.217	338.44
290.448	256.44
290.679	231.44
290.91	209.44
291.141	217.44
291.371	247.44
291.602	228.44
291.833	227.44
292.064	216.44
292.295	286.44
292.526	311.44
292.757	302.44
292.987	333.44
293.218	361.44
293.449	360.44
293.68	385.44
293.91	342.44
294.141	366.44
294.372	370.44
294.603	310.44
294.833	336.44
295.064	408.44
295.295	391.44
295.525	311.44
295.756	274.44
295.987	220.44
296.217	221.44
296.448	245.44
296.679	271.44
296.909	281.44
297.14	282.44
297.37	328.44
297.601	308.44
297.831	262.44
298.062	295.44
298.292	302.44
298.523	332.44
298.753	372.44
298.984	346.44
299.214	278.44
299.445	238.44
299.675	228.44
299.905	238.44
300.136	236.44
300.366	259.44
300.597	265.44
300.827	229.44
301.057	222.44
301.288	232.44
301.518	247.44
301.748	278.44
301.979	284.44
302.209	307.44
302.439	300.44
302.669	272.44
302.9	274.44
303.13	250.44
303.36	261.44
303.59	246.44
303.82	245.44
304.051	277.44
304.281	288.44
304.511	304.44
304.741	266.44
304.971	273.44
305.201	293.44
305.431	276.44
305.661	261.44
305.891	230.44
306.121	249.44
306.352	208.44
306.582	218.44
306.812	229.44
307.042	198.44
307.272	202.44
307.502	196.44
307.731	213.44
307.961	212.44
308.191	200.44
308.421	202.44
308.651	183.44
308.881	198.44
309.111	201.44
309.341	210.44
309.571	217.44
309.8	213.44
310.03	213.44
310.26	223.44
310.49	232.44
310.72	196.44
310.949	182.44
311.179	208.44
311.409	201.44
311.639	239.44
311.868	292.44
312.098	368.44
312.328	390.44
312.557	393.44
312.787	377.44
313.017	344.44
313.246	374.44
313.476	398.44
313.706	347.44
313.935	294.44
314.165	249.44
314.394	222.44
314.624	240.44
314.853	232.44
315.083	265.44
315.312	222.44
315.542	208.44
315.771	216.44
316.001	205.44
316.23	197.44
316.46	212.44
316.689	199.44
316.919	193.44
317.148	203.44
317.377	219.44
317.607	210.44
317.836	213.44
318.065	231.44
318.295	265.44
318.524	252.44
318.753	230.44
318.983	216.44
319.212	200.44
319.441	215.44
319.67	217.44
319.9	266.44
320.129	230.44
320.358	217.44
320.587	224.44
320.816	232.44
321.046	234.44
321.275	269.44
321.504	283.44
321.733	250.44
321.962	245.44
322.191	253.44
322.42	223.44
322.649	252.44
322.878	262.44
323.108	271.44
323.337	249.44
323.566	242.44
323.795	238.44
324.024	254.44
324.253	236.44
324.482	216.44
324.71	238.44
324.939	250.44
325.168	260.44
325.397	218.44
325.626	207.44
325.855	223.44
326.084	212.44
326.313	198.44
326.542	176.44
326.77	213.44
326.999	206.44
327.228	234.44
327.457	222.44
327.686	241.44
327.914	217.44
328.143	203.44
328.372	199.44
328.6	180.44
328.829	204.44
329.058	213.44
329.287	206.44
329.515	207.44
329.744	223.44
329.972	197.44
330.201	183.44
330.43	193.44
330.658	226.44
330.887	216.44
331.115	240.44
331.344	224.44
331.572	223.44
331.801	216.44
332.03	173.44
332.258	213.44
332.486	232.44
332.715	245.44
332.943	213.44
333.172	212.44
333.4	227.44
333.629	252.44
333.857	249.44
334.085	252.44
334.314	250.44
334.542	253.44
334.771	233.44
334.999	228.44
335.227	229.44
335.455	222.44
335.684	232.44
335.912	273.44
336.14	276.44
336.369	303.44
336.597	263.44
336.825	297.44
337.053	320.44
337.281	288.44
337.51	230.44
337.738	226.44
337.966	230.44
338.194	257.44
338.422	254.44
338.65	217.44
338.878	205.44
339.106	235.44
339.334	254.44
339.562	255.44
339.79	219.44
340.018	220.44
340.246	244.44
340.474	278.44
340.702	276.44
340.93	279.44
341.158	288.44
341.386	242.44
341.614	233.44
341.842	236.44
342.07	242.44
342.298	272.44
342.526	309.44
342.754	256.44
342.981	228.44
343.209	231.44
343.437	248.44
343.665	261.44
343.893	260.44
344.12	320.44
344.348	362.44
344.576	316.44
344.804	270.44
345.031	224.44
345.259	225.44
345.487	220.44
345.714	240.44
345.942	238.44
346.17	276.44
346.397	268.44
346.625	216.44
346.853	234.44
347.08	230.44
347.308	232.44
347.535	253.44
347.763	258.44
347.99	244.44
348.218	241.44
348.445	237.44
348.673	239.44
348.9	232.44
349.128	261.44
349.355	248.44
349.583	237.44
349.81	221.44
350.037	222.44
350.265	195.44
350.492	181.44
350.72	201.44
350.947	182.44
351.174	197.44
351.402	222.44
351.629	214.44
351.856	216.44
352.083	208.44
352.311	223.44
352.538	236.44
352.765	234.44
352.992	240.44
353.22	215.44
353.447	221.44
353.674	221.44
353.901	223.44
354.128	214.44
354.355	224.44
354.583	229.44
354.81	232.44
355.037	248.44
355.264	241.44
355.491	229.44
355.718	262.44
355.945	247.44
356.172	258.44
356.399	239.44
356.626	286.44
356.853	340.44
357.08	344.44
357.307	351.44
357.534	304.44
357.761	292.44
357.988	354.44
358.215	414.44
358.441	391.44
358.668	344.44
358.895	320.44
359.122	274.44
359.349	281.44
359.576	295.44
359.802	257.44
360.029	227.44
360.256	221.44
360.483	281.44
360.709	347.44
360.936	354.44
361.163	308.44
361.39	253.44
361.616	246.44
361.843	267.44
362.07	301.44
362.296	288.44
362.523	234.44
362.749	214.44
362.976	236.44
363.203	268.44
363.429	284.44
363.656	256.44
363.882	226.44
364.109	222.44
364.335	248.44
364.562	218.44
364.788	252.44
365.015	278.44
365.241	237.44
365.468	225.44
365.694	197.44
365.92	221.44
366.147	192.44
366.373	200.44
366.599	175.44
366.826	191.44
367.052	189.44
367.278	200.44
367.505	197.44
367.731	198.44
367.957	217.44
368.184	247.44
368.41	218.44
368.636	230.44
368.862	255.44
369.089	236.44
369.315	220.44
369.541	212.44
369.767	204.44
369.993	204.44
370.219	210.44
370.445	215.44
370.672	223.44
370.898	238.44
371.124	236.44
371.35	218.44
371.576	220.44
371.802	226.44
372.028	256.44
372.254	302.44
372.48	240.44
372.706	232.44
372.932	246.44
373.158	257.44
373.384	274.44
373.61	378.44
373.835	388.44
374.061	295.44
374.287	269.44
374.513	308.44
374.739	364.44
374.965	358.44
375.191	364.44
375.416	279.44
375.642	232.44
375.868	282.44
376.094	291.44
376.319	249.44
376.545	274.44
376.771	291.44
376.997	252.44
377.222	207.44
377.448	200.44
377.674	193.44
377.899	199.44
378.125	192.44
378.35	195.44
378.576	210.44
378.802	219.44
379.027	229.44
379.253	230.44
379.478	233.44
379.704	233.44
379.929	240.44
380.155	242.44
380.38	220.44
380.606	228.44
380.831	247.44
381.057	255.44
381.282	225.44
381.507	262.44
381.733	310.44
381.958	302.44
382.184	331.44
382.409	362.44
382.634	366.44
382.86	351.44
383.085	318.44
383.31	259.44
383.535	296.44
383.761	280.44
383.986	272.44
384.211	302.44
384.436	309.44
384.662	249.44
384.887	237.44
385.112	258.44
385.337	244.44
385.562	241.44
385.787	272.44
386.013	291.44
386.238	276.44
386.463	239.44
386.688	225.44
386.913	230.44
387.138	226.44
387.363	226.44
387.588	229.44
387.813	246.44
388.038	238.44
388.263	238.44
388.488	237.44
388.713	237.44
388.938	269.44
389.163	244.44
389.387	216.44
389.612	218.44
389.837	240.44
390.062	222.44
390.287	251.44
390.512	225.44
390.736	238.44
390.961	220.44
391.186	210.44
391.411	204.44
391.636	212.44
391.86	235.44
392.085	254.44
392.31	242.44
392.534	222.44
392.759	259.44
392.984	246.44
393.208	244.44
393.433	221.44
393.658	233.44
393.882	206.44
394.107	205.44
394.331	202.44
394.556	206.44
394.78	198.44
395.005	221.44
395.229	222.44
395.454	218.44
395.678	219.44
395.903	230.44
396.127	206.44
396.352	217.44
396.576	242.44
396.801	232.44
397.025	261.44
397.249	256.44
397.474	242.44
397.698	221.44
397.922	230.44
398.147	230.44
398.371	224.44
398.595	231.44
398.82	213.44
399.044	234.44
399.268	248.44
399.492	278.44
399.717	294.44
399.941	293.44
400.165	273.44
400.389	247.44
400.613	237.44
400.837	239.44
401.062	257.44
401.286	215.44
401.51	239.44
401.734	228.44
401.958	231.44
402.182	240.44
402.406	239.44
402.63	229.44
402.854	241.44
403.078	288.44
403.302	358.44
403.526	373.44
403.75	348.44
403.974	278.44
404.198	283.44
404.422	313.44
404.645	321.44
404.869	347.44
405.093	289.44
405.317	258.44
405.541	265.44
405.765	274.44
405.988	270.44
406.212	260.44
406.436	290.44
406.66	323.44
406.883	291.44
407.107	286.44
407.331	303.44
407.555	304.44
407.778	277.44
408.002	292.44
408.226	273.44
408.449	272.44
408.673	268.44
408.896	246.44
409.12	229.44
409.344	238.44
409.567	236.44
409.791	251.44
410.014	236.44
410.238	232.44
410.461	241.44
410.685	218.44
410.908	246.44
411.132	244.44
411.355	242.44
411.578	226.44
411.802	232.44
412.025	236.44
412.249	244.44
412.472	240.44
412.695	230.44
412.919	220.44
413.142	258.44
413.365	262.44
413.589	253.44
413.812	240.44
414.035	227.44
414.258	232.44
414.482	233.44
414.705	265.44
414.928	252.44
415.151	237.44
415.374	236.44
415.597	213.44
415.821	228.44
416.044	221.44
416.267	226.44
416.49	226.44
416.713	217.44
416.936	224.44
417.159	240.44
417.382	220.44
417.605	234.44
417.828	237.44
418.051	231.44
418.274	238.44
418.497	247.44
418.72	256.44
418.943	252.44
419.166	274.44
419.389	239.44
419.611	236.44
419.834	252.44
420.057	253.44
420.28	263.44
420.503	263.44
420.726	222.44
420.948	222.44
421.171	229.44
421.394	220.44
421.617	216.44
421.839	231.44
422.062	227.44
422.285	229.44
422.507	244.44
422.73	238.44
422.953	247.44
423.175	245.44
423.398	261.44
423.621	243.44
423.843	261.44
424.066	254.44
424.288	227.44
424.511	243.44
424.733	221.44
424.956	251.44
425.178	264.44
425.401	297.44
425.623	373.44
425.846	304.44
426.068	256.44
426.291	264.44
426.513	246.44
426.735	232.44
426.958	221.44
427.18	260.44
427.402	338.44
427.625	367.44
427.847	314.44
428.069	249.44
428.292	238.44
428.514	254.44
428.736	225.44
428.958	228.44
429.181	303.44
429.403	264.44
429.625	222.44
429.847	232.44
430.069	232.44
430.292	212.44
430.514	229.44
430.736	229.44
430.958	263.44
431.18	261.44
431.402	213.44
431.624	206.44
431.846	230.44
432.068	228.44
432.29	227.44
432.512	242.44
432.734	278.44
432.956	276.44
433.178	226.44
433.4	210.44
433.622	215.44
433.844	239.44
434.066	241.44
434.287	232.44
434.509	247.44
434.731	259.44
434.953	248.44
435.175	275.44
435.397	273.44
435.618	221.44
435.84	214.44
436.062	212.44
436.284	219.44
436.505	220.44
436.727	228.44
436.949	221.44
437.17	213.44
437.392	243.44
437.614	223.44
437.835	229.44
438.057	215.44
438.278	239.44
438.5	305.44
438.721	339.44
438.943	227.44
439.165	234.44
439.386	219.44
439.608	238.44
439.829	208.44
440.05	215.44
440.272	221.44
440.493	245.44
440.715	282.44
440.936	252.44
441.158	224.44
441.379	236.44
441.6	263.44
441.822	263.44
442.043	234.44
442.264	244.44
442.486	228.44
442.707	229.44
442.928	228.44
443.149	217.44
443.371	254.44
443.592	243.44
443.813	247.44
444.034	229.44
444.255	244.44
444.476	240.44
444.698	261.44
444.919	256.44
445.14	336.44
445.361	294.44
445.582	258.44
445.803	255.44
446.024	259.44
446.245	260.44
446.466	248.44
446.687	222.44
446.908	222.44
447.129	236.44
447.35	224.44
447.571	214.44
447.792	224.44
448.013	218.44
448.234	205.44
448.455	206.44
448.675	210.44
448.896	218.44
449.117	208.44
449.338	222.44
449.559	227.44
449.779	221.44
450	228.44
450.221	233.44
450.442	214.44
450.662	213.44
450.883	211.44
451.104	220.44
451.324	210.44
451.545	218.44
451.766	213.44
451.986	210.44
452.207	211.44
452.428	213.44
452.648	208.44
452.869	223.44
453.089	216.44
453.31	200.44
453.53	220.44
453.751	217.44
453.971	207.44
454.192	210.44
454.412	209.44
454.633	205.44
454.853	206.44
455.073	197.44
455.294	191.44
455.514	197.44
455.734	221.44
455.955	212.44
456.175	217.44
456.395	212.44
456.616	186.44
456.836	191.44
457.056	206.44
457.276	198.44
457.497	190.44
457.717	192.44
457.937	181.44
458.157	199.44
458.377	187.44
458.598	203.44
458.818	188.44
459.038	213.44
459.258	220.44
459.478	233.44
459.698	236.44
459.918	256.44
460.138	231.44
460.358	227.44
460.578	229.44
460.798	226.44
461.018	223.44
461.238	236.44
461.458	230.44
461.678	244.44
461.898	255.44
462.118	249.44
462.338	254.44
462.558	254.44
462.777	264.44
462.997	277.44
463.217	292.44
463.437	306.44
463.657	284.44
463.876	251.44
464.096	278.44
464.316	266.44
464.536	274.44
464.755	274.44
464.975	281.44
465.195	280.44
465.414	260.44
465.634	249.44
465.854	238.44
466.073	228.44
466.293	230.44
466.512	223.44
466.732	242.44
466.951	253.44
467.171	226.44
467.391	217.44
467.61	222.44
467.829	224.44
468.049	233.44
468.268	233.44
468.488	237.44
468.707	206.44
468.927	242.44
469.146	274.44
469.365	259.44
469.585	245.44
469.804	260.44
470.023	274.44
470.243	246.44
470.462	233.44
470.681	254.44
470.901	248.44
471.12	258.44
471.339	236.44
471.558	217.44
471.777	223.44
471.997	243.44
472.216	271.44
472.435	263.44
472.654	245.44
472.873	226.44
473.092	244.44
473.311	270.44
473.53	241.44
473.749	207.44
473.968	248.44
474.187	225.44
474.406	241.44
474.625	230.44
474.844	244.44
475.063	236.44
475.282	247.44
475.501	266.44
475.72	286.44
475.939	258.44
476.158	256.44
476.377	290.44
476.596	330.44
476.814	319.44
477.033	304.44
477.252	261.44
477.471	237.44
477.69	233.44
477.908	262.44
478.127	286.44
478.346	248.44
478.564	297.44
478.783	295.44
479.002	280.44
479.22	312.44
479.439	336.44
479.658	277.44
479.876	270.44
480.095	285.44
480.313	297.44
480.532	296.44
480.751	273.44
480.969	285.44
481.188	307.44
481.406	327.44
481.624	289.44
481.843	264.44
482.061	254.44
482.28	281.44
482.498	351.44
482.717	338.44
482.935	280.44
483.153	266.44
483.372	261.44
483.59	254.44
483.808	263.44
484.027	289.44
484.245	263.44
484.463	254.44
484.681	254.44
484.9	275.44
485.118	270.44
485.336	282.44
485.554	259.44
485.772	271.44
485.99	297.44
486.209	287.44
486.427	286.44
486.645	277.44
486.863	284.44
487.081	287.44
487.299	317.44
487.517	302.44
487.735	283.44
487.953	280.44
488.171	292.44
488.389	274.44
488.607	240.44
488.825	269.44
489.043	318.44
489.261	334.44
489.479	331.44
489.696	300.44
489.914	279.44
490.132	260.44
490.35	267.44
490.568	263.44
490.786	264.44
491.003	266.44
491.221	271.44
491.439	271.44
491.657	272.44
491.874	252.44
492.092	312.44
492.31	373.44
492.527	340.44
492.745	324.44
492.963	297.44
493.18	281.44
493.398	298.44
493.615	289.44
493.833	295.44
494.05	268.44
494.268	286.44
494.485	308.44
494.703	275.44
494.92	262.44
495.138	295.44
495.355	266.44
495.573	278.44
495.79	324.44
496.008	370.44
496.225	327.44
496.442	302.44
496.66	299.44
496.877	336.44
497.094	311.44
497.312	286.44
497.529	303.44
497.746	308.44
497.963	290.44
498.181	311.44
498.398	356.44
498.615	360.44
498.832	383.44
499.049	400.44
499.267	374.44
499.484	384.44
499.701	393.44
499.918	452.44
500.135	495.44
500.352	532.44
500.569	585.44
500.786	577.44
501.003	536.44
501.22	480.44
501.437	442.44
501.654	410.44
501.871	390.44
502.088	360.44
502.305	351.44
