Data from NickelSpatula.Lamp.E10.P2_HRD10591_11-59-33-525.txt Node
Date: Tue Jul 23 11:59:33 EDT 2019
User: cochatt
Spectrometer: HR+D1059
Trigger mode: 1
Integration Time (sec): 1.000000E-1
Scans to average: 1
Electric dark correction enabled: true
Nonlinearity correction enabled: false
Boxcar width: 0
XAxis mode: Wavelengths
Number of Pixels in Spectrum: 2048
>>>>>Begin Spectral Data<<<<<
223.165	-14.62
223.4	-14.62
223.635	-14.62
223.869	-21.62
224.104	-18.62
224.338	-12.62
224.573	-8.62
224.808	-14.62
225.042	-11.62
225.277	-14.62
225.511	5.38
225.746	8.38
225.98	7.38
226.215	24.38
226.449	23.38
226.683	15.38
226.918	10.38
227.152	22.38
227.387	32.38
227.621	38.38
227.856	53.38
228.09	44.38
228.324	39.38
228.559	51.38
228.793	80.38
229.027	165.38
229.262	157.38
229.496	157.38
229.73	167.38
229.964	176.38
230.199	202.38
230.433	217.38
230.667	207.38
230.901	209.38
231.136	196.38
231.37	208.38
231.604	230.38
231.838	245.38
232.072	251.38
232.306	247.38
232.541	263.38
232.775	253.38
233.009	272.38
233.243	301.38
233.477	317.38
233.711	363.38
233.945	335.38
234.179	342.38
234.413	348.38
234.647	385.38
234.881	451.38
235.115	439.38
235.349	403.38
235.583	353.38
235.817	361.38
236.051	380.38
236.285	389.38
236.519	465.38
236.753	424.38
236.987	414.38
237.221	407.38
237.455	424.38
237.689	439.38
237.922	469.38
238.156	489.38
238.39	565.38
238.624	667.38
238.858	613.38
239.091	489.38
239.325	493.38
239.559	493.38
239.793	547.38
240.027	655.38
240.26	617.38
240.494	592.38
240.728	599.38
240.961	685.38
241.195	647.38
241.429	633.38
241.662	644.38
241.896	529.38
242.13	486.38
242.363	447.38
242.597	473.38
242.83	536.38
243.064	533.38
243.298	595.38
243.531	649.38
243.765	633.38
243.998	608.38
244.232	607.38
244.465	627.38
244.699	581.38
244.932	655.38
245.166	638.38
245.399	562.38
245.633	553.38
245.866	601.38
246.099	614.38
246.333	708.38
246.566	791.38
246.8	789.38
247.033	756.38
247.266	717.38
247.5	700.38
247.733	702.38
247.966	642.38
248.2	693.38
248.433	767.38
248.666	841.38
248.899	853.38
249.133	891.38
249.366	998.38
249.599	1057.38
249.832	943.38
250.066	793.38
250.299	844.38
250.532	822.38
250.765	819.38
250.998	742.38
251.231	740.38
251.465	803.38
251.698	835.38
251.931	787.38
252.164	854.38
252.397	973.38
252.63	1050.38
252.863	1192.38
253.096	1233.38
253.329	1174.38
253.562	1119.38
253.795	1267.38
254.028	1381.38
254.261	1404.38
254.494	1263.38
254.727	1151.38
254.96	1136.38
255.193	1190.38
255.426	1150.38
255.659	849.38
255.892	785.38
256.124	884.38
256.357	1031.38
256.59	1212.38
256.823	1143.38
257.056	1003.38
257.289	929.38
257.521	976.38
257.754	1129.38
257.987	1310.38
258.22	1119.38
258.452	992.38
258.685	1141.38
258.918	1279.38
259.151	1264.38
259.383	1310.38
259.616	1461.38
259.849	1613.38
260.081	1709.38
260.314	1897.38
260.547	1505.38
260.779	1473.38
261.012	1753.38
261.244	1645.38
261.477	1650.38
261.71	1581.38
261.942	1305.38
262.175	1279.38
262.407	1214.38
262.64	1296.38
262.872	1511.38
263.105	1661.38
263.337	1741.38
263.57	1549.38
263.802	1071.38
264.035	927.38
264.267	867.38
264.499	786.38
264.732	718.38
264.964	703.38
265.197	693.38
265.429	786.38
265.661	821.38
265.894	833.38
266.126	911.38
266.358	1007.38
266.591	1249.38
266.823	1470.38
267.055	1414.38
267.287	1218.38
267.52	1241.38
267.752	1330.38
267.984	1463.38
268.216	1400.38
268.448	1117.38
268.681	1112.38
268.913	1212.38
269.145	1284.38
269.377	1272.38
269.609	1297.38
269.841	1229.38
270.073	1298.38
270.306	1366.38
270.538	1350.38
270.77	1379.38
271.002	1421.38
271.234	1489.38
271.466	1518.38
271.698	1460.38
271.93	1422.38
272.162	1473.38
272.394	1420.38
272.626	1425.38
272.858	1489.38
273.09	1519.38
273.322	1315.38
273.553	1271.38
273.785	1521.38
274.017	2020.38
274.249	2437.38
274.481	2523.38
274.713	2767.38
274.945	3150.38
275.176	3294.38
275.408	2863.38
275.64	2640.38
275.872	2632.38
276.104	2231.38
276.335	1919.38
276.567	1912.38
276.799	1972.38
277.031	2039.38
277.262	1632.38
277.494	1231.38
277.726	1216.38
277.957	1328.38
278.189	1485.38
278.421	1447.38
278.652	1450.38
278.884	1353.38
279.115	1251.38
279.347	1180.38
279.579	1209.38
279.81	1211.38
280.042	1234.38
280.273	1234.38
280.505	1115.38
280.736	1012.38
280.968	1012.38
281.199	1102.38
281.431	1235.38
281.662	1215.38
281.894	1191.38
282.125	1266.38
282.356	1363.38
282.588	1369.38
282.819	1293.38
283.051	1400.38
283.282	1683.38
283.513	1965.38
283.745	2205.38
283.976	2156.38
284.207	2046.38
284.439	2099.38
284.67	2022.38
284.901	1801.38
285.132	1939.38
285.364	2029.38
285.595	1936.38
285.826	1980.38
286.057	2002.38
286.288	1957.38
286.52	2018.38
286.751	2099.38
286.982	2121.38
287.213	1843.38
287.444	1755.38
287.675	1850.38
287.906	1838.38
288.138	1544.38
288.369	1391.38
288.6	1303.38
288.831	1337.38
289.062	1526.38
289.293	1691.38
289.524	1618.38
289.755	1598.38
289.986	1657.38
290.217	1453.38
290.448	1109.38
290.679	997.38
290.91	942.38
291.141	931.38
291.371	987.38
291.602	975.38
291.833	993.38
292.064	1074.38
292.295	1227.38
292.526	1403.38
292.757	1465.38
292.987	1581.38
293.218	1537.38
293.449	1616.38
293.68	1701.38
293.91	1599.38
294.141	1645.38
294.372	1524.38
294.603	1408.38
294.833	1591.38
295.064	1814.38
295.295	1758.38
295.525	1329.38
295.756	1157.38
295.987	1004.38
296.217	1025.38
296.448	1032.38
296.679	1094.38
296.909	1197.38
297.14	1311.38
297.37	1454.38
297.601	1380.38
297.831	1155.38
298.062	1267.38
298.292	1470.38
298.523	1557.38
298.753	1800.38
298.984	1576.38
299.214	1256.38
299.445	1091.38
299.675	1049.38
299.905	1029.38
300.136	1068.38
300.366	1228.38
300.597	1168.38
300.827	1010.38
301.057	1006.38
301.288	1031.38
301.518	1071.38
301.748	1227.38
301.979	1342.38
302.209	1494.38
302.439	1465.38
302.669	1256.38
302.9	1275.38
303.13	1139.38
303.36	1116.38
303.59	1073.38
303.82	1112.38
304.051	1261.38
304.281	1357.38
304.511	1325.38
304.741	1130.38
304.971	1184.38
305.201	1259.38
305.431	1181.38
305.661	1094.38
305.891	1085.38
306.121	1110.38
306.352	939.38
306.582	889.38
306.812	853.38
307.042	879.38
307.272	821.38
307.502	808.38
307.731	885.38
307.961	905.38
308.191	876.38
308.421	796.38
308.651	815.38
308.881	767.38
309.111	783.38
309.341	784.38
309.571	859.38
309.8	892.38
310.03	955.38
310.26	1032.38
310.49	982.38
310.72	867.38
310.949	879.38
311.179	887.38
311.409	952.38
311.639	1078.38
311.868	1383.38
312.098	1805.38
312.328	1939.38
312.557	1861.38
312.787	1901.38
313.017	1664.38
313.246	1848.38
313.476	2006.38
313.706	1657.38
313.935	1285.38
314.165	1019.38
314.394	959.38
314.624	991.38
314.853	1017.38
315.083	1065.38
315.312	1034.38
315.542	1037.38
315.771	957.38
316.001	878.38
316.23	841.38
316.46	848.38
316.689	863.38
316.919	868.38
317.148	878.38
317.377	856.38
317.607	887.38
317.836	969.38
318.065	1075.38
318.295	1237.38
318.524	1159.38
318.753	995.38
318.983	915.38
319.212	930.38
319.441	1014.38
319.67	1129.38
319.9	1207.38
320.129	1135.38
320.358	991.38
320.587	949.38
320.816	1033.38
321.046	1161.38
321.275	1330.38
321.504	1350.38
321.733	1277.38
321.962	1205.38
322.191	1205.38
322.42	1143.38
322.649	1135.38
322.878	1239.38
323.108	1244.38
323.337	1097.38
323.566	1078.38
323.795	1051.38
324.024	1047.38
324.253	1016.38
324.482	984.38
324.71	1102.38
324.939	1216.38
325.168	1154.38
325.397	953.38
325.626	939.38
325.855	912.38
326.084	931.38
326.313	872.38
326.542	847.38
326.77	891.38
326.999	923.38
327.228	995.38
327.457	997.38
327.686	990.38
327.914	899.38
328.143	812.38
328.372	823.38
328.6	850.38
328.829	873.38
329.058	900.38
329.287	883.38
329.515	902.38
329.744	879.38
329.972	820.38
330.201	785.38
330.43	840.38
330.658	963.38
330.887	1100.38
331.115	1029.38
331.344	991.38
331.572	996.38
331.801	888.38
332.03	872.38
332.258	891.38
332.486	942.38
332.715	979.38
332.943	887.38
333.172	882.38
333.4	914.38
333.629	1010.38
333.857	1119.38
334.085	1108.38
334.314	1121.38
334.542	1041.38
334.771	984.38
334.999	915.38
335.227	947.38
335.455	964.38
335.684	1017.38
335.912	1208.38
336.14	1320.38
336.369	1242.38
336.597	1236.38
336.825	1400.38
337.053	1555.38
337.281	1224.38
337.51	971.38
337.738	973.38
337.966	1100.38
338.194	1200.38
338.422	1123.38
338.65	947.38
338.878	876.38
339.106	911.38
339.334	1015.38
339.562	1085.38
339.79	1025.38
340.018	959.38
340.246	1048.38
340.474	1214.38
340.702	1301.38
340.93	1347.38
341.158	1336.38
341.386	1112.38
341.614	1103.38
341.842	1112.38
342.07	1127.38
342.298	1368.38
342.526	1420.38
342.754	1203.38
342.981	1101.38
343.209	1064.38
343.437	1140.38
343.665	1223.38
343.893	1204.38
344.12	1393.38
344.348	1623.38
344.576	1445.38
344.804	1175.38
345.031	1040.38
345.259	975.38
345.487	1032.38
345.714	1042.38
345.942	1121.38
346.17	1185.38
346.397	1155.38
346.625	1007.38
346.853	988.38
347.08	942.38
347.308	1008.38
347.535	1150.38
347.763	1149.38
347.99	1004.38
348.218	927.38
348.445	980.38
348.673	977.38
348.9	984.38
349.128	1064.38
349.355	1097.38
349.583	1036.38
349.81	997.38
350.037	963.38
350.265	840.38
350.492	800.38
350.72	804.38
350.947	837.38
351.174	879.38
351.402	971.38
351.629	1005.38
351.856	935.38
352.083	902.38
352.311	980.38
352.538	1090.38
352.765	1148.38
352.992	1035.38
353.22	992.38
353.447	1003.38
353.674	967.38
353.901	962.38
354.128	979.38
354.355	1011.38
354.583	981.38
354.81	1001.38
355.037	1047.38
355.264	1032.38
355.491	1080.38
355.718	1201.38
355.945	1160.38
356.172	1105.38
356.399	1115.38
356.626	1362.38
356.853	1651.38
357.08	1776.38
357.307	1797.38
357.534	1400.38
357.761	1471.38
357.988	1780.38
358.215	2084.38
358.441	1932.38
358.668	1651.38
358.895	1545.38
359.122	1215.38
359.349	1233.38
359.576	1364.38
359.802	1091.38
360.029	965.38
360.256	1025.38
360.483	1294.38
360.709	1651.38
360.936	1700.38
361.163	1519.38
361.39	1160.38
361.616	1067.38
361.843	1250.38
362.07	1504.38
362.296	1384.38
362.523	1088.38
362.749	976.38
362.976	1006.38
363.203	1239.38
363.429	1385.38
363.656	1088.38
363.882	1003.38
364.109	1009.38
364.335	1007.38
364.562	1006.38
364.788	1140.38
365.015	1341.38
365.241	1172.38
365.468	969.38
365.694	829.38
365.92	808.38
366.147	815.38
366.373	785.38
366.599	810.38
366.826	806.38
367.052	832.38
367.278	857.38
367.505	840.38
367.731	916.38
367.957	1041.38
368.184	1070.38
368.41	1019.38
368.636	1018.38
368.862	1084.38
369.089	1044.38
369.315	919.38
369.541	883.38
369.767	903.38
369.993	880.38
370.219	875.38
370.445	930.38
370.672	1037.38
370.898	1115.38
371.124	1102.38
371.35	956.38
371.576	901.38
371.802	993.38
372.028	1175.38
372.254	1360.38
372.48	1138.38
372.706	1062.38
372.932	1121.38
373.158	1142.38
373.384	1401.38
373.61	1893.38
373.835	1914.38
374.061	1381.38
374.287	1175.38
374.513	1385.38
374.739	1672.38
374.965	1731.38
375.191	1711.38
375.416	1175.38
375.642	1021.38
375.868	1235.38
376.094	1359.38
376.319	1184.38
376.545	1312.38
376.771	1372.38
376.997	1189.38
377.222	875.38
377.448	749.38
377.674	785.38
377.899	730.38
378.125	739.38
378.35	762.38
378.576	769.38
378.802	883.38
379.027	923.38
379.253	922.38
379.478	912.38
379.704	1072.38
379.929	1103.38
380.155	1135.38
380.38	957.38
380.606	982.38
380.831	1097.38
381.057	1031.38
381.282	1019.38
381.507	1218.38
381.733	1486.38
381.958	1575.38
382.184	1665.38
382.409	1744.38
382.634	1715.38
382.86	1823.38
383.085	1455.38
383.31	1168.38
383.535	1269.38
383.761	1241.38
383.986	1167.38
384.211	1455.38
384.436	1356.38
384.662	1065.38
384.887	1033.38
385.112	1050.38
385.337	1074.38
385.562	1011.38
385.787	1100.38
386.013	1216.38
386.238	1255.38
386.463	1049.38
386.688	1005.38
386.913	966.38
387.138	906.38
387.363	987.38
387.588	1005.38
387.813	1002.38
388.038	1100.38
388.263	989.38
388.488	974.38
388.713	1135.38
388.938	1243.38
389.163	1075.38
389.387	965.38
389.612	918.38
389.837	976.38
390.062	991.38
390.287	1007.38
390.512	1030.38
390.736	961.38
390.961	884.38
391.186	881.38
391.411	832.38
391.636	859.38
391.86	950.38
392.085	1015.38
392.31	1032.38
392.534	949.38
392.759	925.38
392.984	1007.38
393.208	998.38
393.433	877.38
393.658	808.38
393.882	784.38
394.107	779.38
394.331	807.38
394.556	839.38
394.78	823.38
395.005	863.38
395.229	882.38
395.454	895.38
395.678	899.38
395.903	909.38
396.127	883.38
396.352	888.38
396.576	995.38
396.801	1008.38
397.025	1123.38
397.249	1171.38
397.474	948.38
397.698	934.38
397.922	971.38
398.147	923.38
398.371	918.38
398.595	979.38
398.82	966.38
399.044	949.38
399.268	1013.38
399.492	1048.38
399.717	1056.38
399.941	1088.38
400.165	1053.38
400.389	1021.38
400.613	1061.38
400.837	1047.38
401.062	945.38
401.286	912.38
401.51	911.38
401.734	894.38
401.958	935.38
402.182	913.38
402.406	935.38
402.63	926.38
402.854	968.38
403.078	1083.38
403.302	1297.38
403.526	1349.38
403.75	1203.38
403.974	1031.38
404.198	1080.38
404.422	1237.38
404.645	1429.38
404.869	1621.38
405.093	1174.38
405.317	1019.38
405.541	1000.38
405.765	1000.38
405.988	1016.38
406.212	1115.38
406.436	1325.38
406.66	1471.38
406.883	1153.38
407.107	1206.38
407.331	1405.38
407.555	1309.38
407.778	1123.38
408.002	1069.38
408.226	1037.38
408.449	1041.38
408.673	1036.38
408.896	916.38
409.12	914.38
409.344	929.38
409.567	911.38
409.791	887.38
410.014	892.38
410.238	895.38
410.461	871.38
410.685	917.38
410.908	925.38
411.132	930.38
411.355	943.38
411.578	937.38
411.802	934.38
412.025	1009.38
412.249	1010.38
412.472	954.38
412.695	968.38
412.919	949.38
413.142	966.38
413.365	1048.38
413.589	1050.38
413.812	953.38
414.035	904.38
414.258	960.38
414.482	1071.38
414.705	1033.38
414.928	918.38
415.151	900.38
415.374	876.38
415.597	949.38
415.821	920.38
416.044	904.38
416.267	874.38
416.49	875.38
416.713	869.38
416.936	864.38
417.159	850.38
417.382	886.38
417.605	895.38
417.828	924.38
418.051	923.38
418.274	935.38
418.497	953.38
418.72	949.38
418.943	969.38
419.166	1014.38
419.389	1033.38
419.611	1009.38
419.834	1013.38
420.057	1126.38
420.28	1144.38
420.503	1047.38
420.726	917.38
420.948	888.38
421.171	885.38
421.394	857.38
421.617	871.38
421.839	900.38
422.062	937.38
422.285	929.38
422.507	940.38
422.73	953.38
422.953	1000.38
423.175	955.38
423.398	969.38
423.621	1037.38
423.843	1090.38
424.066	1000.38
424.288	952.38
424.511	924.38
424.733	911.38
424.956	979.38
425.178	1104.38
425.401	1251.38
425.623	1425.38
425.846	1173.38
426.068	1016.38
426.291	1141.38
426.513	1049.38
426.735	928.38
426.958	1012.38
427.18	1197.38
427.402	1551.38
427.625	1489.38
427.847	1219.38
428.069	907.38
428.292	909.38
428.514	916.38
428.736	881.38
428.958	985.38
429.181	1149.38
429.403	984.38
429.625	890.38
429.847	886.38
430.069	895.38
430.292	902.38
430.514	885.38
430.736	960.38
430.958	1223.38
431.18	1083.38
431.402	859.38
431.624	807.38
431.846	837.38
432.068	795.38
432.29	824.38
432.512	921.38
432.734	1247.38
432.956	1154.38
433.178	868.38
433.4	852.38
433.622	860.38
433.844	866.38
434.066	930.38
434.287	927.38
434.509	907.38
434.731	921.38
434.953	879.38
435.175	899.38
435.397	1048.38
435.618	896.38
435.84	826.38
436.062	822.38
436.284	846.38
436.505	822.38
436.727	788.38
436.949	786.38
437.17	833.38
437.392	838.38
437.614	825.38
437.835	819.38
438.057	822.38
438.278	964.38
438.5	1387.38
438.721	1431.38
438.943	941.38
439.165	833.38
439.386	783.38
439.608	783.38
439.829	792.38
440.05	806.38
440.272	877.38
440.493	996.38
440.715	1238.38
440.936	992.38
441.158	867.38
441.379	865.38
441.6	974.38
441.822	1045.38
442.043	892.38
442.264	891.38
442.486	891.38
442.707	890.38
442.928	884.38
443.149	867.38
443.371	879.38
443.592	942.38
443.813	932.38
444.034	877.38
444.255	907.38
444.476	935.38
444.698	927.38
444.919	933.38
445.14	1072.38
445.361	1028.38
445.582	965.38
445.803	935.38
446.024	962.38
446.245	895.38
446.466	885.38
446.687	876.38
446.908	913.38
447.129	846.38
447.35	796.38
447.571	811.38
447.792	790.38
448.013	811.38
448.234	790.38
448.455	785.38
448.675	789.38
448.896	791.38
449.117	795.38
449.338	818.38
449.559	833.38
449.779	869.38
450	856.38
450.221	843.38
450.442	788.38
450.662	803.38
450.883	807.38
451.104	811.38
451.324	805.38
451.545	807.38
451.766	788.38
451.986	775.38
452.207	761.38
452.428	769.38
452.648	763.38
452.869	827.38
453.089	836.38
453.31	841.38
453.53	752.38
453.751	761.38
453.971	744.38
454.192	766.38
454.412	793.38
454.633	732.38
454.853	749.38
455.073	735.38
455.294	741.38
455.514	727.38
455.734	783.38
455.955	795.38
456.175	847.38
456.395	750.38
456.616	717.38
456.836	730.38
457.056	706.38
457.276	679.38
457.497	705.38
457.717	719.38
457.937	753.38
458.157	721.38
458.377	719.38
458.598	728.38
458.818	786.38
459.038	824.38
459.258	852.38
459.478	852.38
459.698	881.38
459.918	889.38
460.138	897.38
460.358	892.38
460.578	880.38
460.798	889.38
461.018	899.38
461.238	860.38
461.458	874.38
461.678	895.38
461.898	918.38
462.118	885.38
462.338	914.38
462.558	956.38
462.777	992.38
462.997	1034.38
463.217	984.38
463.437	1038.38
463.657	1030.38
463.876	937.38
464.096	961.38
464.316	975.38
464.536	963.38
464.755	1027.38
464.975	1007.38
465.195	965.38
465.414	1012.38
465.634	937.38
465.854	932.38
466.073	863.38
466.293	866.38
466.512	936.38
466.732	1043.38
466.951	1035.38
467.171	928.38
467.391	885.38
467.61	885.38
467.829	898.38
468.049	927.38
468.268	887.38
468.488	858.38
468.707	897.38
468.927	1052.38
469.146	1153.38
469.365	1025.38
469.585	960.38
469.804	1039.38
470.023	1106.38
470.243	961.38
470.462	909.38
470.681	904.38
470.901	928.38
471.12	999.38
471.339	989.38
471.558	940.38
471.777	943.38
471.997	1001.38
472.216	1135.38
472.435	1080.38
472.654	974.38
472.873	975.38
473.092	1017.38
473.311	1028.38
473.53	933.38
473.749	946.38
473.968	1019.38
474.187	958.38
474.406	920.38
474.625	949.38
474.844	946.38
475.063	1037.38
475.282	1057.38
475.501	1092.38
475.72	1169.38
475.939	1126.38
476.158	1111.38
476.377	1266.38
476.596	1432.38
476.814	1490.38
477.033	1245.38
477.252	1056.38
477.471	985.38
477.69	1021.38
477.908	1093.38
478.127	1152.38
478.346	1058.38
478.564	1157.38
478.783	1110.38
479.002	1120.38
479.22	1304.38
479.439	1460.38
479.658	1237.38
479.876	1130.38
480.095	1224.38
480.313	1210.38
480.532	1149.38
480.751	1057.38
480.969	1112.38
481.188	1265.38
481.406	1312.38
481.624	1237.38
481.843	1109.38
482.061	1079.38
482.28	1209.38
482.498	1487.38
482.717	1387.38
482.935	1215.38
483.153	1119.38
483.372	1068.38
483.59	1079.38
483.808	1037.38
484.027	1015.38
484.245	975.38
484.463	979.38
484.681	996.38
484.9	1094.38
485.118	1240.38
485.336	1162.38
485.554	1080.38
485.772	1101.38
485.99	1161.38
486.209	1251.38
486.427	1225.38
486.645	1231.38
486.863	1264.38
487.081	1269.38
487.299	1409.38
487.517	1332.38
487.735	1227.38
487.953	1266.38
488.171	1280.38
488.389	1199.38
488.607	1115.38
488.825	1183.38
489.043	1282.38
489.261	1434.38
489.479	1582.38
489.696	1293.38
489.914	1199.38
490.132	1131.38
490.35	1137.38
490.568	1167.38
490.786	1127.38
491.003	1155.38
491.221	1175.38
491.439	1136.38
491.657	1162.38
491.874	1240.38
492.092	1518.38
492.31	1796.38
492.527	1782.38
492.745	1520.38
492.963	1331.38
493.18	1293.38
493.398	1282.38
493.615	1295.38
493.833	1213.38
