Data from NickelSpatula.Lamp.E10.P2_HRD10591_11-57-50-530.txt Node
Date: Tue Jul 23 11:57:50 EDT 2019
User: cochatt
Spectrometer: HR+D1059
Trigger mode: 1
Integration Time (sec): 1.000000E-1
Scans to average: 1
Electric dark correction enabled: true
Nonlinearity correction enabled: false
Boxcar width: 0
XAxis mode: Wavelengths
Number of Pixels in Spectrum: 2048
>>>>>Begin Spectral Data<<<<<
223.165	-14.75
223.4	-14.75
223.635	-14.75
223.869	-29.75
224.104	-16.75
224.338	-3.75
224.573	-19.75
224.808	-6.75
225.042	-15.75
225.277	-11.75
225.511	2.25
225.746	4.25
225.98	3.25
226.215	19.25
226.449	17.25
226.683	25.25
226.918	24.25
227.152	23.25
227.387	29.25
227.621	28.25
227.856	46.25
228.09	49.25
228.324	42.25
228.559	56.25
228.793	81.25
229.027	152.25
229.262	166.25
229.496	148.25
229.73	152.25
229.964	184.25
230.199	228.25
230.433	234.25
230.667	204.25
230.901	219.25
231.136	199.25
231.37	212.25
231.604	207.25
231.838	243.25
232.072	241.25
232.306	224.25
232.541	254.25
232.775	229.25
233.009	256.25
233.243	324.25
233.477	298.25
233.711	352.25
233.945	332.25
234.179	310.25
234.413	353.25
234.647	403.25
234.881	453.25
235.115	426.25
235.349	404.25
235.583	354.25
235.817	344.25
236.051	370.25
236.285	424.25
236.519	480.25
236.753	434.25
236.987	411.25
237.221	397.25
237.455	396.25
237.689	416.25
237.922	482.25
238.156	469.25
238.39	567.25
238.624	682.25
238.858	596.25
239.091	502.25
239.325	518.25
239.559	472.25
239.793	540.25
240.027	669.25
240.26	610.25
240.494	571.25
240.728	602.25
240.961	704.25
241.195	644.25
241.429	612.25
241.662	608.25
241.896	521.25
242.13	456.25
242.363	451.25
242.597	469.25
242.83	554.25
243.064	536.25
243.298	617.25
243.531	639.25
243.765	648.25
243.998	610.25
244.232	599.25
244.465	601.25
244.699	578.25
244.932	654.25
245.166	609.25
245.399	537.25
245.633	550.25
245.866	567.25
246.099	622.25
246.333	715.25
246.566	784.25
246.8	778.25
247.033	723.25
247.266	697.25
247.5	689.25
247.733	676.25
247.966	667.25
248.2	693.25
248.433	764.25
248.666	807.25
248.899	811.25
249.133	854.25
249.366	969.25
249.599	1055.25
249.832	952.25
250.066	826.25
250.299	809.25
250.532	806.25
250.765	823.25
250.998	742.25
251.231	714.25
251.465	769.25
251.698	845.25
251.931	788.25
252.164	810.25
252.397	913.25
252.63	1040.25
252.863	1179.25
253.096	1193.25
253.329	1156.25
253.562	1101.25
253.795	1239.25
254.028	1367.25
254.261	1356.25
254.494	1212.25
254.727	1105.25
254.96	1076.25
255.193	1188.25
255.426	1097.25
255.659	848.25
255.892	797.25
256.124	852.25
256.357	1037.25
256.59	1192.25
256.823	1127.25
257.056	990.25
257.289	901.25
257.521	980.25
257.754	1096.25
257.987	1267.25
258.22	1095.25
258.452	1010.25
258.685	1120.25
258.918	1250.25
259.151	1238.25
259.383	1273.25
259.616	1505.25
259.849	1556.25
260.081	1700.25
260.314	1922.25
260.547	1466.25
260.779	1483.25
261.012	1707.25
261.244	1596.25
261.477	1639.25
261.71	1555.25
261.942	1280.25
262.175	1292.25
262.407	1227.25
262.64	1272.25
262.872	1482.25
263.105	1634.25
263.337	1731.25
263.57	1496.25
263.802	1038.25
264.035	899.25
264.267	888.25
264.499	794.25
264.732	724.25
264.964	694.25
265.197	704.25
265.429	755.25
265.661	827.25
265.894	853.25
266.126	925.25
266.358	1055.25
266.591	1229.25
266.823	1502.25
267.055	1395.25
267.287	1227.25
267.52	1234.25
267.752	1290.25
267.984	1404.25
268.216	1352.25
268.448	1118.25
268.681	1104.25
268.913	1196.25
269.145	1265.25
269.377	1300.25
269.609	1299.25
269.841	1202.25
270.073	1309.25
270.306	1334.25
270.538	1369.25
270.77	1384.25
271.002	1392.25
271.234	1429.25
271.466	1472.25
271.698	1469.25
271.93	1413.25
272.162	1386.25
272.394	1412.25
272.626	1354.25
272.858	1418.25
273.09	1472.25
273.322	1272.25
273.553	1250.25
273.785	1470.25
274.017	1928.25
274.249	2451.25
274.481	2501.25
274.713	2773.25
274.945	3166.25
275.176	3248.25
275.408	2852.25
275.64	2590.25
275.872	2587.25
276.104	2183.25
276.335	1858.25
276.567	1874.25
276.799	1968.25
277.031	2054.25
277.262	1603.25
277.494	1206.25
277.726	1178.25
277.957	1284.25
278.189	1490.25
278.421	1456.25
278.652	1429.25
278.884	1341.25
279.115	1227.25
279.347	1174.25
279.579	1196.25
279.81	1187.25
280.042	1176.25
280.273	1232.25
280.505	1122.25
280.736	980.25
280.968	1020.25
281.199	1071.25
281.431	1227.25
281.662	1180.25
281.894	1168.25
282.125	1224.25
282.356	1366.25
282.588	1358.25
282.819	1228.25
283.051	1377.25
283.282	1684.25
283.513	1944.25
283.745	2170.25
283.976	2135.25
284.207	2008.25
284.439	2104.25
284.67	1990.25
284.901	1753.25
285.132	1927.25
285.364	1995.25
285.595	1851.25
285.826	1992.25
286.057	2027.25
286.288	1947.25
286.52	1961.25
286.751	2085.25
286.982	2043.25
287.213	1811.25
287.444	1744.25
287.675	1827.25
287.906	1767.25
288.138	1536.25
288.369	1365.25
288.6	1251.25
288.831	1327.25
289.062	1560.25
289.293	1680.25
289.524	1583.25
289.755	1578.25
289.986	1586.25
290.217	1408.25
290.448	1112.25
290.679	954.25
290.91	924.25
291.141	923.25
291.371	955.25
291.602	976.25
291.833	969.25
292.064	1056.25
292.295	1204.25
292.526	1353.25
292.757	1425.25
292.987	1566.25
293.218	1543.25
293.449	1592.25
293.68	1684.25
293.91	1572.25
294.141	1635.25
294.372	1539.25
294.603	1381.25
294.833	1562.25
295.064	1802.25
295.295	1720.25
295.525	1290.25
295.756	1171.25
295.987	996.25
296.217	1012.25
296.448	1044.25
296.679	1046.25
296.909	1178.25
297.14	1278.25
297.37	1407.25
297.601	1314.25
297.831	1142.25
298.062	1238.25
298.292	1359.25
298.523	1556.25
298.753	1738.25
298.984	1565.25
299.214	1232.25
299.445	1045.25
299.675	974.25
299.905	1026.25
300.136	1026.25
300.366	1123.25
300.597	1095.25
300.827	991.25
301.057	958.25
301.288	985.25
301.518	1023.25
301.748	1180.25
301.979	1286.25
302.209	1355.25
302.439	1383.25
302.669	1216.25
302.9	1185.25
303.13	1110.25
303.36	1068.25
303.59	1060.25
303.82	1095.25
304.051	1232.25
304.281	1328.25
304.511	1263.25
304.741	1130.25
304.971	1173.25
305.201	1270.25
305.431	1198.25
305.661	1060.25
305.891	1022.25
306.121	1042.25
306.352	939.25
306.582	844.25
306.812	831.25
307.042	825.25
307.272	798.25
307.502	803.25
307.731	883.25
307.961	914.25
308.191	840.25
308.421	802.25
308.651	796.25
308.881	736.25
309.111	769.25
309.341	799.25
309.571	896.25
309.8	896.25
310.03	914.25
310.26	963.25
310.49	922.25
310.72	866.25
310.949	830.25
311.179	903.25
311.409	915.25
311.639	1051.25
311.868	1364.25
312.098	1771.25
312.328	1940.25
312.557	1856.25
312.787	1846.25
313.017	1649.25
313.246	1831.25
313.476	1970.25
313.706	1603.25
313.935	1283.25
314.165	1020.25
314.394	912.25
314.624	950.25
314.853	987.25
315.083	1039.25
315.312	1002.25
315.542	1007.25
315.771	923.25
316.001	832.25
316.23	837.25
316.46	838.25
316.689	840.25
316.919	878.25
317.148	858.25
317.377	860.25
317.607	880.25
317.836	928.25
318.065	1105.25
318.295	1194.25
318.524	1128.25
318.753	978.25
318.983	901.25
319.212	906.25
319.441	958.25
319.67	1088.25
319.9	1176.25
320.129	1108.25
320.358	933.25
320.587	926.25
320.816	978.25
321.046	1135.25
321.275	1249.25
321.504	1311.25
321.733	1211.25
321.962	1192.25
322.191	1115.25
322.42	1065.25
322.649	1097.25
322.878	1163.25
323.108	1142.25
323.337	1064.25
323.566	1063.25
323.795	1043.25
324.024	1002.25
324.253	945.25
324.482	939.25
324.71	1045.25
324.939	1163.25
325.168	1098.25
325.397	898.25
325.626	891.25
325.855	886.25
326.084	912.25
326.313	862.25
326.542	838.25
326.77	830.25
326.999	864.25
327.228	936.25
327.457	1003.25
327.686	962.25
327.914	845.25
328.143	826.25
328.372	817.25
328.6	801.25
328.829	856.25
329.058	852.25
329.287	891.25
329.515	882.25
329.744	872.25
329.972	810.25
330.201	793.25
330.43	808.25
330.658	923.25
330.887	1029.25
331.115	1022.25
331.344	971.25
331.572	942.25
331.801	896.25
332.03	860.25
332.258	865.25
332.486	922.25
332.715	972.25
332.943	892.25
333.172	922.25
333.4	922.25
333.629	1010.25
333.857	1094.25
334.085	1092.25
334.314	1095.25
334.542	1042.25
334.771	930.25
334.999	930.25
335.227	880.25
335.455	896.25
335.684	1021.25
335.912	1199.25
336.14	1310.25
336.369	1249.25
336.597	1209.25
336.825	1345.25
337.053	1491.25
337.281	1211.25
337.51	950.25
337.738	942.25
337.966	1045.25
338.194	1147.25
338.422	1112.25
338.65	942.25
338.878	863.25
339.106	883.25
339.334	1006.25
339.562	1048.25
339.79	963.25
340.018	944.25
340.246	1016.25
340.474	1164.25
340.702	1223.25
340.93	1276.25
341.158	1288.25
341.386	1059.25
341.614	1075.25
341.842	1052.25
342.07	1135.25
342.298	1331.25
342.526	1342.25
342.754	1143.25
342.981	1047.25
343.209	1027.25
343.437	1104.25
343.665	1183.25
343.893	1151.25
344.12	1312.25
344.348	1552.25
344.576	1375.25
344.804	1183.25
345.031	1027.25
345.259	965.25
345.487	950.25
345.714	1009.25
345.942	1055.25
346.17	1160.25
346.397	1073.25
346.625	958.25
346.853	937.25
347.08	918.25
347.308	980.25
347.535	1091.25
347.763	1091.25
347.99	951.25
348.218	889.25
348.445	929.25
348.673	939.25
348.9	971.25
349.128	1039.25
349.355	1031.25
349.583	1016.25
349.81	975.25
350.037	931.25
350.265	828.25
350.492	788.25
350.72	800.25
350.947	812.25
351.174	869.25
351.402	914.25
351.629	958.25
351.856	919.25
352.083	885.25
352.311	905.25
352.538	1031.25
352.765	1100.25
352.992	1030.25
353.22	940.25
353.447	936.25
353.674	921.25
353.901	925.25
354.128	937.25
354.355	961.25
354.583	930.25
354.81	931.25
355.037	959.25
355.264	954.25
355.491	1044.25
355.718	1091.25
355.945	1067.25
356.172	1050.25
356.399	1040.25
356.626	1267.25
356.853	1513.25
357.08	1611.25
357.307	1650.25
357.534	1262.25
357.761	1374.25
357.988	1665.25
358.215	1899.25
358.441	1830.25
358.668	1530.25
358.895	1402.25
359.122	1155.25
359.349	1152.25
359.576	1263.25
359.802	1065.25
360.029	914.25
360.256	970.25
360.483	1212.25
360.709	1494.25
360.936	1556.25
361.163	1349.25
361.39	1063.25
361.616	1025.25
361.843	1156.25
362.07	1442.25
362.296	1287.25
362.523	1040.25
362.749	901.25
362.976	947.25
363.203	1160.25
363.429	1277.25
363.656	1031.25
363.882	927.25
364.109	970.25
364.335	987.25
364.562	966.25
364.788	1077.25
365.015	1235.25
365.241	1078.25
365.468	935.25
365.694	826.25
365.92	774.25
366.147	774.25
366.373	794.25
366.599	772.25
366.826	781.25
367.052	811.25
367.278	806.25
367.505	807.25
367.731	882.25
367.957	970.25
368.184	998.25
368.41	973.25
368.636	977.25
368.862	1011.25
369.089	982.25
369.315	844.25
369.541	852.25
369.767	847.25
369.993	842.25
370.219	831.25
370.445	872.25
370.672	970.25
370.898	1024.25
371.124	1042.25
371.35	935.25
371.576	896.25
371.802	962.25
372.028	1113.25
372.254	1278.25
372.48	1088.25
372.706	998.25
372.932	1058.25
373.158	1112.25
373.384	1287.25
373.61	1703.25
373.835	1719.25
374.061	1304.25
374.287	1098.25
374.513	1302.25
374.739	1574.25
374.965	1602.25
375.191	1568.25
375.416	1104.25
375.642	965.25
375.868	1148.25
376.094	1289.25
376.319	1138.25
376.545	1215.25
376.771	1282.25
376.997	1110.25
377.222	835.25
377.448	734.25
377.674	737.25
377.899	756.25
378.125	740.25
378.35	737.25
378.576	762.25
378.802	850.25
379.027	892.25
379.253	871.25
379.478	882.25
379.704	1018.25
379.929	1043.25
380.155	1048.25
380.38	936.25
380.606	952.25
380.831	1070.25
381.057	1017.25
381.282	931.25
381.507	1090.25
381.733	1398.25
381.958	1469.25
382.184	1518.25
382.409	1605.25
382.634	1527.25
382.86	1616.25
383.085	1343.25
383.31	1097.25
383.535	1156.25
383.761	1176.25
383.986	1118.25
384.211	1323.25
384.436	1292.25
384.662	985.25
384.887	942.25
385.112	988.25
385.337	1001.25
385.562	949.25
385.787	1061.25
386.013	1168.25
386.238	1146.25
386.463	978.25
386.688	963.25
386.913	924.25
387.138	870.25
387.363	937.25
387.588	965.25
387.813	964.25
388.038	1054.25
388.263	951.25
388.488	929.25
388.713	1084.25
388.938	1145.25
389.163	972.25
389.387	896.25
389.612	888.25
389.837	964.25
390.062	924.25
390.287	936.25
390.512	970.25
390.736	907.25
390.961	841.25
391.186	822.25
391.411	828.25
391.636	860.25
391.86	922.25
392.085	972.25
392.31	956.25
392.534	946.25
392.759	890.25
392.984	986.25
393.208	942.25
393.433	852.25
393.658	822.25
393.882	800.25
394.107	776.25
394.331	800.25
394.556	798.25
394.78	796.25
395.005	836.25
395.229	863.25
395.454	857.25
395.678	863.25
395.903	892.25
396.127	848.25
396.352	893.25
396.576	954.25
396.801	946.25
397.025	1061.25
397.249	1092.25
397.474	934.25
397.698	893.25
397.922	980.25
398.147	871.25
398.371	890.25
398.595	952.25
398.82	951.25
399.044	916.25
399.268	996.25
399.492	1022.25
399.717	1030.25
399.941	1080.25
400.165	1060.25
400.389	1037.25
400.613	1049.25
400.837	1009.25
401.062	910.25
401.286	910.25
401.51	899.25
401.734	872.25
401.958	906.25
402.182	900.25
402.406	903.25
402.63	907.25
402.854	947.25
403.078	1068.25
403.302	1273.25
403.526	1305.25
403.75	1174.25
403.974	1036.25
404.198	1070.25
404.422	1179.25
404.645	1396.25
404.869	1520.25
405.093	1167.25
405.317	971.25
405.541	977.25
405.765	1031.25
405.988	1011.25
406.212	1050.25
406.436	1237.25
406.66	1316.25
406.883	1131.25
407.107	1152.25
407.331	1292.25
407.555	1282.25
407.778	1080.25
408.002	1054.25
408.226	1004.25
408.449	1026.25
408.673	964.25
408.896	926.25
409.12	938.25
409.344	904.25
409.567	868.25
409.791	896.25
410.014	906.25
410.238	872.25
410.461	890.25
410.685	872.25
410.908	908.25
411.132	904.25
411.355	928.25
411.578	944.25
411.802	950.25
412.025	950.25
412.249	950.25
412.472	935.25
412.695	936.25
412.919	931.25
413.142	957.25
413.365	1046.25
413.589	1007.25
413.812	930.25
414.035	927.25
414.258	929.25
414.482	1015.25
414.705	1043.25
414.928	891.25
415.151	866.25
415.374	880.25
415.597	907.25
415.821	908.25
416.044	857.25
416.267	876.25
416.49	863.25
416.713	875.25
416.936	861.25
417.159	841.25
417.382	856.25
417.605	875.25
417.828	903.25
418.051	911.25
418.274	894.25
418.497	931.25
418.72	896.25
418.943	948.25
419.166	972.25
419.389	1025.25
419.611	987.25
419.834	1008.25
420.057	1070.25
420.28	1071.25
420.503	994.25
420.726	885.25
420.948	877.25
421.171	906.25
421.394	873.25
421.617	860.25
421.839	913.25
422.062	912.25
422.285	907.25
422.507	952.25
422.73	926.25
422.953	959.25
423.175	930.25
423.398	939.25
423.621	985.25
423.843	998.25
424.066	946.25
424.288	898.25
424.511	897.25
424.733	888.25
424.956	942.25
425.178	1043.25
425.401	1204.25
425.623	1334.25
425.846	1113.25
426.068	991.25
426.291	1074.25
426.513	1014.25
426.735	945.25
426.958	977.25
427.18	1123.25
427.402	1439.25
427.625	1470.25
427.847	1148.25
428.069	895.25
428.292	893.25
428.514	881.25
428.736	842.25
428.958	944.25
429.181	1075.25
429.403	950.25
429.625	863.25
429.847	836.25
430.069	905.25
430.292	886.25
430.514	874.25
430.736	920.25
430.958	1145.25
431.18	1058.25
431.402	842.25
431.624	795.25
431.846	802.25
432.068	784.25
432.29	805.25
432.512	918.25
432.734	1172.25
432.956	1110.25
433.178	874.25
433.4	834.25
433.622	832.25
433.844	888.25
434.066	889.25
434.287	904.25
434.509	895.25
434.731	873.25
434.953	850.25
435.175	924.25
435.397	1043.25
435.618	865.25
435.84	829.25
436.062	801.25
436.284	803.25
436.505	805.25
436.727	787.25
436.949	806.25
437.17	827.25
437.392	844.25
437.614	822.25
437.835	816.25
438.057	800.25
438.278	944.25
438.5	1335.25
438.721	1334.25
438.943	933.25
439.165	815.25
439.386	770.25
439.608	768.25
439.829	788.25
440.05	790.25
440.272	842.25
440.493	1024.25
440.715	1206.25
440.936	965.25
441.158	853.25
441.379	843.25
441.6	942.25
441.822	999.25
442.043	886.25
442.264	872.25
442.486	866.25
442.707	864.25
442.928	857.25
443.149	891.25
443.371	894.25
443.592	902.25
443.813	921.25
444.034	898.25
444.255	878.25
444.476	925.25
444.698	900.25
444.919	946.25
445.14	1028.25
445.361	986.25
445.582	909.25
445.803	921.25
446.024	926.25
446.245	902.25
446.466	914.25
446.687	848.25
446.908	865.25
447.129	829.25
447.35	799.25
447.571	819.25
447.792	807.25
448.013	786.25
448.234	760.25
448.455	762.25
448.675	810.25
448.896	794.25
449.117	777.25
449.338	816.25
449.559	780.25
449.779	847.25
450	883.25
450.221	824.25
450.442	820.25
450.662	799.25
450.883	790.25
451.104	837.25
451.324	816.25
451.545	824.25
451.766	797.25
451.986	808.25
452.207	770.25
452.428	764.25
452.648	756.25
452.869	819.25
453.089	828.25
453.31	815.25
453.53	755.25
453.751	737.25
453.971	748.25
454.192	756.25
454.412	808.25
454.633	753.25
454.853	751.25
455.073	728.25
455.294	732.25
455.514	744.25
455.734	767.25
455.955	817.25
456.175	810.25
456.395	751.25
456.616	717.25
456.836	700.25
457.056	691.25
457.276	673.25
457.497	692.25
457.717	721.25
457.937	701.25
458.157	715.25
458.377	707.25
458.598	724.25
458.818	775.25
459.038	787.25
459.258	815.25
459.478	848.25
459.698	873.25
459.918	902.25
460.138	865.25
460.358	907.25
460.578	839.25
460.798	874.25
461.018	897.25
461.238	847.25
461.458	830.25
461.678	886.25
461.898	909.25
462.118	916.25
462.338	953.25
462.558	944.25
462.777	982.25
462.997	1000.25
463.217	998.25
463.437	1032.25
463.657	1019.25
463.876	926.25
464.096	947.25
464.316	969.25
464.536	959.25
464.755	988.25
464.975	1025.25
465.195	939.25
465.414	980.25
465.634	946.25
465.854	912.25
466.073	894.25
466.293	853.25
466.512	925.25
466.732	993.25
466.951	1016.25
467.171	906.25
467.391	868.25
467.61	888.25
467.829	909.25
468.049	918.25
468.268	859.25
468.488	903.25
468.707	894.25
468.927	1057.25
469.146	1186.25
469.365	1025.25
469.585	970.25
469.804	994.25
470.023	1087.25
470.243	981.25
470.462	904.25
470.681	890.25
470.901	929.25
471.12	971.25
471.339	967.25
471.558	903.25
471.777	929.25
471.997	974.25
472.216	1119.25
472.435	1061.25
472.654	978.25
472.873	926.25
473.092	992.25
473.311	1040.25
473.53	936.25
473.749	915.25
473.968	977.25
474.187	947.25
474.406	941.25
474.625	914.25
474.844	962.25
475.063	1013.25
475.282	1034.25
475.501	1052.25
475.72	1086.25
475.939	1070.25
476.158	1064.25
476.377	1220.25
476.596	1395.25
476.814	1514.25
477.033	1266.25
477.252	1031.25
477.471	968.25
477.69	987.25
477.908	1106.25
478.127	1129.25
478.346	1062.25
478.564	1154.25
478.783	1101.25
479.002	1118.25
479.22	1304.25
479.439	1411.25
479.658	1206.25
479.876	1091.25
480.095	1216.25
480.313	1230.25
480.532	1112.25
480.751	1067.25
480.969	1119.25
481.188	1268.25
481.406	1276.25
481.624	1218.25
481.843	1114.25
482.061	1086.25
482.28	1161.25
482.498	1450.25
482.717	1367.25
482.935	1214.25
483.153	1097.25
483.372	1044.25
483.59	1041.25
483.808	1051.25
484.027	1024.25
484.245	985.25
484.463	998.25
484.681	995.25
484.9	1074.25
485.118	1215.25
485.336	1119.25
485.554	1042.25
485.772	1074.25
485.99	1148.25
486.209	1193.25
486.427	1209.25
486.645	1201.25
486.863	1238.25
487.081	1238.25
487.299	1337.25
487.517	1310.25
487.735	1196.25
487.953	1214.25
488.171	1245.25
488.389	1170.25
488.607	1083.25
488.825	1172.25
489.043	1208.25
489.261	1429.25
489.479	1470.25
489.696	1268.25
489.914	1193.25
490.132	1121.25
490.35	1136.25
490.568	1136.25
490.786	1108.25
491.003	1168.25
491.221	1150.25
491.439	1106.25
491.657	1150.25
491.874	1209.25
492.092	1481.25
492.31	1745.25
492.527	1708.25
492.745	1477.25
492.963	1324.25
493.18	1235.25
493.398	1307.25
493.615	1311.25
493.833	1252.25
494.05	1225.25
494.268	1240.25
494.485	1230.25
494.703	1150.25
494.92	1223.25
