Data from NickelSpatula.Lamp.E5.5.P2_HRD10591_11-51-33-560.txt Node
Date: Tue Jul 23 11:51:33 EDT 2019
User: cochatt
Spectrometer: HR+D1059
Trigger mode: 1
Integration Time (sec): 1.000000E-1
Scans to average: 1
Electric dark correction enabled: true
Nonlinearity correction enabled: false
Boxcar width: 0
XAxis mode: Wavelengths
Number of Pixels in Spectrum: 2048
>>>>>Begin Spectral Data<<<<<
223.165	-12.88
223.4	-12.88
223.635	-12.88
223.869	-20.88
224.104	-27.88
224.338	-20.88
224.573	-0.88
224.808	-7.88
225.042	-2.88
225.277	1.12
225.511	-16.88
225.746	-3.88
225.98	7.12
226.215	5.12
226.449	19.12
226.683	32.12
226.918	27.12
227.152	23.12
227.387	36.12
227.621	32.12
227.856	36.12
228.09	57.12
228.324	54.12
228.559	47.12
228.793	69.12
229.027	75.12
229.262	84.12
229.496	77.12
229.73	93.12
229.964	89.12
230.199	93.12
230.433	93.12
230.667	83.12
230.901	100.12
231.136	86.12
231.37	87.12
231.604	109.12
231.838	100.12
232.072	99.12
232.306	114.12
232.541	107.12
232.775	103.12
233.009	103.12
233.243	113.12
233.477	108.12
233.711	130.12
233.945	115.12
234.179	118.12
234.413	138.12
234.647	118.12
234.881	127.12
235.115	125.12
235.349	136.12
235.583	114.12
235.817	132.12
236.051	124.12
236.285	136.12
236.519	133.12
236.753	112.12
236.987	131.12
237.221	117.12
237.455	131.12
237.689	134.12
237.922	128.12
238.156	143.12
238.39	142.12
238.624	181.12
238.858	153.12
239.091	150.12
239.325	147.12
239.559	140.12
239.793	142.12
240.027	167.12
240.26	136.12
240.494	145.12
240.728	147.12
240.961	164.12
241.195	168.12
241.429	157.12
241.662	149.12
241.896	143.12
242.13	131.12
242.363	133.12
242.597	142.12
242.83	161.12
243.064	139.12
243.298	161.12
243.531	161.12
243.765	158.12
243.998	160.12
244.232	157.12
244.465	166.12
244.699	152.12
244.932	180.12
245.166	173.12
245.399	154.12
245.633	163.12
245.866	179.12
246.099	167.12
246.333	189.12
246.566	181.12
246.8	196.12
247.033	196.12
247.266	174.12
247.5	188.12
247.733	184.12
247.966	168.12
248.2	156.12
248.433	172.12
248.666	177.12
248.899	185.12
249.133	188.12
249.366	192.12
249.599	235.12
249.832	211.12
250.066	188.12
250.299	211.12
250.532	172.12
250.765	187.12
250.998	168.12
251.231	161.12
251.465	190.12
251.698	173.12
251.931	199.12
252.164	189.12
252.397	201.12
252.63	229.12
252.863	256.12
253.096	273.12
253.329	255.12
253.562	239.12
253.795	266.12
254.028	279.12
254.261	301.12
254.494	239.12
254.727	244.12
254.96	249.12
255.193	257.12
255.426	238.12
255.659	203.12
255.892	184.12
256.124	212.12
256.357	243.12
256.59	245.12
256.823	247.12
257.056	229.12
257.289	211.12
257.521	216.12
257.754	254.12
257.987	273.12
258.22	267.12
258.452	225.12
258.685	256.12
258.918	261.12
259.151	270.12
259.383	275.12
259.616	330.12
259.849	337.12
260.081	351.12
260.314	361.12
260.547	318.12
260.779	323.12
261.012	372.12
261.244	335.12
261.477	323.12
261.71	317.12
261.942	279.12
262.175	275.12
262.407	255.12
262.64	273.12
262.872	316.12
263.105	324.12
263.337	369.12
263.57	323.12
263.802	243.12
264.035	211.12
264.267	218.12
264.499	207.12
264.732	178.12
264.964	182.12
265.197	181.12
265.429	199.12
265.661	212.12
265.894	231.12
266.126	224.12
266.358	233.12
266.591	272.12
266.823	318.12
267.055	307.12
267.287	273.12
267.52	278.12
267.752	315.12
267.984	321.12
268.216	299.12
268.448	275.12
268.681	256.12
268.913	276.12
269.145	276.12
269.377	288.12
269.609	285.12
269.841	269.12
270.073	291.12
270.306	307.12
270.538	315.12
270.77	323.12
271.002	320.12
271.234	306.12
271.466	305.12
271.698	308.12
271.93	296.12
272.162	299.12
272.394	287.12
272.626	292.12
272.858	291.12
273.09	331.12
273.322	281.12
273.553	270.12
273.785	291.12
274.017	383.12
274.249	448.12
274.481	467.12
274.713	501.12
274.945	550.12
275.176	592.12
275.408	508.12
275.64	491.12
275.872	504.12
276.104	423.12
276.335	390.12
276.567	383.12
276.799	386.12
277.031	428.12
277.262	335.12
277.494	267.12
277.726	279.12
277.957	291.12
278.189	291.12
278.421	310.12
278.652	308.12
278.884	285.12
279.115	284.12
279.347	254.12
279.579	274.12
279.81	270.12
280.042	281.12
280.273	257.12
280.505	274.12
280.736	258.12
280.968	228.12
281.199	252.12
281.431	269.12
281.662	279.12
281.894	264.12
282.125	279.12
282.356	285.12
282.588	302.12
282.819	283.12
283.051	296.12
283.282	344.12
283.513	385.12
283.745	420.12
283.976	440.12
284.207	375.12
284.439	413.12
284.67	386.12
284.901	363.12
285.132	365.12
285.364	411.12
285.595	372.12
285.826	389.12
286.057	380.12
286.288	390.12
286.52	388.12
286.751	411.12
286.982	427.12
287.213	372.12
287.444	369.12
287.675	392.12
287.906	375.12
288.138	344.12
288.369	296.12
288.6	284.12
288.831	290.12
289.062	338.12
289.293	372.12
289.524	347.12
289.755	332.12
289.986	344.12
290.217	321.12
290.448	255.12
290.679	231.12
290.91	222.12
291.141	224.12
291.371	230.12
291.602	231.12
291.833	225.12
292.064	245.12
292.295	271.12
292.526	295.12
292.757	303.12
292.987	318.12
293.218	344.12
293.449	343.12
293.68	384.12
293.91	338.12
294.141	349.12
294.372	340.12
294.603	312.12
294.833	326.12
295.064	371.12
295.295	384.12
295.525	290.12
295.756	264.12
295.987	237.12
296.217	229.12
296.448	251.12
296.679	235.12
296.909	261.12
297.14	283.12
297.37	297.12
297.601	299.12
297.831	269.12
298.062	280.12
298.292	307.12
298.523	321.12
298.753	347.12
298.984	328.12
299.214	273.12
299.445	238.12
299.675	246.12
299.905	236.12
300.136	248.12
300.366	246.12
300.597	264.12
300.827	238.12
301.057	228.12
301.288	240.12
301.518	235.12
301.748	280.12
301.979	291.12
302.209	291.12
302.439	310.12
302.669	284.12
302.9	264.12
303.13	263.12
303.36	251.12
303.59	239.12
303.82	258.12
304.051	279.12
304.281	294.12
304.511	284.12
304.741	256.12
304.971	257.12
305.201	283.12
305.431	273.12
305.661	240.12
305.891	258.12
306.121	247.12
306.352	219.12
306.582	215.12
306.812	222.12
307.042	228.12
307.272	193.12
307.502	194.12
307.731	207.12
307.961	225.12
308.191	217.12
308.421	197.12
308.651	196.12
308.881	185.12
309.111	185.12
309.341	203.12
309.571	218.12
309.8	210.12
310.03	207.12
310.26	222.12
310.49	235.12
310.72	211.12
310.949	211.12
311.179	192.12
311.409	209.12
311.639	257.12
311.868	295.12
312.098	364.12
312.328	411.12
312.557	366.12
312.787	384.12
313.017	327.12
313.246	368.12
313.476	389.12
313.706	325.12
313.935	263.12
314.165	239.12
314.394	230.12
314.624	228.12
314.853	237.12
315.083	244.12
315.312	247.12
315.542	230.12
315.771	228.12
316.001	217.12
316.23	203.12
316.46	198.12
316.689	205.12
316.919	194.12
317.148	208.12
317.377	216.12
317.607	202.12
317.836	230.12
318.065	235.12
318.295	264.12
318.524	268.12
318.753	226.12
318.983	214.12
319.212	226.12
319.441	215.12
319.67	230.12
319.9	274.12
320.129	271.12
320.358	224.12
320.587	226.12
320.816	216.12
321.046	246.12
321.275	282.12
321.504	271.12
321.733	271.12
321.962	267.12
322.191	257.12
322.42	240.12
322.649	235.12
322.878	249.12
323.108	248.12
323.337	229.12
323.566	238.12
323.795	253.12
324.024	240.12
324.253	231.12
324.482	224.12
324.71	238.12
324.939	262.12
325.168	254.12
325.397	225.12
325.626	228.12
325.855	216.12
326.084	231.12
326.313	211.12
326.542	213.12
326.77	216.12
326.999	229.12
327.228	248.12
327.457	245.12
327.686	226.12
327.914	223.12
328.143	200.12
328.372	205.12
328.6	202.12
328.829	220.12
329.058	206.12
329.287	217.12
329.515	207.12
329.744	220.12
329.972	216.12
330.201	200.12
330.43	202.12
330.658	230.12
330.887	239.12
331.115	247.12
331.344	235.12
331.572	228.12
331.801	220.12
332.03	216.12
332.258	223.12
332.486	239.12
332.715	234.12
332.943	251.12
333.172	208.12
333.4	246.12
333.629	248.12
333.857	266.12
334.085	262.12
334.314	264.12
334.542	257.12
334.771	230.12
334.999	229.12
335.227	224.12
335.455	215.12
335.684	247.12
335.912	263.12
336.14	298.12
336.369	283.12
336.597	274.12
336.825	297.12
337.053	332.12
337.281	273.12
337.51	248.12
337.738	229.12
337.966	256.12
338.194	255.12
338.422	241.12
338.65	232.12
338.878	200.12
339.106	223.12
339.334	235.12
339.562	225.12
339.79	227.12
340.018	205.12
340.246	232.12
340.474	251.12
340.702	265.12
340.93	262.12
341.158	273.12
341.386	235.12
341.614	239.12
341.842	226.12
342.07	254.12
342.298	280.12
342.526	293.12
342.754	249.12
342.981	232.12
343.209	235.12
343.437	246.12
343.665	271.12
343.893	287.12
344.12	307.12
344.348	355.12
344.576	314.12
344.804	264.12
345.031	223.12
345.259	221.12
345.487	244.12
345.714	224.12
345.942	240.12
346.17	267.12
346.397	234.12
346.625	219.12
346.853	231.12
347.08	214.12
347.308	227.12
347.535	239.12
347.763	269.12
347.99	242.12
348.218	202.12
348.445	232.12
348.673	237.12
348.9	235.12
349.128	233.12
349.355	229.12
349.583	225.12
349.81	236.12
350.037	228.12
350.265	225.12
350.492	196.12
350.72	181.12
350.947	205.12
351.174	217.12
351.402	220.12
351.629	216.12
351.856	225.12
352.083	219.12
352.311	220.12
352.538	241.12
352.765	268.12
352.992	235.12
353.22	236.12
353.447	228.12
353.674	220.12
353.901	221.12
354.128	222.12
354.355	225.12
354.583	242.12
354.81	232.12
355.037	229.12
355.264	229.12
355.491	249.12
355.718	255.12
355.945	241.12
356.172	244.12
356.399	246.12
356.626	283.12
356.853	336.12
357.08	350.12
357.307	348.12
357.534	299.12
357.761	294.12
357.988	363.12
358.215	421.12
358.441	381.12
358.668	332.12
358.895	314.12
359.122	271.12
359.349	271.12
359.576	296.12
359.802	256.12
360.029	221.12
360.256	239.12
360.483	280.12
360.709	309.12
360.936	346.12
361.163	300.12
361.39	256.12
361.616	221.12
361.843	263.12
362.07	312.12
362.296	279.12
362.523	233.12
362.749	206.12
362.976	224.12
363.203	251.12
363.429	287.12
363.656	238.12
363.882	219.12
364.109	232.12
364.335	240.12
364.562	225.12
364.788	218.12
365.015	281.12
365.241	243.12
365.468	222.12
365.694	201.12
365.92	203.12
366.147	210.12
366.373	189.12
366.599	203.12
366.826	181.12
367.052	184.12
367.278	202.12
367.505	189.12
367.731	205.12
367.957	236.12
368.184	237.12
368.41	212.12
368.636	227.12
368.862	225.12
369.089	232.12
369.315	212.12
369.541	217.12
369.767	200.12
369.993	197.12
370.219	207.12
370.445	211.12
370.672	229.12
370.898	239.12
371.124	239.12
371.35	223.12
371.576	192.12
371.802	221.12
372.028	269.12
372.254	265.12
372.48	248.12
372.706	243.12
372.932	269.12
373.158	249.12
373.384	299.12
373.61	368.12
373.835	370.12
374.061	299.12
374.287	257.12
374.513	285.12
374.739	345.12
374.965	360.12
375.191	347.12
375.416	252.12
375.642	236.12
375.868	257.12
376.094	304.12
376.319	267.12
376.545	279.12
376.771	291.12
376.997	257.12
377.222	208.12
377.448	214.12
377.674	187.12
377.899	189.12
378.125	191.12
378.35	205.12
378.576	201.12
378.802	209.12
379.027	212.12
379.253	215.12
379.478	222.12
379.704	244.12
379.929	253.12
380.155	255.12
380.38	228.12
380.606	239.12
380.831	253.12
381.057	235.12
381.282	228.12
381.507	269.12
381.733	285.12
381.958	296.12
382.184	316.12
382.409	345.12
382.634	360.12
382.86	343.12
383.085	309.12
383.31	275.12
383.535	260.12
383.761	269.12
383.986	268.12
384.211	291.12
384.436	297.12
384.662	256.12
384.887	213.12
385.112	241.12
385.337	262.12
385.562	235.12
385.787	261.12
386.013	284.12
386.238	284.12
386.463	231.12
386.688	234.12
386.913	221.12
387.138	224.12
387.363	231.12
387.588	248.12
387.813	247.12
388.038	252.12
388.263	224.12
388.488	247.12
388.713	266.12
388.938	264.12
389.163	222.12
389.387	210.12
389.612	216.12
389.837	233.12
390.062	229.12
390.287	229.12
390.512	237.12
390.736	235.12
390.961	222.12
391.186	231.12
391.411	203.12
391.636	212.12
391.86	227.12
392.085	247.12
392.31	242.12
392.534	230.12
392.759	235.12
392.984	271.12
393.208	249.12
393.433	220.12
393.658	214.12
393.882	213.12
394.107	209.12
394.331	211.12
394.556	218.12
394.78	214.12
395.005	205.12
395.229	213.12
395.454	219.12
395.678	236.12
395.903	223.12
396.127	209.12
396.352	224.12
396.576	239.12
396.801	232.12
397.025	257.12
397.249	271.12
397.474	239.12
397.698	220.12
397.922	232.12
398.147	221.12
398.371	208.12
398.595	239.12
398.82	232.12
399.044	242.12
399.268	257.12
399.492	279.12
399.717	319.12
399.941	295.12
400.165	269.12
400.389	262.12
400.613	277.12
400.837	238.12
401.062	241.12
401.286	230.12
401.51	233.12
401.734	233.12
401.958	229.12
402.182	246.12
402.406	231.12
402.63	239.12
402.854	255.12
403.078	279.12
403.302	367.12
403.526	371.12
403.75	320.12
403.974	291.12
404.198	304.12
404.422	316.12
404.645	325.12
404.869	350.12
405.093	307.12
405.317	263.12
405.541	261.12
405.765	267.12
405.988	289.12
406.212	276.12
406.436	299.12
406.66	318.12
406.883	254.12
407.107	275.12
407.331	307.12
407.555	286.12
407.778	284.12
408.002	284.12
408.226	287.12
408.449	254.12
408.673	253.12
408.896	239.12
409.12	243.12
409.344	262.12
409.567	236.12
409.791	251.12
410.014	234.12
410.238	216.12
410.461	244.12
410.685	243.12
410.908	237.12
411.132	224.12
411.355	237.12
411.578	255.12
411.802	255.12
412.025	252.12
412.249	249.12
412.472	261.12
412.695	252.12
412.919	235.12
413.142	239.12
413.365	246.12
413.589	261.12
413.812	241.12
414.035	240.12
414.258	224.12
414.482	249.12
414.705	263.12
414.928	226.12
415.151	232.12
415.374	235.12
415.597	238.12
415.821	235.12
416.044	237.12
416.267	231.12
416.49	243.12
416.713	228.12
416.936	248.12
417.159	251.12
417.382	251.12
417.605	221.12
417.828	239.12
418.051	246.12
418.274	257.12
418.497	239.12
418.72	240.12
418.943	235.12
419.166	270.12
419.389	253.12
419.611	264.12
419.834	258.12
420.057	260.12
420.28	279.12
420.503	272.12
420.726	229.12
420.948	220.12
421.171	236.12
421.394	221.12
421.617	238.12
421.839	221.12
422.062	245.12
422.285	232.12
422.507	224.12
422.73	235.12
422.953	251.12
423.175	250.12
423.398	236.12
423.621	269.12
423.843	276.12
424.066	266.12
424.288	263.12
424.511	231.12
424.733	236.12
424.956	243.12
425.178	257.12
425.401	304.12
425.623	349.12
425.846	305.12
426.068	252.12
426.291	264.12
426.513	255.12
426.735	241.12
426.958	245.12
427.18	284.12
427.402	336.12
427.625	354.12
427.847	303.12
428.069	244.12
428.292	249.12
428.514	238.12
428.736	214.12
428.958	257.12
429.181	305.12
429.403	261.12
429.625	237.12
429.847	232.12
430.069	213.12
430.292	232.12
430.514	227.12
430.736	231.12
430.958	273.12
431.18	257.12
431.402	217.12
431.624	236.12
431.846	232.12
432.068	214.12
432.29	219.12
432.512	234.12
432.734	284.12
432.956	268.12
433.178	230.12
433.4	231.12
433.622	228.12
433.844	238.12
434.066	248.12
434.287	239.12
434.509	232.12
434.731	257.12
434.953	232.12
435.175	241.12
435.397	264.12
435.618	246.12
435.84	204.12
436.062	211.12
436.284	213.12
436.505	221.12
436.727	210.12
436.949	212.12
437.17	227.12
437.392	207.12
437.614	232.12
437.835	236.12
438.057	239.12
438.278	254.12
438.5	303.12
438.721	308.12
438.943	247.12
439.165	226.12
439.386	211.12
439.608	221.12
439.829	204.12
440.05	221.12
440.272	225.12
440.493	258.12
440.715	292.12
440.936	261.12
441.158	228.12
441.379	232.12
441.6	250.12
441.822	259.12
442.043	233.12
442.264	245.12
442.486	224.12
442.707	231.12
442.928	237.12
443.149	222.12
443.371	219.12
443.592	232.12
443.813	244.12
444.034	255.12
444.255	232.12
444.476	246.12
444.698	270.12
444.919	280.12
445.14	339.12
445.361	303.12
445.582	262.12
445.803	273.12
446.024	247.12
446.245	240.12
446.466	231.12
446.687	232.12
446.908	246.12
447.129	216.12
447.35	222.12
447.571	221.12
447.792	228.12
448.013	230.12
448.234	206.12
448.455	206.12
448.675	213.12
448.896	238.12
449.117	208.12
449.338	209.12
449.559	218.12
449.779	237.12
450	240.12
450.221	224.12
450.442	219.12
450.662	209.12
450.883	201.12
451.104	219.12
451.324	238.12
451.545	214.12
451.766	230.12
451.986	215.12
452.207	210.12
452.428	214.12
452.648	206.12
452.869	213.12
453.089	228.12
453.31	229.12
453.53	219.12
453.751	211.12
453.971	204.12
454.192	215.12
454.412	208.12
454.633	208.12
454.853	211.12
455.073	197.12
455.294	216.12
455.514	196.12
455.734	213.12
455.955	216.12
456.175	203.12
456.395	199.12
456.616	202.12
456.836	187.12
457.056	189.12
457.276	187.12
457.497	203.12
457.717	200.12
457.937	193.12
458.157	206.12
458.377	206.12
458.598	207.12
458.818	214.12
459.038	208.12
459.258	221.12
459.478	213.12
459.698	243.12
459.918	245.12
460.138	245.12
460.358	244.12
460.578	237.12
460.798	227.12
461.018	235.12
461.238	235.12
461.458	237.12
461.678	256.12
461.898	256.12
462.118	250.12
462.338	251.12
462.558	263.12
462.777	279.12
462.997	278.12
463.217	303.12
463.437	313.12
463.657	291.12
463.876	267.12
464.096	279.12
464.316	275.12
464.536	282.12
464.755	284.12
464.975	278.12
465.195	243.12
465.414	273.12
465.634	265.12
465.854	252.12
466.073	220.12
466.293	219.12
466.512	255.12
466.732	249.12
466.951	265.12
467.171	235.12
467.391	224.12
467.61	216.12
467.829	238.12
468.049	245.12
468.268	238.12
468.488	214.12
468.707	220.12
468.927	253.12
469.146	279.12
469.365	255.12
469.585	238.12
469.804	245.12
470.023	264.12
470.243	253.12
470.462	225.12
470.681	243.12
470.901	228.12
471.12	257.12
471.339	251.12
471.558	216.12
471.777	242.12
471.997	245.12
472.216	268.12
472.435	239.12
472.654	235.12
472.873	240.12
473.092	242.12
473.311	246.12
473.53	252.12
473.749	235.12
473.968	241.12
474.187	229.12
474.406	220.12
474.625	231.12
474.844	238.12
475.063	238.12
475.282	236.12
475.501	264.12
475.72	296.12
475.939	273.12
476.158	270.12
476.377	293.12
476.596	326.12
476.814	351.12
477.033	284.12
477.252	263.12
477.471	265.12
477.69	245.12
477.908	275.12
478.127	271.12
478.346	278.12
478.564	287.12
478.783	275.12
479.002	283.12
479.22	327.12
479.439	344.12
479.658	293.12
479.876	281.12
480.095	290.12
480.313	316.12
480.532	277.12
480.751	290.12
480.969	280.12
481.188	291.12
481.406	300.12
481.624	299.12
481.843	283.12
482.061	258.12
482.28	292.12
482.498	355.12
482.717	337.12
482.935	273.12
483.153	282.12
483.372	270.12
483.59	262.12
483.808	264.12
484.027	261.12
484.245	236.12
484.463	269.12
484.681	265.12
484.9	290.12
485.118	290.12
485.336	264.12
485.554	271.12
485.772	262.12
485.99	279.12
486.209	304.12
486.427	310.12
486.645	302.12
486.863	295.12
487.081	288.12
487.299	317.12
487.517	300.12
487.735	273.12
487.953	269.12
488.171	301.12
488.389	272.12
488.607	267.12
488.825	277.12
489.043	300.12
489.261	327.12
489.479	337.12
489.696	301.12
489.914	273.12
490.132	257.12
490.35	274.12
490.568	264.12
490.786	260.12
491.003	274.12
491.221	268.12
491.439	273.12
491.657	272.12
491.874	295.12
492.092	308.12
492.31	349.12
492.527	357.12
492.745	324.12
492.963	296.12
493.18	285.12
493.398	292.12
493.615	285.12
493.833	296.12
494.05	286.12
494.268	286.12
494.485	304.12
494.703	288.12
494.92	293.12
495.138	278.12
495.355	289.12
495.573	285.12
495.79	316.12
496.008	375.12
496.225	327.12
496.442	303.12
496.66	291.12
496.877	317.12
497.094	289.12
497.312	304.12
497.529	306.12
497.746	307.12
497.963	304.12
498.181	333.12
498.398	349.12
498.615	358.12
498.832	384.12
499.049	412.12
499.267	369.12
499.484	404.12
499.701	410.12
499.918	437.12
500.135	507.12
500.352	551.12
500.569	557.12
500.786	568.12
501.003	543.12
501.22	488.12
501.437	444.12
501.654	391.12
501.871	399.12
502.088	370.12
502.305	351.12
502.522	363.12
