Data from NickelSpatula.Lamp.E5.5.P2_HRD10591_11-53-14-550.txt Node
Date: Tue Jul 23 11:53:14 EDT 2019
User: cochatt
Spectrometer: HR+D1059
Trigger mode: 1
Integration Time (sec): 1.000000E-1
Scans to average: 1
Electric dark correction enabled: true
Nonlinearity correction enabled: false
Boxcar width: 0
XAxis mode: Wavelengths
Number of Pixels in Spectrum: 2048
>>>>>Begin Spectral Data<<<<<
223.165	-13.06
223.4	-13.06
223.635	-13.06
223.869	-24.06
224.104	-29.06
224.338	-5.06
224.573	-12.06
224.808	-1.06
225.042	3.94
225.277	-9.06
225.511	-9.06
225.746	10.94
225.98	9.94
226.215	2.94
226.449	20.94
226.683	13.94
226.918	10.94
227.152	28.94
227.387	21.94
227.621	26.94
227.856	53.94
228.09	30.94
228.324	51.94
228.559	59.94
228.793	53.94
229.027	75.94
229.262	78.94
229.496	82.94
229.73	79.94
229.964	103.94
230.199	79.94
230.433	102.94
230.667	101.94
230.901	98.94
231.136	96.94
231.37	98.94
231.604	94.94
231.838	91.94
232.072	114.94
232.306	99.94
232.541	102.94
232.775	116.94
233.009	107.94
233.243	116.94
233.477	127.94
233.711	139.94
233.945	129.94
234.179	130.94
234.413	127.94
234.647	125.94
234.881	142.94
235.115	127.94
235.349	119.94
235.583	110.94
235.817	116.94
236.051	135.94
236.285	128.94
236.519	141.94
236.753	139.94
236.987	144.94
237.221	123.94
237.455	129.94
237.689	151.94
237.922	148.94
238.156	124.94
238.39	157.94
238.624	173.94
238.858	158.94
239.091	148.94
239.325	158.94
239.559	141.94
239.793	154.94
240.027	193.94
240.26	148.94
240.494	151.94
240.728	158.94
240.961	171.94
241.195	171.94
241.429	176.94
241.662	163.94
241.896	143.94
242.13	137.94
242.363	138.94
242.597	143.94
242.83	147.94
243.064	150.94
243.298	160.94
243.531	177.94
243.765	170.94
243.998	181.94
244.232	166.94
244.465	166.94
244.699	154.94
244.932	162.94
245.166	161.94
245.399	151.94
245.633	149.94
245.866	155.94
246.099	173.94
246.333	186.94
246.566	194.94
246.8	185.94
247.033	211.94
247.266	179.94
247.5	172.94
247.733	177.94
247.966	181.94
248.2	177.94
248.433	192.94
248.666	214.94
248.899	207.94
249.133	199.94
249.366	261.94
249.599	259.94
249.832	230.94
250.066	211.94
250.299	202.94
250.532	203.94
250.765	195.94
250.998	182.94
251.231	178.94
251.465	196.94
251.698	211.94
251.931	197.94
252.164	231.94
252.397	223.94
252.63	252.94
252.863	245.94
253.096	258.94
253.329	239.94
253.562	250.94
253.795	277.94
254.028	310.94
254.261	325.94
254.494	282.94
254.727	269.94
254.96	258.94
255.193	252.94
255.426	255.94
255.659	194.94
255.892	197.94
256.124	214.94
256.357	257.94
256.59	280.94
256.823	276.94
257.056	239.94
257.289	220.94
257.521	235.94
257.754	287.94
257.987	302.94
258.22	251.94
258.452	240.94
258.685	257.94
258.918	298.94
259.151	282.94
259.383	310.94
259.616	357.94
259.849	365.94
260.081	371.94
260.314	413.94
260.547	353.94
260.779	349.94
261.012	386.94
261.244	369.94
261.477	363.94
261.71	347.94
261.942	282.94
262.175	299.94
262.407	277.94
262.64	274.94
262.872	327.94
263.105	363.94
263.337	391.94
263.57	356.94
263.802	258.94
264.035	228.94
264.267	201.94
264.499	207.94
264.732	176.94
264.964	179.94
265.197	167.94
265.429	218.94
265.661	197.94
265.894	208.94
266.126	217.94
266.358	256.94
266.591	292.94
266.823	337.94
267.055	340.94
267.287	292.94
267.52	286.94
267.752	296.94
267.984	341.94
268.216	307.94
268.448	277.94
268.681	275.94
268.913	275.94
269.145	308.94
269.377	309.94
269.609	310.94
269.841	269.94
270.073	307.94
270.306	320.94
270.538	319.94
270.77	350.94
271.002	310.94
271.234	344.94
271.466	331.94
271.698	335.94
271.93	331.94
272.162	301.94
272.394	317.94
272.626	303.94
272.858	316.94
273.09	311.94
273.322	286.94
273.553	264.94
273.785	337.94
274.017	396.94
274.249	497.94
274.481	506.94
274.713	577.94
274.945	643.94
275.176	657.94
275.408	605.94
275.64	541.94
275.872	564.94
276.104	466.94
276.335	403.94
276.567	414.94
276.799	420.94
277.031	443.94
277.262	343.94
277.494	291.94
277.726	263.94
277.957	299.94
278.189	338.94
278.421	322.94
278.652	313.94
278.884	300.94
279.115	285.94
279.347	263.94
279.579	275.94
279.81	285.94
280.042	275.94
280.273	279.94
280.505	259.94
280.736	222.94
280.968	235.94
281.199	258.94
281.431	285.94
281.662	297.94
281.894	271.94
282.125	269.94
282.356	283.94
282.588	313.94
282.819	264.94
283.051	301.94
283.282	368.94
283.513	411.94
283.745	453.94
283.976	450.94
284.207	410.94
284.439	433.94
284.67	404.94
284.901	365.94
285.132	406.94
285.364	435.94
285.595	389.94
285.826	427.94
286.057	425.94
286.288	421.94
286.52	405.94
286.751	450.94
286.982	449.94
287.213	399.94
287.444	373.94
287.675	382.94
287.906	394.94
288.138	338.94
288.369	308.94
288.6	289.94
288.831	295.94
289.062	362.94
289.293	385.94
289.524	342.94
289.755	338.94
289.986	361.94
290.217	328.94
290.448	251.94
290.679	222.94
290.91	202.94
291.141	226.94
291.371	245.94
291.602	241.94
291.833	225.94
292.064	239.94
292.295	282.94
292.526	295.94
292.757	311.94
292.987	361.94
293.218	330.94
293.449	367.94
293.68	382.94
293.91	363.94
294.141	378.94
294.372	366.94
294.603	315.94
294.833	359.94
295.064	408.94
295.295	392.94
295.525	300.94
295.756	259.94
295.987	225.94
296.217	238.94
296.448	223.94
296.679	234.94
296.909	271.94
297.14	270.94
297.37	321.94
297.601	324.94
297.831	269.94
298.062	285.94
298.292	299.94
298.523	346.94
298.753	370.94
298.984	338.94
299.214	299.94
299.445	251.94
299.675	254.94
299.905	231.94
300.136	225.94
300.366	248.94
300.597	261.94
300.827	252.94
301.057	217.94
301.288	229.94
301.518	242.94
301.748	286.94
301.979	287.94
302.209	322.94
302.439	301.94
302.669	301.94
302.9	261.94
303.13	260.94
303.36	267.94
303.59	253.94
303.82	250.94
304.051	269.94
304.281	299.94
304.511	279.94
304.741	254.94
304.971	260.94
305.201	274.94
305.431	257.94
305.661	223.94
305.891	225.94
306.121	226.94
306.352	209.94
306.582	204.94
306.812	181.94
307.042	210.94
307.272	193.94
307.502	203.94
307.731	199.94
307.961	226.94
308.191	198.94
308.421	189.94
308.651	191.94
308.881	190.94
309.111	187.94
309.341	184.94
309.571	222.94
309.8	211.94
310.03	224.94
310.26	225.94
310.49	225.94
310.72	206.94
310.949	205.94
311.179	218.94
311.409	219.94
311.639	228.94
311.868	297.94
312.098	379.94
312.328	387.94
312.557	390.94
312.787	400.94
313.017	358.94
313.246	373.94
313.476	401.94
313.706	307.94
313.935	276.94
314.165	251.94
314.394	230.94
314.624	222.94
314.853	219.94
315.083	234.94
315.312	220.94
315.542	218.94
315.771	221.94
316.001	187.94
316.23	212.94
316.46	183.94
316.689	197.94
316.919	210.94
317.148	209.94
317.377	212.94
317.607	204.94
317.836	211.94
318.065	254.94
318.295	263.94
318.524	240.94
318.753	209.94
318.983	222.94
319.212	214.94
319.441	218.94
319.67	217.94
319.9	265.94
320.129	249.94
320.358	225.94
320.587	205.94
320.816	214.94
321.046	229.94
321.275	271.94
321.504	263.94
321.733	272.94
321.962	257.94
322.191	242.94
322.42	217.94
322.649	226.94
322.878	240.94
323.108	248.94
323.337	238.94
323.566	250.94
323.795	224.94
324.024	225.94
324.253	219.94
324.482	214.94
324.71	245.94
324.939	251.94
325.168	246.94
325.397	215.94
325.626	208.94
325.855	215.94
326.084	224.94
326.313	215.94
326.542	217.94
326.77	212.94
326.999	202.94
327.228	223.94
327.457	228.94
327.686	239.94
327.914	201.94
328.143	200.94
328.372	186.94
328.6	193.94
328.829	193.94
329.058	205.94
329.287	213.94
329.515	207.94
329.744	197.94
329.972	178.94
330.201	193.94
330.43	196.94
330.658	219.94
330.887	229.94
331.115	236.94
331.344	224.94
331.572	223.94
331.801	214.94
332.03	215.94
332.258	225.94
332.486	218.94
332.715	227.94
332.943	208.94
333.172	230.94
333.4	231.94
333.629	241.94
333.857	269.94
334.085	244.94
334.314	237.94
334.542	249.94
334.771	229.94
334.999	211.94
335.227	221.94
335.455	214.94
335.684	241.94
335.912	281.94
336.14	294.94
336.369	263.94
336.597	279.94
336.825	285.94
337.053	325.94
337.281	277.94
337.51	229.94
337.738	225.94
337.966	231.94
338.194	267.94
338.422	245.94
338.65	226.94
338.878	203.94
339.106	222.94
339.334	225.94
339.562	226.94
339.79	226.94
340.018	211.94
340.246	233.94
340.474	251.94
340.702	255.94
340.93	263.94
341.158	285.94
341.386	241.94
341.614	237.94
341.842	235.94
342.07	241.94
342.298	257.94
342.526	312.94
342.754	251.94
342.981	214.94
343.209	227.94
343.437	247.94
343.665	262.94
343.893	279.94
344.12	311.94
344.348	366.94
344.576	305.94
344.804	259.94
345.031	229.94
345.259	215.94
345.487	220.94
345.714	222.94
345.942	235.94
346.17	264.94
346.397	237.94
346.625	225.94
346.853	232.94
347.08	205.94
347.308	227.94
347.535	253.94
347.763	263.94
347.99	249.94
348.218	215.94
348.445	227.94
348.673	241.94
348.9	218.94
349.128	229.94
349.355	231.94
349.583	239.94
349.81	230.94
350.037	212.94
350.265	191.94
350.492	187.94
350.72	172.94
350.947	201.94
351.174	207.94
351.402	211.94
351.629	206.94
351.856	207.94
352.083	205.94
352.311	206.94
352.538	217.94
352.765	239.94
352.992	216.94
353.22	218.94
353.447	218.94
353.674	216.94
353.901	217.94
354.128	218.94
354.355	217.94
354.583	215.94
354.81	217.94
355.037	236.94
355.264	221.94
355.491	206.94
355.718	242.94
355.945	249.94
356.172	237.94
356.399	241.94
356.626	272.94
356.853	298.94
357.08	327.94
357.307	350.94
357.534	280.94
357.761	296.94
357.988	372.94
358.215	403.94
358.441	374.94
358.668	329.94
358.895	294.94
359.122	244.94
359.349	250.94
359.576	299.94
359.802	231.94
360.029	225.94
360.256	225.94
360.483	280.94
360.709	345.94
360.936	333.94
361.163	289.94
361.39	253.94
361.616	241.94
361.843	257.94
362.07	291.94
362.296	268.94
362.523	228.94
362.749	185.94
362.976	202.94
363.203	243.94
363.429	276.94
363.656	248.94
363.882	209.94
364.109	217.94
364.335	215.94
364.562	224.94
364.788	236.94
365.015	259.94
365.241	237.94
365.468	204.94
365.694	201.94
365.92	188.94
366.147	196.94
366.373	193.94
366.599	181.94
366.826	183.94
367.052	199.94
367.278	193.94
367.505	187.94
367.731	217.94
367.957	224.94
368.184	225.94
368.41	222.94
368.636	220.94
368.862	221.94
369.089	225.94
369.315	201.94
369.541	217.94
369.767	187.94
369.993	181.94
370.219	197.94
370.445	211.94
370.672	240.94
370.898	255.94
371.124	237.94
371.35	231.94
371.576	219.94
371.802	226.94
372.028	241.94
372.254	293.94
372.48	257.94
372.706	222.94
372.932	237.94
373.158	242.94
373.384	263.94
373.61	369.94
373.835	375.94
374.061	305.94
374.287	244.94
374.513	300.94
374.739	353.94
374.965	354.94
375.191	358.94
375.416	271.94
375.642	230.94
375.868	259.94
376.094	289.94
376.319	245.94
376.545	270.94
376.771	293.94
376.997	252.94
377.222	211.94
377.448	185.94
377.674	183.94
377.899	198.94
378.125	201.94
378.35	199.94
378.576	182.94
378.802	190.94
379.027	209.94
379.253	206.94
379.478	216.94
379.704	228.94
379.929	238.94
380.155	247.94
380.38	217.94
380.606	218.94
380.831	232.94
381.057	220.94
381.282	239.94
381.507	265.94
381.733	277.94
381.958	301.94
382.184	320.94
382.409	353.94
382.634	353.94
382.86	362.94
383.085	303.94
383.31	267.94
383.535	269.94
383.761	262.94
383.986	233.94
384.211	312.94
384.436	294.94
384.662	228.94
384.887	235.94
385.112	251.94
385.337	236.94
385.562	227.94
385.787	260.94
386.013	277.94
386.238	271.94
386.463	254.94
386.688	234.94
386.913	219.94
387.138	194.94
387.363	230.94
387.588	230.94
387.813	222.94
388.038	257.94
388.263	218.94
388.488	230.94
388.713	255.94
388.938	277.94
389.163	235.94
389.387	203.94
389.612	212.94
389.837	226.94
390.062	206.94
390.287	221.94
390.512	228.94
390.736	220.94
390.961	221.94
391.186	215.94
391.411	198.94
391.636	193.94
391.86	217.94
392.085	251.94
392.31	235.94
392.534	228.94
392.759	215.94
392.984	230.94
393.208	224.94
393.433	220.94
393.658	196.94
393.882	197.94
394.107	187.94
394.331	202.94
394.556	199.94
394.78	224.94
395.005	192.94
395.229	213.94
395.454	213.94
395.678	214.94
395.903	203.94
396.127	217.94
396.352	221.94
396.576	224.94
396.801	226.94
397.025	249.94
397.249	261.94
397.474	229.94
397.698	217.94
397.922	233.94
398.147	220.94
398.371	206.94
398.595	242.94
398.82	237.94
399.044	242.94
399.268	239.94
399.492	265.94
399.717	290.94
399.941	285.94
400.165	252.94
400.389	253.94
400.613	237.94
400.837	249.94
401.062	229.94
401.286	217.94
401.51	226.94
401.734	219.94
401.958	227.94
402.182	221.94
402.406	222.94
402.63	226.94
402.854	256.94
403.078	278.94
403.302	359.94
403.526	377.94
403.75	331.94
403.974	275.94
404.198	278.94
404.422	306.94
404.645	317.94
404.869	347.94
405.093	284.94
405.317	246.94
405.541	240.94
405.765	253.94
405.988	263.94
406.212	267.94
406.436	307.94
406.66	330.94
406.883	262.94
407.107	282.94
407.331	311.94
407.555	308.94
407.778	276.94
408.002	279.94
408.226	274.94
408.449	270.94
408.673	257.94
408.896	245.94
409.12	222.94
409.344	237.94
409.567	235.94
409.791	249.94
410.014	245.94
410.238	240.94
410.461	235.94
410.685	246.94
410.908	239.94
411.132	231.94
411.355	238.94
411.578	246.94
411.802	225.94
412.025	234.94
412.249	239.94
412.472	230.94
412.695	243.94
412.919	242.94
413.142	230.94
413.365	253.94
413.589	249.94
413.812	226.94
414.035	233.94
414.258	216.94
414.482	261.94
414.705	253.94
414.928	225.94
415.151	217.94
415.374	210.94
415.597	241.94
415.821	205.94
416.044	223.94
416.267	214.94
416.49	227.94
416.713	215.94
416.936	204.94
417.159	228.94
417.382	234.94
417.605	217.94
417.828	238.94
418.051	236.94
418.274	230.94
418.497	239.94
418.72	230.94
418.943	225.94
419.166	242.94
419.389	257.94
419.611	240.94
419.834	226.94
420.057	258.94
420.28	261.94
420.503	245.94
420.726	209.94
420.948	233.94
421.171	216.94
421.394	218.94
421.617	205.94
421.839	219.94
422.062	240.94
422.285	233.94
422.507	233.94
422.73	233.94
422.953	234.94
423.175	229.94
423.398	241.94
423.621	264.94
423.843	240.94
424.066	257.94
424.288	225.94
424.511	275.94
424.733	221.94
424.956	233.94
425.178	263.94
425.401	272.94
425.623	350.94
425.846	297.94
426.068	233.94
426.291	271.94
426.513	251.94
426.735	240.94
426.958	242.94
427.18	273.94
427.402	327.94
427.625	346.94
427.847	282.94
428.069	216.94
428.292	213.94
428.514	235.94
428.736	227.94
428.958	239.94
429.181	303.94
429.403	238.94
429.625	222.94
429.847	226.94
430.069	221.94
430.292	206.94
430.514	212.94
430.736	233.94
430.958	265.94
431.18	260.94
431.402	197.94
431.624	200.94
431.846	191.94
432.068	217.94
432.29	213.94
432.512	240.94
432.734	273.94
432.956	270.94
433.178	220.94
433.4	217.94
433.622	215.94
433.844	223.94
434.066	234.94
434.287	246.94
434.509	225.94
434.731	263.94
434.953	244.94
435.175	257.94
435.397	276.94
435.618	240.94
435.84	234.94
436.062	202.94
436.284	215.94
436.505	201.94
436.727	220.94
436.949	204.94
437.17	231.94
437.392	214.94
437.614	217.94
437.835	223.94
438.057	210.94
438.278	227.94
438.5	287.94
438.721	298.94
438.943	237.94
439.165	209.94
439.386	223.94
439.608	207.94
439.829	198.94
440.05	214.94
440.272	222.94
440.493	227.94
440.715	282.94
440.936	245.94
441.158	218.94
441.379	222.94
441.6	235.94
441.822	246.94
442.043	236.94
442.264	228.94
442.486	232.94
442.707	219.94
442.928	223.94
443.149	225.94
443.371	236.94
443.592	232.94
443.813	251.94
444.034	244.94
444.255	234.94
444.476	253.94
444.698	252.94
444.919	254.94
445.14	351.94
445.361	282.94
445.582	262.94
445.803	236.94
446.024	243.94
446.245	245.94
446.466	227.94
446.687	225.94
446.908	235.94
447.129	199.94
447.35	215.94
447.571	192.94
447.792	202.94
448.013	199.94
448.234	214.94
448.455	203.94
448.675	206.94
448.896	211.94
449.117	210.94
449.338	226.94
449.559	209.94
449.779	238.94
450	233.94
450.221	226.94
450.442	217.94
450.662	191.94
450.883	202.94
451.104	210.94
451.324	208.94
451.545	224.94
451.766	233.94
451.986	207.94
452.207	198.94
452.428	204.94
452.648	199.94
452.869	227.94
453.089	238.94
453.31	224.94
453.53	174.94
453.751	201.94
453.971	201.94
454.192	203.94
454.412	217.94
454.633	190.94
454.853	189.94
455.073	184.94
455.294	202.94
455.514	197.94
455.734	213.94
455.955	230.94
456.175	205.94
456.395	214.94
456.616	205.94
456.836	197.94
457.056	203.94
457.276	188.94
457.497	189.94
457.717	190.94
457.937	205.94
458.157	199.94
458.377	181.94
458.598	195.94
458.818	192.94
459.038	207.94
459.258	219.94
459.478	226.94
459.698	234.94
459.918	218.94
460.138	196.94
460.358	221.94
460.578	249.94
460.798	234.94
461.018	219.94
461.238	227.94
461.458	215.94
461.678	231.94
461.898	262.94
462.118	236.94
462.338	255.94
462.558	246.94
462.777	263.94
462.997	258.94
463.217	287.94
463.437	277.94
463.657	277.94
463.876	270.94
464.096	256.94
464.316	253.94
464.536	272.94
464.755	258.94
464.975	259.94
465.195	251.94
465.414	263.94
465.634	246.94
465.854	240.94
466.073	204.94
466.293	220.94
466.512	226.94
466.732	244.94
466.951	255.94
467.171	244.94
467.391	220.94
467.61	212.94
467.829	241.94
468.049	218.94
468.268	206.94
468.488	214.94
468.707	228.94
468.927	256.94
469.146	279.94
469.365	250.94
469.585	234.94
469.804	257.94
470.023	275.94
470.243	239.94
470.462	234.94
470.681	217.94
470.901	214.94
471.12	242.94
471.339	247.94
471.558	230.94
471.777	225.94
471.997	239.94
472.216	265.94
472.435	264.94
472.654	231.94
472.873	231.94
473.092	239.94
473.311	265.94
473.53	228.94
473.749	229.94
473.968	244.94
474.187	233.94
474.406	224.94
474.625	233.94
474.844	224.94
475.063	231.94
475.282	253.94
475.501	246.94
475.72	273.94
475.939	261.94
476.158	251.94
476.377	273.94
476.596	339.94
476.814	353.94
477.033	303.94
477.252	257.94
477.471	241.94
477.69	226.94
477.908	260.94
478.127	271.94
478.346	252.94
478.564	283.94
478.783	270.94
479.002	274.94
479.22	318.94
479.439	329.94
479.658	295.94
479.876	289.94
480.095	288.94
480.313	297.94
480.532	273.94
480.751	277.94
480.969	268.94
481.188	309.94
481.406	303.94
481.624	280.94
481.843	259.94
482.061	268.94
482.28	286.94
482.498	337.94
482.717	326.94
482.935	284.94
483.153	260.94
483.372	252.94
483.59	256.94
483.808	248.94
484.027	242.94
484.245	251.94
484.463	262.94
484.681	249.94
484.9	275.94
485.118	305.94
485.336	276.94
485.554	262.94
485.772	278.94
485.99	276.94
486.209	302.94
486.427	283.94
486.645	253.94
486.863	288.94
487.081	285.94
487.299	316.94
487.517	290.94
487.735	271.94
487.953	299.94
488.171	306.94
488.389	267.94
488.607	251.94
488.825	276.94
489.043	284.94
489.261	317.94
489.479	353.94
489.696	295.94
489.914	269.94
490.132	269.94
490.35	271.94
490.568	253.94
490.786	260.94
491.003	257.94
491.221	283.94
491.439	253.94
491.657	265.94
491.874	281.94
492.092	317.94
492.31	353.94
492.527	347.94
492.745	318.94
492.963	297.94
493.18	282.94
493.398	305.94
493.615	293.94
493.833	284.94
494.05	285.94
494.268	274.94
494.485	264.94
494.703	274.94
494.92	299.94
495.138	273.94
495.355	279.94
495.573	292.94
495.79	285.94
496.008	363.94
496.225	325.94
496.442	303.94
496.66	315.94
496.877	298.94
497.094	297.94
497.312	285.94
497.529	282.94
497.746	285.94
497.963	302.94
498.181	355.94
498.398	365.94
498.615	345.94
498.832	391.94
499.049	397.94
499.267	370.94
499.484	373.94
499.701	420.94
499.918	449.94
500.135	493.94
500.352	503.94
500.569	525.94
500.786	558.94
501.003	519.94
501.22	459.94
501.437	434.94
501.654	393.94
501.871	388.94
502.088	371.94
502.305	347.94
502.522	338.94
