Data from NickelSpatula_HRD10591_16-36-38-126.txt Node
Date: Mon Jul 22 16:36:38 EDT 2019
User: cochatt
Spectrometer: HR+D1059
Trigger mode: 1
Integration Time (sec): 1.000000E-1
Scans to average: 1
Electric dark correction enabled: true
Nonlinearity correction enabled: false
Boxcar width: 0
XAxis mode: Wavelengths
Number of Pixels in Spectrum: 2048
>>>>>Begin Spectral Data<<<<<
223.165	7
223.4	7
223.635	7
223.869	-17
224.104	-26
224.338	-8
224.573	-17
224.808	-29
225.042	-6
225.277	8
225.511	-11
225.746	-10
225.98	11
226.215	9
226.449	9
226.683	12
226.918	22
227.152	46
227.387	33
227.621	25
227.856	37
228.09	44
228.324	44
228.559	52
228.793	67
229.027	56
229.262	67
229.496	67
229.73	63
229.964	79
230.199	81
230.433	84
230.667	74
230.901	71
231.136	94
231.37	90
231.604	81
231.838	94
232.072	80
232.306	94
232.541	97
232.775	79
233.009	96
233.243	77
233.477	100
233.711	90
233.945	88
234.179	100
234.413	99
234.647	98
234.881	100
235.115	94
235.349	78
235.583	95
235.817	94
236.051	84
236.285	96
236.519	95
236.753	89
236.987	84
237.221	98
237.455	88
237.689	88
237.922	110
238.156	103
238.39	91
238.624	108
238.858	96
239.091	111
239.325	108
239.559	86
239.793	98
240.027	98
240.26	99
240.494	101
240.728	89
240.961	107
241.195	93
241.429	102
241.662	84
241.896	88
242.13	100
242.363	82
242.597	84
242.83	111
243.064	76
243.298	86
243.531	86
243.765	103
243.998	104
244.232	99
244.465	94
244.699	82
244.932	91
245.166	95
245.399	114
245.633	90
245.866	103
246.099	94
246.333	89
246.566	99
246.8	110
247.033	101
247.266	105
247.5	102
247.733	100
247.966	113
248.2	88
248.433	114
248.666	104
248.899	99
249.133	107
249.366	127
249.599	124
249.832	107
250.066	117
250.299	105
250.532	116
250.765	105
250.998	97
251.231	108
251.465	117
251.698	106
251.931	111
252.164	122
252.397	116
252.63	112
252.863	113
253.096	113
253.329	107
253.562	126
253.795	139
254.028	132
254.261	113
254.494	121
254.727	118
254.96	124
255.193	127
255.426	128
255.659	110
255.892	119
256.124	113
256.357	131
256.59	117
256.823	115
257.056	113
257.289	112
257.521	111
257.754	123
257.987	123
258.22	114
258.452	120
258.685	117
258.918	122
259.151	115
259.383	128
259.616	142
259.849	134
260.081	147
260.314	149
260.547	147
260.779	140
261.012	138
261.244	151
261.477	147
261.71	142
261.942	134
262.175	127
262.407	134
262.64	134
262.872	139
263.105	140
263.337	136
263.57	126
263.802	116
264.035	110
264.267	91
264.499	97
264.732	110
264.964	99
265.197	94
265.429	103
265.661	99
265.894	104
266.126	117
266.358	122
266.591	116
266.823	133
267.055	129
267.287	104
267.52	128
267.752	136
267.984	139
268.216	126
268.448	124
268.681	128
268.913	145
269.145	130
269.377	133
269.609	124
269.841	119
270.073	112
270.306	134
270.538	136
270.77	127
271.002	128
271.234	137
271.466	142
271.698	135
271.93	127
272.162	123
272.394	140
272.626	137
272.858	142
273.09	134
273.322	140
273.553	128
273.785	138
274.017	146
274.249	183
274.481	182
274.713	193
274.945	208
275.176	201
275.408	187
275.64	187
275.872	176
276.104	167
276.335	159
276.567	158
276.799	154
277.031	143
277.262	128
277.494	117
277.726	126
277.957	130
278.189	148
278.421	124
278.652	137
278.884	123
279.115	128
279.347	130
279.579	119
279.81	135
280.042	127
280.273	142
280.505	126
280.736	128
280.968	114
281.199	128
281.431	118
281.662	126
281.894	137
282.125	143
282.356	123
282.588	103
282.819	125
283.051	125
283.282	154
283.513	161
283.745	165
283.976	154
284.207	175
284.439	185
284.67	167
284.901	151
285.132	156
285.364	140
285.595	151
285.826	164
286.057	152
286.288	152
286.52	159
286.751	138
286.982	154
287.213	148
287.444	147
287.675	170
287.906	163
288.138	138
288.369	132
288.6	131
288.831	134
289.062	140
289.293	163
289.524	130
289.755	121
289.986	127
290.217	123
290.448	130
290.679	123
290.91	114
291.141	114
291.371	116
291.602	126
291.833	123
292.064	114
292.295	125
292.526	122
292.757	119
292.987	133
293.218	138
293.449	143
293.68	138
293.91	130
294.141	140
294.372	137
294.603	128
294.833	130
295.064	144
295.295	122
295.525	116
295.756	111
295.987	118
296.217	107
296.448	107
296.679	122
296.909	122
297.14	140
297.37	123
297.601	112
297.831	132
298.062	144
298.292	128
298.523	148
298.753	134
298.984	132
299.214	125
299.445	114
299.675	115
299.905	122
300.136	113
300.366	132
300.597	106
300.827	116
301.057	116
301.288	111
301.518	118
301.748	118
301.979	129
302.209	124
302.439	146
302.669	106
302.9	116
303.13	140
303.36	126
303.59	110
303.82	122
304.051	124
304.281	119
304.511	123
304.741	111
304.971	111
305.201	123
305.431	128
305.661	122
305.891	120
306.121	105
306.352	112
306.582	105
306.812	106
307.042	118
307.272	107
307.502	96
307.731	102
307.961	107
308.191	110
308.421	97
308.651	105
308.881	106
309.111	102
309.341	114
309.571	100
309.8	119
310.03	112
310.26	119
310.49	107
310.72	113
310.949	107
311.179	103
311.409	103
311.639	123
311.868	123
312.098	147
312.328	156
312.557	160
312.787	160
313.017	139
313.246	136
313.476	122
313.706	135
313.935	126
314.165	123
314.394	106
314.624	117
314.853	115
315.083	91
315.312	106
315.542	110
315.771	121
316.001	97
316.23	111
316.46	102
316.689	93
316.919	111
317.148	102
317.377	110
317.607	112
317.836	98
318.065	125
318.295	134
318.524	100
318.753	108
318.983	119
319.212	111
319.441	110
319.67	108
319.9	110
320.129	104
320.358	124
320.587	96
320.816	110
321.046	123
321.275	132
321.504	124
321.733	110
321.962	110
322.191	110
322.42	106
322.649	107
322.878	126
323.108	107
323.337	112
323.566	112
323.795	110
324.024	121
324.253	120
324.482	119
324.71	114
324.939	115
325.168	100
325.397	120
325.626	103
325.855	104
326.084	97
326.313	100
326.542	113
326.77	114
326.999	108
327.228	105
327.457	116
327.686	106
327.914	124
328.143	92
328.372	100
328.6	102
328.829	118
329.058	104
329.287	120
329.515	113
329.744	98
329.972	102
330.201	127
330.43	108
330.658	119
330.887	105
331.115	112
331.344	113
331.572	105
331.801	114
332.03	95
332.258	115
332.486	101
332.715	101
332.943	104
333.172	111
333.4	106
333.629	112
333.857	114
334.085	118
334.314	113
334.542	117
334.771	121
334.999	117
335.227	111
335.455	111
335.684	111
335.912	124
336.14	113
336.369	127
336.597	115
336.825	129
337.053	128
337.281	124
337.51	120
337.738	112
337.966	111
338.194	114
338.422	111
338.65	113
338.878	94
339.106	112
339.334	114
339.562	121
339.79	112
340.018	121
340.246	121
340.474	129
340.702	138
340.93	127
341.158	112
341.386	110
341.614	113
341.842	114
342.07	119
342.298	118
342.526	126
342.754	116
342.981	91
343.209	110
343.437	112
343.665	114
343.893	101
344.12	128
344.348	119
344.576	120
344.804	119
345.031	113
345.259	118
345.487	105
345.714	105
345.942	120
346.17	121
346.397	118
346.625	97
346.853	113
347.08	110
347.308	111
347.535	112
347.763	116
347.99	112
348.218	119
348.445	106
348.673	100
348.9	121
349.128	124
349.355	115
349.583	121
349.81	95
350.037	91
350.265	102
350.492	94
350.72	104
350.947	107
351.174	110
351.402	100
351.629	94
351.856	107
352.083	106
352.311	111
352.538	103
352.765	113
352.992	119
353.22	117
353.447	103
353.674	107
353.901	89
354.128	101
354.355	98
354.583	109
354.81	123
355.037	120
355.264	132
355.491	120
355.718	114
355.945	92
356.172	107
356.399	107
356.626	113
356.853	122
357.08	139
357.307	127
357.534	115
357.761	119
357.988	147
358.215	159
358.441	146
358.668	128
358.895	125
359.122	121
359.349	115
359.576	136
359.802	120
360.029	102
360.256	114
360.483	134
360.709	124
360.936	134
361.163	130
361.39	98
361.616	99
361.843	126
362.07	119
362.296	123
362.523	119
362.749	103
362.976	112
363.203	132
363.429	130
363.656	127
363.882	124
364.109	105
364.335	107
364.562	115
364.788	112
365.015	121
365.241	122
365.468	105
365.694	103
365.92	108
366.147	110
366.373	111
366.599	111
366.826	102
367.052	114
367.278	111
367.505	105
367.731	112
367.957	114
368.184	105
368.41	108
368.636	98
368.862	100
369.089	108
369.315	108
369.541	121
369.767	106
369.993	108
370.219	96
370.445	113
370.672	117
370.898	121
371.124	115
371.35	106
371.576	99
371.802	99
372.028	105
372.254	111
372.48	125
372.706	111
372.932	117
373.158	130
373.384	131
373.61	144
373.835	128
374.061	110
374.287	123
374.513	132
374.739	131
374.965	138
375.191	120
375.416	129
375.642	122
375.868	126
376.094	114
376.319	114
376.545	120
376.771	111
376.997	113
377.222	110
377.448	114
377.674	105
377.899	110
378.125	88
378.35	108
378.576	94
378.802	104
379.027	120
379.253	122
379.478	99
379.704	116
379.929	124
380.155	121
380.38	132
380.606	106
380.831	118
381.057	126
381.282	112
381.507	102
381.733	121
381.958	139
382.184	130
382.409	131
382.634	144
382.86	147
383.085	130
383.31	123
383.535	123
383.761	130
383.986	120
384.211	123
384.436	116
384.662	117
384.887	119
385.112	115
385.337	94
385.562	104
385.787	123
386.013	121
386.238	121
386.463	119
386.688	112
386.913	108
387.138	110
387.363	102
387.588	112
387.813	118
388.038	114
388.263	102
388.488	108
388.713	112
388.938	127
389.163	107
389.387	114
389.612	111
389.837	123
390.062	104
390.287	97
390.512	104
390.736	110
390.961	117
391.186	101
391.411	115
391.636	105
391.86	122
392.085	100
392.31	114
392.534	110
392.759	121
392.984	132
393.208	140
393.433	177
393.658	147
393.882	125
394.107	113
394.331	104
394.556	108
394.78	125
395.005	121
395.229	115
395.454	118
395.678	116
395.903	122
396.127	110
396.352	114
396.576	117
396.801	143
397.025	146
397.249	142
397.474	113
397.698	121
397.922	115
398.147	106
398.371	103
398.595	106
398.82	107
399.044	108
399.268	120
399.492	128
399.717	118
399.941	121
400.165	127
400.389	111
400.613	117
400.837	118
401.062	110
401.286	106
401.51	108
401.734	112
401.958	124
402.182	124
402.406	115
402.63	105
402.854	110
403.078	116
403.302	120
403.526	132
403.75	121
403.974	118
404.198	121
404.422	129
404.645	126
404.869	116
405.093	105
405.317	122
405.541	126
405.765	122
405.988	112
406.212	122
406.436	131
406.66	122
406.883	110
407.107	121
407.331	133
407.555	124
407.778	121
408.002	126
408.226	112
408.449	119
408.673	115
408.896	111
409.12	112
409.344	104
409.567	110
409.791	107
410.014	116
410.238	116
410.461	91
410.685	108
410.908	111
411.132	113
411.355	118
411.578	112
411.802	111
412.025	113
412.249	128
412.472	112
412.695	121
412.919	103
413.142	116
413.365	130
413.589	120
413.812	124
414.035	120
414.258	126
414.482	120
414.705	126
414.928	110
415.151	90
415.374	110
415.597	104
415.821	118
416.044	94
416.267	108
416.49	111
416.713	106
416.936	117
417.159	110
417.382	104
417.605	105
417.828	113
418.051	115
418.274	106
418.497	119
418.72	121
418.943	120
419.166	107
419.389	126
419.611	114
419.834	114
420.057	118
420.28	130
420.503	107
420.726	100
420.948	100
421.171	118
421.394	96
421.617	110
421.839	118
422.062	123
422.285	109
422.507	118
422.73	115
422.953	121
423.175	125
423.398	112
423.621	122
423.843	113
424.066	120
424.288	109
424.511	113
424.733	104
424.956	121
425.178	139
425.401	122
425.623	118
425.846	119
426.068	101
426.291	126
426.513	107
426.735	110
426.958	124
427.18	127
427.402	128
427.625	121
427.847	123
428.069	96
428.292	126
428.514	121
428.736	122
428.958	122
429.181	123
429.403	120
429.625	119
429.847	110
430.069	114
430.292	117
430.514	115
430.736	128
430.958	136
431.18	115
431.402	120
431.624	105
431.846	95
432.068	102
432.29	114
432.512	108
432.734	114
432.956	120
433.178	107
433.4	105
433.622	116
433.844	100
434.066	123
434.287	124
434.509	114
434.731	104
434.953	110
435.175	110
435.397	127
435.618	129
435.84	107
436.062	88
436.284	111
436.505	119
436.727	99
436.949	104
437.17	115
437.392	104
437.614	105
437.835	96
438.057	110
438.278	126
438.5	127
438.721	130
438.943	119
439.165	109
439.386	98
439.608	94
439.829	107
440.05	95
440.272	108
440.493	130
440.715	129
440.936	126
441.158	113
441.379	106
441.6	120
441.822	122
442.043	98
442.264	126
442.486	116
442.707	103
442.928	114
443.149	118
443.371	96
443.592	114
443.813	126
444.034	116
444.255	138
444.476	97
444.698	116
444.919	113
445.14	225
445.361	160
445.582	122
445.803	119
446.024	125
446.245	119
446.466	113
446.687	107
446.908	111
447.129	107
447.35	110
447.571	92
447.792	110
448.013	97
448.234	103
448.455	123
448.675	102
448.896	116
449.117	117
449.338	107
449.559	116
449.779	110
450	106
450.221	114
450.442	118
450.662	122
450.883	103
451.104	115
451.324	103
451.545	111
451.766	106
451.986	106
452.207	94
452.428	105
452.648	112
452.869	110
453.089	111
453.31	108
453.53	106
453.751	115
453.971	106
454.192	98
454.412	107
454.633	98
454.853	89
455.073	95
455.294	100
455.514	106
455.734	110
455.955	110
456.175	97
456.395	121
456.616	104
456.836	92
457.056	96
457.276	119
457.497	101
457.717	108
457.937	103
458.157	93
458.377	118
458.598	103
458.818	102
459.038	114
459.258	112
459.478	105
459.698	117
459.918	116
460.138	91
460.358	116
460.578	120
460.798	113
461.018	106
461.238	119
461.458	100
461.678	121
461.898	127
462.118	105
462.338	124
462.558	127
462.777	122
462.997	123
463.217	112
463.437	117
463.657	92
463.876	105
464.096	119
464.316	116
464.536	116
464.755	118
464.975	113
465.195	116
465.414	110
465.634	116
465.854	114
466.073	96
466.293	123
466.512	106
466.732	118
466.951	132
467.171	110
467.391	106
467.61	107
467.829	101
468.049	127
468.268	107
468.488	119
468.707	119
468.927	116
469.146	116
469.365	115
469.585	112
469.804	123
470.023	122
470.243	124
470.462	115
470.681	109
470.901	124
471.12	114
471.339	102
471.558	108
471.777	123
471.997	133
472.216	131
472.435	106
472.654	121
472.873	121
473.092	124
473.311	120
473.53	119
473.749	120
473.968	118
474.187	125
474.406	118
474.625	109
474.844	126
475.063	128
475.282	126
475.501	112
475.72	124
475.939	107
476.158	112
476.377	133
476.596	136
476.814	139
477.033	118
477.252	121
477.471	118
477.69	115
477.908	127
478.127	127
478.346	131
478.564	122
478.783	122
479.002	122
479.22	138
479.439	138
479.658	125
479.876	115
480.095	122
480.313	130
480.532	124
480.751	110
480.969	123
481.188	129
481.406	136
481.624	125
481.843	115
482.061	124
482.28	130
482.498	138
482.717	141
482.935	126
483.153	125
483.372	122
483.59	136
483.808	120
484.027	111
484.245	121
484.463	114
484.681	125
484.9	128
485.118	126
485.336	129
485.554	115
485.772	103
485.99	126
486.209	130
486.427	124
486.645	138
486.863	121
487.081	126
487.299	130
487.517	128
487.735	137
487.953	136
488.171	128
488.389	126
488.607	117
488.825	138
489.043	142
489.261	139
489.479	136
489.696	137
489.914	119
490.132	130
490.35	127
490.568	119
490.786	134
491.003	128
491.221	134
491.439	127
491.657	121
491.874	120
492.092	142
492.31	150
492.527	137
492.745	140
492.963	127
493.18	119
493.398	130
493.615	140
493.833	134
494.05	126
494.268	139
494.485	116
494.703	110
494.92	131
495.138	122
495.355	114
495.573	131
495.79	123
496.008	156
496.225	138
496.442	127
496.66	140
496.877	133
497.094	123
497.312	149
497.529	134
497.746	129
497.963	124
498.181	138
498.398	126
498.615	149
498.832	154
499.049	145
499.267	155
499.484	150
499.701	141
499.918	140
500.135	152
500.352	157
500.569	160
500.786	172
501.003	163
501.22	162
501.437	147
501.654	141
501.871	151
502.088	137
502.305	122
502.522	151
502.739	132
502.956	155
503.172	134
503.389	128
503.606	120
503.823	130
504.04	123
504.256	126
504.473	129
504.69	128
504.907	134
505.123	148
505.34	132
505.557	145
505.773	138
505.99	126
506.207	152
506.423	137
506.64	120
506.856	121
507.073	142
507.289	127
507.506	126
507.722	144
507.939	145
508.155	136
508.372	122
508.588	144
508.805	115
509.021	123
509.238	119
509.454	126
509.67	128
509.887	121
510.103	137
510.319	130
510.536	117
510.752	138
510.968	107
511.184	112
511.401	118
511.617	112
511.833	114
512.049	122
512.265	126
512.481	119
512.698	122
512.914	129
513.13	132
513.346	124
513.562	140
513.778	128
513.994	120
514.21	122
514.426	138
514.642	117
514.858	138
515.074	135
515.29	121
515.506	133
515.721	134
515.937	134
516.153	126
516.369	132
516.585	132
516.801	140
517.016	143
517.232	140
517.448	135
517.664	127
517.879	141
518.095	123
518.311	136
518.527	140
518.742	145
518.958	140
519.173	148
519.389	126
519.605	137
519.82	145
520.036	146
520.251	154
520.467	146
520.682	191
520.898	203
521.113	193
521.329	150
521.544	152
521.76	147
521.975	123
522.19	140
522.406	126
522.621	148
522.836	144
523.052	144
523.267	129
523.482	132
523.698	147
523.913	132
524.128	136
524.343	136
524.559	139
524.774	130
524.989	140
525.204	128
525.419	130
525.634	130
525.849	121
526.064	129
526.28	139
526.495	141
526.71	152
526.925	148
527.14	139
527.355	138
527.57	125
527.785	134
527.999	135
528.214	119
528.429	116
528.644	122
528.859	128
529.074	128
529.289	128
529.503	119
529.718	106
529.933	146
530.148	128
530.363	124
530.577	118
530.792	126
531.007	111
531.221	132
531.436	116
531.651	128
531.865	118
532.08	115
532.295	129
532.509	124
532.724	126
532.938	140
533.153	149
533.367	137
533.582	117
533.796	121
534.011	122
534.225	120
534.44	123
534.654	122
534.868	137
535.083	128
535.297	120
535.511	119
535.726	135
535.94	124
536.154	115
536.369	121
536.583	118
536.797	121
537.011	131
537.225	126
537.44	124
537.654	112
537.868	116
538.082	125
538.296	120
538.51	122
538.724	122
538.938	107
539.153	125
539.367	133
539.581	135
539.795	119
540.009	141
540.222	126
540.436	122
540.65	126
540.864	132
541.078	136
541.292	145
541.506	126
541.72	122
541.934	123
542.147	132
542.361	117
542.575	119
542.789	131
543.002	131
543.216	148
543.43	114
543.644	119
543.857	118
544.071	122
544.285	121
544.498	123
544.712	131
544.925	121
545.139	135
545.352	126
545.566	126
545.779	117
545.993	114
546.206	114
546.42	111
546.633	104
546.847	122
547.06	120
547.274	117
547.487	128
547.7	118
547.914	114
548.127	128
548.34	124
548.554	117
548.767	138
548.98	130
549.193	121
549.407	131
549.62	116
549.833	134
550.046	134
550.259	129
550.473	119
550.686	129
550.899	132
551.112	111
551.325	119
551.538	132
551.751	117
551.964	114
552.177	126
552.39	131
552.603	118
552.816	118
553.029	118
553.242	111
553.455	112
553.667	122
553.88	100
554.093	125
554.306	107
554.519	102
554.732	98
554.944	113
555.157	108
555.37	128
555.583	111
555.795	106
556.008	106
556.221	107
556.433	96
556.646	113
556.859	112
557.071	124
557.284	110
557.496	107
557.709	114
557.921	111
558.134	106
558.346	96
558.559	121
558.771	118
558.984	120
559.196	110
559.409	96
559.621	108
559.833	118
560.046	111
560.258	106
560.47	120
560.683	92
560.895	98
561.107	106
561.32	116
561.532	117
561.744	119
561.956	99
562.168	110
562.381	98
562.593	104
562.805	120
563.017	118
563.229	95
563.441	113
563.653	122
563.865	103
564.077	102
564.289	117
564.501	118
564.713	111
564.925	113
565.137	105
565.349	110
565.561	116
565.773	101
565.985	133
566.197	110
566.408	113
566.62	119
