Data from NickelSpatula.Lamp.E5.5.P2_HRD10591_11-51-21-562.txt Node
Date: Tue Jul 23 11:51:21 EDT 2019
User: cochatt
Spectrometer: HR+D1059
Trigger mode: 1
Integration Time (sec): 1.000000E-1
Scans to average: 1
Electric dark correction enabled: true
Nonlinearity correction enabled: false
Boxcar width: 0
XAxis mode: Wavelengths
Number of Pixels in Spectrum: 2048
>>>>>Begin Spectral Data<<<<<
223.165	-11.25
223.4	-11.25
223.635	-11.25
223.869	-27.25
224.104	-26.25
224.338	-22.25
224.573	-18.25
224.808	-18.25
225.042	-12.25
225.277	4.75
225.511	3.75
225.746	12.75
225.98	6.75
226.215	3.75
226.449	13.75
226.683	14.75
226.918	34.75
227.152	40.75
227.387	35.75
227.621	37.75
227.856	71.75
228.09	51.75
228.324	65.75
228.559	53.75
228.793	54.75
229.027	65.75
229.262	79.75
229.496	88.75
229.73	80.75
229.964	84.75
230.199	101.75
230.433	102.75
230.667	91.75
230.901	80.75
231.136	109.75
231.37	97.75
231.604	97.75
231.838	81.75
232.072	115.75
232.306	105.75
232.541	101.75
232.775	104.75
233.009	113.75
233.243	113.75
233.477	148.75
233.711	137.75
233.945	93.75
234.179	111.75
234.413	115.75
234.647	130.75
234.881	137.75
235.115	134.75
235.349	131.75
235.583	119.75
235.817	122.75
236.051	135.75
236.285	129.75
236.519	121.75
236.753	125.75
236.987	119.75
237.221	127.75
237.455	113.75
237.689	137.75
237.922	137.75
238.156	124.75
238.39	150.75
238.624	170.75
238.858	146.75
239.091	146.75
239.325	131.75
239.559	136.75
239.793	150.75
240.027	179.75
240.26	154.75
240.494	147.75
240.728	153.75
240.961	174.75
241.195	163.75
241.429	152.75
241.662	142.75
241.896	132.75
242.13	133.75
242.363	108.75
242.597	124.75
242.83	142.75
243.064	148.75
243.298	160.75
243.531	153.75
243.765	150.75
243.998	173.75
244.232	149.75
244.465	144.75
244.699	157.75
244.932	170.75
245.166	157.75
245.399	134.75
245.633	149.75
245.866	166.75
246.099	149.75
246.333	175.75
246.566	181.75
246.8	182.75
247.033	167.75
247.266	163.75
247.5	162.75
247.733	159.75
247.966	161.75
248.2	164.75
248.433	148.75
248.666	183.75
248.899	181.75
249.133	197.75
249.366	199.75
249.599	218.75
249.832	202.75
250.066	192.75
250.299	196.75
250.532	193.75
250.765	189.75
250.998	161.75
251.231	173.75
251.465	187.75
251.698	185.75
251.931	195.75
252.164	190.75
252.397	218.75
252.63	222.75
252.863	232.75
253.096	234.75
253.329	232.75
253.562	217.75
253.795	272.75
254.028	274.75
254.261	278.75
254.494	243.75
254.727	237.75
254.96	241.75
255.193	253.75
255.426	230.75
255.659	198.75
255.892	184.75
256.124	201.75
256.357	229.75
256.59	232.75
256.823	249.75
257.056	234.75
257.289	215.75
257.521	215.75
257.754	233.75
257.987	287.75
258.22	232.75
258.452	208.75
258.685	229.75
258.918	281.75
259.151	250.75
259.383	277.75
259.616	301.75
259.849	322.75
260.081	325.75
260.314	362.75
260.547	296.75
260.779	297.75
261.012	335.75
261.244	319.75
261.477	298.75
261.71	298.75
261.942	272.75
262.175	264.75
262.407	262.75
262.64	251.75
262.872	297.75
263.105	303.75
263.337	327.75
263.57	307.75
263.802	242.75
264.035	214.75
264.267	218.75
264.499	181.75
264.732	184.75
264.964	163.75
265.197	185.75
265.429	178.75
265.661	213.75
265.894	214.75
266.126	215.75
266.358	231.75
266.591	243.75
266.823	287.75
267.055	291.75
267.287	251.75
267.52	266.75
267.752	285.75
267.984	271.75
268.216	293.75
268.448	266.75
268.681	247.75
268.913	263.75
269.145	281.75
269.377	267.75
269.609	267.75
269.841	266.75
270.073	277.75
270.306	290.75
270.538	294.75
270.77	278.75
271.002	302.75
271.234	304.75
271.466	316.75
271.698	298.75
271.93	291.75
272.162	288.75
272.394	278.75
272.626	283.75
272.858	283.75
273.09	295.75
273.322	235.75
273.553	248.75
273.785	294.75
274.017	353.75
274.249	425.75
274.481	448.75
274.713	451.75
274.945	533.75
275.176	550.75
275.408	509.75
275.64	457.75
275.872	487.75
276.104	407.75
276.335	361.75
276.567	353.75
276.799	379.75
277.031	381.75
277.262	312.75
277.494	257.75
277.726	250.75
277.957	256.75
278.189	290.75
278.421	306.75
278.652	285.75
278.884	253.75
279.115	246.75
279.347	247.75
279.579	264.75
279.81	262.75
280.042	241.75
280.273	269.75
280.505	244.75
280.736	235.75
280.968	227.75
281.199	247.75
281.431	277.75
281.662	260.75
281.894	245.75
282.125	259.75
282.356	281.75
282.588	294.75
282.819	271.75
283.051	275.75
283.282	312.75
283.513	375.75
283.745	405.75
283.976	394.75
284.207	374.75
284.439	390.75
284.67	379.75
284.901	345.75
285.132	359.75
285.364	391.75
285.595	353.75
285.826	396.75
286.057	381.75
286.288	368.75
286.52	382.75
286.751	393.75
286.982	371.75
287.213	341.75
287.444	339.75
287.675	374.75
287.906	347.75
288.138	311.75
288.369	282.75
288.6	273.75
288.831	293.75
289.062	319.75
289.293	360.75
289.524	315.75
289.755	327.75
289.986	334.75
290.217	298.75
290.448	242.75
290.679	218.75
290.91	239.75
291.141	216.75
291.371	234.75
291.602	223.75
291.833	241.75
292.064	245.75
292.295	242.75
292.526	277.75
292.757	280.75
292.987	321.75
293.218	309.75
293.449	330.75
293.68	352.75
293.91	335.75
294.141	350.75
294.372	324.75
294.603	314.75
294.833	321.75
295.064	362.75
295.295	349.75
295.525	278.75
295.756	240.75
295.987	229.75
296.217	217.75
296.448	227.75
296.679	254.75
296.909	278.75
297.14	259.75
297.37	307.75
297.601	271.75
297.831	243.75
298.062	265.75
298.292	298.75
298.523	291.75
298.753	327.75
298.984	312.75
299.214	259.75
299.445	231.75
299.675	222.75
299.905	244.75
300.136	238.75
300.366	240.75
300.597	236.75
300.827	227.75
301.057	221.75
301.288	223.75
301.518	240.75
301.748	267.75
301.979	280.75
302.209	296.75
302.439	301.75
302.669	260.75
302.9	255.75
303.13	239.75
303.36	247.75
303.59	231.75
303.82	234.75
304.051	246.75
304.281	294.75
304.511	262.75
304.741	258.75
304.971	240.75
305.201	285.75
305.431	261.75
305.661	240.75
305.891	227.75
306.121	237.75
306.352	226.75
306.582	207.75
306.812	208.75
307.042	228.75
307.272	196.75
307.502	210.75
307.731	201.75
307.961	217.75
308.191	193.75
308.421	199.75
308.651	189.75
308.881	185.75
309.111	190.75
309.341	199.75
309.571	216.75
309.8	203.75
310.03	225.75
310.26	218.75
310.49	219.75
310.72	206.75
310.949	203.75
311.179	213.75
311.409	216.75
311.639	230.75
311.868	265.75
312.098	339.75
312.328	350.75
312.557	367.75
312.787	365.75
313.017	334.75
313.246	342.75
313.476	382.75
313.706	322.75
313.935	254.75
314.165	247.75
314.394	222.75
314.624	224.75
314.853	226.75
315.083	218.75
315.312	216.75
315.542	218.75
315.771	212.75
316.001	203.75
316.23	193.75
316.46	184.75
316.689	193.75
316.919	190.75
317.148	204.75
317.377	207.75
317.607	201.75
317.836	216.75
318.065	232.75
318.295	245.75
318.524	249.75
318.753	209.75
318.983	214.75
319.212	201.75
319.441	223.75
319.67	239.75
319.9	242.75
320.129	251.75
320.358	204.75
320.587	211.75
320.816	217.75
321.046	242.75
321.275	278.75
321.504	259.75
321.733	240.75
321.962	251.75
322.191	245.75
322.42	242.75
322.649	243.75
322.878	255.75
323.108	242.75
323.337	250.75
323.566	232.75
323.795	233.75
324.024	219.75
324.253	214.75
324.482	216.75
324.71	240.75
324.939	263.75
325.168	249.75
325.397	213.75
325.626	208.75
325.855	208.75
326.084	207.75
326.313	223.75
326.542	198.75
326.77	221.75
326.999	205.75
327.228	203.75
327.457	228.75
327.686	227.75
327.914	200.75
328.143	208.75
328.372	206.75
328.6	207.75
328.829	194.75
329.058	198.75
329.287	234.75
329.515	198.75
329.744	199.75
329.972	196.75
330.201	200.75
330.43	203.75
330.658	222.75
330.887	231.75
331.115	234.75
331.344	226.75
331.572	226.75
331.801	222.75
332.03	209.75
332.258	197.75
332.486	229.75
332.715	241.75
332.943	220.75
333.172	213.75
333.4	229.75
333.629	243.75
333.857	253.75
334.085	243.75
334.314	281.75
334.542	254.75
334.771	216.75
334.999	219.75
335.227	225.75
335.455	215.75
335.684	245.75
335.912	263.75
336.14	240.75
336.369	268.75
336.597	263.75
336.825	299.75
337.053	302.75
337.281	261.75
337.51	228.75
337.738	227.75
337.966	233.75
338.194	243.75
338.422	234.75
338.65	217.75
338.878	211.75
339.106	213.75
339.334	240.75
339.562	223.75
339.79	249.75
340.018	208.75
340.246	230.75
340.474	252.75
340.702	265.75
340.93	267.75
341.158	275.75
341.386	247.75
341.614	225.75
341.842	239.75
342.07	257.75
342.298	265.75
342.526	268.75
342.754	247.75
342.981	229.75
343.209	226.75
343.437	237.75
343.665	266.75
343.893	277.75
344.12	302.75
344.348	327.75
344.576	290.75
344.804	273.75
345.031	230.75
345.259	213.75
345.487	244.75
345.714	231.75
345.942	245.75
346.17	251.75
346.397	243.75
346.625	217.75
346.853	223.75
347.08	214.75
347.308	232.75
347.535	253.75
347.763	254.75
347.99	229.75
348.218	222.75
348.445	218.75
348.673	222.75
348.9	224.75
349.128	240.75
349.355	250.75
349.583	237.75
349.81	224.75
350.037	209.75
350.265	196.75
350.492	190.75
350.72	195.75
350.947	207.75
351.174	189.75
351.402	229.75
351.629	222.75
351.856	214.75
352.083	200.75
352.311	227.75
352.538	241.75
352.765	263.75
352.992	235.75
353.22	225.75
353.447	234.75
353.674	204.75
353.901	223.75
354.128	217.75
354.355	203.75
354.583	219.75
354.81	224.75
355.037	242.75
355.264	241.75
355.491	234.75
355.718	238.75
355.945	232.75
356.172	253.75
356.399	240.75
356.626	267.75
356.853	320.75
357.08	345.75
357.307	337.75
357.534	295.75
357.761	278.75
357.988	383.75
358.215	403.75
358.441	360.75
358.668	317.75
358.895	307.75
359.122	276.75
359.349	269.75
359.576	311.75
359.802	255.75
360.029	213.75
360.256	243.75
360.483	275.75
360.709	331.75
360.936	348.75
361.163	296.75
361.39	229.75
361.616	213.75
361.843	257.75
362.07	295.75
362.296	278.75
362.523	226.75
362.749	220.75
362.976	224.75
363.203	262.75
363.429	270.75
363.656	243.75
363.882	215.75
364.109	218.75
364.335	217.75
364.562	223.75
364.788	246.75
365.015	265.75
365.241	230.75
365.468	215.75
365.694	196.75
365.92	203.75
366.147	201.75
366.373	194.75
366.599	191.75
366.826	190.75
367.052	192.75
367.278	193.75
367.505	183.75
367.731	210.75
367.957	240.75
368.184	225.75
368.41	224.75
368.636	224.75
368.862	233.75
369.089	223.75
369.315	211.75
369.541	197.75
369.767	206.75
369.993	196.75
370.219	211.75
370.445	218.75
370.672	233.75
370.898	256.75
371.124	244.75
371.35	219.75
371.576	219.75
371.802	243.75
372.028	245.75
372.254	277.75
372.48	241.75
372.706	235.75
372.932	245.75
373.158	242.75
373.384	287.75
373.61	331.75
373.835	352.75
374.061	282.75
374.287	247.75
374.513	283.75
374.739	345.75
374.965	341.75
375.191	330.75
375.416	265.75
375.642	248.75
375.868	257.75
376.094	282.75
376.319	264.75
376.545	273.75
376.771	293.75
376.997	261.75
377.222	205.75
377.448	194.75
377.674	198.75
377.899	203.75
378.125	188.75
378.35	185.75
378.576	198.75
378.802	202.75
379.027	213.75
379.253	216.75
379.478	211.75
379.704	233.75
379.929	229.75
380.155	243.75
380.38	222.75
380.606	219.75
380.831	264.75
381.057	230.75
381.282	225.75
381.507	237.75
381.733	296.75
381.958	303.75
382.184	311.75
382.409	340.75
382.634	353.75
382.86	344.75
383.085	321.75
383.31	256.75
383.535	278.75
383.761	266.75
383.986	248.75
384.211	301.75
384.436	303.75
384.662	246.75
384.887	246.75
385.112	234.75
385.337	237.75
385.562	247.75
385.787	233.75
386.013	266.75
386.238	274.75
386.463	246.75
386.688	239.75
386.913	234.75
387.138	226.75
387.363	222.75
387.588	234.75
387.813	222.75
388.038	264.75
388.263	236.75
388.488	211.75
388.713	265.75
388.938	267.75
389.163	263.75
389.387	226.75
389.612	231.75
389.837	224.75
390.062	240.75
390.287	237.75
390.512	241.75
390.736	231.75
390.961	213.75
391.186	216.75
391.411	210.75
391.636	216.75
391.86	234.75
392.085	241.75
392.31	251.75
392.534	239.75
392.759	221.75
392.984	241.75
393.208	211.75
393.433	211.75
393.658	197.75
393.882	221.75
394.107	201.75
394.331	218.75
394.556	202.75
394.78	212.75
395.005	219.75
395.229	225.75
395.454	226.75
395.678	225.75
395.903	219.75
396.127	208.75
396.352	218.75
396.576	225.75
396.801	217.75
397.025	234.75
397.249	258.75
397.474	229.75
397.698	221.75
397.922	241.75
398.147	224.75
398.371	218.75
398.595	243.75
398.82	238.75
399.044	226.75
399.268	271.75
399.492	275.75
399.717	285.75
399.941	287.75
400.165	265.75
400.389	249.75
400.613	249.75
400.837	232.75
401.062	214.75
401.286	215.75
401.51	233.75
401.734	251.75
401.958	233.75
402.182	241.75
402.406	220.75
402.63	234.75
402.854	252.75
403.078	294.75
403.302	363.75
403.526	375.75
403.75	333.75
403.974	271.75
404.198	302.75
404.422	303.75
404.645	330.75
404.869	358.75
405.093	273.75
405.317	264.75
405.541	274.75
405.765	282.75
405.988	263.75
406.212	278.75
406.436	295.75
406.66	323.75
406.883	289.75
407.107	283.75
407.331	316.75
407.555	309.75
407.778	273.75
408.002	273.75
408.226	276.75
408.449	282.75
408.673	269.75
408.896	238.75
409.12	239.75
409.344	232.75
409.567	243.75
409.791	240.75
410.014	257.75
410.238	240.75
410.461	233.75
410.685	233.75
410.908	253.75
411.132	269.75
411.355	226.75
411.578	259.75
411.802	244.75
412.025	238.75
412.249	253.75
412.472	238.75
412.695	245.75
412.919	219.75
413.142	242.75
413.365	248.75
413.589	261.75
413.812	251.75
414.035	223.75
414.258	225.75
414.482	244.75
414.705	259.75
414.928	240.75
415.151	215.75
415.374	224.75
415.597	234.75
415.821	232.75
416.044	238.75
416.267	218.75
416.49	226.75
416.713	215.75
416.936	219.75
417.159	217.75
417.382	233.75
417.605	233.75
417.828	247.75
418.051	245.75
418.274	242.75
418.497	232.75
418.72	230.75
418.943	239.75
419.166	247.75
419.389	273.75
419.611	263.75
419.834	248.75
420.057	255.75
420.28	253.75
420.503	247.75
420.726	227.75
420.948	232.75
421.171	216.75
421.394	237.75
421.617	221.75
421.839	221.75
422.062	226.75
422.285	221.75
422.507	226.75
422.73	246.75
422.953	239.75
423.175	237.75
423.398	241.75
423.621	273.75
423.843	274.75
424.066	268.75
424.288	243.75
424.511	262.75
424.733	255.75
424.956	253.75
425.178	267.75
425.401	298.75
425.623	358.75
425.846	311.75
426.068	267.75
426.291	261.75
426.513	243.75
426.735	247.75
426.958	229.75
427.18	278.75
427.402	315.75
427.625	342.75
427.847	297.75
428.069	218.75
428.292	233.75
428.514	234.75
428.736	208.75
428.958	253.75
429.181	298.75
429.403	274.75
429.625	237.75
429.847	233.75
430.069	218.75
430.292	233.75
430.514	221.75
430.736	213.75
430.958	263.75
431.18	267.75
431.402	213.75
431.624	213.75
431.846	208.75
432.068	213.75
432.29	221.75
432.512	228.75
432.734	274.75
432.956	260.75
433.178	217.75
433.4	227.75
433.622	207.75
433.844	232.75
434.066	259.75
434.287	241.75
434.509	218.75
434.731	257.75
434.953	239.75
435.175	238.75
435.397	285.75
435.618	229.75
435.84	224.75
436.062	228.75
436.284	222.75
436.505	215.75
436.727	191.75
436.949	211.75
437.17	198.75
437.392	215.75
437.614	217.75
437.835	218.75
438.057	231.75
438.278	233.75
438.5	307.75
438.721	317.75
438.943	245.75
439.165	213.75
439.386	211.75
439.608	221.75
439.829	212.75
440.05	216.75
440.272	224.75
440.493	233.75
440.715	287.75
440.936	238.75
441.158	225.75
441.379	230.75
441.6	261.75
441.822	283.75
442.043	241.75
442.264	230.75
442.486	237.75
442.707	236.75
442.928	229.75
443.149	225.75
443.371	230.75
443.592	241.75
443.813	234.75
444.034	248.75
444.255	234.75
444.476	263.75
444.698	257.75
444.919	267.75
445.14	357.75
445.361	309.75
445.582	264.75
445.803	261.75
446.024	223.75
446.245	250.75
446.466	245.75
446.687	250.75
446.908	227.75
447.129	210.75
447.35	207.75
447.571	216.75
447.792	226.75
448.013	207.75
448.234	209.75
448.455	214.75
448.675	207.75
448.896	209.75
449.117	203.75
449.338	193.75
449.559	219.75
449.779	228.75
450	220.75
450.221	217.75
450.442	227.75
450.662	211.75
450.883	237.75
451.104	223.75
451.324	212.75
451.545	213.75
451.766	225.75
451.986	218.75
452.207	213.75
452.428	193.75
452.648	215.75
452.869	214.75
453.089	228.75
453.31	229.75
453.53	220.75
453.751	198.75
453.971	201.75
454.192	215.75
454.412	203.75
454.633	221.75
454.853	204.75
455.073	187.75
455.294	191.75
455.514	211.75
455.734	222.75
455.955	220.75
456.175	196.75
456.395	202.75
456.616	217.75
456.836	214.75
457.056	211.75
457.276	202.75
457.497	191.75
457.717	201.75
457.937	197.75
458.157	205.75
458.377	208.75
458.598	198.75
458.818	221.75
459.038	208.75
459.258	225.75
459.478	230.75
459.698	241.75
459.918	234.75
460.138	223.75
460.358	250.75
460.578	233.75
460.798	242.75
461.018	243.75
461.238	220.75
461.458	241.75
461.678	245.75
461.898	257.75
462.118	255.75
462.338	242.75
462.558	252.75
462.777	270.75
462.997	287.75
463.217	293.75
463.437	292.75
463.657	266.75
463.876	258.75
464.096	263.75
464.316	297.75
464.536	281.75
464.755	280.75
464.975	289.75
465.195	261.75
465.414	262.75
465.634	250.75
465.854	232.75
466.073	230.75
466.293	209.75
466.512	230.75
466.732	253.75
466.951	248.75
467.171	229.75
467.391	216.75
467.61	224.75
467.829	227.75
468.049	234.75
468.268	218.75
468.488	216.75
468.707	222.75
468.927	262.75
469.146	251.75
469.365	239.75
469.585	228.75
469.804	253.75
470.023	256.75
470.243	237.75
470.462	228.75
470.681	229.75
470.901	234.75
471.12	238.75
471.339	241.75
471.558	248.75
471.777	241.75
471.997	227.75
472.216	280.75
472.435	265.75
472.654	237.75
472.873	234.75
473.092	237.75
473.311	247.75
473.53	230.75
473.749	231.75
473.968	237.75
474.187	221.75
474.406	239.75
474.625	215.75
474.844	225.75
475.063	233.75
475.282	258.75
475.501	252.75
475.72	274.75
475.939	233.75
476.158	254.75
476.377	293.75
476.596	320.75
476.814	339.75
477.033	293.75
477.252	233.75
477.471	228.75
477.69	257.75
477.908	270.75
478.127	269.75
478.346	265.75
478.564	282.75
478.783	258.75
479.002	281.75
479.22	301.75
479.439	312.75
479.658	288.75
479.876	265.75
480.095	273.75
480.313	290.75
480.532	271.75
480.751	290.75
480.969	268.75
481.188	282.75
481.406	296.75
481.624	296.75
481.843	273.75
482.061	242.75
482.28	283.75
482.498	335.75
482.717	314.75
482.935	285.75
483.153	259.75
483.372	258.75
483.59	257.75
483.808	247.75
484.027	244.75
484.245	250.75
484.463	242.75
484.681	247.75
484.9	249.75
485.118	264.75
485.336	266.75
485.554	266.75
485.772	254.75
485.99	285.75
486.209	275.75
486.427	273.75
486.645	292.75
486.863	295.75
487.081	267.75
487.299	288.75
487.517	313.75
487.735	274.75
487.953	285.75
488.171	267.75
488.389	282.75
488.607	272.75
488.825	278.75
489.043	286.75
489.261	309.75
489.479	317.75
489.696	280.75
489.914	255.75
490.132	269.75
490.35	287.75
490.568	263.75
490.786	240.75
491.003	265.75
491.221	268.75
491.439	267.75
491.657	293.75
491.874	280.75
492.092	300.75
492.31	351.75
492.527	377.75
492.745	328.75
492.963	281.75
493.18	302.75
493.398	291.75
493.615	293.75
493.833	283.75
494.05	287.75
494.268	291.75
494.485	287.75
494.703	272.75
494.92	265.75
495.138	280.75
495.355	290.75
495.573	273.75
495.79	289.75
496.008	363.75
496.225	321.75
496.442	299.75
496.66	307.75
496.877	314.75
497.094	309.75
497.312	321.75
497.529	294.75
497.746	290.75
497.963	284.75
498.181	328.75
498.398	344.75
498.615	350.75
498.832	378.75
499.049	376.75
499.267	361.75
499.484	385.75
499.701	421.75
499.918	443.75
500.135	488.75
500.352	529.75
500.569	533.75
500.786	557.75
501.003	553.75
501.22	481.75
501.437	432.75
501.654	405.75
501.871	393.75
502.088	359.75
502.305	349.75
502.522	344.75
