Data from NickelSpatula_HRD10591_16-36-07-126.txt Node
Date: Mon Jul 22 16:36:07 EDT 2019
User: cochatt
Spectrometer: HR+D1059
Trigger mode: 1
Integration Time (sec): 1.000000E-1
Scans to average: 1
Electric dark correction enabled: true
Nonlinearity correction enabled: false
Boxcar width: 0
XAxis mode: Wavelengths
Number of Pixels in Spectrum: 2048
>>>>>Begin Spectral Data<<<<<
223.165	-12
223.4	-12
223.635	-12
223.869	-4
224.104	-33
224.338	-10
224.573	-16
224.808	-14
225.042	-6
225.277	-4
225.511	12
225.746	3
225.98	-2
226.215	22
226.449	2
226.683	20
226.918	7
227.152	35
227.387	38
227.621	37
227.856	36
228.09	38
228.324	34
228.559	59
228.793	59
229.027	71
229.262	65
229.496	68
229.73	82
229.964	87
230.199	78
230.433	91
230.667	93
230.901	86
231.136	97
231.37	75
231.604	98
231.838	104
232.072	97
232.306	92
232.541	92
232.775	98
233.009	94
233.243	100
233.477	103
233.711	99
233.945	99
234.179	104
234.413	98
234.647	87
234.881	108
235.115	105
235.349	100
235.583	99
235.817	106
236.051	111
236.285	112
236.519	114
236.753	120
236.987	118
237.221	108
237.455	110
237.689	117
237.922	108
238.156	110
238.39	122
238.624	126
238.858	124
239.091	110
239.325	98
239.559	115
239.793	128
240.027	123
240.26	104
240.494	120
240.728	119
240.961	136
241.195	124
241.429	128
241.662	102
241.896	110
242.13	124
242.363	109
242.597	107
242.83	122
243.064	123
243.298	127
243.531	123
243.765	126
243.998	124
244.232	118
244.465	121
244.699	130
244.932	134
245.166	138
245.399	115
245.633	114
245.866	135
246.099	129
246.333	141
246.566	140
246.8	140
247.033	143
247.266	142
247.5	124
247.733	145
247.966	126
248.2	144
248.433	148
248.666	152
248.899	149
249.133	141
249.366	163
249.599	153
249.832	165
250.066	148
250.299	144
250.532	150
250.765	150
250.998	140
251.231	132
251.465	140
251.698	151
251.931	160
252.164	156
252.397	155
252.63	168
252.863	164
253.096	167
253.329	170
253.562	186
253.795	178
254.028	206
254.261	190
254.494	189
254.727	191
254.96	166
255.193	172
255.426	183
255.659	142
255.892	136
256.124	147
256.357	172
256.59	176
256.823	165
257.056	151
257.289	159
257.521	164
257.754	175
257.987	166
258.22	189
258.452	164
258.685	181
258.918	169
259.151	172
259.383	187
259.616	187
259.849	216
260.081	208
260.314	231
260.547	198
260.779	187
261.012	217
261.244	200
261.477	209
261.71	196
261.942	180
262.175	178
262.407	171
262.64	174
262.872	191
263.105	177
263.337	201
263.57	201
263.802	161
264.035	148
264.267	145
264.499	129
264.732	123
264.964	119
265.197	135
265.429	141
265.661	138
265.894	140
266.126	178
266.358	162
266.591	180
266.823	209
267.055	190
267.287	186
267.52	161
267.752	182
267.984	203
268.216	178
268.448	172
268.681	164
268.913	186
269.145	178
269.377	187
269.609	195
269.841	176
270.073	197
270.306	178
270.538	194
270.77	182
271.002	190
271.234	208
271.466	199
271.698	209
271.93	186
272.162	190
272.394	186
272.626	203
272.858	195
273.09	203
273.322	201
273.553	190
273.785	214
274.017	256
274.249	251
274.481	286
274.713	296
274.945	304
275.176	298
275.408	287
275.64	290
275.872	266
276.104	270
276.335	243
276.567	223
276.799	240
277.031	241
277.262	208
277.494	175
277.726	154
277.957	190
278.189	200
278.421	186
278.652	192
278.884	188
279.115	181
279.347	168
279.579	181
279.81	167
280.042	171
280.273	187
280.505	155
280.736	142
280.968	160
281.199	165
281.431	168
281.662	178
281.894	160
282.125	176
282.356	178
282.588	191
282.819	198
283.051	193
283.282	214
283.513	247
283.745	258
283.976	260
284.207	247
284.439	245
284.67	239
284.901	218
285.132	225
285.364	256
285.595	236
285.826	218
286.057	246
286.288	260
286.52	241
286.751	267
286.982	257
287.213	231
287.444	225
287.675	230
287.906	224
288.138	189
288.369	188
288.6	172
288.831	194
289.062	211
289.293	223
289.524	216
289.755	216
289.986	212
290.217	187
290.448	159
290.679	149
290.91	154
291.141	138
291.371	163
291.602	134
291.833	150
292.064	160
292.295	174
292.526	180
292.757	204
292.987	212
293.218	213
293.449	213
293.68	213
293.91	216
294.141	212
294.372	204
294.603	198
294.833	212
295.064	207
295.295	199
295.525	179
295.756	170
295.987	148
296.217	155
296.448	153
296.679	169
296.909	191
297.14	183
297.37	185
297.601	170
297.831	150
298.062	191
298.292	199
298.523	188
298.753	225
298.984	219
299.214	195
299.445	171
299.675	156
299.905	162
300.136	167
300.366	171
300.597	166
300.827	164
301.057	152
301.288	149
301.518	169
301.748	177
301.979	184
302.209	202
302.439	199
302.669	194
302.9	184
303.13	176
303.36	171
303.59	164
303.82	167
304.051	175
304.281	195
304.511	188
304.741	176
304.971	171
305.201	180
305.431	165
305.661	192
305.891	171
306.121	155
306.352	158
306.582	142
306.812	146
307.042	138
307.272	125
307.502	144
307.731	144
307.961	155
308.191	136
308.421	123
308.651	122
308.881	130
309.111	145
309.341	130
309.571	151
309.8	154
310.03	153
310.26	151
310.49	158
310.72	133
310.949	133
311.179	124
311.409	142
311.639	172
311.868	182
312.098	223
312.328	231
312.557	239
312.787	209
313.017	210
313.246	209
313.476	233
313.706	196
313.935	185
314.165	142
314.394	144
314.624	141
314.853	155
315.083	137
315.312	138
315.542	148
315.771	139
316.001	134
316.23	138
316.46	128
316.689	142
316.919	124
317.148	147
317.377	134
317.607	137
317.836	161
318.065	163
318.295	158
318.524	164
318.753	145
318.983	146
319.212	154
319.441	150
319.67	165
319.9	185
320.129	171
320.358	154
320.587	144
320.816	148
321.046	170
321.275	188
321.504	211
321.733	178
321.962	187
322.191	167
322.42	172
322.649	167
322.878	173
323.108	180
323.337	171
323.566	160
323.795	155
324.024	152
324.253	153
324.482	152
324.71	161
324.939	165
325.168	165
325.397	136
325.626	150
325.855	152
326.084	159
326.313	130
326.542	124
326.77	150
326.999	132
327.228	145
327.457	148
327.686	157
327.914	134
328.143	132
328.372	140
328.6	135
328.829	140
329.058	127
329.287	127
329.515	139
329.744	128
329.972	132
330.201	133
330.43	141
330.658	137
330.887	155
331.115	152
331.344	157
331.572	152
331.801	137
332.03	142
332.258	132
332.486	142
332.715	133
332.943	122
333.172	119
333.4	122
333.629	148
333.857	170
334.085	151
334.314	141
334.542	156
334.771	143
334.999	144
335.227	134
335.455	146
335.684	159
335.912	163
336.14	169
336.369	161
336.597	165
336.825	186
337.053	182
337.281	166
337.51	152
337.738	140
337.966	150
338.194	164
338.422	157
338.65	133
338.878	126
339.106	126
339.334	149
339.562	150
339.79	145
340.018	138
340.246	163
340.474	181
340.702	190
340.93	183
341.158	168
341.386	156
341.614	168
341.842	174
342.07	174
342.298	193
342.526	200
342.754	181
342.981	169
343.209	159
343.437	175
343.665	167
343.893	184
344.12	200
344.348	202
344.576	200
344.804	167
345.031	156
345.259	148
345.487	161
345.714	158
345.942	170
346.17	174
346.397	169
346.625	160
346.853	140
347.08	149
347.308	149
347.535	167
347.763	168
347.99	154
348.218	142
348.445	138
348.673	156
348.9	132
349.128	157
349.355	180
349.583	157
349.81	158
350.037	152
350.265	132
350.492	124
350.72	127
350.947	139
351.174	147
351.402	157
351.629	137
351.856	140
352.083	146
352.311	162
352.538	161
352.765	168
352.992	172
353.22	167
353.447	176
353.674	177
353.901	168
354.128	166
354.355	170
354.583	176
354.81	179
355.037	184
355.264	170
355.491	178
355.718	178
355.945	196
356.172	172
356.399	179
356.626	217
356.853	229
357.08	263
357.307	246
357.534	205
357.761	238
357.988	273
358.215	287
358.441	270
358.668	258
358.895	224
359.122	188
359.349	187
359.576	193
359.802	169
360.029	153
360.256	171
360.483	192
360.709	242
360.936	263
361.163	216
361.39	184
361.616	178
361.843	185
362.07	218
362.296	213
362.523	175
362.749	155
362.976	155
363.203	184
363.429	201
363.656	185
363.882	153
364.109	166
364.335	176
364.562	182
364.788	180
365.015	202
365.241	182
365.468	141
365.694	162
365.92	143
366.147	144
366.373	136
366.599	152
366.826	137
367.052	139
367.278	140
367.505	128
367.731	160
367.957	158
368.184	145
368.41	160
368.636	181
368.862	168
369.089	176
369.315	160
369.541	154
369.767	158
369.993	153
370.219	143
370.445	157
370.672	158
370.898	165
371.124	165
371.35	146
371.576	158
371.802	144
372.028	176
372.254	188
372.48	179
372.706	159
372.932	180
373.158	175
373.384	202
373.61	256
373.835	265
374.061	198
374.287	176
374.513	223
374.739	246
374.965	256
375.191	247
375.416	154
375.642	165
375.868	175
376.094	194
376.319	176
376.545	191
376.771	202
376.997	171
377.222	140
377.448	126
377.674	127
377.899	126
378.125	136
378.35	126
378.576	135
378.802	155
379.027	150
379.253	151
379.478	155
379.704	188
379.929	183
380.155	179
380.38	150
380.606	166
380.831	182
381.057	174
381.282	145
381.507	188
381.733	222
381.958	234
382.184	246
382.409	238
382.634	223
382.86	259
383.085	201
383.31	199
383.535	184
383.761	211
383.986	189
384.211	207
384.436	199
384.662	177
384.887	167
385.112	174
385.337	172
385.562	167
385.787	172
386.013	196
386.238	185
386.463	163
386.688	166
386.913	142
387.138	143
387.363	160
387.588	160
387.813	166
388.038	149
388.263	151
388.488	158
388.713	176
388.938	194
389.163	180
389.387	150
389.612	138
389.837	147
390.062	142
390.287	169
390.512	155
390.736	151
390.961	156
391.186	140
391.411	148
391.636	124
391.86	146
392.085	171
392.31	160
392.534	146
392.759	155
392.984	150
393.208	161
393.433	115
393.658	121
393.882	128
394.107	135
394.331	135
394.556	133
394.78	134
395.005	142
395.229	141
395.454	155
395.678	129
395.903	131
396.127	131
396.352	113
396.576	175
396.801	174
397.025	174
397.249	169
397.474	156
397.698	144
397.922	165
398.147	150
398.371	146
398.595	157
398.82	143
399.044	138
399.268	152
399.492	147
399.717	141
399.941	159
400.165	151
400.389	153
400.613	145
400.837	151
401.062	122
401.286	128
401.51	128
401.734	134
401.958	128
402.182	134
402.406	138
402.63	140
402.854	142
403.078	164
403.302	200
403.526	199
403.75	184
403.974	158
404.198	152
404.422	179
404.645	199
404.869	207
405.093	158
405.317	161
405.541	151
405.765	143
405.988	162
406.212	150
406.436	214
406.66	198
406.883	170
407.107	166
407.331	189
407.555	186
407.778	173
408.002	144
408.226	148
408.449	158
408.673	151
408.896	127
409.12	118
409.344	136
409.567	138
409.791	126
410.014	135
410.238	125
410.461	132
410.685	124
410.908	115
411.132	123
411.355	146
411.578	145
411.802	132
412.025	152
412.249	151
412.472	153
412.695	159
412.919	154
413.142	161
413.365	163
413.589	166
413.812	128
414.035	151
414.258	158
414.482	169
414.705	159
414.928	140
415.151	131
415.374	126
415.597	141
415.821	150
416.044	138
416.267	134
416.49	132
416.713	143
416.936	133
417.159	134
417.382	126
417.605	137
417.828	161
418.051	143
418.274	134
418.497	151
418.72	140
418.943	158
419.166	143
419.389	150
419.611	147
419.834	155
420.057	187
420.28	183
420.503	165
420.726	135
420.948	139
421.171	142
421.394	125
421.617	137
421.839	134
422.062	135
422.285	150
422.507	146
422.73	154
422.953	161
423.175	164
423.398	133
423.621	160
423.843	184
424.066	167
424.288	150
424.511	124
424.733	160
424.956	157
425.178	159
425.401	195
425.623	225
425.846	170
426.068	159
426.291	175
426.513	170
426.735	142
426.958	145
427.18	181
427.402	233
427.625	225
427.847	190
428.069	148
428.292	147
428.514	143
428.736	129
428.958	144
429.181	184
429.403	159
429.625	169
429.847	151
430.069	151
430.292	143
430.514	141
430.736	139
430.958	166
431.18	154
431.402	140
431.624	162
431.846	144
432.068	130
432.29	127
432.512	131
432.734	177
432.956	175
433.178	132
433.4	132
433.622	135
433.844	142
434.066	156
434.287	152
434.509	140
434.731	150
434.953	128
435.175	135
435.397	156
435.618	155
435.84	144
436.062	131
436.284	118
436.505	128
436.727	130
436.949	135
437.17	152
437.392	141
437.614	130
437.835	135
438.057	132
438.278	171
438.5	209
438.721	209
438.943	149
439.165	132
439.386	146
439.608	136
439.829	112
440.05	149
440.272	135
440.493	163
440.715	184
440.936	152
441.158	147
441.379	136
441.6	174
441.822	166
442.043	154
442.264	126
442.486	147
442.707	130
442.928	132
443.149	131
443.371	143
443.592	146
443.813	144
444.034	132
444.255	127
444.476	150
444.698	136
444.919	131
445.14	275
445.361	211
445.582	159
445.803	153
446.024	156
446.245	164
446.466	155
446.687	146
446.908	134
447.129	140
447.35	129
447.571	130
447.792	126
448.013	121
448.234	121
448.455	136
448.675	132
448.896	121
449.117	118
449.338	140
449.559	137
449.779	135
450	153
450.221	136
450.442	122
450.662	137
450.883	129
451.104	147
451.324	127
451.545	130
451.766	130
451.986	127
452.207	114
452.428	125
452.648	127
452.869	147
453.089	143
453.31	130
453.53	128
453.751	133
453.971	127
454.192	124
454.412	141
454.633	125
454.853	141
455.073	123
455.294	121
455.514	124
455.734	135
455.955	135
456.175	138
456.395	126
456.616	118
456.836	121
457.056	119
457.276	117
457.497	129
457.717	122
457.937	122
458.157	122
458.377	108
458.598	119
458.818	126
459.038	124
459.258	131
459.478	130
459.698	132
459.918	122
460.138	136
460.358	131
460.578	127
460.798	134
461.018	135
461.238	118
461.458	117
461.678	159
461.898	155
462.118	153
462.338	140
462.558	157
462.777	151
462.997	135
463.217	140
463.437	137
463.657	132
463.876	128
464.096	118
464.316	131
464.536	138
464.755	146
464.975	155
465.195	144
465.414	164
465.634	143
465.854	142
466.073	119
466.293	132
466.512	126
466.732	156
466.951	150
467.171	146
467.391	142
467.61	134
467.829	144
468.049	139
468.268	139
468.488	139
468.707	146
468.927	143
469.146	156
469.365	156
469.585	160
469.804	156
470.023	173
470.243	144
470.462	138
470.681	146
470.901	153
471.12	144
471.339	164
471.558	127
471.777	162
471.997	146
472.216	158
472.435	144
472.654	147
472.873	144
473.092	156
473.311	164
473.53	145
473.749	128
473.968	142
474.187	156
474.406	152
474.625	135
474.844	138
475.063	147
475.282	138
475.501	172
475.72	171
475.939	176
476.158	174
476.377	196
476.596	211
476.814	203
477.033	183
477.252	154
477.471	150
477.69	151
477.908	143
478.127	142
478.346	160
478.564	182
478.783	154
479.002	159
479.22	167
479.439	178
479.658	148
479.876	153
480.095	166
480.313	176
480.532	162
480.751	159
480.969	164
481.188	151
481.406	178
481.624	152
481.843	155
482.061	145
482.28	166
482.498	192
482.717	218
482.935	159
483.153	161
483.372	139
483.59	165
483.808	166
484.027	145
484.245	142
484.463	137
484.681	155
484.9	167
485.118	165
485.336	144
485.554	156
485.772	168
485.99	174
486.209	190
486.427	175
486.645	162
486.863	174
487.081	162
487.299	207
487.517	203
487.735	168
487.953	156
488.171	175
488.389	160
488.607	159
488.825	182
489.043	195
489.261	232
489.479	230
489.696	177
489.914	164
490.132	162
490.35	157
490.568	159
490.786	172
491.003	145
491.221	156
491.439	152
491.657	154
491.874	162
492.092	224
492.31	294
492.527	254
492.745	203
492.963	174
493.18	185
493.398	179
493.615	182
493.833	161
494.05	170
494.268	178
494.485	162
494.703	168
494.92	164
495.138	155
495.355	159
495.573	171
495.79	214
496.008	299
496.225	224
496.442	198
496.66	188
496.877	189
497.094	180
497.312	177
497.529	177
497.746	164
497.963	169
498.181	193
498.398	192
498.615	201
498.832	206
499.049	188
499.267	180
499.484	163
499.701	171
499.918	187
500.135	207
500.352	216
500.569	210
500.786	219
501.003	223
501.22	198
501.437	196
501.654	177
501.871	181
502.088	192
502.305	192
502.522	190
502.739	175
502.956	165
503.172	183
503.389	160
503.606	156
503.823	154
504.04	154
504.256	171
504.473	166
504.69	177
504.907	168
505.123	152
505.34	200
505.557	177
505.773	164
505.99	179
506.207	157
506.423	166
506.64	177
506.856	176
507.073	179
507.289	196
507.506	188
507.722	187
507.939	188
508.155	195
508.372	186
508.588	191
508.805	162
509.021	156
509.238	169
509.454	164
509.67	160
509.887	162
510.103	186
510.319	178
510.536	169
510.752	166
510.968	149
511.184	153
511.401	165
511.617	134
511.833	161
512.049	145
512.265	158
512.481	166
512.698	160
512.914	175
513.13	178
513.346	156
513.562	148
513.778	180
513.994	164
514.21	197
514.426	181
514.642	181
514.858	165
515.074	192
515.29	188
515.506	186
515.721	191
515.937	168
516.153	172
516.369	177
516.585	170
516.801	208
517.016	250
517.232	214
517.448	210
517.664	169
517.879	174
518.095	169
518.311	178
518.527	174
518.742	178
518.958	192
519.173	215
519.389	200
519.605	225
519.82	212
520.036	204
520.251	194
520.467	243
520.682	386
520.898	472
521.113	432
521.329	266
521.544	212
521.76	216
521.975	199
522.19	190
522.406	188
522.621	208
522.836	233
523.052	260
523.267	193
523.482	194
523.698	213
523.913	183
524.128	168
524.343	164
524.559	186
524.774	175
524.989	191
525.204	184
525.419	195
525.634	181
525.849	170
526.064	176
526.28	186
526.495	200
526.71	269
526.925	240
527.14	245
527.355	231
527.57	188
527.785	193
527.999	192
528.214	169
528.429	172
528.644	176
528.859	169
529.074	159
529.289	160
529.503	150
529.718	171
529.933	226
530.148	219
530.363	192
530.577	166
530.792	154
531.007	155
531.221	147
531.436	153
531.651	166
531.865	168
532.08	159
532.295	165
532.509	186
532.724	206
532.938	228
533.153	254
533.367	200
533.582	183
533.796	171
534.011	172
534.225	175
534.44	170
534.654	180
534.868	227
535.083	199
535.297	150
535.511	171
535.726	152
535.94	151
536.154	169
536.369	161
536.583	171
536.797	163
537.011	160
537.225	205
537.44	210
537.654	169
537.868	169
538.082	167
538.296	172
538.51	179
538.724	178
538.938	162
539.153	164
539.367	147
539.581	174
539.795	175
540.009	195
540.222	187
540.436	187
540.65	196
540.864	203
541.078	199
541.292	239
541.506	193
541.72	180
541.934	164
542.147	178
542.361	159
542.575	171
542.789	188
543.002	159
543.216	167
543.43	164
543.644	170
543.857	164
544.071	145
544.285	152
544.498	156
544.712	153
544.925	184
545.139	161
545.352	140
545.566	142
545.779	158
545.993	153
546.206	138
546.42	149
546.633	157
546.847	157
547.06	135
547.274	150
547.487	144
547.7	152
547.914	155
548.127	163
548.34	156
548.554	142
548.767	135
548.98	163
549.193	148
549.407	156
549.62	159
549.833	157
550.046	165
550.259	150
550.473	146
550.686	162
550.899	164
551.112	161
551.325	152
551.538	151
551.751	147
551.964	151
552.177	154
552.39	132
552.603	148
552.816	146
553.029	147
553.242	149
553.455	153
553.667	154
553.88	147
554.093	145
554.306	144
554.519	153
554.732	133
554.944	130
555.157	121
555.37	140
555.583	139
555.795	144
556.008	139
556.221	132
556.433	122
556.646	116
556.859	143
557.071	137
557.284	142
557.496	144
557.709	140
557.921	135
558.134	129
558.346	114
558.559	123
558.771	128
558.984	160
559.196	136
559.409	131
559.621	128
559.833	132
560.046	151
560.258	118
560.47	122
560.683	124
560.895	131
561.107	130
561.32	128
561.532	137
561.744	142
561.956	152
562.168	133
562.381	142
562.593	136
562.805	123
563.017	130
563.229	126
563.441	120
563.653	117
563.865	122
564.077	125
564.289	134
564.501	122
564.713	137
