Data from NickelSpatula.Lamp.E5.5.P2_HRD10591_11-51-46-559.txt Node
Date: Tue Jul 23 11:51:46 EDT 2019
User: cochatt
Spectrometer: HR+D1059
Trigger mode: 1
Integration Time (sec): 1.000000E-1
Scans to average: 1
Electric dark correction enabled: true
Nonlinearity correction enabled: false
Boxcar width: 0
XAxis mode: Wavelengths
Number of Pixels in Spectrum: 2048
>>>>>Begin Spectral Data<<<<<
223.165	-17.75
223.4	-17.75
223.635	-17.75
223.869	-24.75
224.104	-15.75
224.338	-10.75
224.573	-13.75
224.808	-8.75
225.042	-2.75
225.277	-12.75
225.511	-6.75
225.746	9.25
225.98	9.25
226.215	8.25
226.449	13.25
226.683	19.25
226.918	28.25
227.152	26.25
227.387	45.25
227.621	54.25
227.856	45.25
228.09	50.25
228.324	52.25
228.559	72.25
228.793	65.25
229.027	66.25
229.262	89.25
229.496	72.25
229.73	83.25
229.964	98.25
230.199	85.25
230.433	101.25
230.667	102.25
230.901	101.25
231.136	93.25
231.37	97.25
231.604	112.25
231.838	114.25
232.072	107.25
232.306	101.25
232.541	122.25
232.775	116.25
233.009	103.25
233.243	112.25
233.477	124.25
233.711	116.25
233.945	130.25
234.179	116.25
234.413	138.25
234.647	140.25
234.881	155.25
235.115	143.25
235.349	124.25
235.583	114.25
235.817	133.25
236.051	136.25
236.285	132.25
236.519	137.25
236.753	143.25
236.987	137.25
237.221	144.25
237.455	133.25
237.689	130.25
237.922	135.25
238.156	140.25
238.39	147.25
238.624	184.25
238.858	167.25
239.091	158.25
239.325	142.25
239.559	146.25
239.793	149.25
240.027	179.25
240.26	167.25
240.494	154.25
240.728	164.25
240.961	180.25
241.195	173.25
241.429	159.25
241.662	168.25
241.896	152.25
242.13	148.25
242.363	138.25
242.597	132.25
242.83	156.25
243.064	165.25
243.298	169.25
243.531	182.25
243.765	173.25
243.998	184.25
244.232	178.25
244.465	165.25
244.699	157.25
244.932	181.25
245.166	183.25
245.399	145.25
245.633	156.25
245.866	157.25
246.099	157.25
246.333	183.25
246.566	192.25
246.8	180.25
247.033	187.25
247.266	182.25
247.5	167.25
247.733	180.25
247.966	169.25
248.2	182.25
248.433	193.25
248.666	197.25
248.899	210.25
249.133	206.25
249.366	233.25
249.599	246.25
249.832	227.25
250.066	201.25
250.299	221.25
250.532	206.25
250.765	193.25
250.998	192.25
251.231	188.25
251.465	190.25
251.698	220.25
251.931	185.25
252.164	205.25
252.397	227.25
252.63	233.25
252.863	271.25
253.096	263.25
253.329	267.25
253.562	241.25
253.795	300.25
254.028	308.25
254.261	313.25
254.494	270.25
254.727	250.25
254.96	232.25
255.193	250.25
255.426	242.25
255.659	220.25
255.892	208.25
256.124	218.25
256.357	245.25
256.59	280.25
256.823	274.25
257.056	234.25
257.289	213.25
257.521	246.25
257.754	266.25
257.987	308.25
258.22	272.25
258.452	228.25
258.685	253.25
258.918	280.25
259.151	289.25
259.383	316.25
259.616	338.25
259.849	360.25
260.081	376.25
260.314	398.25
260.547	311.25
260.779	352.25
261.012	392.25
261.244	354.25
261.477	354.25
261.71	339.25
261.942	268.25
262.175	297.25
262.407	269.25
262.64	284.25
262.872	336.25
263.105	349.25
263.337	370.25
263.57	355.25
263.802	264.25
264.035	240.25
264.267	232.25
264.499	204.25
264.732	192.25
264.964	167.25
265.197	200.25
265.429	208.25
265.661	206.25
265.894	210.25
266.126	220.25
266.358	253.25
266.591	297.25
266.823	337.25
267.055	330.25
267.287	294.25
267.52	291.25
267.752	324.25
267.984	337.25
268.216	316.25
268.448	276.25
268.681	277.25
268.913	261.25
269.145	299.25
269.377	298.25
269.609	313.25
269.841	281.25
270.073	301.25
270.306	306.25
270.538	327.25
270.77	322.25
271.002	309.25
271.234	333.25
271.466	323.25
271.698	310.25
271.93	301.25
272.162	297.25
272.394	313.25
272.626	301.25
272.858	307.25
273.09	315.25
273.322	289.25
273.553	287.25
273.785	302.25
274.017	388.25
274.249	474.25
274.481	481.25
274.713	512.25
274.945	598.25
275.176	620.25
275.408	548.25
275.64	524.25
275.872	519.25
276.104	462.25
276.335	394.25
276.567	393.25
276.799	399.25
277.031	434.25
277.262	347.25
277.494	269.25
277.726	252.25
277.957	307.25
278.189	337.25
278.421	320.25
278.652	300.25
278.884	310.25
279.115	297.25
279.347	288.25
279.579	291.25
279.81	293.25
280.042	276.25
280.273	295.25
280.505	281.25
280.736	236.25
280.968	246.25
281.199	266.25
281.431	288.25
281.662	278.25
281.894	263.25
282.125	305.25
282.356	315.25
282.588	312.25
282.819	278.25
283.051	305.25
283.282	361.25
283.513	396.25
283.745	449.25
283.976	458.25
284.207	413.25
284.439	441.25
284.67	427.25
284.901	389.25
285.132	389.25
285.364	427.25
285.595	361.25
285.826	410.25
286.057	428.25
286.288	394.25
286.52	413.25
286.751	445.25
286.982	424.25
287.213	372.25
287.444	367.25
287.675	399.25
287.906	396.25
288.138	335.25
288.369	310.25
288.6	292.25
288.831	312.25
289.062	328.25
289.293	375.25
289.524	376.25
289.755	338.25
289.986	353.25
290.217	330.25
290.448	274.25
290.679	235.25
290.91	234.25
291.141	231.25
291.371	238.25
291.602	232.25
291.833	251.25
292.064	253.25
292.295	278.25
292.526	321.25
292.757	316.25
292.987	351.25
293.218	351.25
293.449	374.25
293.68	374.25
293.91	362.25
294.141	378.25
294.372	357.25
294.603	318.25
294.833	344.25
295.064	406.25
295.295	380.25
295.525	302.25
295.756	266.25
295.987	233.25
296.217	243.25
296.448	245.25
296.679	251.25
296.909	286.25
297.14	300.25
297.37	302.25
297.601	314.25
297.831	271.25
298.062	287.25
298.292	314.25
298.523	330.25
298.753	349.25
298.984	349.25
299.214	289.25
299.445	248.25
299.675	228.25
299.905	255.25
300.136	244.25
300.366	266.25
300.597	258.25
300.827	225.25
301.057	235.25
301.288	262.25
301.518	251.25
301.748	281.25
301.979	309.25
302.209	311.25
302.439	324.25
302.669	287.25
302.9	291.25
303.13	266.25
303.36	264.25
303.59	256.25
303.82	251.25
304.051	283.25
304.281	313.25
304.511	307.25
304.741	280.25
304.971	288.25
305.201	324.25
305.431	283.25
305.661	243.25
305.891	256.25
306.121	243.25
306.352	235.25
306.582	222.25
306.812	201.25
307.042	213.25
307.272	209.25
307.502	204.25
307.731	211.25
307.961	206.25
308.191	209.25
308.421	204.25
308.651	201.25
308.881	217.25
309.111	207.25
309.341	189.25
309.571	217.25
309.8	232.25
310.03	230.25
310.26	238.25
310.49	228.25
310.72	207.25
310.949	202.25
311.179	223.25
311.409	215.25
311.639	241.25
311.868	301.25
312.098	372.25
312.328	398.25
312.557	387.25
312.787	398.25
313.017	358.25
313.246	390.25
313.476	433.25
313.706	346.25
313.935	289.25
314.165	236.25
314.394	226.25
314.624	229.25
314.853	247.25
315.083	243.25
315.312	234.25
315.542	236.25
315.771	206.25
316.001	205.25
316.23	190.25
316.46	203.25
316.689	214.25
316.919	217.25
317.148	218.25
317.377	219.25
317.607	233.25
317.836	215.25
318.065	256.25
318.295	267.25
318.524	267.25
318.753	259.25
318.983	216.25
319.212	205.25
319.441	228.25
319.67	236.25
319.9	274.25
320.129	248.25
320.358	233.25
320.587	210.25
320.816	232.25
321.046	255.25
321.275	278.25
321.504	279.25
321.733	261.25
321.962	258.25
322.191	246.25
322.42	245.25
322.649	256.25
322.878	276.25
323.108	264.25
323.337	236.25
323.566	251.25
323.795	244.25
324.024	239.25
324.253	234.25
324.482	232.25
324.71	238.25
324.939	269.25
325.168	261.25
325.397	213.25
325.626	216.25
325.855	229.25
326.084	233.25
326.313	203.25
326.542	206.25
326.77	231.25
326.999	222.25
327.228	230.25
327.457	232.25
327.686	232.25
327.914	230.25
328.143	219.25
328.372	193.25
328.6	216.25
328.829	211.25
329.058	209.25
329.287	210.25
329.515	217.25
329.744	235.25
329.972	195.25
330.201	196.25
330.43	210.25
330.658	221.25
330.887	241.25
331.115	242.25
331.344	226.25
331.572	229.25
331.801	225.25
332.03	203.25
332.258	218.25
332.486	245.25
332.715	251.25
332.943	217.25
333.172	222.25
333.4	255.25
333.629	257.25
333.857	257.25
334.085	276.25
334.314	255.25
334.542	250.25
334.771	236.25
334.999	246.25
335.227	218.25
335.455	219.25
335.684	235.25
335.912	266.25
336.14	292.25
336.369	293.25
336.597	281.25
336.825	296.25
337.053	318.25
337.281	278.25
337.51	235.25
337.738	233.25
337.966	250.25
338.194	273.25
338.422	247.25
338.65	234.25
338.878	240.25
339.106	229.25
339.334	227.25
339.562	253.25
339.79	237.25
340.018	247.25
340.246	233.25
340.474	277.25
340.702	278.25
340.93	284.25
341.158	268.25
341.386	262.25
341.614	259.25
341.842	240.25
342.07	258.25
342.298	306.25
342.526	297.25
342.754	254.25
342.981	232.25
343.209	244.25
343.437	268.25
343.665	257.25
343.893	264.25
344.12	325.25
344.348	353.25
344.576	327.25
344.804	257.25
345.031	250.25
345.259	228.25
345.487	242.25
345.714	246.25
345.942	249.25
346.17	276.25
346.397	265.25
346.625	234.25
346.853	238.25
347.08	235.25
347.308	233.25
347.535	268.25
347.763	279.25
347.99	237.25
348.218	225.25
348.445	238.25
348.673	220.25
348.9	211.25
349.128	262.25
349.355	264.25
349.583	263.25
349.81	256.25
350.037	240.25
350.265	199.25
350.492	216.25
350.72	207.25
350.947	198.25
351.174	196.25
351.402	207.25
351.629	222.25
351.856	243.25
352.083	220.25
352.311	225.25
352.538	240.25
352.765	268.25
352.992	234.25
353.22	242.25
353.447	241.25
353.674	228.25
353.901	222.25
354.128	234.25
354.355	233.25
354.583	229.25
354.81	231.25
355.037	262.25
355.264	256.25
355.491	255.25
355.718	258.25
355.945	266.25
356.172	250.25
356.399	238.25
356.626	288.25
356.853	324.25
357.08	344.25
357.307	369.25
357.534	291.25
357.761	322.25
357.988	372.25
358.215	408.25
358.441	392.25
358.668	342.25
358.895	332.25
359.122	273.25
359.349	294.25
359.576	329.25
359.802	263.25
360.029	236.25
360.256	254.25
360.483	290.25
360.709	355.25
360.936	372.25
361.163	322.25
361.39	258.25
361.616	260.25
361.843	258.25
362.07	313.25
362.296	292.25
362.523	250.25
362.749	228.25
362.976	233.25
363.203	261.25
363.429	291.25
363.656	253.25
363.882	230.25
364.109	234.25
364.335	232.25
364.562	224.25
364.788	251.25
365.015	282.25
365.241	248.25
365.468	229.25
365.694	241.25
365.92	212.25
366.147	215.25
366.373	195.25
366.599	221.25
366.826	212.25
367.052	194.25
367.278	205.25
367.505	212.25
367.731	222.25
367.957	234.25
368.184	232.25
368.41	230.25
368.636	245.25
368.862	232.25
369.089	233.25
369.315	217.25
369.541	231.25
369.767	210.25
369.993	188.25
370.219	222.25
370.445	213.25
370.672	216.25
370.898	241.25
371.124	260.25
371.35	224.25
371.576	232.25
371.802	250.25
372.028	266.25
372.254	298.25
372.48	263.25
372.706	242.25
372.932	245.25
373.158	270.25
373.384	308.25
373.61	362.25
373.835	389.25
374.061	306.25
374.287	271.25
374.513	312.25
374.739	360.25
374.965	364.25
375.191	353.25
375.416	277.25
375.642	246.25
375.868	279.25
376.094	322.25
376.319	256.25
376.545	284.25
376.771	279.25
376.997	260.25
377.222	224.25
377.448	209.25
377.674	204.25
377.899	194.25
378.125	191.25
378.35	198.25
378.576	206.25
378.802	212.25
379.027	228.25
379.253	232.25
379.478	224.25
379.704	235.25
379.929	254.25
380.155	246.25
380.38	230.25
380.606	237.25
380.831	259.25
381.057	247.25
381.282	243.25
381.507	267.25
381.733	316.25
381.958	313.25
382.184	340.25
382.409	327.25
382.634	357.25
382.86	353.25
383.085	318.25
383.31	270.25
383.535	266.25
383.761	287.25
383.986	268.25
384.211	325.25
384.436	312.25
384.662	269.25
384.887	242.25
385.112	264.25
385.337	279.25
385.562	266.25
385.787	266.25
386.013	295.25
386.238	292.25
386.463	257.25
386.688	242.25
386.913	223.25
387.138	207.25
387.363	232.25
387.588	242.25
387.813	248.25
388.038	267.25
388.263	241.25
388.488	241.25
388.713	266.25
388.938	282.25
389.163	236.25
389.387	229.25
389.612	238.25
389.837	231.25
390.062	243.25
390.287	254.25
390.512	234.25
390.736	228.25
390.961	218.25
391.186	205.25
391.411	197.25
391.636	212.25
391.86	253.25
392.085	245.25
392.31	269.25
392.534	254.25
392.759	247.25
392.984	256.25
393.208	241.25
393.433	216.25
393.658	212.25
393.882	231.25
394.107	206.25
394.331	192.25
394.556	223.25
394.78	218.25
395.005	232.25
395.229	217.25
395.454	229.25
395.678	219.25
395.903	241.25
396.127	226.25
396.352	236.25
396.576	232.25
396.801	247.25
397.025	261.25
397.249	263.25
397.474	249.25
397.698	225.25
397.922	245.25
398.147	227.25
398.371	220.25
398.595	248.25
398.82	242.25
399.044	232.25
399.268	270.25
399.492	272.25
399.717	306.25
399.941	316.25
400.165	288.25
400.389	267.25
400.613	242.25
400.837	242.25
401.062	237.25
401.286	229.25
401.51	243.25
401.734	250.25
401.958	256.25
402.182	262.25
402.406	243.25
402.63	253.25
402.854	266.25
403.078	316.25
403.302	365.25
403.526	410.25
403.75	382.25
403.974	291.25
404.198	302.25
404.422	344.25
404.645	328.25
404.869	342.25
405.093	283.25
405.317	265.25
405.541	277.25
405.765	288.25
405.988	265.25
406.212	276.25
406.436	300.25
406.66	325.25
406.883	295.25
407.107	288.25
407.331	321.25
407.555	309.25
407.778	279.25
408.002	269.25
408.226	268.25
408.449	268.25
408.673	268.25
408.896	259.25
409.12	234.25
409.344	226.25
409.567	258.25
409.791	260.25
410.014	246.25
410.238	281.25
410.461	240.25
410.685	237.25
410.908	238.25
411.132	259.25
411.355	257.25
411.578	235.25
411.802	252.25
412.025	249.25
412.249	252.25
412.472	252.25
412.695	262.25
412.919	234.25
413.142	262.25
413.365	252.25
413.589	267.25
413.812	251.25
414.035	250.25
414.258	227.25
414.482	280.25
414.705	274.25
414.928	249.25
415.151	237.25
415.374	236.25
415.597	249.25
415.821	265.25
416.044	221.25
416.267	219.25
416.49	230.25
416.713	234.25
416.936	230.25
417.159	232.25
417.382	241.25
417.605	237.25
417.828	266.25
418.051	222.25
418.274	245.25
418.497	244.25
418.72	231.25
418.943	263.25
419.166	254.25
419.389	267.25
419.611	271.25
419.834	266.25
420.057	288.25
420.28	263.25
420.503	272.25
420.726	248.25
420.948	236.25
421.171	237.25
421.394	235.25
421.617	233.25
421.839	232.25
422.062	241.25
422.285	231.25
422.507	235.25
422.73	273.25
422.953	234.25
423.175	241.25
423.398	260.25
423.621	265.25
423.843	268.25
424.066	251.25
424.288	257.25
424.511	262.25
424.733	227.25
424.956	266.25
425.178	285.25
425.401	314.25
425.623	349.25
425.846	316.25
426.068	263.25
426.291	270.25
426.513	260.25
426.735	251.25
426.958	252.25
427.18	270.25
427.402	352.25
427.625	381.25
427.847	316.25
428.069	259.25
428.292	259.25
428.514	237.25
428.736	231.25
428.958	262.25
429.181	317.25
429.403	274.25
429.625	233.25
429.847	208.25
430.069	233.25
430.292	228.25
430.514	221.25
430.736	233.25
430.958	261.25
431.18	252.25
431.402	233.25
431.624	227.25
431.846	219.25
432.068	215.25
432.29	238.25
432.512	233.25
432.734	283.25
432.956	289.25
433.178	232.25
433.4	223.25
433.622	213.25
433.844	230.25
434.066	265.25
434.287	248.25
434.509	236.25
434.731	258.25
434.953	254.25
435.175	237.25
435.397	282.25
435.618	242.25
435.84	229.25
436.062	225.25
436.284	206.25
436.505	231.25
436.727	236.25
436.949	222.25
437.17	235.25
437.392	243.25
437.614	210.25
437.835	221.25
438.057	219.25
438.278	256.25
438.5	322.25
438.721	319.25
438.943	241.25
439.165	214.25
439.386	230.25
439.608	210.25
439.829	238.25
440.05	220.25
440.272	235.25
440.493	240.25
440.715	293.25
440.936	258.25
441.158	240.25
441.379	250.25
441.6	266.25
441.822	257.25
442.043	231.25
442.264	235.25
442.486	238.25
442.707	246.25
442.928	226.25
443.149	242.25
443.371	229.25
443.592	242.25
443.813	252.25
444.034	262.25
444.255	276.25
444.476	247.25
444.698	272.25
444.919	268.25
445.14	341.25
445.361	316.25
445.582	272.25
445.803	232.25
446.024	243.25
446.245	244.25
446.466	250.25
446.687	256.25
446.908	237.25
447.129	223.25
447.35	218.25
447.571	224.25
447.792	219.25
448.013	207.25
448.234	206.25
448.455	205.25
448.675	213.25
448.896	214.25
449.117	213.25
449.338	220.25
449.559	209.25
449.779	224.25
450	230.25
450.221	238.25
450.442	230.25
450.662	220.25
450.883	215.25
451.104	206.25
451.324	213.25
451.545	220.25
451.766	212.25
451.986	206.25
452.207	211.25
452.428	221.25
452.648	217.25
452.869	221.25
453.089	211.25
453.31	222.25
453.53	215.25
453.751	206.25
453.971	208.25
454.192	222.25
454.412	209.25
454.633	205.25
454.853	222.25
455.073	209.25
455.294	200.25
455.514	217.25
455.734	207.25
455.955	217.25
456.175	206.25
456.395	204.25
456.616	209.25
456.836	202.25
457.056	204.25
457.276	203.25
457.497	198.25
457.717	188.25
457.937	196.25
458.157	196.25
458.377	198.25
458.598	202.25
458.818	213.25
459.038	218.25
459.258	230.25
459.478	233.25
459.698	235.25
459.918	226.25
460.138	254.25
460.358	246.25
460.578	236.25
460.798	245.25
461.018	252.25
461.238	237.25
461.458	240.25
461.678	258.25
461.898	264.25
462.118	264.25
462.338	262.25
462.558	263.25
462.777	267.25
462.997	289.25
463.217	299.25
463.437	285.25
463.657	273.25
463.876	262.25
464.096	251.25
464.316	249.25
464.536	268.25
464.755	289.25
464.975	277.25
465.195	261.25
465.414	269.25
465.634	266.25
465.854	235.25
466.073	235.25
466.293	229.25
466.512	248.25
466.732	271.25
466.951	276.25
467.171	243.25
467.391	241.25
467.61	232.25
467.829	242.25
468.049	234.25
468.268	234.25
468.488	233.25
468.707	248.25
468.927	268.25
469.146	275.25
469.365	264.25
469.585	252.25
469.804	245.25
470.023	266.25
470.243	259.25
470.462	250.25
470.681	230.25
470.901	236.25
471.12	257.25
471.339	256.25
471.558	219.25
471.777	233.25
471.997	250.25
472.216	277.25
472.435	267.25
472.654	245.25
472.873	232.25
473.092	252.25
473.311	237.25
473.53	248.25
473.749	224.25
473.968	237.25
474.187	236.25
474.406	250.25
474.625	247.25
474.844	235.25
475.063	244.25
475.282	254.25
475.501	270.25
475.72	296.25
475.939	263.25
476.158	268.25
476.377	332.25
476.596	357.25
476.814	349.25
477.033	293.25
477.252	276.25
477.471	257.25
477.69	260.25
477.908	269.25
478.127	285.25
478.346	271.25
478.564	299.25
478.783	268.25
479.002	277.25
479.22	300.25
479.439	335.25
479.658	275.25
479.876	274.25
480.095	289.25
480.313	305.25
480.532	304.25
480.751	288.25
480.969	280.25
481.188	281.25
481.406	305.25
481.624	291.25
481.843	278.25
482.061	262.25
482.28	285.25
482.498	341.25
482.717	332.25
482.935	293.25
483.153	293.25
483.372	262.25
483.59	282.25
483.808	269.25
484.027	246.25
484.245	245.25
484.463	244.25
484.681	265.25
484.9	274.25
485.118	280.25
485.336	288.25
485.554	262.25
485.772	300.25
485.99	291.25
486.209	280.25
486.427	307.25
486.645	289.25
486.863	312.25
487.081	309.25
487.299	317.25
487.517	323.25
487.735	286.25
487.953	290.25
488.171	304.25
488.389	277.25
488.607	258.25
488.825	286.25
489.043	291.25
489.261	315.25
489.479	342.25
489.696	314.25
489.914	286.25
490.132	272.25
490.35	292.25
490.568	283.25
490.786	262.25
491.003	274.25
491.221	266.25
491.439	251.25
491.657	274.25
491.874	298.25
492.092	331.25
492.31	357.25
492.527	378.25
492.745	354.25
492.963	297.25
493.18	289.25
493.398	294.25
493.615	310.25
493.833	306.25
494.05	307.25
494.268	292.25
494.485	296.25
494.703	278.25
494.92	270.25
495.138	290.25
495.355	290.25
495.573	294.25
495.79	322.25
496.008	362.25
496.225	341.25
496.442	302.25
496.66	294.25
496.877	315.25
497.094	314.25
497.312	293.25
497.529	310.25
497.746	312.25
497.963	327.25
498.181	338.25
498.398	355.25
498.615	354.25
498.832	409.25
499.049	402.25
499.267	384.25
499.484	398.25
499.701	417.25
499.918	438.25
500.135	504.25
500.352	539.25
500.569	570.25
500.786	564.25
501.003	531.25
501.22	479.25
501.437	440.25
501.654	416.25
501.871	391.25
502.088	383.25
502.305	356.25
502.522	363.25
