Data from NickelSpatula.Lamp.E10.P2_HRD10591_11-58-04-530.txt Node
Date: Tue Jul 23 11:58:04 EDT 2019
User: cochatt
Spectrometer: HR+D1059
Trigger mode: 1
Integration Time (sec): 1.000000E-1
Scans to average: 1
Electric dark correction enabled: true
Nonlinearity correction enabled: false
Boxcar width: 0
XAxis mode: Wavelengths
Number of Pixels in Spectrum: 2048
>>>>>Begin Spectral Data<<<<<
223.165	-10.94
223.4	-10.94
223.635	-10.94
223.869	-19.94
224.104	-26.94
224.338	-20.94
224.573	-0.94
224.808	-16.94
225.042	-16.94
225.277	-12.94
225.511	4.06
225.746	-3.94
225.98	16.06
226.215	9.06
226.449	29.06
226.683	26.06
226.918	16.06
227.152	30.06
227.387	30.06
227.621	12.06
227.856	37.06
228.09	37.06
228.324	46.06
228.559	53.06
228.793	64.06
229.027	135.06
229.262	144.06
229.496	142.06
229.73	169.06
229.964	193.06
230.199	204.06
230.433	210.06
230.667	212.06
230.901	204.06
231.136	197.06
231.37	212.06
231.604	214.06
231.838	242.06
232.072	258.06
232.306	223.06
232.541	267.06
232.775	236.06
233.009	271.06
233.243	282.06
233.477	306.06
233.711	329.06
233.945	324.06
234.179	309.06
234.413	344.06
234.647	373.06
234.881	449.06
235.115	413.06
235.349	408.06
235.583	341.06
235.817	336.06
236.051	370.06
236.285	410.06
236.519	451.06
236.753	440.06
236.987	417.06
237.221	388.06
237.455	389.06
237.689	428.06
237.922	451.06
238.156	461.06
238.39	558.06
238.624	634.06
238.858	575.06
239.091	490.06
239.325	496.06
239.559	489.06
239.793	508.06
240.027	605.06
240.26	577.06
240.494	596.06
240.728	589.06
240.961	666.06
241.195	629.06
241.429	625.06
241.662	624.06
241.896	484.06
242.13	462.06
242.363	438.06
242.597	448.06
242.83	493.06
243.064	549.06
243.298	586.06
243.531	577.06
243.765	619.06
243.998	604.06
244.232	603.06
244.465	599.06
244.699	587.06
244.932	653.06
245.166	620.06
245.399	557.06
245.633	546.06
245.866	560.06
246.099	614.06
246.333	702.06
246.566	780.06
246.8	736.06
247.033	737.06
247.266	684.06
247.5	679.06
247.733	687.06
247.966	633.06
248.2	659.06
248.433	757.06
248.666	794.06
248.899	806.06
249.133	857.06
249.366	993.06
249.599	1063.06
249.832	956.06
250.066	804.06
250.299	820.06
250.532	792.06
250.765	786.06
250.998	734.06
251.231	727.06
251.465	765.06
251.698	830.06
251.931	778.06
252.164	847.06
252.397	922.06
252.63	1033.06
252.863	1121.06
253.096	1184.06
253.329	1108.06
253.562	1061.06
253.795	1158.06
254.028	1338.06
254.261	1349.06
254.494	1206.06
254.727	1121.06
254.96	1096.06
255.193	1159.06
255.426	1093.06
255.659	835.06
255.892	767.06
256.124	830.06
256.357	983.06
256.59	1146.06
256.823	1101.06
257.056	972.06
257.289	904.06
257.521	957.06
257.754	1120.06
257.987	1269.06
258.22	1104.06
258.452	992.06
258.685	1149.06
258.918	1281.06
259.151	1228.06
259.383	1285.06
259.616	1478.06
259.849	1542.06
260.081	1706.06
260.314	1818.06
260.547	1426.06
260.779	1454.06
261.012	1695.06
261.244	1585.06
261.477	1604.06
261.71	1487.06
261.942	1287.06
262.175	1229.06
262.407	1188.06
262.64	1237.06
262.872	1482.06
263.105	1597.06
263.337	1710.06
263.57	1522.06
263.802	995.06
264.035	906.06
264.267	860.06
264.499	766.06
264.732	702.06
264.964	674.06
265.197	711.06
265.429	776.06
265.661	822.06
265.894	869.06
266.126	902.06
266.358	1002.06
266.591	1232.06
266.823	1462.06
267.055	1391.06
267.287	1210.06
267.52	1246.06
267.752	1252.06
267.984	1430.06
268.216	1355.06
268.448	1104.06
268.681	1091.06
268.913	1179.06
269.145	1225.06
269.377	1259.06
269.609	1261.06
269.841	1182.06
270.073	1267.06
270.306	1327.06
270.538	1342.06
270.77	1348.06
271.002	1355.06
271.234	1435.06
271.466	1479.06
271.698	1441.06
271.93	1376.06
272.162	1388.06
272.394	1381.06
272.626	1362.06
272.858	1422.06
273.09	1438.06
273.322	1265.06
273.553	1239.06
273.785	1448.06
274.017	1916.06
274.249	2395.06
274.481	2498.06
274.713	2680.06
274.945	3052.06
275.176	3215.06
275.408	2815.06
275.64	2609.06
275.872	2532.06
276.104	2147.06
276.335	1886.06
276.567	1846.06
276.799	1904.06
277.031	2022.06
277.262	1574.06
277.494	1213.06
277.726	1203.06
277.957	1312.06
278.189	1483.06
278.421	1448.06
278.652	1367.06
278.884	1357.06
279.115	1234.06
279.347	1164.06
279.579	1175.06
279.81	1200.06
280.042	1170.06
280.273	1223.06
280.505	1112.06
280.736	993.06
280.968	981.06
281.199	1063.06
281.431	1235.06
281.662	1205.06
281.894	1162.06
282.125	1240.06
282.356	1327.06
282.588	1389.06
282.819	1255.06
283.051	1338.06
283.282	1632.06
283.513	1918.06
283.745	2151.06
283.976	2130.06
284.207	1938.06
284.439	2068.06
284.67	1977.06
284.901	1751.06
285.132	1878.06
285.364	1980.06
285.595	1841.06
285.826	1970.06
286.057	1954.06
286.288	1932.06
286.52	1987.06
286.751	2034.06
286.982	2051.06
287.213	1770.06
287.444	1705.06
287.675	1838.06
287.906	1779.06
288.138	1509.06
288.369	1322.06
288.6	1257.06
288.831	1311.06
289.062	1514.06
289.293	1694.06
289.524	1611.06
289.755	1582.06
289.986	1641.06
290.217	1396.06
290.448	1084.06
290.679	950.06
290.91	908.06
291.141	898.06
291.371	938.06
291.602	932.06
291.833	979.06
292.064	1047.06
292.295	1196.06
292.526	1392.06
292.757	1422.06
292.987	1518.06
293.218	1525.06
293.449	1530.06
293.68	1628.06
293.91	1584.06
294.141	1573.06
294.372	1468.06
294.603	1385.06
294.833	1545.06
295.064	1806.06
295.295	1714.06
295.525	1263.06
295.756	1114.06
295.987	983.06
296.217	988.06
296.448	1029.06
296.679	1072.06
296.909	1176.06
297.14	1299.06
297.37	1394.06
297.601	1334.06
297.831	1159.06
298.062	1219.06
298.292	1423.06
298.523	1544.06
298.753	1720.06
298.984	1552.06
299.214	1259.06
299.445	1078.06
299.675	1022.06
299.905	981.06
300.136	1020.06
300.366	1166.06
300.597	1113.06
300.827	997.06
301.057	971.06
301.288	1000.06
301.518	1071.06
301.748	1200.06
301.979	1287.06
302.209	1426.06
302.439	1404.06
302.669	1240.06
302.9	1206.06
303.13	1119.06
303.36	1062.06
303.59	1016.06
303.82	1069.06
304.051	1234.06
304.281	1282.06
304.511	1234.06
304.741	1112.06
304.971	1175.06
305.201	1268.06
305.431	1179.06
305.661	1024.06
305.891	1019.06
306.121	1021.06
306.352	919.06
306.582	875.06
306.812	844.06
307.042	856.06
307.272	791.06
307.502	790.06
307.731	848.06
307.961	892.06
308.191	868.06
308.421	793.06
308.651	798.06
308.881	762.06
309.111	770.06
309.341	810.06
309.571	848.06
309.8	911.06
310.03	915.06
310.26	973.06
310.49	948.06
310.72	846.06
310.949	848.06
311.179	839.06
311.409	902.06
311.639	1077.06
311.868	1371.06
312.098	1759.06
312.328	1904.06
312.557	1832.06
312.787	1865.06
313.017	1587.06
313.246	1775.06
313.476	1919.06
313.706	1579.06
313.935	1249.06
314.165	1008.06
314.394	922.06
314.624	909.06
314.853	1017.06
315.083	1039.06
315.312	1008.06
315.542	988.06
315.771	928.06
316.001	837.06
316.23	799.06
316.46	813.06
316.689	858.06
316.919	854.06
317.148	871.06
317.377	874.06
317.607	898.06
317.836	926.06
318.065	1069.06
318.295	1188.06
318.524	1126.06
318.753	951.06
318.983	910.06
319.212	923.06
319.441	1002.06
319.67	1105.06
319.9	1156.06
320.129	1132.06
320.358	955.06
320.587	910.06
320.816	993.06
321.046	1138.06
321.275	1304.06
321.504	1258.06
321.733	1245.06
321.962	1179.06
322.191	1123.06
322.42	1072.06
322.649	1076.06
322.878	1170.06
323.108	1180.06
323.337	1056.06
323.566	1059.06
323.795	1045.06
324.024	997.06
324.253	954.06
324.482	959.06
324.71	1072.06
324.939	1179.06
325.168	1081.06
325.397	906.06
325.626	898.06
325.855	909.06
326.084	903.06
326.313	855.06
326.542	846.06
326.77	879.06
326.999	863.06
327.228	954.06
327.457	1002.06
327.686	1000.06
327.914	871.06
328.143	815.06
328.372	812.06
328.6	838.06
328.829	875.06
329.058	871.06
329.287	874.06
329.515	884.06
329.744	880.06
329.972	814.06
330.201	808.06
330.43	856.06
330.658	907.06
330.887	1063.06
331.115	1027.06
331.344	989.06
331.572	972.06
331.801	866.06
332.03	860.06
332.258	863.06
332.486	914.06
332.715	951.06
332.943	894.06
333.172	905.06
333.4	914.06
333.629	1005.06
333.857	1083.06
334.085	1092.06
334.314	1063.06
334.542	1007.06
334.771	934.06
334.999	927.06
335.227	915.06
335.455	915.06
335.684	1004.06
335.912	1158.06
336.14	1278.06
336.369	1240.06
336.597	1200.06
336.825	1345.06
337.053	1490.06
337.281	1214.06
337.51	928.06
337.738	960.06
337.966	1011.06
338.194	1154.06
338.422	1121.06
338.65	927.06
338.878	866.06
339.106	862.06
339.334	1000.06
339.562	1056.06
339.79	987.06
340.018	949.06
340.246	1032.06
340.474	1180.06
340.702	1238.06
340.93	1266.06
341.158	1262.06
341.386	1072.06
341.614	1062.06
341.842	1069.06
342.07	1125.06
342.298	1330.06
342.526	1344.06
342.754	1165.06
342.981	1076.06
343.209	1059.06
343.437	1114.06
343.665	1126.06
343.893	1139.06
344.12	1328.06
344.348	1545.06
344.576	1375.06
344.804	1150.06
345.031	1018.06
345.259	934.06
345.487	958.06
345.714	996.06
345.942	1066.06
346.17	1162.06
346.397	1095.06
346.625	954.06
346.853	968.06
347.08	958.06
347.308	1008.06
347.535	1078.06
347.763	1109.06
347.99	948.06
348.218	908.06
348.445	942.06
348.673	948.06
348.9	948.06
349.128	1063.06
349.355	1070.06
349.583	1037.06
349.81	1013.06
350.037	915.06
350.265	828.06
350.492	788.06
350.72	760.06
350.947	834.06
351.174	859.06
351.402	901.06
351.629	940.06
351.856	892.06
352.083	881.06
352.311	961.06
352.538	1030.06
352.765	1107.06
352.992	1029.06
353.22	940.06
353.447	961.06
353.674	958.06
353.901	944.06
354.128	963.06
354.355	977.06
354.583	938.06
354.81	950.06
355.037	993.06
355.264	983.06
355.491	1047.06
355.718	1123.06
355.945	1111.06
356.172	1050.06
356.399	1088.06
356.626	1291.06
356.853	1554.06
357.08	1655.06
357.307	1677.06
357.534	1332.06
357.761	1359.06
357.988	1707.06
358.215	1966.06
358.441	1858.06
358.668	1559.06
358.895	1456.06
359.122	1166.06
359.349	1160.06
359.576	1290.06
359.802	1060.06
360.029	906.06
360.256	987.06
360.483	1222.06
360.709	1557.06
360.936	1631.06
361.163	1398.06
361.39	1105.06
361.616	1016.06
361.843	1180.06
362.07	1406.06
362.296	1341.06
362.523	1078.06
362.749	933.06
362.976	952.06
363.203	1174.06
363.429	1331.06
363.656	1031.06
363.882	972.06
364.109	979.06
364.335	952.06
364.562	966.06
364.788	1048.06
365.015	1243.06
365.241	1154.06
365.468	926.06
365.694	837.06
365.92	777.06
366.147	772.06
366.373	760.06
366.599	782.06
366.826	790.06
367.052	809.06
367.278	835.06
367.505	801.06
367.731	881.06
367.957	979.06
368.184	1017.06
368.41	978.06
368.636	1017.06
368.862	1010.06
369.089	964.06
369.315	897.06
369.541	838.06
369.767	844.06
369.993	822.06
370.219	840.06
370.445	860.06
370.672	974.06
370.898	1055.06
371.124	1039.06
371.35	923.06
371.576	874.06
371.802	939.06
372.028	1122.06
372.254	1282.06
372.48	1091.06
372.706	1007.06
372.932	1051.06
373.158	1118.06
373.384	1355.06
373.61	1748.06
373.835	1797.06
374.061	1356.06
374.287	1148.06
374.513	1319.06
374.739	1574.06
374.965	1662.06
375.191	1624.06
375.416	1148.06
375.642	999.06
375.868	1165.06
376.094	1310.06
376.319	1134.06
376.545	1236.06
376.771	1324.06
376.997	1140.06
377.222	836.06
377.448	766.06
377.674	734.06
377.899	742.06
378.125	746.06
378.35	747.06
378.576	778.06
378.802	830.06
379.027	889.06
379.253	847.06
379.478	904.06
379.704	997.06
379.929	1022.06
380.155	1020.06
380.38	949.06
380.606	966.06
380.831	1072.06
381.057	973.06
381.282	941.06
381.507	1121.06
381.733	1408.06
381.958	1466.06
382.184	1622.06
382.409	1645.06
382.634	1597.06
382.86	1667.06
383.085	1375.06
383.31	1088.06
383.535	1178.06
383.761	1189.06
383.986	1148.06
384.211	1371.06
384.436	1290.06
384.662	1032.06
384.887	984.06
385.112	1028.06
385.337	1024.06
385.562	990.06
385.787	1096.06
386.013	1178.06
386.238	1255.06
386.463	1012.06
386.688	958.06
386.913	942.06
387.138	877.06
387.363	919.06
387.588	959.06
387.813	964.06
388.038	1067.06
388.263	946.06
388.488	945.06
388.713	1105.06
388.938	1176.06
389.163	1025.06
389.387	908.06
389.612	908.06
389.837	934.06
390.062	955.06
390.287	982.06
390.512	981.06
390.736	937.06
390.961	876.06
391.186	848.06
391.411	835.06
391.636	839.06
391.86	912.06
392.085	975.06
392.31	986.06
392.534	906.06
392.759	931.06
392.984	949.06
393.208	935.06
393.433	857.06
393.658	787.06
393.882	776.06
394.107	772.06
394.331	795.06
394.556	772.06
394.78	803.06
395.005	820.06
395.229	864.06
395.454	875.06
395.678	860.06
395.903	880.06
396.127	856.06
396.352	854.06
396.576	922.06
396.801	981.06
397.025	1103.06
397.249	1126.06
397.474	940.06
397.698	896.06
397.922	953.06
398.147	892.06
398.371	891.06
398.595	963.06
398.82	906.06
399.044	943.06
399.268	991.06
399.492	1050.06
399.717	1070.06
399.941	1095.06
400.165	1015.06
400.389	1021.06
400.613	1036.06
400.837	1003.06
401.062	911.06
401.286	879.06
401.51	897.06
401.734	914.06
401.958	890.06
402.182	890.06
402.406	896.06
402.63	902.06
402.854	956.06
403.078	1068.06
403.302	1261.06
403.526	1320.06
403.75	1204.06
403.974	1032.06
404.198	1068.06
404.422	1219.06
404.645	1392.06
404.869	1542.06
405.093	1143.06
405.317	1003.06
405.541	965.06
405.765	1004.06
405.988	982.06
406.212	1095.06
406.436	1282.06
406.66	1398.06
406.883	1107.06
407.107	1146.06
407.331	1342.06
407.555	1276.06
407.778	1064.06
408.002	1023.06
408.226	1045.06
408.449	1031.06
408.673	991.06
408.896	947.06
409.12	908.06
409.344	901.06
409.567	880.06
409.791	878.06
410.014	890.06
410.238	868.06
410.461	876.06
410.685	865.06
410.908	906.06
411.132	917.06
411.355	934.06
411.578	938.06
411.802	938.06
412.025	963.06
412.249	966.06
412.472	926.06
412.695	932.06
412.919	956.06
413.142	988.06
413.365	1042.06
413.589	1038.06
413.812	964.06
414.035	892.06
414.258	939.06
414.482	1013.06
414.705	1071.06
414.928	892.06
415.151	861.06
415.374	850.06
415.597	900.06
415.821	890.06
416.044	852.06
416.267	862.06
416.49	862.06
416.713	827.06
416.936	862.06
417.159	874.06
417.382	888.06
417.605	863.06
417.828	933.06
418.051	909.06
418.274	911.06
418.497	926.06
418.72	903.06
418.943	944.06
419.166	984.06
419.389	1018.06
419.611	978.06
419.834	1023.06
420.057	1114.06
420.28	1099.06
420.503	994.06
420.726	900.06
420.948	862.06
421.171	914.06
421.394	881.06
421.617	849.06
421.839	878.06
422.062	913.06
422.285	919.06
422.507	927.06
422.73	935.06
422.953	949.06
423.175	927.06
423.398	934.06
423.621	1007.06
423.843	1057.06
424.066	992.06
424.288	940.06
424.511	902.06
424.733	875.06
424.956	946.06
425.178	1053.06
425.401	1218.06
425.623	1363.06
425.846	1126.06
426.068	978.06
426.291	1103.06
426.513	1005.06
426.735	926.06
426.958	974.06
427.18	1145.06
427.402	1488.06
427.625	1426.06
427.847	1178.06
428.069	898.06
428.292	905.06
428.514	900.06
428.736	835.06
428.958	963.06
429.181	1088.06
429.403	963.06
429.625	895.06
429.847	850.06
430.069	900.06
430.292	902.06
430.514	855.06
430.736	960.06
430.958	1180.06
431.18	1083.06
431.402	842.06
431.624	800.06
431.846	801.06
432.068	784.06
432.29	817.06
432.512	896.06
432.734	1196.06
432.956	1111.06
433.178	863.06
433.4	831.06
433.622	859.06
433.844	844.06
434.066	910.06
434.287	912.06
434.509	855.06
434.731	902.06
434.953	846.06
435.175	884.06
435.397	1037.06
435.618	869.06
435.84	841.06
436.062	832.06
436.284	831.06
436.505	781.06
436.727	786.06
436.949	809.06
437.17	825.06
437.392	840.06
437.614	823.06
437.835	797.06
438.057	851.06
438.278	978.06
438.5	1354.06
438.721	1369.06
438.943	923.06
439.165	790.06
439.386	778.06
439.608	786.06
439.829	807.06
440.05	776.06
440.272	861.06
440.493	966.06
440.715	1200.06
440.936	998.06
441.158	840.06
441.379	845.06
441.6	972.06
441.822	1031.06
442.043	885.06
442.264	868.06
442.486	860.06
442.707	882.06
442.928	854.06
443.149	876.06
443.371	882.06
443.592	924.06
443.813	928.06
444.034	894.06
444.255	891.06
444.476	942.06
444.698	897.06
444.919	912.06
445.14	1047.06
445.361	992.06
445.582	950.06
445.803	930.06
446.024	934.06
446.245	903.06
446.466	904.06
446.687	869.06
446.908	869.06
447.129	831.06
447.35	790.06
447.571	789.06
447.792	801.06
448.013	782.06
448.234	770.06
448.455	770.06
448.675	785.06
448.896	802.06
449.117	795.06
449.338	789.06
449.559	803.06
449.779	861.06
450	856.06
450.221	851.06
450.442	819.06
450.662	779.06
450.883	788.06
451.104	840.06
451.324	783.06
451.545	819.06
451.766	802.06
451.986	787.06
452.207	746.06
452.428	748.06
452.648	784.06
452.869	832.06
453.089	837.06
453.31	832.06
453.53	751.06
453.751	750.06
453.971	708.06
454.192	772.06
454.412	771.06
454.633	731.06
454.853	732.06
455.073	746.06
455.294	689.06
455.514	761.06
455.734	766.06
455.955	777.06
456.175	833.06
456.395	753.06
456.616	719.06
456.836	712.06
457.056	717.06
457.276	707.06
457.497	700.06
457.717	731.06
457.937	714.06
458.157	703.06
458.377	718.06
458.598	741.06
458.818	750.06
459.038	800.06
459.258	828.06
459.478	846.06
459.698	912.06
459.918	887.06
460.138	888.06
460.358	895.06
460.578	824.06
460.798	881.06
461.018	895.06
461.238	858.06
461.458	832.06
461.678	876.06
461.898	914.06
462.118	889.06
462.338	914.06
462.558	950.06
462.777	988.06
462.997	1008.06
463.217	990.06
463.437	1002.06
463.657	1009.06
463.876	942.06
464.096	967.06
464.316	945.06
464.536	935.06
464.755	978.06
464.975	1004.06
465.195	918.06
465.414	973.06
465.634	951.06
465.854	919.06
466.073	871.06
466.293	879.06
466.512	929.06
466.732	1008.06
466.951	1023.06
467.171	910.06
467.391	842.06
467.61	867.06
467.829	899.06
468.049	921.06
468.268	880.06
468.488	890.06
468.707	919.06
468.927	1047.06
469.146	1102.06
469.365	1024.06
469.585	934.06
469.804	981.06
470.023	1090.06
470.243	967.06
470.462	891.06
470.681	888.06
470.901	921.06
471.12	942.06
471.339	965.06
471.558	919.06
471.777	918.06
471.997	973.06
472.216	1114.06
472.435	1052.06
472.654	950.06
472.873	922.06
473.092	979.06
473.311	1023.06
473.53	966.06
473.749	942.06
473.968	984.06
474.187	963.06
474.406	940.06
474.625	894.06
474.844	938.06
475.063	1006.06
475.282	1000.06
475.501	1070.06
475.72	1100.06
475.939	1077.06
476.158	1083.06
476.377	1239.06
476.596	1450.06
476.814	1480.06
477.033	1223.06
477.252	1063.06
477.471	980.06
477.69	984.06
477.908	1117.06
478.127	1110.06
478.346	1042.06
478.564	1138.06
478.783	1088.06
479.002	1104.06
479.22	1252.06
479.439	1383.06
479.658	1214.06
479.876	1108.06
480.095	1188.06
480.313	1198.06
480.532	1080.06
480.751	1069.06
480.969	1091.06
481.188	1251.06
481.406	1298.06
481.624	1236.06
481.843	1154.06
482.061	1052.06
482.28	1162.06
482.498	1454.06
482.717	1330.06
482.935	1185.06
483.153	1144.06
483.372	1032.06
483.59	1062.06
483.808	1056.06
484.027	1021.06
484.245	974.06
484.463	976.06
484.681	999.06
484.9	1102.06
485.118	1166.06
485.336	1109.06
485.554	1038.06
485.772	1074.06
485.99	1180.06
486.209	1203.06
486.427	1219.06
486.645	1188.06
486.863	1250.06
487.081	1239.06
487.299	1359.06
487.517	1310.06
487.735	1187.06
487.953	1213.06
488.171	1252.06
488.389	1182.06
488.607	1090.06
488.825	1161.06
489.043	1249.06
489.261	1406.06
489.479	1540.06
489.696	1265.06
489.914	1189.06
490.132	1108.06
490.35	1099.06
490.568	1130.06
490.786	1124.06
491.003	1158.06
491.221	1157.06
491.439	1140.06
491.657	1130.06
491.874	1236.06
492.092	1491.06
492.31	1715.06
492.527	1715.06
492.745	1473.06
492.963	1312.06
493.18	1278.06
493.398	1266.06
493.615	1275.06
493.833	1244.06
494.05	1218.06
494.268	1245.06
494.485	1231.06
494.703	1205.06
