Data from NickelSpatula.Lamp.E5.5.P2_HRD10591_11-51-24-562.txt Node
Date: Tue Jul 23 11:51:24 EDT 2019
User: cochatt
Spectrometer: HR+D1059
Trigger mode: 1
Integration Time (sec): 1.000000E-1
Scans to average: 1
Electric dark correction enabled: true
Nonlinearity correction enabled: false
Boxcar width: 0
XAxis mode: Wavelengths
Number of Pixels in Spectrum: 2048
>>>>>Begin Spectral Data<<<<<
223.165	-1.31
223.4	-1.31
223.635	-1.31
223.869	-22.31
224.104	-26.31
224.338	-19.31
224.573	-21.31
224.808	-4.31
225.042	-12.31
225.277	-9.31
225.511	2.69
225.746	-2.31
225.98	6.69
226.215	19.69
226.449	9.69
226.683	13.69
226.918	28.69
227.152	37.69
227.387	36.69
227.621	40.69
227.856	43.69
228.09	36.69
228.324	42.69
228.559	56.69
228.793	62.69
229.027	67.69
229.262	79.69
229.496	63.69
229.73	68.69
229.964	83.69
230.199	77.69
230.433	86.69
230.667	89.69
230.901	94.69
231.136	100.69
231.37	91.69
231.604	100.69
231.838	87.69
232.072	93.69
232.306	96.69
232.541	104.69
232.775	105.69
233.009	115.69
233.243	117.69
233.477	129.69
233.711	121.69
233.945	104.69
234.179	107.69
234.413	110.69
234.647	120.69
234.881	127.69
235.115	113.69
235.349	120.69
235.583	125.69
235.817	109.69
236.051	125.69
236.285	133.69
236.519	132.69
236.753	137.69
236.987	122.69
237.221	132.69
237.455	135.69
237.689	134.69
237.922	126.69
238.156	127.69
238.39	147.69
238.624	139.69
238.858	131.69
239.091	130.69
239.325	133.69
239.559	140.69
239.793	143.69
240.027	160.69
240.26	149.69
240.494	161.69
240.728	152.69
240.961	175.69
241.195	166.69
241.429	162.69
241.662	159.69
241.896	156.69
242.13	153.69
242.363	133.69
242.597	146.69
242.83	125.69
243.064	153.69
243.298	161.69
243.531	159.69
243.765	159.69
243.998	152.69
244.232	151.69
244.465	156.69
244.699	155.69
244.932	168.69
245.166	161.69
245.399	151.69
245.633	144.69
245.866	144.69
246.099	150.69
246.333	175.69
246.566	173.69
246.8	188.69
247.033	191.69
247.266	167.69
247.5	152.69
247.733	158.69
247.966	161.69
248.2	171.69
248.433	181.69
248.666	192.69
248.899	181.69
249.133	178.69
249.366	215.69
249.599	208.69
249.832	204.69
250.066	184.69
250.299	191.69
250.532	191.69
250.765	177.69
250.998	192.69
251.231	156.69
251.465	181.69
251.698	187.69
251.931	191.69
252.164	187.69
252.397	192.69
252.63	243.69
252.863	228.69
253.096	249.69
253.329	267.69
253.562	227.69
253.795	260.69
254.028	281.69
254.261	284.69
254.494	253.69
254.727	239.69
254.96	231.69
255.193	247.69
255.426	231.69
255.659	181.69
255.892	178.69
256.124	220.69
256.357	238.69
256.59	271.69
256.823	240.69
257.056	220.69
257.289	214.69
257.521	213.69
257.754	243.69
257.987	269.69
258.22	239.69
258.452	220.69
258.685	237.69
258.918	253.69
259.151	262.69
259.383	259.69
259.616	306.69
259.849	319.69
260.081	341.69
260.314	373.69
260.547	311.69
260.779	310.69
261.012	354.69
261.244	348.69
261.477	320.69
261.71	310.69
261.942	277.69
262.175	273.69
262.407	256.69
262.64	261.69
262.872	284.69
263.105	317.69
263.337	348.69
263.57	310.69
263.802	242.69
264.035	219.69
264.267	207.69
264.499	189.69
264.732	167.69
264.964	154.69
265.197	190.69
265.429	198.69
265.661	192.69
265.894	200.69
266.126	195.69
266.358	246.69
266.591	272.69
266.823	296.69
267.055	290.69
267.287	277.69
267.52	266.69
267.752	274.69
267.984	314.69
268.216	282.69
268.448	261.69
268.681	223.69
268.913	264.69
269.145	276.69
269.377	283.69
269.609	289.69
269.841	283.69
270.073	279.69
270.306	297.69
270.538	292.69
270.77	309.69
271.002	319.69
271.234	325.69
271.466	317.69
271.698	258.69
271.93	277.69
272.162	300.69
272.394	291.69
272.626	283.69
272.858	312.69
273.09	288.69
273.322	253.69
273.553	239.69
273.785	290.69
274.017	353.69
274.249	435.69
274.481	471.69
274.713	485.69
274.945	569.69
275.176	559.69
275.408	496.69
275.64	472.69
275.872	469.69
276.104	428.69
276.335	389.69
276.567	391.69
276.799	382.69
277.031	401.69
277.262	305.69
277.494	272.69
277.726	261.69
277.957	276.69
278.189	301.69
278.421	306.69
278.652	283.69
278.884	278.69
279.115	265.69
279.347	258.69
279.579	273.69
279.81	253.69
280.042	273.69
280.273	283.69
280.505	261.69
280.736	229.69
280.968	239.69
281.199	246.69
281.431	272.69
281.662	251.69
281.894	263.69
282.125	264.69
282.356	286.69
282.588	288.69
282.819	272.69
283.051	260.69
283.282	339.69
283.513	376.69
283.745	401.69
283.976	425.69
284.207	375.69
284.439	415.69
284.67	402.69
284.901	362.69
285.132	376.69
285.364	396.69
285.595	359.69
285.826	367.69
286.057	382.69
286.288	377.69
286.52	373.69
286.751	390.69
286.982	420.69
287.213	341.69
287.444	368.69
287.675	387.69
287.906	368.69
288.138	329.69
288.369	287.69
288.6	276.69
288.831	280.69
289.062	352.69
289.293	367.69
289.524	335.69
289.755	344.69
289.986	339.69
290.217	309.69
290.448	246.69
290.679	236.69
290.91	238.69
291.141	229.69
291.371	219.69
291.602	239.69
291.833	229.69
292.064	228.69
292.295	262.69
292.526	279.69
292.757	300.69
292.987	333.69
293.218	322.69
293.449	347.69
293.68	365.69
293.91	335.69
294.141	362.69
294.372	328.69
294.603	305.69
294.833	331.69
295.064	364.69
295.295	383.69
295.525	307.69
295.756	267.69
295.987	225.69
296.217	229.69
296.448	231.69
296.679	248.69
296.909	269.69
297.14	279.69
297.37	299.69
297.601	283.69
297.831	241.69
298.062	276.69
298.292	304.69
298.523	320.69
298.753	340.69
298.984	329.69
299.214	287.69
299.445	248.69
299.675	223.69
299.905	251.69
300.136	224.69
300.366	267.69
300.597	255.69
300.827	230.69
301.057	236.69
301.288	233.69
301.518	245.69
301.748	265.69
301.979	291.69
302.209	311.69
302.439	302.69
302.669	255.69
302.9	265.69
303.13	242.69
303.36	270.69
303.59	255.69
303.82	236.69
304.051	270.69
304.281	292.69
304.511	300.69
304.741	255.69
304.971	269.69
305.201	272.69
305.431	274.69
305.661	242.69
305.891	230.69
306.121	248.69
306.352	220.69
306.582	200.69
306.812	200.69
307.042	205.69
307.272	196.69
307.502	216.69
307.731	207.69
307.961	199.69
308.191	193.69
308.421	183.69
308.651	203.69
308.881	172.69
309.111	194.69
309.341	192.69
309.571	203.69
309.8	203.69
310.03	223.69
310.26	225.69
310.49	215.69
310.72	212.69
310.949	193.69
311.179	216.69
311.409	226.69
311.639	235.69
311.868	291.69
312.098	343.69
312.328	372.69
312.557	368.69
312.787	371.69
313.017	330.69
313.246	367.69
313.476	382.69
313.706	328.69
313.935	279.69
314.165	232.69
314.394	216.69
314.624	198.69
314.853	229.69
315.083	240.69
315.312	248.69
315.542	231.69
315.771	212.69
316.001	191.69
316.23	206.69
316.46	196.69
316.689	193.69
316.919	203.69
317.148	206.69
317.377	209.69
317.607	214.69
317.836	220.69
318.065	218.69
318.295	259.69
318.524	245.69
318.753	214.69
318.983	199.69
319.212	203.69
319.441	225.69
319.67	249.69
319.9	266.69
320.129	243.69
320.358	230.69
320.587	214.69
320.816	219.69
321.046	240.69
321.275	270.69
321.504	278.69
321.733	272.69
321.962	232.69
322.191	236.69
322.42	243.69
322.649	227.69
322.878	260.69
323.108	260.69
323.337	248.69
323.566	255.69
323.795	238.69
324.024	244.69
324.253	227.69
324.482	211.69
324.71	235.69
324.939	271.69
325.168	238.69
325.397	221.69
325.626	213.69
325.855	221.69
326.084	225.69
326.313	201.69
326.542	228.69
326.77	218.69
326.999	218.69
327.228	225.69
327.457	221.69
327.686	235.69
327.914	225.69
328.143	194.69
328.372	219.69
328.6	201.69
328.829	189.69
329.058	205.69
329.287	192.69
329.515	203.69
329.744	197.69
329.972	213.69
330.201	202.69
330.43	201.69
330.658	207.69
330.887	232.69
331.115	243.69
331.344	223.69
331.572	227.69
331.801	213.69
332.03	228.69
332.258	208.69
332.486	213.69
332.715	239.69
332.943	216.69
333.172	219.69
333.4	232.69
333.629	245.69
333.857	267.69
334.085	255.69
334.314	235.69
334.542	243.69
334.771	233.69
334.999	232.69
335.227	220.69
335.455	216.69
335.684	237.69
335.912	273.69
336.14	286.69
336.369	268.69
336.597	271.69
336.825	289.69
337.053	324.69
337.281	263.69
337.51	236.69
337.738	215.69
337.966	227.69
338.194	254.69
338.422	253.69
338.65	204.69
338.878	195.69
339.106	199.69
339.334	221.69
339.562	226.69
339.79	231.69
340.018	219.69
340.246	231.69
340.474	248.69
340.702	265.69
340.93	277.69
341.158	265.69
341.386	231.69
341.614	236.69
341.842	248.69
342.07	252.69
342.298	270.69
342.526	288.69
342.754	254.69
342.981	239.69
343.209	223.69
343.437	224.69
343.665	277.69
343.893	275.69
344.12	300.69
344.348	374.69
344.576	336.69
344.804	268.69
345.031	245.69
345.259	219.69
345.487	235.69
345.714	234.69
345.942	244.69
346.17	257.69
346.397	246.69
346.625	223.69
346.853	233.69
347.08	217.69
347.308	220.69
347.535	257.69
347.763	283.69
347.99	228.69
348.218	211.69
348.445	244.69
348.673	230.69
348.9	225.69
349.128	227.69
349.355	253.69
349.583	243.69
349.81	230.69
350.037	224.69
350.265	193.69
350.492	196.69
350.72	190.69
350.947	195.69
351.174	207.69
351.402	223.69
351.629	223.69
351.856	215.69
352.083	214.69
352.311	224.69
352.538	250.69
352.765	241.69
352.992	238.69
353.22	237.69
353.447	244.69
353.674	220.69
353.901	226.69
354.128	207.69
354.355	227.69
354.583	225.69
354.81	244.69
355.037	246.69
355.264	237.69
355.491	231.69
355.718	253.69
355.945	249.69
356.172	267.69
356.399	239.69
356.626	281.69
356.853	311.69
357.08	349.69
357.307	345.69
357.534	296.69
357.761	303.69
357.988	379.69
358.215	417.69
358.441	388.69
358.668	324.69
358.895	316.69
359.122	280.69
359.349	268.69
359.576	293.69
359.802	257.69
360.029	231.69
360.256	235.69
360.483	275.69
360.709	341.69
360.936	347.69
361.163	290.69
361.39	263.69
361.616	231.69
361.843	241.69
362.07	294.69
362.296	289.69
362.523	247.69
362.749	236.69
362.976	229.69
363.203	257.69
363.429	280.69
363.656	247.69
363.882	220.69
364.109	228.69
364.335	220.69
364.562	217.69
364.788	257.69
365.015	269.69
365.241	242.69
365.468	225.69
365.694	195.69
365.92	203.69
366.147	197.69
366.373	209.69
366.599	211.69
366.826	193.69
367.052	196.69
367.278	184.69
367.505	198.69
367.731	220.69
367.957	221.69
368.184	230.69
368.41	228.69
368.636	227.69
368.862	233.69
369.089	229.69
369.315	197.69
369.541	210.69
369.767	210.69
369.993	224.69
370.219	201.69
370.445	217.69
370.672	255.69
370.898	241.69
371.124	243.69
371.35	234.69
371.576	223.69
371.802	233.69
372.028	245.69
372.254	287.69
372.48	254.69
372.706	229.69
372.932	239.69
373.158	262.69
373.384	301.69
373.61	368.69
373.835	366.69
374.061	288.69
374.287	256.69
374.513	310.69
374.739	360.69
374.965	343.69
375.191	341.69
375.416	256.69
375.642	226.69
375.868	257.69
376.094	286.69
376.319	251.69
376.545	261.69
376.771	273.69
376.997	253.69
377.222	212.69
377.448	195.69
377.674	184.69
377.899	193.69
378.125	185.69
378.35	185.69
378.576	190.69
378.802	210.69
379.027	206.69
379.253	212.69
379.478	210.69
379.704	241.69
379.929	251.69
380.155	239.69
380.38	240.69
380.606	223.69
380.831	267.69
381.057	254.69
381.282	215.69
381.507	249.69
381.733	294.69
381.958	334.69
382.184	327.69
382.409	340.69
382.634	350.69
382.86	341.69
383.085	317.69
383.31	265.69
383.535	271.69
383.761	281.69
383.986	273.69
384.211	303.69
384.436	320.69
384.662	236.69
384.887	253.69
385.112	239.69
385.337	218.69
385.562	244.69
385.787	254.69
386.013	275.69
386.238	285.69
386.463	257.69
386.688	241.69
386.913	215.69
387.138	215.69
387.363	238.69
387.588	230.69
387.813	231.69
388.038	254.69
388.263	251.69
388.488	235.69
388.713	255.69
388.938	262.69
389.163	239.69
389.387	215.69
389.612	207.69
389.837	226.69
390.062	226.69
390.287	239.69
390.512	246.69
390.736	245.69
390.961	220.69
391.186	213.69
391.411	208.69
391.636	226.69
391.86	232.69
392.085	248.69
392.31	233.69
392.534	232.69
392.759	224.69
392.984	240.69
393.208	244.69
393.433	230.69
393.658	212.69
393.882	201.69
394.107	198.69
394.331	208.69
394.556	212.69
394.78	202.69
395.005	199.69
395.229	223.69
395.454	215.69
395.678	225.69
395.903	229.69
396.127	225.69
396.352	217.69
396.576	229.69
396.801	222.69
397.025	258.69
397.249	261.69
397.474	245.69
397.698	233.69
397.922	253.69
398.147	217.69
398.371	229.69
398.595	224.69
398.82	235.69
399.044	265.69
399.268	258.69
399.492	281.69
399.717	299.69
399.941	281.69
400.165	272.69
400.389	256.69
400.613	246.69
400.837	255.69
401.062	228.69
401.286	220.69
401.51	229.69
401.734	233.69
401.958	237.69
402.182	225.69
402.406	237.69
402.63	249.69
402.854	243.69
403.078	276.69
403.302	349.69
403.526	373.69
403.75	319.69
403.974	279.69
404.198	301.69
404.422	315.69
404.645	312.69
404.869	346.69
405.093	295.69
405.317	250.69
405.541	251.69
405.765	274.69
405.988	251.69
406.212	269.69
406.436	287.69
406.66	315.69
406.883	271.69
407.107	284.69
407.331	327.69
407.555	309.69
407.778	280.69
408.002	280.69
408.226	262.69
408.449	269.69
408.673	276.69
408.896	224.69
409.12	233.69
409.344	255.69
409.567	226.69
409.791	238.69
410.014	253.69
410.238	239.69
410.461	236.69
410.685	238.69
410.908	237.69
411.132	235.69
411.355	227.69
411.578	228.69
411.802	231.69
412.025	251.69
412.249	269.69
412.472	236.69
412.695	239.69
412.919	230.69
413.142	237.69
413.365	263.69
413.589	248.69
413.812	247.69
414.035	240.69
414.258	216.69
414.482	255.69
414.705	252.69
414.928	230.69
415.151	231.69
415.374	232.69
415.597	238.69
415.821	239.69
416.044	226.69
416.267	219.69
416.49	227.69
416.713	213.69
416.936	232.69
417.159	215.69
417.382	225.69
417.605	220.69
417.828	239.69
418.051	237.69
418.274	237.69
418.497	226.69
418.72	226.69
418.943	244.69
419.166	255.69
419.389	264.69
419.611	266.69
419.834	260.69
420.057	280.69
420.28	257.69
420.503	256.69
420.726	240.69
420.948	228.69
421.171	240.69
421.394	231.69
421.617	224.69
421.839	217.69
422.062	219.69
422.285	232.69
422.507	221.69
422.73	237.69
422.953	245.69
423.175	234.69
423.398	253.69
423.621	264.69
423.843	270.69
424.066	245.69
424.288	251.69
424.511	221.69
424.733	240.69
424.956	221.69
425.178	271.69
425.401	309.69
425.623	383.69
425.846	297.69
426.068	264.69
426.291	262.69
426.513	255.69
426.735	236.69
426.958	229.69
427.18	268.69
427.402	335.69
427.625	348.69
427.847	314.69
428.069	238.69
428.292	233.69
428.514	233.69
428.736	231.69
428.958	262.69
429.181	303.69
429.403	269.69
429.625	235.69
429.847	227.69
430.069	229.69
430.292	239.69
430.514	207.69
430.736	223.69
430.958	265.69
431.18	253.69
431.402	222.69
431.624	208.69
431.846	232.69
432.068	219.69
432.29	238.69
432.512	220.69
432.734	263.69
432.956	275.69
433.178	231.69
433.4	217.69
433.622	227.69
433.844	237.69
434.066	240.69
434.287	244.69
434.509	223.69
434.731	241.69
434.953	228.69
435.175	263.69
435.397	263.69
435.618	252.69
435.84	230.69
436.062	216.69
436.284	222.69
436.505	222.69
436.727	214.69
436.949	213.69
437.17	223.69
437.392	221.69
437.614	214.69
437.835	211.69
438.057	224.69
438.278	250.69
438.5	298.69
438.721	292.69
438.943	229.69
439.165	227.69
439.386	224.69
439.608	215.69
439.829	210.69
440.05	224.69
440.272	228.69
440.493	231.69
440.715	273.69
440.936	243.69
441.158	229.69
441.379	221.69
441.6	251.69
441.822	262.69
442.043	238.69
442.264	236.69
442.486	221.69
442.707	227.69
442.928	222.69
443.149	218.69
443.371	235.69
443.592	253.69
443.813	233.69
444.034	249.69
444.255	259.69
444.476	241.69
444.698	249.69
444.919	253.69
445.14	334.69
445.361	295.69
445.582	273.69
445.803	246.69
446.024	257.69
446.245	252.69
446.466	253.69
446.687	224.69
446.908	252.69
447.129	219.69
447.35	217.69
447.571	215.69
447.792	208.69
448.013	197.69
448.234	187.69
448.455	199.69
448.675	195.69
448.896	209.69
449.117	199.69
449.338	228.69
449.559	213.69
449.779	207.69
450	216.69
450.221	229.69
450.442	215.69
450.662	211.69
450.883	221.69
451.104	212.69
451.324	220.69
451.545	216.69
451.766	218.69
451.986	221.69
452.207	210.69
452.428	206.69
452.648	208.69
452.869	214.69
453.089	235.69
453.31	222.69
453.53	214.69
453.751	202.69
453.971	201.69
454.192	207.69
454.412	208.69
454.633	198.69
454.853	219.69
455.073	206.69
455.294	199.69
455.514	203.69
455.734	205.69
455.955	196.69
456.175	208.69
456.395	210.69
456.616	198.69
456.836	195.69
457.056	190.69
457.276	199.69
457.497	193.69
457.717	187.69
457.937	191.69
458.157	186.69
458.377	200.69
458.598	196.69
458.818	219.69
459.038	222.69
459.258	218.69
459.478	229.69
459.698	248.69
459.918	241.69
460.138	252.69
460.358	245.69
460.578	216.69
460.798	241.69
461.018	239.69
461.238	239.69
461.458	240.69
461.678	231.69
461.898	256.69
462.118	245.69
462.338	263.69
462.558	244.69
462.777	271.69
462.997	267.69
463.217	278.69
463.437	287.69
463.657	274.69
463.876	257.69
464.096	271.69
464.316	264.69
464.536	267.69
464.755	302.69
464.975	278.69
465.195	259.69
465.414	269.69
465.634	258.69
465.854	239.69
466.073	227.69
466.293	230.69
466.512	233.69
466.732	255.69
466.951	247.69
467.171	235.69
467.391	223.69
467.61	206.69
467.829	225.69
468.049	233.69
468.268	234.69
468.488	212.69
468.707	229.69
468.927	247.69
469.146	272.69
469.365	232.69
469.585	245.69
469.804	250.69
470.023	271.69
470.243	265.69
470.462	259.69
470.681	257.69
470.901	217.69
471.12	230.69
471.339	253.69
471.558	234.69
471.777	230.69
471.997	243.69
472.216	274.69
472.435	248.69
472.654	235.69
472.873	231.69
473.092	236.69
473.311	246.69
473.53	221.69
473.749	240.69
473.968	239.69
474.187	239.69
474.406	237.69
474.625	228.69
474.844	236.69
475.063	255.69
475.282	244.69
475.501	255.69
475.72	276.69
475.939	261.69
476.158	262.69
476.377	299.69
476.596	323.69
476.814	327.69
477.033	295.69
477.252	240.69
477.471	259.69
477.69	254.69
477.908	272.69
478.127	275.69
478.346	259.69
478.564	301.69
478.783	272.69
479.002	259.69
479.22	283.69
479.439	316.69
479.658	280.69
479.876	265.69
480.095	278.69
480.313	289.69
480.532	281.69
480.751	267.69
480.969	262.69
481.188	303.69
481.406	300.69
481.624	287.69
481.843	264.69
482.061	248.69
482.28	265.69
482.498	327.69
482.717	333.69
482.935	281.69
483.153	264.69
483.372	262.69
483.59	260.69
483.808	261.69
484.027	252.69
484.245	243.69
484.463	235.69
484.681	254.69
484.9	267.69
485.118	273.69
485.336	265.69
485.554	254.69
485.772	267.69
485.99	285.69
486.209	297.69
486.427	287.69
486.645	288.69
486.863	283.69
487.081	281.69
487.299	307.69
487.517	292.69
487.735	266.69
487.953	266.69
488.171	291.69
488.389	266.69
488.607	255.69
488.825	288.69
489.043	272.69
489.261	328.69
489.479	335.69
489.696	310.69
489.914	278.69
490.132	253.69
490.35	266.69
490.568	271.69
490.786	284.69
491.003	268.69
491.221	254.69
491.439	258.69
491.657	256.69
491.874	271.69
492.092	300.69
492.31	365.69
492.527	363.69
492.745	328.69
492.963	297.69
493.18	283.69
493.398	305.69
493.615	295.69
493.833	294.69
494.05	287.69
494.268	292.69
494.485	275.69
494.703	279.69
494.92	269.69
495.138	268.69
495.355	273.69
495.573	284.69
495.79	311.69
496.008	350.69
496.225	323.69
496.442	293.69
496.66	310.69
496.877	319.69
497.094	312.69
497.312	317.69
497.529	314.69
497.746	315.69
497.963	291.69
498.181	319.69
498.398	337.69
498.615	359.69
498.832	368.69
499.049	387.69
499.267	359.69
499.484	360.69
499.701	431.69
499.918	456.69
500.135	498.69
500.352	509.69
500.569	563.69
500.786	540.69
501.003	534.69
501.22	474.69
501.437	427.69
501.654	424.69
501.871	391.69
502.088	363.69
502.305	366.69
502.522	357.69
