Data from NickelSpatula_HRD10591_16-33-55-126.txt Node
Date: Mon Jul 22 16:33:55 EDT 2019
User: cochatt
Spectrometer: HR+D1059
Trigger mode: 1
Integration Time (sec): 1.000000E-1
Scans to average: 1
Electric dark correction enabled: true
Nonlinearity correction enabled: false
Boxcar width: 0
XAxis mode: Wavelengths
Number of Pixels in Spectrum: 2048
>>>>>Begin Spectral Data<<<<<
223.165	-8.56
223.4	-8.56
223.635	-8.56
223.869	-16.56
224.104	-11.56
224.338	-22.56
224.573	-24.56
224.808	-7.56
225.042	-9.56
225.277	-4.56
225.511	5.44
225.746	7.44
225.98	5.44
226.215	3.44
226.449	25.44
226.683	12.44
226.918	24.44
227.152	21.44
227.387	29.44
227.621	50.44
227.856	40.44
228.09	38.44
228.324	50.44
228.559	49.44
228.793	56.44
229.027	81.44
229.262	78.44
229.496	76.44
229.73	79.44
229.964	75.44
230.199	107.44
230.433	97.44
230.667	92.44
230.901	100.44
231.136	81.44
231.37	100.44
231.604	96.44
231.838	93.44
232.072	97.44
232.306	105.44
232.541	100.44
232.775	96.44
233.009	91.44
233.243	104.44
233.477	101.44
233.711	122.44
233.945	120.44
234.179	121.44
234.413	116.44
234.647	130.44
234.881	139.44
235.115	126.44
235.349	132.44
235.583	126.44
235.817	110.44
236.051	123.44
236.285	126.44
236.519	132.44
236.753	129.44
236.987	135.44
237.221	125.44
237.455	133.44
237.689	126.44
237.922	133.44
238.156	130.44
238.39	139.44
238.624	148.44
238.858	151.44
239.091	139.44
239.325	130.44
239.559	135.44
239.793	128.44
240.027	169.44
240.26	147.44
240.494	163.44
240.728	161.44
240.961	177.44
241.195	158.44
241.429	139.44
241.662	160.44
241.896	151.44
242.13	137.44
242.363	144.44
242.597	138.44
242.83	152.44
243.064	156.44
243.298	143.44
243.531	143.44
243.765	177.44
243.998	163.44
244.232	167.44
244.465	180.44
244.699	163.44
244.932	180.44
245.166	160.44
245.399	150.44
245.633	133.44
245.866	152.44
246.099	161.44
246.333	162.44
246.566	180.44
246.8	178.44
247.033	177.44
247.266	167.44
247.5	178.44
247.733	144.44
247.966	156.44
248.2	180.44
248.433	183.44
248.666	179.44
248.899	217.44
249.133	189.44
249.366	222.44
249.599	230.44
249.832	218.44
250.066	196.44
250.299	203.44
250.532	200.44
250.765	204.44
250.998	186.44
251.231	171.44
251.465	187.44
251.698	212.44
251.931	208.44
252.164	199.44
252.397	214.44
252.63	228.44
252.863	249.44
253.096	266.44
253.329	258.44
253.562	249.44
253.795	272.44
254.028	298.44
254.261	285.44
254.494	274.44
254.727	246.44
254.96	259.44
255.193	256.44
255.426	240.44
255.659	190.44
255.892	193.44
256.124	190.44
256.357	227.44
256.59	262.44
256.823	256.44
257.056	201.44
257.289	206.44
257.521	220.44
257.754	267.44
257.987	295.44
258.22	275.44
258.452	222.44
258.685	256.44
258.918	267.44
259.151	285.44
259.383	300.44
259.616	322.44
259.849	329.44
260.081	361.44
260.314	351.44
260.547	322.44
260.779	313.44
261.012	363.44
261.244	343.44
261.477	328.44
261.71	330.44
261.942	285.44
262.175	274.44
262.407	272.44
262.64	261.44
262.872	300.44
263.105	331.44
263.337	366.44
263.57	320.44
263.802	234.44
264.035	222.44
264.267	196.44
264.499	183.44
264.732	169.44
264.964	191.44
265.197	166.44
265.429	196.44
265.661	191.44
265.894	206.44
266.126	205.44
266.358	232.44
266.591	266.44
266.823	314.44
267.055	302.44
267.287	279.44
267.52	261.44
267.752	304.44
267.984	295.44
268.216	314.44
268.448	263.44
268.681	260.44
268.913	285.44
269.145	296.44
269.377	319.44
269.609	302.44
269.841	277.44
270.073	290.44
270.306	291.44
270.538	311.44
270.77	312.44
271.002	310.44
271.234	315.44
271.466	325.44
271.698	299.44
271.93	307.44
272.162	295.44
272.394	309.44
272.626	303.44
272.858	306.44
273.09	324.44
273.322	294.44
273.553	284.44
273.785	302.44
274.017	379.44
274.249	430.44
274.481	460.44
274.713	523.44
274.945	575.44
275.176	581.44
275.408	559.44
275.64	502.44
275.872	477.44
276.104	451.44
276.335	388.44
276.567	374.44
276.799	388.44
277.031	420.44
277.262	345.44
277.494	280.44
277.726	242.44
277.957	282.44
278.189	298.44
278.421	302.44
278.652	299.44
278.884	296.44
279.115	269.44
279.347	264.44
279.579	268.44
279.81	265.44
280.042	252.44
280.273	279.44
280.505	276.44
280.736	232.44
280.968	231.44
281.199	239.44
281.431	275.44
281.662	263.44
281.894	267.44
282.125	267.44
282.356	290.44
282.588	294.44
282.819	259.44
283.051	277.44
283.282	316.44
283.513	371.44
283.745	415.44
283.976	410.44
284.207	385.44
284.439	379.44
284.67	393.44
284.901	349.44
285.132	394.44
285.364	404.44
285.595	360.44
285.826	404.44
286.057	407.44
286.288	370.44
286.52	398.44
286.751	411.44
286.982	407.44
287.213	369.44
287.444	336.44
287.675	367.44
287.906	385.44
288.138	332.44
288.369	298.44
288.6	274.44
288.831	290.44
289.062	330.44
289.293	370.44
289.524	315.44
289.755	330.44
289.986	339.44
290.217	336.44
290.448	269.44
290.679	225.44
290.91	198.44
291.141	204.44
291.371	218.44
291.602	217.44
291.833	197.44
292.064	207.44
292.295	264.44
292.526	288.44
292.757	288.44
292.987	307.44
293.218	315.44
293.449	343.44
293.68	378.44
293.91	345.44
294.141	348.44
294.372	335.44
294.603	311.44
294.833	342.44
295.064	376.44
295.295	388.44
295.525	296.44
295.756	247.44
295.987	233.44
296.217	221.44
296.448	227.44
296.679	243.44
296.909	254.44
297.14	251.44
297.37	302.44
297.601	275.44
297.831	246.44
298.062	284.44
298.292	307.44
298.523	292.44
298.753	363.44
298.984	318.44
299.214	286.44
299.445	242.44
299.675	242.44
299.905	224.44
300.136	236.44
300.366	238.44
300.597	244.44
300.827	210.44
301.057	198.44
301.288	227.44
301.518	229.44
301.748	257.44
301.979	288.44
302.209	280.44
302.439	296.44
302.669	254.44
302.9	276.44
303.13	247.44
303.36	256.44
303.59	242.44
303.82	241.44
304.051	261.44
304.281	303.44
304.511	288.44
304.741	238.44
304.971	248.44
305.201	288.44
305.431	250.44
305.661	227.44
305.891	236.44
306.121	219.44
306.352	220.44
306.582	219.44
306.812	199.44
307.042	204.44
307.272	174.44
307.502	191.44
307.731	205.44
307.961	198.44
308.191	191.44
308.421	188.44
308.651	180.44
308.881	176.44
309.111	172.44
309.341	186.44
309.571	186.44
309.8	201.44
310.03	202.44
310.26	199.44
310.49	214.44
310.72	188.44
310.949	187.44
311.179	188.44
311.409	199.44
311.639	234.44
311.868	311.44
312.098	333.44
312.328	394.44
312.557	360.44
312.787	371.44
313.017	321.44
313.246	362.44
313.476	377.44
313.706	305.44
313.935	264.44
314.165	226.44
314.394	208.44
314.624	214.44
314.853	214.44
315.083	215.44
315.312	224.44
315.542	227.44
315.771	208.44
316.001	187.44
316.23	188.44
316.46	186.44
316.689	204.44
316.919	187.44
317.148	199.44
317.377	197.44
317.607	197.44
317.836	186.44
318.065	209.44
318.295	258.44
318.524	243.44
318.753	219.44
318.983	203.44
319.212	174.44
319.441	190.44
319.67	231.44
319.9	251.44
320.129	243.44
320.358	215.44
320.587	190.44
320.816	205.44
321.046	246.44
321.275	270.44
321.504	253.44
321.733	258.44
321.962	241.44
322.191	228.44
322.42	222.44
322.649	223.44
322.878	251.44
323.108	264.44
323.337	235.44
323.566	233.44
323.795	215.44
324.024	221.44
324.253	209.44
324.482	195.44
324.71	210.44
324.939	237.44
325.168	241.44
325.397	195.44
325.626	199.44
325.855	211.44
326.084	193.44
326.313	184.44
326.542	187.44
326.77	172.44
326.999	193.44
327.228	176.44
327.457	209.44
327.686	200.44
327.914	176.44
328.143	186.44
328.372	185.44
328.6	170.44
328.829	177.44
329.058	190.44
329.287	191.44
329.515	176.44
329.744	195.44
329.972	178.44
330.201	178.44
330.43	185.44
330.658	209.44
330.887	229.44
331.115	233.44
331.344	198.44
331.572	197.44
331.801	195.44
332.03	187.44
332.258	185.44
332.486	209.44
332.715	213.44
332.943	213.44
333.172	202.44
333.4	199.44
333.629	231.44
333.857	222.44
334.085	227.44
334.314	223.44
334.542	232.44
334.771	214.44
334.999	207.44
335.227	208.44
335.455	190.44
335.684	199.44
335.912	242.44
336.14	270.44
336.369	270.44
336.597	259.44
336.825	259.44
337.053	317.44
337.281	240.44
337.51	205.44
337.738	197.44
337.966	213.44
338.194	230.44
338.422	235.44
338.65	206.44
338.878	189.44
339.106	209.44
339.334	203.44
339.562	225.44
339.79	207.44
340.018	208.44
340.246	203.44
340.474	235.44
340.702	242.44
340.93	252.44
341.158	267.44
341.386	222.44
341.614	218.44
341.842	217.44
342.07	221.44
342.298	258.44
342.526	272.44
342.754	222.44
342.981	229.44
343.209	200.44
343.437	224.44
343.665	244.44
343.893	238.44
344.12	266.44
344.348	305.44
344.576	304.44
344.804	246.44
345.031	220.44
345.259	179.44
345.487	202.44
345.714	216.44
345.942	219.44
346.17	254.44
346.397	234.44
346.625	212.44
346.853	210.44
347.08	204.44
347.308	215.44
347.535	226.44
347.763	260.44
347.99	204.44
348.218	182.44
348.445	191.44
348.673	222.44
348.9	212.44
349.128	215.44
349.355	222.44
349.583	201.44
349.81	211.44
350.037	207.44
350.265	171.44
350.492	168.44
350.72	164.44
350.947	168.44
351.174	186.44
351.402	190.44
351.629	204.44
351.856	198.44
352.083	174.44
352.311	188.44
352.538	200.44
352.765	225.44
352.992	206.44
353.22	205.44
353.447	227.44
353.674	213.44
353.901	201.44
354.128	208.44
354.355	213.44
354.583	203.44
354.81	215.44
355.037	228.44
355.264	216.44
355.491	201.44
355.718	231.44
355.945	233.44
356.172	212.44
356.399	203.44
356.626	241.44
356.853	321.44
357.08	318.44
357.307	319.44
357.534	273.44
357.761	260.44
357.988	317.44
358.215	338.44
358.441	341.44
358.668	294.44
358.895	290.44
359.122	235.44
359.349	247.44
359.576	268.44
359.802	227.44
360.029	196.44
360.256	203.44
360.483	243.44
360.709	297.44
360.936	310.44
361.163	266.44
361.39	224.44
361.616	203.44
361.843	238.44
362.07	290.44
362.296	263.44
362.523	218.44
362.749	193.44
362.976	191.44
363.203	225.44
363.429	255.44
363.656	222.44
363.882	220.44
364.109	203.44
364.335	204.44
364.562	187.44
364.788	210.44
365.015	232.44
365.241	238.44
365.468	200.44
365.694	176.44
365.92	160.44
366.147	167.44
366.373	160.44
366.599	152.44
366.826	164.44
367.052	174.44
367.278	166.44
367.505	180.44
367.731	196.44
367.957	199.44
368.184	211.44
368.41	215.44
368.636	208.44
368.862	209.44
369.089	214.44
369.315	197.44
369.541	187.44
369.767	191.44
369.993	179.44
370.219	174.44
370.445	199.44
370.672	206.44
370.898	202.44
371.124	211.44
371.35	190.44
371.576	202.44
371.802	185.44
372.028	215.44
372.254	247.44
372.48	217.44
372.706	194.44
372.932	215.44
373.158	223.44
373.384	269.44
373.61	315.44
373.835	326.44
374.061	256.44
374.287	223.44
374.513	271.44
374.739	312.44
374.965	302.44
375.191	299.44
375.416	218.44
375.642	193.44
375.868	228.44
376.094	252.44
376.319	228.44
376.545	234.44
376.771	247.44
376.997	226.44
377.222	192.44
377.448	165.44
377.674	174.44
377.899	166.44
378.125	158.44
378.35	182.44
378.576	175.44
378.802	179.44
379.027	194.44
379.253	193.44
379.478	181.44
379.704	197.44
379.929	207.44
380.155	224.44
380.38	201.44
380.606	186.44
380.831	233.44
381.057	211.44
381.282	182.44
381.507	216.44
381.733	267.44
381.958	272.44
382.184	275.44
382.409	322.44
382.634	300.44
382.86	296.44
383.085	262.44
383.31	228.44
383.535	222.44
383.761	249.44
383.986	241.44
384.211	261.44
384.436	253.44
384.662	222.44
384.887	216.44
385.112	215.44
385.337	235.44
385.562	210.44
385.787	214.44
386.013	248.44
386.238	252.44
386.463	216.44
386.688	200.44
386.913	202.44
387.138	186.44
387.363	195.44
387.588	202.44
387.813	191.44
388.038	226.44
388.263	217.44
388.488	210.44
388.713	238.44
388.938	248.44
389.163	216.44
389.387	196.44
389.612	203.44
389.837	199.44
390.062	208.44
390.287	198.44
390.512	219.44
390.736	200.44
390.961	198.44
391.186	201.44
391.411	181.44
391.636	184.44
391.86	190.44
392.085	213.44
392.31	214.44
392.534	200.44
392.759	180.44
392.984	216.44
393.208	212.44
393.433	194.44
393.658	191.44
393.882	176.44
394.107	150.44
394.331	174.44
394.556	171.44
394.78	180.44
395.005	182.44
395.229	186.44
395.454	184.44
395.678	184.44
395.903	190.44
396.127	187.44
396.352	182.44
396.576	196.44
396.801	203.44
397.025	225.44
397.249	256.44
397.474	203.44
397.698	188.44
397.922	193.44
398.147	183.44
398.371	198.44
398.595	196.44
398.82	205.44
399.044	198.44
399.268	204.44
399.492	220.44
399.717	216.44
399.941	209.44
400.165	217.44
400.389	193.44
400.613	207.44
400.837	210.44
401.062	200.44
401.286	190.44
401.51	203.44
401.734	183.44
401.958	179.44
402.182	201.44
402.406	183.44
402.63	200.44
402.854	214.44
403.078	206.44
403.302	278.44
403.526	300.44
403.75	272.44
403.974	219.44
404.198	224.44
404.422	257.44
404.645	282.44
404.869	289.44
405.093	224.44
405.317	206.44
405.541	200.44
405.765	222.44
405.988	220.44
406.212	230.44
406.436	253.44
406.66	286.44
406.883	227.44
407.107	225.44
407.331	265.44
407.555	255.44
407.778	223.44
408.002	219.44
408.226	228.44
408.449	235.44
408.673	221.44
408.896	201.44
409.12	192.44
409.344	196.44
409.567	193.44
409.791	187.44
410.014	203.44
410.238	195.44
410.461	184.44
410.685	197.44
410.908	182.44
411.132	200.44
411.355	213.44
411.578	200.44
411.802	188.44
412.025	194.44
412.249	219.44
412.472	197.44
412.695	203.44
412.919	196.44
413.142	199.44
413.365	208.44
413.589	217.44
413.812	192.44
414.035	194.44
414.258	201.44
414.482	208.44
414.705	199.44
414.928	191.44
415.151	182.44
415.374	192.44
415.597	201.44
415.821	206.44
416.044	199.44
416.267	201.44
416.49	192.44
416.713	188.44
416.936	180.44
417.159	180.44
417.382	184.44
417.605	198.44
417.828	207.44
418.051	196.44
418.274	211.44
418.497	198.44
418.72	197.44
418.943	200.44
419.166	205.44
419.389	216.44
419.611	219.44
419.834	220.44
420.057	232.44
420.28	243.44
420.503	188.44
420.726	203.44
420.948	199.44
421.171	197.44
421.394	197.44
421.617	177.44
421.839	190.44
422.062	193.44
422.285	198.44
422.507	202.44
422.73	195.44
422.953	219.44
423.175	204.44
423.398	206.44
423.621	215.44
423.843	213.44
424.066	204.44
424.288	182.44
424.511	186.44
424.733	192.44
424.956	195.44
425.178	209.44
425.401	238.44
425.623	290.44
425.846	256.44
426.068	199.44
426.291	217.44
426.513	213.44
426.735	197.44
426.958	196.44
427.18	225.44
427.402	268.44
427.625	291.44
427.847	260.44
428.069	203.44
428.292	195.44
428.514	195.44
428.736	186.44
428.958	192.44
429.181	233.44
429.403	210.44
429.625	169.44
429.847	188.44
430.069	175.44
430.292	203.44
430.514	199.44
430.736	190.44
430.958	243.44
431.18	226.44
431.402	195.44
431.624	174.44
431.846	179.44
432.068	186.44
432.29	170.44
432.512	220.44
432.734	232.44
432.956	220.44
433.178	185.44
433.4	179.44
433.622	188.44
433.844	184.44
434.066	213.44
434.287	212.44
434.509	199.44
434.731	206.44
434.953	200.44
435.175	191.44
435.397	219.44
435.618	197.44
435.84	183.44
436.062	184.44
436.284	175.44
436.505	177.44
436.727	171.44
436.949	176.44
437.17	162.44
437.392	174.44
437.614	171.44
437.835	176.44
438.057	177.44
438.278	203.44
438.5	261.44
438.721	268.44
438.943	189.44
439.165	173.44
439.386	164.44
439.608	166.44
439.829	166.44
440.05	180.44
440.272	174.44
440.493	187.44
440.715	238.44
440.936	210.44
441.158	198.44
441.379	174.44
441.6	196.44
441.822	207.44
442.043	184.44
442.264	196.44
442.486	193.44
442.707	185.44
442.928	192.44
443.149	183.44
443.371	198.44
443.592	201.44
443.813	191.44
444.034	196.44
444.255	198.44
444.476	212.44
444.698	200.44
444.919	182.44
445.14	331.44
445.361	277.44
445.582	215.44
445.803	199.44
446.024	204.44
446.245	208.44
446.466	204.44
446.687	182.44
446.908	170.44
447.129	170.44
447.35	163.44
447.571	187.44
447.792	186.44
448.013	177.44
448.234	174.44
448.455	151.44
448.675	174.44
448.896	171.44
449.117	185.44
449.338	172.44
449.559	165.44
449.779	198.44
450	178.44
450.221	185.44
450.442	179.44
450.662	190.44
450.883	169.44
451.104	182.44
451.324	172.44
451.545	166.44
451.766	170.44
451.986	184.44
452.207	160.44
452.428	163.44
452.648	167.44
452.869	186.44
453.089	187.44
453.31	177.44
453.53	162.44
453.751	171.44
453.971	152.44
454.192	175.44
454.412	164.44
454.633	178.44
454.853	187.44
455.073	149.44
455.294	157.44
455.514	157.44
455.734	167.44
455.955	174.44
456.175	180.44
456.395	161.44
456.616	150.44
456.836	156.44
457.056	145.44
457.276	139.44
457.497	144.44
457.717	146.44
457.937	162.44
458.157	167.44
458.377	163.44
458.598	171.44
458.818	179.44
459.038	182.44
459.258	185.44
459.478	165.44
459.698	186.44
459.918	202.44
460.138	200.44
460.358	177.44
460.578	185.44
460.798	192.44
461.018	167.44
461.238	196.44
461.458	197.44
461.678	188.44
461.898	209.44
462.118	192.44
462.338	205.44
462.558	194.44
462.777	207.44
462.997	229.44
463.217	224.44
463.437	225.44
463.657	227.44
463.876	204.44
464.096	202.44
464.316	194.44
464.536	206.44
464.755	234.44
464.975	225.44
465.195	215.44
465.414	212.44
465.634	198.44
465.854	189.44
466.073	187.44
466.293	195.44
466.512	197.44
466.732	217.44
466.951	204.44
467.171	215.44
467.391	169.44
467.61	181.44
467.829	183.44
468.049	183.44
468.268	178.44
468.488	178.44
468.707	185.44
468.927	203.44
469.146	223.44
469.365	212.44
469.585	188.44
469.804	202.44
470.023	236.44
470.243	184.44
470.462	196.44
470.681	188.44
470.901	200.44
471.12	201.44
471.339	216.44
471.558	184.44
471.777	194.44
471.997	201.44
472.216	231.44
472.435	208.44
472.654	219.44
472.873	189.44
473.092	205.44
473.311	209.44
473.53	201.44
473.749	187.44
473.968	222.44
474.187	214.44
474.406	190.44
474.625	196.44
474.844	212.44
475.063	207.44
475.282	214.44
475.501	231.44
475.72	248.44
475.939	242.44
476.158	212.44
476.377	250.44
476.596	284.44
476.814	306.44
477.033	254.44
477.252	213.44
477.471	210.44
477.69	195.44
477.908	218.44
478.127	238.44
478.346	226.44
478.564	252.44
478.783	225.44
479.002	226.44
479.22	232.44
479.439	257.44
479.658	252.44
479.876	222.44
480.095	222.44
480.313	227.44
480.532	223.44
480.751	221.44
480.969	204.44
481.188	234.44
481.406	240.44
481.624	250.44
481.843	218.44
482.061	210.44
482.28	231.44
482.498	295.44
482.717	294.44
482.935	237.44
483.153	238.44
483.372	216.44
483.59	215.44
483.808	207.44
484.027	187.44
484.245	202.44
484.463	196.44
484.681	209.44
484.9	212.44
485.118	232.44
485.336	222.44
485.554	226.44
485.772	210.44
485.99	213.44
486.209	234.44
486.427	232.44
486.645	241.44
486.863	249.44
487.081	251.44
487.299	267.44
487.517	277.44
487.735	236.44
487.953	240.44
488.171	235.44
488.389	224.44
488.607	214.44
488.825	228.44
489.043	242.44
489.261	283.44
489.479	288.44
489.696	256.44
489.914	220.44
490.132	222.44
490.35	225.44
490.568	228.44
490.786	220.44
491.003	227.44
491.221	220.44
491.439	223.44
491.657	230.44
491.874	263.44
492.092	291.44
492.31	361.44
492.527	303.44
492.745	258.44
492.963	248.44
493.18	253.44
493.398	239.44
493.615	233.44
493.833	222.44
494.05	249.44
494.268	252.44
494.485	224.44
494.703	222.44
494.92	227.44
495.138	237.44
495.355	232.44
495.573	238.44
495.79	274.44
496.008	350.44
496.225	282.44
496.442	260.44
496.66	264.44
496.877	287.44
497.094	281.44
497.312	242.44
497.529	240.44
497.746	251.44
497.963	265.44
498.181	280.44
498.398	288.44
498.615	294.44
498.832	324.44
499.049	336.44
499.267	293.44
499.484	313.44
499.701	304.44
499.918	346.44
500.135	370.44
500.352	394.44
500.569	428.44
500.786	429.44
501.003	426.44
501.22	370.44
501.437	351.44
501.654	328.44
501.871	316.44
502.088	295.44
502.305	284.44
502.522	287.44
502.739	290.44
