Data from NickelSpatula.Lamp.E10.P2_HRD10591_11-59-45-525.txt Node
Date: Tue Jul 23 11:59:45 EDT 2019
User: cochatt
Spectrometer: HR+D1059
Trigger mode: 1
Integration Time (sec): 1.000000E-1
Scans to average: 1
Electric dark correction enabled: true
Nonlinearity correction enabled: false
Boxcar width: 0
XAxis mode: Wavelengths
Number of Pixels in Spectrum: 2048
>>>>>Begin Spectral Data<<<<<
223.165	-27.25
223.4	-27.25
223.635	-27.25
223.869	-7.25
224.104	-15.25
224.338	-14.25
224.573	-19.25
224.808	-8.25
225.042	-12.25
225.277	-14.25
225.511	-12.25
225.746	9.75
225.98	12.75
226.215	17.75
226.449	4.75
226.683	26.75
226.918	28.75
227.152	29.75
227.387	59.75
227.621	38.75
227.856	51.75
228.09	39.75
228.324	48.75
228.559	62.75
228.793	96.75
229.027	152.75
229.262	156.75
229.496	149.75
229.73	169.75
229.964	193.75
230.199	213.75
230.433	233.75
230.667	217.75
230.901	223.75
231.136	212.75
231.37	217.75
231.604	214.75
231.838	230.75
232.072	254.75
232.306	243.75
232.541	244.75
232.775	253.75
233.009	259.75
233.243	306.75
233.477	312.75
233.711	360.75
233.945	335.75
234.179	337.75
234.413	359.75
234.647	400.75
234.881	477.75
235.115	447.75
235.349	420.75
235.583	369.75
235.817	374.75
236.051	371.75
236.285	406.75
236.519	474.75
236.753	439.75
236.987	431.75
237.221	418.75
237.455	419.75
237.689	447.75
237.922	457.75
238.156	494.75
238.39	551.75
238.624	666.75
238.858	606.75
239.091	478.75
239.325	526.75
239.559	467.75
239.793	550.75
240.027	696.75
240.26	620.75
240.494	592.75
240.728	588.75
240.961	679.75
241.195	656.75
241.429	645.75
241.662	625.75
241.896	518.75
242.13	504.75
242.363	448.75
242.597	462.75
242.83	558.75
243.064	532.75
243.298	596.75
243.531	628.75
243.765	652.75
243.998	640.75
244.232	607.75
244.465	631.75
244.699	592.75
244.932	680.75
245.166	638.75
245.399	542.75
245.633	535.75
245.866	580.75
246.099	639.75
246.333	730.75
246.566	814.75
246.8	798.75
247.033	779.75
247.266	717.75
247.5	701.75
247.733	691.75
247.966	674.75
248.2	679.75
248.433	777.75
248.666	861.75
248.899	861.75
249.133	912.75
249.366	1020.75
249.599	1088.75
249.832	953.75
250.066	861.75
250.299	858.75
250.532	825.75
250.765	806.75
250.998	783.75
251.231	721.75
251.465	819.75
251.698	855.75
251.931	842.75
252.164	842.75
252.397	954.75
252.63	1080.75
252.863	1188.75
253.096	1280.75
253.329	1178.75
253.562	1107.75
253.795	1250.75
254.028	1377.75
254.261	1465.75
254.494	1300.75
254.727	1182.75
254.96	1121.75
255.193	1198.75
255.426	1142.75
255.659	861.75
255.892	806.75
256.124	887.75
256.357	1056.75
256.59	1236.75
256.823	1176.75
257.056	999.75
257.289	938.75
257.521	981.75
257.754	1144.75
257.987	1316.75
258.22	1100.75
258.452	1010.75
258.685	1151.75
258.918	1320.75
259.151	1264.75
259.383	1345.75
259.616	1524.75
259.849	1602.75
260.081	1730.75
260.314	1924.75
260.547	1490.75
260.779	1506.75
261.012	1726.75
261.244	1641.75
261.477	1646.75
261.71	1556.75
261.942	1336.75
262.175	1299.75
262.407	1238.75
262.64	1314.75
262.872	1521.75
263.105	1670.75
263.337	1750.75
263.57	1592.75
263.802	1042.75
264.035	926.75
264.267	902.75
264.499	781.75
264.732	723.75
264.964	692.75
265.197	726.75
265.429	789.75
265.661	814.75
265.894	841.75
266.126	919.75
266.358	1065.75
266.591	1272.75
266.823	1533.75
267.055	1416.75
267.287	1292.75
267.52	1281.75
267.752	1345.75
267.984	1440.75
268.216	1424.75
268.448	1158.75
268.681	1126.75
268.913	1223.75
269.145	1279.75
269.377	1308.75
269.609	1304.75
269.841	1230.75
270.073	1329.75
270.306	1383.75
270.538	1384.75
270.77	1374.75
271.002	1444.75
271.234	1497.75
271.466	1532.75
271.698	1508.75
271.93	1473.75
272.162	1457.75
272.394	1437.75
272.626	1433.75
272.858	1505.75
273.09	1513.75
273.322	1360.75
273.553	1312.75
273.785	1518.75
274.017	2025.75
274.249	2507.75
274.481	2568.75
274.713	2860.75
274.945	3269.75
275.176	3425.75
275.408	2918.75
275.64	2672.75
275.872	2708.75
276.104	2274.75
276.335	1974.75
276.567	1942.75
276.799	2021.75
277.031	2063.75
277.262	1656.75
277.494	1271.75
277.726	1240.75
277.957	1351.75
278.189	1544.75
278.421	1489.75
278.652	1428.75
278.884	1403.75
279.115	1287.75
279.347	1238.75
279.579	1232.75
279.81	1239.75
280.042	1236.75
280.273	1297.75
280.505	1167.75
280.736	1049.75
280.968	1040.75
281.199	1112.75
281.431	1245.75
281.662	1225.75
281.894	1207.75
282.125	1263.75
282.356	1329.75
282.588	1411.75
282.819	1294.75
283.051	1404.75
283.282	1706.75
283.513	2015.75
283.745	2249.75
283.976	2167.75
284.207	2023.75
284.439	2154.75
284.67	2049.75
284.901	1797.75
285.132	1976.75
285.364	2019.75
285.595	1891.75
285.826	2035.75
286.057	2072.75
286.288	1982.75
286.52	2025.75
286.751	2137.75
286.982	2148.75
287.213	1833.75
287.444	1764.75
287.675	1865.75
287.906	1852.75
288.138	1546.75
288.369	1371.75
288.6	1318.75
288.831	1354.75
289.062	1590.75
289.293	1724.75
289.524	1618.75
289.755	1633.75
289.986	1687.75
290.217	1455.75
290.448	1114.75
290.679	981.75
290.91	940.75
291.141	944.75
291.371	1001.75
291.602	972.75
291.833	1013.75
292.064	1072.75
292.295	1201.75
292.526	1409.75
292.757	1497.75
292.987	1580.75
293.218	1636.75
293.449	1648.75
293.68	1728.75
293.91	1628.75
294.141	1628.75
294.372	1552.75
294.603	1461.75
294.833	1623.75
295.064	1871.75
295.295	1745.75
295.525	1337.75
295.756	1181.75
295.987	1054.75
296.217	1018.75
296.448	1064.75
296.679	1132.75
296.909	1260.75
297.14	1345.75
297.37	1480.75
297.601	1395.75
297.831	1201.75
298.062	1292.75
298.292	1443.75
298.523	1620.75
298.753	1818.75
298.984	1620.75
299.214	1312.75
299.445	1112.75
299.675	1093.75
299.905	1070.75
300.136	1106.75
300.366	1204.75
300.597	1190.75
300.827	1018.75
301.057	1037.75
301.288	1057.75
301.518	1141.75
301.748	1305.75
301.979	1416.75
302.209	1510.75
302.439	1518.75
302.669	1260.75
302.9	1276.75
303.13	1183.75
303.36	1129.75
303.59	1094.75
303.82	1128.75
304.051	1279.75
304.281	1371.75
304.511	1348.75
304.741	1177.75
304.971	1224.75
305.201	1352.75
305.431	1243.75
305.661	1091.75
305.891	1057.75
306.121	1120.75
306.352	972.75
306.582	895.75
306.812	872.75
307.042	909.75
307.272	818.75
307.502	807.75
307.731	881.75
307.961	952.75
308.191	904.75
308.421	825.75
308.651	846.75
308.881	781.75
309.111	793.75
309.341	838.75
309.571	911.75
309.8	922.75
310.03	969.75
310.26	1047.75
310.49	998.75
310.72	868.75
310.949	873.75
311.179	895.75
311.409	947.75
311.639	1128.75
311.868	1410.75
312.098	1846.75
312.328	1944.75
312.557	1861.75
312.787	1897.75
313.017	1697.75
313.246	1841.75
313.476	2012.75
313.706	1650.75
313.935	1296.75
314.165	1053.75
314.394	970.75
314.624	956.75
314.853	1026.75
315.083	1066.75
315.312	1060.75
315.542	1025.75
315.771	954.75
316.001	854.75
316.23	867.75
316.46	863.75
316.689	877.75
316.919	898.75
317.148	906.75
317.377	900.75
317.607	905.75
317.836	984.75
318.065	1135.75
318.295	1267.75
318.524	1173.75
318.753	976.75
318.983	937.75
319.212	953.75
319.441	1000.75
319.67	1145.75
319.9	1267.75
320.129	1202.75
320.358	1017.75
320.587	967.75
320.816	1030.75
321.046	1209.75
321.275	1392.75
321.504	1389.75
321.733	1314.75
321.962	1275.75
322.191	1216.75
322.42	1144.75
322.649	1175.75
322.878	1267.75
323.108	1209.75
323.337	1121.75
323.566	1146.75
323.795	1110.75
324.024	1038.75
324.253	982.75
324.482	994.75
324.71	1108.75
324.939	1240.75
325.168	1146.75
325.397	964.75
325.626	954.75
325.855	976.75
326.084	979.75
326.313	893.75
326.542	861.75
326.77	896.75
326.999	928.75
327.228	972.75
327.457	1044.75
327.686	1058.75
327.914	922.75
328.143	870.75
328.372	837.75
328.6	863.75
328.829	929.75
329.058	920.75
329.287	928.75
329.515	911.75
329.744	882.75
329.972	852.75
330.201	810.75
330.43	847.75
330.658	983.75
330.887	1108.75
331.115	1067.75
331.344	993.75
331.572	994.75
331.801	916.75
332.03	865.75
332.258	918.75
332.486	1004.75
332.715	1018.75
332.943	954.75
333.172	916.75
333.4	947.75
333.629	1042.75
333.857	1135.75
334.085	1103.75
334.314	1111.75
334.542	1068.75
334.771	958.75
334.999	959.75
335.227	915.75
335.455	940.75
335.684	1022.75
335.912	1221.75
336.14	1361.75
336.369	1272.75
336.597	1223.75
336.825	1365.75
337.053	1491.75
337.281	1252.75
337.51	1007.75
337.738	999.75
337.966	1088.75
338.194	1200.75
338.422	1124.75
338.65	968.75
338.878	893.75
339.106	941.75
339.334	1072.75
339.562	1107.75
339.79	1008.75
340.018	1008.75
340.246	1058.75
340.474	1229.75
340.702	1321.75
340.93	1337.75
341.158	1382.75
341.386	1143.75
341.614	1132.75
341.842	1133.75
342.07	1219.75
342.298	1412.75
342.526	1422.75
342.754	1264.75
342.981	1174.75
343.209	1091.75
343.437	1185.75
343.665	1235.75
343.893	1222.75
344.12	1413.75
344.348	1656.75
344.576	1503.75
344.804	1244.75
345.031	1077.75
345.259	1004.75
345.487	1037.75
345.714	1031.75
345.942	1127.75
346.17	1198.75
346.397	1146.75
346.625	1030.75
346.853	1004.75
347.08	957.75
347.308	1038.75
347.535	1147.75
347.763	1145.75
347.99	999.75
348.218	944.75
348.445	982.75
348.673	1012.75
348.9	980.75
349.128	1083.75
349.355	1119.75
349.583	1076.75
349.81	1007.75
350.037	942.75
350.265	858.75
350.492	814.75
350.72	825.75
350.947	848.75
351.174	945.75
351.402	1002.75
351.629	1002.75
351.856	954.75
352.083	914.75
352.311	994.75
352.538	1102.75
352.765	1264.75
352.992	1107.75
353.22	1018.75
353.447	1071.75
353.674	991.75
353.901	1012.75
354.128	1010.75
354.355	1064.75
354.583	1015.75
354.81	1008.75
355.037	1061.75
355.264	1057.75
355.491	1119.75
355.718	1257.75
355.945	1136.75
356.172	1150.75
356.399	1130.75
356.626	1368.75
356.853	1714.75
357.08	1833.75
357.307	1866.75
357.534	1447.75
357.761	1474.75
357.988	1858.75
358.215	2173.75
358.441	2072.75
358.668	1714.75
358.895	1582.75
359.122	1282.75
359.349	1262.75
359.576	1382.75
359.802	1132.75
360.029	959.75
360.256	1056.75
360.483	1348.75
360.709	1698.75
360.936	1752.75
361.163	1543.75
361.39	1182.75
361.616	1088.75
361.843	1312.75
362.07	1602.75
362.296	1452.75
362.523	1133.75
362.749	974.75
362.976	1020.75
363.203	1260.75
363.429	1412.75
363.656	1104.75
363.882	1013.75
364.109	1021.75
364.335	1047.75
364.562	998.75
364.788	1150.75
365.015	1364.75
365.241	1200.75
365.468	979.75
365.694	853.75
365.92	858.75
366.147	835.75
366.373	811.75
366.599	807.75
366.826	831.75
367.052	860.75
367.278	839.75
367.505	842.75
367.731	928.75
367.957	1087.75
368.184	1078.75
368.41	1031.75
368.636	1064.75
368.862	1097.75
369.089	1059.75
369.315	923.75
369.541	917.75
369.767	925.75
369.993	852.75
370.219	879.75
370.445	929.75
370.672	1059.75
370.898	1150.75
371.124	1166.75
371.35	1010.75
371.576	930.75
371.802	1004.75
372.028	1190.75
372.254	1383.75
372.48	1183.75
372.706	1075.75
372.932	1138.75
373.158	1206.75
373.384	1450.75
373.61	1904.75
373.835	1937.75
374.061	1421.75
374.287	1205.75
374.513	1478.75
374.739	1715.75
374.965	1794.75
375.191	1704.75
375.416	1167.75
375.642	1078.75
375.868	1220.75
376.094	1402.75
376.319	1221.75
376.545	1343.75
376.771	1410.75
376.997	1210.75
377.222	906.75
377.448	790.75
377.674	761.75
377.899	757.75
378.125	768.75
378.35	776.75
378.576	793.75
378.802	884.75
379.027	989.75
379.253	912.75
379.478	942.75
379.704	1096.75
379.929	1176.75
380.155	1137.75
380.38	962.75
380.606	1033.75
380.831	1141.75
381.057	1058.75
381.282	1021.75
381.507	1231.75
381.733	1534.75
381.958	1556.75
382.184	1717.75
382.409	1796.75
382.634	1776.75
382.86	1864.75
383.085	1487.75
383.31	1148.75
383.535	1237.75
383.761	1278.75
383.986	1180.75
384.211	1468.75
384.436	1446.75
384.662	1082.75
384.887	1042.75
385.112	1079.75
385.337	1086.75
385.562	1031.75
385.787	1132.75
386.013	1295.75
386.238	1304.75
386.463	1076.75
386.688	1062.75
386.913	984.75
387.138	923.75
387.363	983.75
387.588	1024.75
387.813	1020.75
388.038	1168.75
388.263	1031.75
388.488	996.75
388.713	1169.75
388.938	1294.75
389.163	1097.75
389.387	948.75
389.612	948.75
389.837	975.75
390.062	989.75
390.287	1050.75
390.512	1067.75
390.736	995.75
390.961	895.75
391.186	859.75
391.411	849.75
391.636	851.75
391.86	930.75
392.085	1068.75
392.31	1037.75
392.534	990.75
392.759	973.75
392.984	1030.75
393.208	1026.75
393.433	914.75
393.658	828.75
393.882	822.75
394.107	821.75
394.331	796.75
394.556	804.75
394.78	822.75
395.005	869.75
395.229	886.75
395.454	910.75
395.678	910.75
395.903	938.75
396.127	883.75
396.352	926.75
396.576	1015.75
396.801	1046.75
397.025	1158.75
397.249	1172.75
397.474	966.75
397.698	940.75
397.922	993.75
398.147	909.75
398.371	961.75
398.595	1028.75
398.82	949.75
399.044	1006.75
399.268	1032.75
399.492	1050.75
399.717	1056.75
399.941	1138.75
400.165	1085.75
400.389	1038.75
400.613	1102.75
400.837	1072.75
401.062	931.75
401.286	905.75
401.51	923.75
401.734	911.75
401.958	928.75
402.182	900.75
402.406	923.75
402.63	940.75
402.854	958.75
403.078	1070.75
403.302	1342.75
403.526	1404.75
403.75	1218.75
403.974	1063.75
404.198	1132.75
404.422	1286.75
404.645	1522.75
404.869	1670.75
405.093	1234.75
405.317	1006.75
405.541	1002.75
405.765	1056.75
405.988	1049.75
406.212	1144.75
406.436	1341.75
406.66	1496.75
406.883	1152.75
407.107	1172.75
407.331	1404.75
407.555	1359.75
407.778	1161.75
408.002	1080.75
408.226	1080.75
408.449	1089.75
408.673	1041.75
408.896	940.75
409.12	908.75
409.344	914.75
409.567	915.75
409.791	923.75
410.014	924.75
410.238	927.75
410.461	899.75
410.685	914.75
410.908	943.75
411.132	947.75
411.355	941.75
411.578	938.75
411.802	954.75
412.025	1012.75
412.249	997.75
412.472	975.75
412.695	971.75
412.919	943.75
413.142	994.75
413.365	1074.75
413.589	1088.75
413.812	972.75
414.035	933.75
414.258	960.75
414.482	1120.75
414.705	1102.75
414.928	952.75
415.151	879.75
415.374	892.75
415.597	931.75
415.821	949.75
416.044	908.75
416.267	900.75
416.49	862.75
416.713	864.75
416.936	895.75
417.159	890.75
417.382	921.75
417.605	886.75
417.828	946.75
418.051	932.75
418.274	948.75
418.497	947.75
418.72	922.75
418.943	985.75
419.166	1046.75
419.389	1064.75
419.611	1009.75
419.834	1056.75
420.057	1173.75
420.28	1180.75
420.503	1072.75
420.726	916.75
420.948	930.75
421.171	907.75
421.394	883.75
421.617	877.75
421.839	899.75
422.062	954.75
422.285	949.75
422.507	969.75
422.73	977.75
422.953	993.75
423.175	976.75
423.398	970.75
423.621	1042.75
423.843	1101.75
424.066	1008.75
424.288	975.75
424.511	928.75
424.733	908.75
424.956	987.75
425.178	1111.75
425.401	1324.75
425.623	1440.75
425.846	1168.75
426.068	1020.75
426.291	1168.75
426.513	1064.75
426.735	973.75
426.958	1022.75
427.18	1211.75
427.402	1554.75
427.625	1520.75
427.847	1227.75
428.069	932.75
428.292	905.75
428.514	920.75
428.736	892.75
428.958	977.75
429.181	1156.75
429.403	1009.75
429.625	916.75
429.847	870.75
430.069	905.75
430.292	935.75
430.514	925.75
430.736	974.75
430.958	1246.75
431.18	1145.75
431.402	883.75
431.624	818.75
431.846	812.75
432.068	800.75
432.29	832.75
432.512	958.75
432.734	1267.75
432.956	1168.75
433.178	871.75
433.4	884.75
433.622	879.75
433.844	899.75
434.066	933.75
434.287	954.75
434.509	913.75
434.731	928.75
434.953	880.75
435.175	942.75
435.397	1076.75
435.618	919.75
435.84	826.75
436.062	837.75
436.284	848.75
436.505	818.75
436.727	813.75
436.949	822.75
437.17	876.75
437.392	880.75
437.614	850.75
437.835	836.75
438.057	863.75
438.278	973.75
438.5	1432.75
438.721	1426.75
438.943	976.75
439.165	832.75
439.386	805.75
439.608	808.75
439.829	807.75
440.05	807.75
440.272	871.75
440.493	1025.75
440.715	1300.75
440.936	1016.75
441.158	861.75
441.379	886.75
441.6	991.75
441.822	1071.75
442.043	896.75
442.264	886.75
442.486	898.75
442.707	891.75
442.928	900.75
443.149	917.75
443.371	915.75
443.592	943.75
443.813	944.75
444.034	907.75
444.255	935.75
444.476	960.75
444.698	933.75
444.919	955.75
445.14	1064.75
445.361	1036.75
445.582	954.75
445.803	954.75
446.024	946.75
446.245	977.75
446.466	922.75
446.687	899.75
446.908	892.75
447.129	846.75
447.35	839.75
447.571	801.75
447.792	782.75
448.013	782.75
448.234	768.75
448.455	805.75
448.675	821.75
448.896	825.75
449.117	808.75
449.338	831.75
449.559	818.75
449.779	890.75
450	889.75
450.221	873.75
450.442	822.75
450.662	812.75
450.883	815.75
451.104	816.75
451.324	797.75
451.545	809.75
451.766	803.75
451.986	801.75
452.207	774.75
452.428	769.75
452.648	789.75
452.869	833.75
453.089	871.75
453.31	881.75
453.53	756.75
453.751	761.75
453.971	766.75
454.192	792.75
454.412	826.75
454.633	790.75
454.853	799.75
455.073	740.75
455.294	712.75
455.514	737.75
455.734	746.75
455.955	830.75
456.175	819.75
456.395	755.75
456.616	722.75
456.836	711.75
457.056	710.75
457.276	707.75
457.497	712.75
457.717	723.75
457.937	715.75
458.157	704.75
458.377	725.75
458.598	770.75
458.818	786.75
459.038	812.75
459.258	825.75
459.478	846.75
459.698	918.75
459.918	882.75
460.138	903.75
460.358	912.75
460.578	890.75
460.798	936.75
461.018	867.75
461.238	856.75
461.458	865.75
461.678	882.75
461.898	976.75
462.118	944.75
462.338	940.75
462.558	977.75
462.777	1001.75
462.997	1053.75
463.217	1044.75
463.437	1055.75
463.657	1038.75
463.876	991.75
464.096	988.75
464.316	973.75
464.536	968.75
464.755	1026.75
464.975	1048.75
465.195	1007.75
465.414	1041.75
465.634	1008.75
465.854	958.75
466.073	871.75
466.293	880.75
466.512	946.75
466.732	1052.75
466.951	1025.75
467.171	912.75
467.391	865.75
467.61	900.75
467.829	946.75
468.049	963.75
468.268	912.75
468.488	886.75
468.707	919.75
468.927	1074.75
469.146	1149.75
469.365	1042.75
469.585	982.75
469.804	1040.75
470.023	1135.75
470.243	994.75
470.462	960.75
470.681	919.75
470.901	936.75
471.12	1006.75
471.339	984.75
471.558	970.75
471.777	961.75
471.997	1036.75
472.216	1125.75
472.435	1081.75
472.654	977.75
472.873	956.75
473.092	1014.75
473.311	1057.75
473.53	968.75
473.749	951.75
473.968	1000.75
474.187	995.75
474.406	959.75
474.625	915.75
474.844	989.75
475.063	1040.75
475.282	1053.75
475.501	1098.75
475.72	1144.75
475.939	1148.75
476.158	1130.75
476.377	1296.75
476.596	1475.75
476.814	1567.75
477.033	1270.75
477.252	1070.75
477.471	990.75
477.69	1014.75
477.908	1123.75
478.127	1161.75
478.346	1069.75
478.564	1187.75
478.783	1088.75
479.002	1123.75
479.22	1308.75
479.439	1445.75
479.658	1232.75
479.876	1138.75
480.095	1231.75
480.313	1225.75
480.532	1141.75
480.751	1108.75
480.969	1170.75
481.188	1324.75
481.406	1336.75
481.624	1250.75
481.843	1147.75
482.061	1089.75
482.28	1235.75
482.498	1481.75
482.717	1446.75
482.935	1214.75
483.153	1158.75
483.372	1078.75
483.59	1088.75
483.808	1028.75
484.027	1047.75
484.245	1000.75
484.463	999.75
484.681	1046.75
484.9	1114.75
485.118	1194.75
485.336	1135.75
485.554	1010.75
485.772	1068.75
485.99	1176.75
486.209	1265.75
486.427	1259.75
486.645	1242.75
486.863	1261.75
487.081	1254.75
487.299	1421.75
487.517	1419.75
487.735	1265.75
487.953	1256.75
488.171	1290.75
488.389	1199.75
488.607	1166.75
488.825	1172.75
489.043	1285.75
489.261	1492.75
489.479	1598.75
489.696	1344.75
489.914	1225.75
490.132	1114.75
490.35	1134.75
490.568	1135.75
490.786	1150.75
491.003	1190.75
491.221	1156.75
491.439	1145.75
491.657	1118.75
491.874	1259.75
492.092	1536.75
492.31	1887.75
492.527	1801.75
492.745	1578.75
492.963	1346.75
493.18	1327.75
493.398	1338.75
