Data from NickelSpatula.Lamp.E10.P2_HRD10591_11-57-16-533.txt Node
Date: Tue Jul 23 11:57:16 EDT 2019
User: cochatt
Spectrometer: HR+D1059
Trigger mode: 1
Integration Time (sec): 1.000000E-1
Scans to average: 1
Electric dark correction enabled: true
Nonlinearity correction enabled: false
Boxcar width: 0
XAxis mode: Wavelengths
Number of Pixels in Spectrum: 2048
>>>>>Begin Spectral Data<<<<<
223.165	-27.56
223.4	-27.56
223.635	-27.56
223.869	-28.56
224.104	-25.56
224.338	-2.56
224.573	-17.56
224.808	-5.56
225.042	-15.56
225.277	-8.56
225.511	-6.56
225.746	30.44
225.98	4.44
226.215	9.44
226.449	19.44
226.683	23.44
226.918	19.44
227.152	31.44
227.387	48.44
227.621	36.44
227.856	50.44
228.09	42.44
228.324	40.44
228.559	59.44
228.793	77.44
229.027	153.44
229.262	149.44
229.496	155.44
229.73	157.44
229.964	201.44
230.199	207.44
230.433	234.44
230.667	213.44
230.901	198.44
231.136	203.44
231.37	215.44
231.604	215.44
231.838	228.44
232.072	272.44
232.306	240.44
232.541	244.44
232.775	233.44
233.009	275.44
233.243	296.44
233.477	307.44
233.711	364.44
233.945	327.44
234.179	326.44
234.413	369.44
234.647	360.44
234.881	453.44
235.115	428.44
235.349	401.44
235.583	355.44
235.817	349.44
236.051	375.44
236.285	422.44
236.519	439.44
236.753	422.44
236.987	417.44
237.221	390.44
237.455	432.44
237.689	422.44
237.922	469.44
238.156	491.44
238.39	535.44
238.624	651.44
238.858	591.44
239.091	526.44
239.325	509.44
239.559	470.44
239.793	553.44
240.027	663.44
240.26	610.44
240.494	581.44
240.728	598.44
240.961	671.44
241.195	645.44
241.429	639.44
241.662	623.44
241.896	532.44
242.13	493.44
242.363	446.44
242.597	463.44
242.83	564.44
243.064	538.44
243.298	587.44
243.531	623.44
243.765	630.44
243.998	618.44
244.232	605.44
244.465	612.44
244.699	596.44
244.932	679.44
245.166	637.44
245.399	531.44
245.633	527.44
245.866	570.44
246.099	613.44
246.333	701.44
246.566	762.44
246.8	724.44
247.033	769.44
247.266	675.44
247.5	695.44
247.733	661.44
247.966	641.44
248.2	685.44
248.433	773.44
248.666	833.44
248.899	816.44
249.133	840.44
249.366	978.44
249.599	1037.44
249.832	911.44
250.066	804.44
250.299	829.44
250.532	789.44
250.765	829.44
250.998	754.44
251.231	703.44
251.465	763.44
251.698	826.44
251.931	807.44
252.164	825.44
252.397	947.44
252.63	1065.44
252.863	1147.44
253.096	1184.44
253.329	1135.44
253.562	1106.44
253.795	1227.44
254.028	1340.44
254.261	1378.44
254.494	1233.44
254.727	1134.44
254.96	1123.44
255.193	1197.44
255.426	1103.44
255.659	853.44
255.892	795.44
256.124	894.44
256.357	1025.44
256.59	1194.44
256.823	1121.44
257.056	917.44
257.289	898.44
257.521	979.44
257.754	1148.44
257.987	1295.44
258.22	1133.44
258.452	1001.44
258.685	1110.44
258.918	1279.44
259.151	1272.44
259.383	1325.44
259.616	1505.44
259.849	1551.44
260.081	1701.44
260.314	1911.44
260.547	1486.44
260.779	1456.44
261.012	1754.44
261.244	1658.44
261.477	1646.44
261.71	1533.44
261.942	1307.44
262.175	1287.44
262.407	1218.44
262.64	1268.44
262.872	1491.44
263.105	1661.44
263.337	1753.44
263.57	1528.44
263.802	1025.44
264.035	906.44
264.267	883.44
264.499	762.44
264.732	706.44
264.964	685.44
265.197	723.44
265.429	776.44
265.661	839.44
265.894	847.44
266.126	918.44
266.358	1063.44
266.591	1249.44
266.823	1489.44
267.055	1420.44
267.287	1261.44
267.52	1264.44
267.752	1331.44
267.984	1492.44
268.216	1391.44
268.448	1143.44
268.681	1146.44
268.913	1198.44
269.145	1287.44
269.377	1314.44
269.609	1325.44
269.841	1205.44
270.073	1323.44
270.306	1374.44
270.538	1389.44
270.77	1419.44
271.002	1420.44
271.234	1478.44
271.466	1472.44
271.698	1440.44
271.93	1387.44
272.162	1417.44
272.394	1393.44
272.626	1383.44
272.858	1444.44
273.09	1491.44
273.322	1306.44
273.553	1258.44
273.785	1484.44
274.017	1941.44
274.249	2385.44
274.481	2505.44
274.713	2741.44
274.945	3144.44
275.176	3283.44
275.408	2813.44
275.64	2615.44
275.872	2634.44
276.104	2214.44
276.335	1910.44
276.567	1922.44
276.799	1950.44
277.031	2074.44
277.262	1596.44
277.494	1217.44
277.726	1177.44
277.957	1319.44
278.189	1482.44
278.421	1478.44
278.652	1432.44
278.884	1383.44
279.115	1235.44
279.347	1196.44
279.579	1186.44
279.81	1194.44
280.042	1198.44
280.273	1267.44
280.505	1145.44
280.736	998.44
280.968	1023.44
281.199	1075.44
281.431	1232.44
281.662	1261.44
281.894	1173.44
282.125	1265.44
282.356	1341.44
282.588	1411.44
282.819	1240.44
283.051	1350.44
283.282	1677.44
283.513	1995.44
283.745	2157.44
283.976	2162.44
284.207	2044.44
284.439	2126.44
284.67	2002.44
284.901	1817.44
285.132	1954.44
285.364	2017.44
285.595	1876.44
285.826	1971.44
286.057	2047.44
286.288	1939.44
286.52	2022.44
286.751	2125.44
286.982	2094.44
287.213	1799.44
287.444	1768.44
287.675	1829.44
287.906	1815.44
288.138	1601.44
288.369	1355.44
288.6	1297.44
288.831	1329.44
289.062	1567.44
289.293	1734.44
289.524	1622.44
289.755	1606.44
289.986	1671.44
290.217	1438.44
290.448	1130.44
290.679	964.44
290.91	896.44
291.141	946.44
291.371	964.44
291.602	977.44
291.833	1025.44
292.064	1065.44
292.295	1214.44
292.526	1421.44
292.757	1444.44
292.987	1562.44
293.218	1561.44
293.449	1621.44
293.68	1735.44
293.91	1615.44
294.141	1644.44
294.372	1521.44
294.603	1429.44
294.833	1622.44
295.064	1847.44
295.295	1758.44
295.525	1303.44
295.756	1153.44
295.987	978.44
296.217	1002.44
296.448	1023.44
296.679	1085.44
296.909	1187.44
297.14	1266.44
297.37	1426.44
297.601	1306.44
297.831	1164.44
298.062	1240.44
298.292	1423.44
298.523	1540.44
298.753	1753.44
298.984	1583.44
299.214	1224.44
299.445	1063.44
299.675	1011.44
299.905	988.44
300.136	1045.44
300.366	1119.44
300.597	1113.44
300.827	1002.44
301.057	943.44
301.288	990.44
301.518	1063.44
301.748	1177.44
301.979	1262.44
302.209	1330.44
302.439	1354.44
302.669	1194.44
302.9	1216.44
303.13	1139.44
303.36	1104.44
303.59	1022.44
303.82	1052.44
304.051	1204.44
304.281	1318.44
304.511	1292.44
304.741	1139.44
304.971	1224.44
305.201	1283.44
305.431	1183.44
305.661	1038.44
305.891	1026.44
306.121	1036.44
306.352	933.44
306.582	858.44
306.812	819.44
307.042	841.44
307.272	783.44
307.502	802.44
307.731	844.44
307.961	889.44
308.191	861.44
308.421	785.44
308.651	798.44
308.881	746.44
309.111	778.44
309.341	817.44
309.571	907.44
309.8	885.44
310.03	902.44
310.26	963.44
310.49	927.44
310.72	880.44
310.949	835.44
311.179	870.44
311.409	916.44
311.639	1091.44
311.868	1381.44
312.098	1821.44
312.328	1967.44
312.557	1898.44
312.787	1889.44
313.017	1694.44
313.246	1807.44
313.476	1968.44
313.706	1568.44
313.935	1282.44
314.165	1025.44
314.394	941.44
314.624	946.44
314.853	1005.44
315.083	1035.44
315.312	1019.44
315.542	992.44
315.771	932.44
316.001	855.44
316.23	819.44
316.46	827.44
316.689	824.44
316.919	879.44
317.148	899.44
317.377	869.44
317.607	847.44
317.836	931.44
318.065	1065.44
318.295	1191.44
318.524	1108.44
318.753	974.44
318.983	922.44
319.212	867.44
319.441	943.44
319.67	1098.44
319.9	1171.44
320.129	1115.44
320.358	946.44
320.587	950.44
320.816	979.44
321.046	1155.44
321.275	1285.44
321.504	1269.44
321.733	1227.44
321.962	1166.44
322.191	1138.44
322.42	1078.44
322.649	1062.44
322.878	1163.44
323.108	1156.44
323.337	1031.44
323.566	1029.44
323.795	1040.44
324.024	1000.44
324.253	966.44
324.482	955.44
324.71	1027.44
324.939	1167.44
325.168	1041.44
325.397	894.44
325.626	902.44
325.855	890.44
326.084	904.44
326.313	846.44
326.542	845.44
326.77	878.44
326.999	872.44
327.228	944.44
327.457	985.44
327.686	975.44
327.914	856.44
328.143	800.44
328.372	833.44
328.6	826.44
328.829	815.44
329.058	877.44
329.287	877.44
329.515	892.44
329.744	843.44
329.972	840.44
330.201	779.44
330.43	811.44
330.658	917.44
330.887	1055.44
331.115	1049.44
331.344	989.44
331.572	951.44
331.801	884.44
332.03	839.44
332.258	844.44
332.486	970.44
332.715	972.44
332.943	891.44
333.172	898.44
333.4	934.44
333.629	1025.44
333.857	1104.44
334.085	1097.44
334.314	1092.44
334.542	1051.44
334.771	949.44
334.999	929.44
335.227	912.44
335.455	944.44
335.684	1008.44
335.912	1181.44
336.14	1328.44
336.369	1244.44
336.597	1218.44
336.825	1388.44
337.053	1507.44
337.281	1226.44
337.51	1003.44
337.738	971.44
337.966	1016.44
338.194	1147.44
338.422	1067.44
338.65	930.44
338.878	855.44
339.106	895.44
339.334	988.44
339.562	1050.44
339.79	977.44
340.018	943.44
340.246	1021.44
340.474	1192.44
340.702	1236.44
340.93	1263.44
341.158	1283.44
341.386	1102.44
341.614	1049.44
341.842	1034.44
342.07	1115.44
342.298	1303.44
342.526	1377.44
342.754	1168.44
342.981	1054.44
343.209	1007.44
343.437	1095.44
343.665	1153.44
343.893	1124.44
344.12	1337.44
344.348	1537.44
344.576	1395.44
344.804	1167.44
345.031	987.44
345.259	962.44
345.487	985.44
345.714	990.44
345.942	1071.44
346.17	1158.44
346.397	1112.44
346.625	952.44
346.853	931.44
347.08	921.44
347.308	969.44
347.535	1109.44
347.763	1112.44
347.99	943.44
348.218	893.44
348.445	955.44
348.673	937.44
348.9	939.44
349.128	1026.44
349.355	1028.44
349.583	1013.44
349.81	972.44
350.037	879.44
350.265	848.44
350.492	787.44
350.72	774.44
350.947	803.44
351.174	839.44
351.402	912.44
351.629	935.44
351.856	889.44
352.083	859.44
352.311	930.44
352.538	1026.44
352.765	1085.44
352.992	1003.44
353.22	933.44
353.447	957.44
353.674	914.44
353.901	893.44
354.128	935.44
354.355	965.44
354.583	955.44
354.81	933.44
355.037	961.44
355.264	962.44
355.491	1045.44
355.718	1117.44
355.945	1080.44
356.172	1034.44
356.399	1049.44
356.626	1242.44
356.853	1486.44
357.08	1581.44
357.307	1593.44
357.534	1289.44
357.761	1311.44
357.988	1618.44
358.215	1911.44
358.441	1767.44
358.668	1520.44
358.895	1394.44
359.122	1138.44
359.349	1128.44
359.576	1247.44
359.802	1059.44
360.029	893.44
360.256	976.44
360.483	1201.44
360.709	1497.44
360.936	1574.44
361.163	1347.44
361.39	1070.44
361.616	1003.44
361.843	1170.44
362.07	1396.44
362.296	1280.44
362.523	1001.44
362.749	920.44
362.976	943.44
363.203	1130.44
363.429	1269.44
363.656	1023.44
363.882	929.44
364.109	969.44
364.335	937.44
364.562	947.44
364.788	1081.44
365.015	1220.44
365.241	1101.44
365.468	957.44
365.694	822.44
365.92	783.44
366.147	758.44
366.373	769.44
366.599	751.44
366.826	806.44
367.052	813.44
367.278	803.44
367.505	791.44
367.731	883.44
367.957	967.44
368.184	995.44
368.41	996.44
368.636	1003.44
368.862	1000.44
369.089	985.44
369.315	870.44
369.541	847.44
369.767	827.44
369.993	822.44
370.219	856.44
370.445	858.44
370.672	970.44
370.898	1066.44
371.124	1031.44
371.35	896.44
371.576	891.44
371.802	947.44
372.028	1082.44
372.254	1244.44
372.48	1077.44
372.706	963.44
372.932	1053.44
373.158	1058.44
373.384	1273.44
373.61	1683.44
373.835	1709.44
374.061	1274.44
374.287	1092.44
374.513	1303.44
374.739	1475.44
374.965	1568.44
375.191	1506.44
375.416	1098.44
375.642	985.44
375.868	1123.44
376.094	1240.44
376.319	1108.44
376.545	1205.44
376.771	1285.44
376.997	1099.44
377.222	848.44
377.448	712.44
377.674	754.44
377.899	742.44
378.125	716.44
378.35	751.44
378.576	774.44
378.802	817.44
379.027	894.44
379.253	851.44
379.478	882.44
379.704	985.44
379.929	1033.44
380.155	993.44
380.38	917.44
380.606	922.44
380.831	1031.44
381.057	960.44
381.282	911.44
381.507	1107.44
381.733	1368.44
381.958	1411.44
382.184	1495.44
382.409	1560.44
382.634	1549.44
382.86	1618.44
383.085	1330.44
383.31	1074.44
383.535	1161.44
383.761	1166.44
383.986	1096.44
384.211	1321.44
384.436	1291.44
384.662	970.44
384.887	951.44
385.112	978.44
385.337	995.44
385.562	949.44
385.787	1017.44
386.013	1152.44
386.238	1178.44
386.463	985.44
386.688	932.44
386.913	925.44
387.138	859.44
387.363	899.44
387.588	918.44
387.813	966.44
388.038	1069.44
388.263	936.44
388.488	928.44
388.713	1040.44
388.938	1158.44
389.163	970.44
389.387	886.44
389.612	887.44
389.837	925.44
390.062	925.44
390.287	964.44
390.512	935.44
390.736	934.44
390.961	848.44
391.186	842.44
391.411	830.44
391.636	843.44
391.86	937.44
392.085	967.44
392.31	995.44
392.534	913.44
392.759	925.44
392.984	947.44
393.208	935.44
393.433	843.44
393.658	790.44
393.882	788.44
394.107	784.44
394.331	789.44
394.556	801.44
394.78	795.44
395.005	839.44
395.229	839.44
395.454	836.44
395.678	884.44
395.903	897.44
396.127	865.44
396.352	881.44
396.576	927.44
396.801	969.44
397.025	1067.44
397.249	1102.44
397.474	875.44
397.698	901.44
397.922	963.44
398.147	861.44
398.371	899.44
398.595	952.44
398.82	933.44
399.044	944.44
399.268	996.44
399.492	1013.44
399.717	1039.44
399.941	1098.44
400.165	1052.44
400.389	1029.44
400.613	1021.44
400.837	1023.44
401.062	920.44
401.286	888.44
401.51	912.44
401.734	893.44
401.958	887.44
402.182	865.44
402.406	887.44
402.63	904.44
402.854	938.44
403.078	1047.44
403.302	1247.44
403.526	1309.44
403.75	1182.44
403.974	1036.44
404.198	1056.44
404.422	1205.44
404.645	1379.44
404.869	1504.44
405.093	1131.44
405.317	989.44
405.541	932.44
405.765	969.44
405.988	1012.44
406.212	1073.44
406.436	1245.44
406.66	1366.44
406.883	1120.44
407.107	1144.44
407.331	1316.44
407.555	1214.44
407.778	1079.44
408.002	1062.44
408.226	1059.44
408.449	1043.44
408.673	986.44
408.896	931.44
409.12	896.44
409.344	905.44
409.567	910.44
409.791	903.44
410.014	909.44
410.238	870.44
410.461	876.44
410.685	894.44
410.908	857.44
411.132	878.44
411.355	915.44
411.578	932.44
411.802	917.44
412.025	947.44
412.249	962.44
412.472	938.44
412.695	929.44
412.919	947.44
413.142	914.44
413.365	1010.44
413.589	1018.44
413.812	937.44
414.035	902.44
414.258	932.44
414.482	1009.44
414.705	1022.44
414.928	887.44
415.151	868.44
415.374	857.44
415.597	907.44
415.821	883.44
416.044	884.44
416.267	872.44
416.49	872.44
416.713	851.44
416.936	879.44
417.159	840.44
417.382	895.44
417.605	890.44
417.828	863.44
418.051	886.44
418.274	915.44
418.497	891.44
418.72	937.44
418.943	950.44
419.166	962.44
419.389	987.44
419.611	983.44
419.834	1023.44
420.057	1098.44
420.28	1064.44
420.503	984.44
420.726	882.44
420.948	854.44
421.171	874.44
421.394	871.44
421.617	862.44
421.839	869.44
422.062	923.44
422.285	911.44
422.507	917.44
422.73	934.44
422.953	930.44
423.175	916.44
423.398	930.44
423.621	979.44
423.843	1033.44
424.066	956.44
424.288	930.44
424.511	944.44
424.733	898.44
424.956	935.44
425.178	1027.44
425.401	1183.44
425.623	1269.44
425.846	1117.44
426.068	1001.44
426.291	1070.44
426.513	989.44
426.735	940.44
426.958	957.44
427.18	1106.44
427.402	1417.44
427.625	1399.44
427.847	1157.44
428.069	901.44
428.292	887.44
428.514	858.44
428.736	849.44
428.958	932.44
429.181	1105.44
429.403	977.44
429.625	873.44
429.847	834.44
430.069	890.44
430.292	919.44
430.514	858.44
430.736	940.44
430.958	1120.44
431.18	1020.44
431.402	831.44
431.624	809.44
431.846	816.44
432.068	784.44
432.29	800.44
432.512	891.44
432.734	1164.44
432.956	1069.44
433.178	879.44
433.4	852.44
433.622	853.44
433.844	866.44
434.066	942.44
434.287	893.44
434.509	857.44
434.731	899.44
434.953	869.44
435.175	890.44
435.397	1003.44
435.618	887.44
435.84	832.44
436.062	815.44
436.284	826.44
436.505	773.44
436.727	783.44
436.949	783.44
437.17	825.44
437.392	840.44
437.614	815.44
437.835	833.44
438.057	833.44
438.278	939.44
438.5	1321.44
438.721	1318.44
438.943	913.44
439.165	802.44
439.386	771.44
439.608	773.44
439.829	771.44
440.05	803.44
440.272	821.44
440.493	957.44
440.715	1138.44
440.936	925.44
441.158	893.44
441.379	865.44
441.6	941.44
441.822	991.44
442.043	859.44
442.264	828.44
442.486	852.44
442.707	870.44
442.928	878.44
443.149	893.44
443.371	887.44
443.592	934.44
443.813	922.44
444.034	894.44
444.255	918.44
444.476	938.44
444.698	937.44
444.919	942.44
445.14	1042.44
445.361	1015.44
445.582	946.44
445.803	904.44
446.024	936.44
446.245	927.44
446.466	900.44
446.687	870.44
446.908	868.44
447.129	864.44
447.35	792.44
447.571	795.44
447.792	798.44
448.013	773.44
448.234	779.44
448.455	772.44
448.675	777.44
448.896	761.44
449.117	787.44
449.338	831.44
449.559	840.44
449.779	865.44
450	881.44
450.221	854.44
450.442	839.44
450.662	821.44
450.883	780.44
451.104	848.44
451.324	774.44
451.545	814.44
451.766	787.44
451.986	779.44
452.207	766.44
452.428	790.44
452.648	765.44
452.869	805.44
453.089	831.44
453.31	824.44
453.53	742.44
453.751	723.44
453.971	713.44
454.192	727.44
454.412	781.44
454.633	723.44
454.853	739.44
455.073	725.44
455.294	712.44
455.514	762.44
455.734	741.44
455.955	813.44
456.175	829.44
456.395	750.44
456.616	693.44
456.836	697.44
457.056	679.44
457.276	673.44
457.497	703.44
457.717	703.44
457.937	704.44
458.157	733.44
458.377	710.44
458.598	736.44
458.818	777.44
459.038	817.44
459.258	810.44
459.478	850.44
459.698	887.44
459.918	919.44
460.138	885.44
460.358	903.44
460.578	865.44
460.798	893.44
461.018	901.44
461.238	873.44
461.458	850.44
461.678	891.44
461.898	911.44
462.118	909.44
462.338	927.44
462.558	934.44
462.777	991.44
462.997	994.44
463.217	1043.44
463.437	1023.44
463.657	1020.44
463.876	952.44
464.096	984.44
464.316	977.44
464.536	957.44
464.755	1018.44
464.975	973.44
465.195	950.44
465.414	1044.44
465.634	971.44
465.854	917.44
466.073	881.44
466.293	850.44
466.512	916.44
466.732	1036.44
466.951	1013.44
467.171	918.44
467.391	880.44
467.61	871.44
467.829	922.44
468.049	927.44
468.268	872.44
468.488	899.44
468.707	912.44
468.927	1065.44
469.146	1129.44
469.365	1048.44
469.585	949.44
469.804	1027.44
470.023	1074.44
470.243	948.44
470.462	922.44
470.681	907.44
470.901	918.44
471.12	951.44
471.339	974.44
471.558	930.44
471.777	920.44
471.997	976.44
472.216	1121.44
472.435	1070.44
472.654	957.44
472.873	928.44
473.092	1013.44
473.311	1041.44
473.53	950.44
473.749	933.44
473.968	981.44
474.187	965.44
474.406	954.44
474.625	912.44
474.844	968.44
475.063	1000.44
475.282	1016.44
475.501	1060.44
475.72	1098.44
475.939	1093.44
476.158	1100.44
476.377	1217.44
476.596	1443.44
476.814	1475.44
477.033	1240.44
477.252	1077.44
477.471	1045.44
477.69	1013.44
477.908	1135.44
478.127	1161.44
478.346	1061.44
478.564	1116.44
478.783	1090.44
479.002	1127.44
479.22	1271.44
479.439	1407.44
479.658	1226.44
479.876	1121.44
480.095	1210.44
480.313	1230.44
480.532	1105.44
480.751	1103.44
480.969	1145.44
481.188	1255.44
481.406	1310.44
481.624	1247.44
481.843	1120.44
482.061	1057.44
482.28	1207.44
482.498	1467.44
482.717	1368.44
482.935	1189.44
483.153	1126.44
483.372	1074.44
483.59	1050.44
483.808	1039.44
484.027	1055.44
484.245	1002.44
484.463	969.44
484.681	1009.44
484.9	1105.44
485.118	1157.44
485.336	1121.44
485.554	1043.44
485.772	1079.44
485.99	1147.44
486.209	1221.44
486.427	1177.44
486.645	1181.44
486.863	1245.44
487.081	1240.44
487.299	1325.44
487.517	1279.44
487.735	1185.44
487.953	1230.44
488.171	1265.44
488.389	1181.44
488.607	1097.44
488.825	1153.44
489.043	1251.44
489.261	1427.44
489.479	1472.44
489.696	1265.44
489.914	1183.44
490.132	1120.44
490.35	1105.44
490.568	1122.44
490.786	1112.44
491.003	1133.44
491.221	1175.44
491.439	1152.44
491.657	1127.44
491.874	1221.44
492.092	1467.44
492.31	1697.44
492.527	1697.44
492.745	1506.44
492.963	1333.44
493.18	1267.44
493.398	1289.44
493.615	1282.44
493.833	1248.44
494.05	1217.44
494.268	1249.44
494.485	1214.44
494.703	1192.44
494.92	1230.44
