Data from NickelSpatula.Lamp.E5.5.P2_HRD10591_11-52-25-555.txt Node
Date: Tue Jul 23 11:52:25 EDT 2019
User: cochatt
Spectrometer: HR+D1059
Trigger mode: 1
Integration Time (sec): 1.000000E-1
Scans to average: 1
Electric dark correction enabled: true
Nonlinearity correction enabled: false
Boxcar width: 0
XAxis mode: Wavelengths
Number of Pixels in Spectrum: 2048
>>>>>Begin Spectral Data<<<<<
223.165	-14.44
223.4	-14.44
223.635	-14.44
223.869	-13.44
224.104	-19.44
224.338	-16.44
224.573	-16.44
224.808	-14.44
225.042	-8.44
225.277	-7.44
225.511	-0.44
225.746	0.56
225.98	3.56
226.215	3.56
226.449	18.56
226.683	20.56
226.918	34.56
227.152	29.56
227.387	32.56
227.621	33.56
227.856	43.56
228.09	43.56
228.324	56.56
228.559	66.56
228.793	62.56
229.027	84.56
229.262	81.56
229.496	84.56
229.73	78.56
229.964	96.56
230.199	91.56
230.433	103.56
230.667	105.56
230.901	101.56
231.136	97.56
231.37	115.56
231.604	97.56
231.838	111.56
232.072	125.56
232.306	118.56
232.541	113.56
232.775	113.56
233.009	123.56
233.243	126.56
233.477	114.56
233.711	126.56
233.945	128.56
234.179	117.56
234.413	122.56
234.647	139.56
234.881	158.56
235.115	152.56
235.349	132.56
235.583	122.56
235.817	116.56
236.051	118.56
236.285	139.56
236.519	147.56
236.753	157.56
236.987	151.56
237.221	156.56
237.455	143.56
237.689	148.56
237.922	155.56
238.156	147.56
238.39	176.56
238.624	183.56
238.858	171.56
239.091	159.56
239.325	154.56
239.559	134.56
239.793	157.56
240.027	176.56
240.26	184.56
240.494	163.56
240.728	164.56
240.961	184.56
241.195	178.56
241.429	186.56
241.662	178.56
241.896	162.56
242.13	148.56
242.363	143.56
242.597	144.56
242.83	181.56
243.064	165.56
243.298	170.56
243.531	179.56
243.765	178.56
243.998	180.56
244.232	191.56
244.465	166.56
244.699	176.56
244.932	194.56
245.166	183.56
245.399	176.56
245.633	167.56
245.866	176.56
246.099	182.56
246.333	194.56
246.566	208.56
246.8	223.56
247.033	217.56
247.266	189.56
247.5	195.56
247.733	173.56
247.966	188.56
248.2	192.56
248.433	206.56
248.666	217.56
248.899	223.56
249.133	220.56
249.366	243.56
249.599	248.56
249.832	247.56
250.066	208.56
250.299	225.56
250.532	211.56
250.765	225.56
250.998	192.56
251.231	192.56
251.465	208.56
251.698	209.56
251.931	206.56
252.164	226.56
252.397	243.56
252.63	256.56
252.863	260.56
253.096	293.56
253.329	294.56
253.562	274.56
253.795	302.56
254.028	328.56
254.261	347.56
254.494	296.56
254.727	283.56
254.96	257.56
255.193	297.56
255.426	292.56
255.659	208.56
255.892	219.56
256.124	219.56
256.357	267.56
256.59	296.56
256.823	287.56
257.056	234.56
257.289	228.56
257.521	263.56
257.754	290.56
257.987	328.56
258.22	289.56
258.452	260.56
258.685	271.56
258.918	315.56
259.151	305.56
259.383	317.56
259.616	376.56
259.849	363.56
260.081	402.56
260.314	422.56
260.547	346.56
260.779	353.56
261.012	410.56
261.244	392.56
261.477	383.56
261.71	358.56
261.942	322.56
262.175	304.56
262.407	285.56
262.64	303.56
262.872	364.56
263.105	376.56
263.337	396.56
263.57	363.56
263.802	276.56
264.035	236.56
264.267	239.56
264.499	222.56
264.732	199.56
264.964	201.56
265.197	193.56
265.429	205.56
265.661	219.56
265.894	210.56
266.126	231.56
266.358	256.56
266.591	306.56
266.823	362.56
267.055	344.56
267.287	329.56
267.52	306.56
267.752	329.56
267.984	340.56
268.216	334.56
268.448	295.56
268.681	276.56
268.913	296.56
269.145	325.56
269.377	321.56
269.609	309.56
269.841	312.56
270.073	315.56
270.306	342.56
270.538	349.56
270.77	348.56
271.002	346.56
271.234	353.56
271.466	376.56
271.698	328.56
271.93	320.56
272.162	321.56
272.394	332.56
272.626	309.56
272.858	343.56
273.09	348.56
273.322	291.56
273.553	309.56
273.785	326.56
274.017	429.56
274.249	502.56
274.481	535.56
274.713	587.56
274.945	658.56
275.176	690.56
275.408	604.56
275.64	564.56
275.872	578.56
276.104	485.56
276.335	427.56
276.567	418.56
276.799	434.56
277.031	474.56
277.262	376.56
277.494	308.56
277.726	286.56
277.957	315.56
278.189	354.56
278.421	338.56
278.652	317.56
278.884	328.56
279.115	297.56
279.347	280.56
279.579	296.56
279.81	299.56
280.042	300.56
280.273	331.56
280.505	297.56
280.736	275.56
280.968	251.56
281.199	268.56
281.431	309.56
281.662	304.56
281.894	268.56
282.125	311.56
282.356	317.56
282.588	341.56
282.819	305.56
283.051	335.56
283.282	382.56
283.513	425.56
283.745	469.56
283.976	468.56
284.207	448.56
284.439	472.56
284.67	463.56
284.901	408.56
285.132	444.56
285.364	462.56
285.595	413.56
285.826	438.56
286.057	464.56
286.288	427.56
286.52	453.56
286.751	456.56
286.982	458.56
287.213	423.56
287.444	386.56
287.675	410.56
287.906	417.56
288.138	361.56
288.369	301.56
288.6	320.56
288.831	344.56
289.062	379.56
289.293	413.56
289.524	394.56
289.755	364.56
289.986	373.56
290.217	363.56
290.448	286.56
290.679	249.56
290.91	243.56
291.141	244.56
291.371	256.56
291.602	239.56
291.833	251.56
292.064	251.56
292.295	312.56
292.526	329.56
292.757	341.56
292.987	355.56
293.218	380.56
293.449	400.56
293.68	410.56
293.91	399.56
294.141	413.56
294.372	380.56
294.603	338.56
294.833	380.56
295.064	447.56
295.295	444.56
295.525	321.56
295.756	281.56
295.987	250.56
296.217	263.56
296.448	240.56
296.679	256.56
296.909	286.56
297.14	299.56
297.37	340.56
297.601	309.56
297.831	282.56
298.062	299.56
298.292	334.56
298.523	368.56
298.753	382.56
298.984	360.56
299.214	310.56
299.445	283.56
299.675	254.56
299.905	241.56
300.136	257.56
300.366	278.56
300.597	269.56
300.827	263.56
301.057	245.56
301.288	266.56
301.518	272.56
301.748	285.56
301.979	317.56
302.209	338.56
302.439	336.56
302.669	285.56
302.9	305.56
303.13	297.56
303.36	293.56
303.59	263.56
303.82	277.56
304.051	306.56
304.281	342.56
304.511	322.56
304.741	284.56
304.971	280.56
305.201	307.56
305.431	307.56
305.661	276.56
305.891	281.56
306.121	237.56
306.352	233.56
306.582	230.56
306.812	208.56
307.042	221.56
307.272	210.56
307.502	216.56
307.731	218.56
307.961	217.56
308.191	214.56
308.421	209.56
308.651	198.56
308.881	203.56
309.111	209.56
309.341	215.56
309.571	225.56
309.8	222.56
310.03	241.56
310.26	225.56
310.49	235.56
310.72	214.56
310.949	229.56
311.179	228.56
311.409	241.56
311.639	242.56
311.868	307.56
312.098	410.56
312.328	422.56
312.557	425.56
312.787	417.56
313.017	370.56
313.246	421.56
313.476	438.56
313.706	398.56
313.935	314.56
314.165	262.56
314.394	226.56
314.624	233.56
314.853	246.56
315.083	253.56
315.312	236.56
315.542	242.56
315.771	220.56
316.001	222.56
316.23	223.56
316.46	214.56
316.689	224.56
316.919	217.56
317.148	220.56
317.377	224.56
317.607	225.56
317.836	246.56
318.065	253.56
318.295	280.56
318.524	264.56
318.753	225.56
318.983	233.56
319.212	230.56
319.441	243.56
319.67	267.56
319.9	281.56
320.129	267.56
320.358	241.56
320.587	227.56
320.816	234.56
321.046	269.56
321.275	283.56
321.504	288.56
321.733	283.56
321.962	294.56
322.191	260.56
322.42	253.56
322.649	254.56
322.878	266.56
323.108	273.56
323.337	269.56
323.566	250.56
323.795	269.56
324.024	269.56
324.253	222.56
324.482	232.56
324.71	261.56
324.939	284.56
325.168	269.56
325.397	226.56
325.626	246.56
325.855	231.56
326.084	250.56
326.313	242.56
326.542	226.56
326.77	234.56
326.999	229.56
327.228	240.56
327.457	249.56
327.686	237.56
327.914	217.56
328.143	226.56
328.372	223.56
328.6	208.56
328.829	206.56
329.058	215.56
329.287	210.56
329.515	233.56
329.744	214.56
329.972	207.56
330.201	205.56
330.43	208.56
330.658	227.56
330.887	243.56
331.115	254.56
331.344	248.56
331.572	252.56
331.801	233.56
332.03	223.56
332.258	225.56
332.486	237.56
332.715	242.56
332.943	248.56
333.172	242.56
333.4	257.56
333.629	268.56
333.857	289.56
334.085	278.56
334.314	257.56
334.542	256.56
334.771	247.56
334.999	236.56
335.227	258.56
335.455	229.56
335.684	258.56
335.912	287.56
336.14	307.56
336.369	310.56
336.597	279.56
336.825	300.56
337.053	353.56
337.281	304.56
337.51	264.56
337.738	257.56
337.966	242.56
338.194	263.56
338.422	267.56
338.65	227.56
338.878	222.56
339.106	227.56
339.334	234.56
339.562	264.56
339.79	248.56
340.018	233.56
340.246	256.56
340.474	272.56
340.702	293.56
340.93	283.56
341.158	292.56
341.386	270.56
341.614	258.56
341.842	268.56
342.07	262.56
342.298	301.56
342.526	306.56
342.754	275.56
342.981	257.56
343.209	276.56
343.437	274.56
343.665	290.56
343.893	301.56
344.12	346.56
344.348	370.56
344.576	326.56
344.804	285.56
345.031	273.56
345.259	235.56
345.487	243.56
345.714	236.56
345.942	259.56
346.17	278.56
346.397	276.56
346.625	246.56
346.853	227.56
347.08	231.56
347.308	247.56
347.535	267.56
347.763	266.56
347.99	246.56
348.218	242.56
348.445	246.56
348.673	248.56
348.9	244.56
349.128	257.56
349.355	264.56
349.583	246.56
349.81	262.56
350.037	234.56
350.265	208.56
350.492	203.56
350.72	189.56
350.947	214.56
351.174	219.56
351.402	231.56
351.629	230.56
351.856	222.56
352.083	216.56
352.311	224.56
352.538	247.56
352.765	272.56
352.992	268.56
353.22	240.56
353.447	234.56
353.674	237.56
353.901	240.56
354.128	240.56
354.355	247.56
354.583	230.56
354.81	260.56
355.037	240.56
355.264	252.56
355.491	255.56
355.718	269.56
355.945	270.56
356.172	275.56
356.399	271.56
356.626	311.56
356.853	350.56
357.08	363.56
357.307	369.56
357.534	308.56
357.761	322.56
357.988	397.56
358.215	430.56
358.441	403.56
358.668	354.56
358.895	316.56
359.122	289.56
359.349	298.56
359.576	323.56
359.802	283.56
360.029	224.56
360.256	251.56
360.483	288.56
360.709	350.56
360.936	382.56
361.163	337.56
361.39	264.56
361.616	241.56
361.843	272.56
362.07	324.56
362.296	308.56
362.523	246.56
362.749	213.56
362.976	256.56
363.203	268.56
363.429	296.56
363.656	260.56
363.882	228.56
364.109	241.56
364.335	228.56
364.562	231.56
364.788	251.56
365.015	305.56
365.241	284.56
365.468	225.56
365.694	208.56
365.92	215.56
366.147	211.56
366.373	206.56
366.599	225.56
366.826	205.56
367.052	200.56
367.278	221.56
367.505	219.56
367.731	227.56
367.957	233.56
368.184	242.56
368.41	236.56
368.636	240.56
368.862	252.56
369.089	228.56
369.315	228.56
369.541	237.56
369.767	226.56
369.993	200.56
370.219	218.56
370.445	237.56
370.672	262.56
370.898	277.56
371.124	275.56
371.35	232.56
371.576	236.56
371.802	228.56
372.028	283.56
372.254	311.56
372.48	286.56
372.706	240.56
372.932	253.56
373.158	264.56
373.384	316.56
373.61	378.56
373.835	407.56
374.061	317.56
374.287	297.56
374.513	326.56
374.739	377.56
374.965	371.56
375.191	388.56
375.416	268.56
375.642	267.56
375.868	308.56
376.094	294.56
376.319	272.56
376.545	300.56
376.771	312.56
376.997	272.56
377.222	218.56
377.448	197.56
377.674	202.56
377.899	194.56
378.125	209.56
378.35	197.56
378.576	211.56
378.802	218.56
379.027	249.56
379.253	231.56
379.478	220.56
379.704	250.56
379.929	257.56
380.155	274.56
380.38	248.56
380.606	237.56
380.831	263.56
381.057	260.56
381.282	254.56
381.507	261.56
381.733	319.56
381.958	339.56
382.184	355.56
382.409	376.56
382.634	380.56
382.86	368.56
383.085	330.56
383.31	270.56
383.535	308.56
383.761	284.56
383.986	282.56
384.211	311.56
384.436	289.56
384.662	261.56
384.887	243.56
385.112	267.56
385.337	266.56
385.562	267.56
385.787	285.56
386.013	287.56
386.238	312.56
386.463	266.56
386.688	248.56
386.913	252.56
387.138	228.56
387.363	250.56
387.588	248.56
387.813	260.56
388.038	260.56
388.263	252.56
388.488	251.56
388.713	266.56
388.938	289.56
389.163	250.56
389.387	232.56
389.612	248.56
389.837	245.56
390.062	230.56
390.287	252.56
390.512	256.56
390.736	234.56
390.961	236.56
391.186	227.56
391.411	203.56
391.636	213.56
391.86	228.56
392.085	261.56
392.31	282.56
392.534	263.56
392.759	258.56
392.984	248.56
393.208	243.56
393.433	227.56
393.658	214.56
393.882	208.56
394.107	206.56
394.331	204.56
394.556	205.56
394.78	224.56
395.005	228.56
395.229	230.56
395.454	235.56
395.678	235.56
395.903	204.56
396.127	216.56
396.352	236.56
396.576	240.56
396.801	257.56
397.025	257.56
397.249	281.56
397.474	232.56
397.698	230.56
397.922	242.56
398.147	225.56
398.371	232.56
398.595	250.56
398.82	263.56
399.044	256.56
399.268	257.56
399.492	289.56
399.717	315.56
399.941	301.56
400.165	284.56
400.389	270.56
400.613	251.56
400.837	262.56
401.062	241.56
401.286	227.56
401.51	231.56
401.734	237.56
401.958	246.56
402.182	227.56
402.406	229.56
402.63	260.56
402.854	270.56
403.078	310.56
403.302	394.56
403.526	394.56
403.75	342.56
403.974	296.56
404.198	298.56
404.422	330.56
404.645	349.56
404.869	374.56
405.093	308.56
405.317	260.56
405.541	282.56
405.765	266.56
405.988	272.56
406.212	277.56
406.436	296.56
406.66	333.56
406.883	296.56
407.107	289.56
407.331	333.56
407.555	325.56
407.778	273.56
408.002	283.56
408.226	281.56
408.449	279.56
408.673	276.56
408.896	261.56
409.12	258.56
409.344	254.56
409.567	258.56
409.791	258.56
410.014	244.56
410.238	234.56
410.461	237.56
410.685	254.56
410.908	236.56
411.132	252.56
411.355	258.56
411.578	262.56
411.802	249.56
412.025	254.56
412.249	272.56
412.472	236.56
412.695	245.56
412.919	246.56
413.142	243.56
413.365	275.56
413.589	254.56
413.812	260.56
414.035	246.56
414.258	255.56
414.482	271.56
414.705	250.56
414.928	247.56
415.151	232.56
415.374	228.56
415.597	224.56
415.821	237.56
416.044	237.56
416.267	240.56
416.49	241.56
416.713	237.56
416.936	226.56
417.159	236.56
417.382	250.56
417.605	240.56
417.828	241.56
418.051	271.56
418.274	250.56
418.497	242.56
418.72	257.56
418.943	277.56
419.166	276.56
419.389	264.56
419.611	256.56
419.834	266.56
420.057	278.56
420.28	258.56
420.503	254.56
420.726	242.56
420.948	227.56
421.171	238.56
421.394	221.56
421.617	226.56
421.839	228.56
422.062	241.56
422.285	248.56
422.507	253.56
422.73	244.56
422.953	234.56
423.175	251.56
423.398	247.56
423.621	271.56
423.843	282.56
424.066	258.56
424.288	244.56
424.511	262.56
424.733	262.56
424.956	246.56
425.178	267.56
425.401	326.56
425.623	366.56
425.846	320.56
426.068	272.56
426.291	276.56
426.513	251.56
426.735	241.56
426.958	240.56
427.18	293.56
427.402	348.56
427.625	360.56
427.847	347.56
428.069	252.56
428.292	245.56
428.514	244.56
428.736	241.56
428.958	262.56
429.181	321.56
429.403	264.56
429.625	262.56
429.847	236.56
430.069	233.56
430.292	243.56
430.514	240.56
430.736	252.56
430.958	283.56
431.18	283.56
431.402	233.56
431.624	218.56
431.846	229.56
432.068	234.56
432.29	240.56
432.512	257.56
432.734	293.56
432.956	292.56
433.178	250.56
433.4	233.56
433.622	248.56
433.844	242.56
434.066	256.56
434.287	266.56
434.509	235.56
434.731	276.56
434.953	264.56
435.175	254.56
435.397	300.56
435.618	240.56
435.84	236.56
436.062	211.56
436.284	227.56
436.505	227.56
436.727	231.56
436.949	225.56
437.17	227.56
437.392	225.56
437.614	241.56
437.835	235.56
438.057	203.56
438.278	254.56
438.5	334.56
438.721	321.56
438.943	253.56
439.165	222.56
439.386	234.56
439.608	224.56
439.829	227.56
440.05	219.56
440.272	238.56
440.493	249.56
440.715	288.56
440.936	258.56
441.158	236.56
441.379	241.56
441.6	278.56
441.822	290.56
442.043	263.56
442.264	243.56
442.486	234.56
442.707	231.56
442.928	211.56
443.149	240.56
443.371	252.56
443.592	249.56
443.813	246.56
444.034	256.56
444.255	264.56
444.476	274.56
444.698	260.56
444.919	278.56
445.14	346.56
445.361	317.56
445.582	271.56
445.803	250.56
446.024	244.56
446.245	268.56
446.466	244.56
446.687	241.56
446.908	245.56
447.129	244.56
447.35	217.56
447.571	222.56
447.792	222.56
448.013	233.56
448.234	205.56
448.455	203.56
448.675	207.56
448.896	223.56
449.117	220.56
449.338	216.56
449.559	219.56
449.779	234.56
450	253.56
450.221	226.56
450.442	228.56
450.662	227.56
450.883	218.56
451.104	260.56
451.324	215.56
451.545	228.56
451.766	222.56
451.986	225.56
452.207	213.56
452.428	212.56
452.648	227.56
452.869	227.56
453.089	235.56
453.31	216.56
453.53	214.56
453.751	209.56
453.971	208.56
454.192	223.56
454.412	222.56
454.633	217.56
454.853	216.56
455.073	202.56
455.294	234.56
455.514	218.56
455.734	214.56
455.955	227.56
456.175	221.56
456.395	212.56
456.616	196.56
456.836	219.56
457.056	198.56
457.276	192.56
457.497	221.56
457.717	212.56
457.937	205.56
458.157	216.56
458.377	198.56
458.598	221.56
458.818	221.56
459.038	221.56
459.258	229.56
459.478	237.56
459.698	249.56
459.918	265.56
460.138	230.56
460.358	249.56
460.578	244.56
460.798	252.56
461.018	242.56
461.238	234.56
461.458	242.56
461.678	244.56
461.898	267.56
462.118	269.56
462.338	280.56
462.558	268.56
462.777	285.56
462.997	288.56
463.217	300.56
463.437	299.56
463.657	279.56
463.876	252.56
464.096	274.56
464.316	295.56
464.536	292.56
464.755	274.56
464.975	288.56
465.195	274.56
465.414	277.56
465.634	269.56
465.854	262.56
466.073	235.56
466.293	246.56
466.512	237.56
466.732	289.56
466.951	272.56
467.171	257.56
467.391	222.56
467.61	230.56
467.829	244.56
468.049	232.56
468.268	246.56
468.488	235.56
468.707	248.56
468.927	289.56
469.146	288.56
469.365	275.56
469.585	254.56
469.804	275.56
470.023	276.56
470.243	258.56
470.462	257.56
470.681	253.56
470.901	245.56
471.12	259.56
471.339	266.56
471.558	241.56
471.777	232.56
471.997	263.56
472.216	277.56
472.435	276.56
472.654	259.56
472.873	269.56
473.092	273.56
473.311	269.56
473.53	242.56
473.749	235.56
473.968	268.56
474.187	272.56
474.406	271.56
474.625	264.56
474.844	246.56
475.063	260.56
475.282	260.56
475.501	286.56
475.72	293.56
475.939	267.56
476.158	272.56
476.377	286.56
476.596	356.56
476.814	382.56
477.033	302.56
477.252	280.56
477.471	245.56
477.69	252.56
477.908	284.56
478.127	285.56
478.346	273.56
478.564	303.56
478.783	288.56
479.002	279.56
479.22	318.56
479.439	356.56
479.658	295.56
479.876	278.56
480.095	289.56
480.313	333.56
480.532	301.56
480.751	309.56
480.969	308.56
481.188	330.56
481.406	337.56
481.624	297.56
481.843	292.56
482.061	253.56
482.28	308.56
482.498	372.56
482.717	355.56
482.935	301.56
483.153	297.56
483.372	274.56
483.59	272.56
483.808	273.56
484.027	282.56
484.245	260.56
484.463	255.56
484.681	287.56
484.9	281.56
485.118	297.56
485.336	282.56
485.554	281.56
485.772	270.56
485.99	327.56
486.209	314.56
486.427	313.56
486.645	292.56
486.863	321.56
487.081	316.56
487.299	340.56
487.517	319.56
487.735	282.56
487.953	334.56
488.171	298.56
488.389	292.56
488.607	284.56
488.825	291.56
489.043	289.56
489.261	324.56
489.479	341.56
489.696	306.56
489.914	298.56
490.132	282.56
490.35	274.56
490.568	257.56
490.786	289.56
491.003	275.56
491.221	297.56
491.439	293.56
491.657	298.56
491.874	318.56
492.092	346.56
492.31	385.56
492.527	384.56
492.745	347.56
492.963	313.56
493.18	306.56
493.398	313.56
493.615	326.56
493.833	317.56
494.05	304.56
494.268	293.56
494.485	299.56
494.703	283.56
494.92	299.56
495.138	295.56
495.355	304.56
495.573	288.56
495.79	311.56
496.008	383.56
496.225	352.56
496.442	308.56
496.66	290.56
496.877	328.56
497.094	321.56
497.312	311.56
497.529	304.56
497.746	314.56
497.963	334.56
498.181	344.56
498.398	382.56
498.615	386.56
498.832	388.56
499.049	405.56
499.267	369.56
499.484	403.56
499.701	415.56
499.918	429.56
500.135	499.56
500.352	524.56
500.569	574.56
500.786	575.56
501.003	562.56
501.22	496.56
501.437	453.56
501.654	398.56
501.871	416.56
502.088	397.56
502.305	355.56
502.522	370.56
