Data from NickelSpatula.Lamp.E10.P2_HRD10591_11-57-03-534.txt Node
Date: Tue Jul 23 11:57:03 EDT 2019
User: cochatt
Spectrometer: HR+D1059
Trigger mode: 1
Integration Time (sec): 1.000000E-1
Scans to average: 1
Electric dark correction enabled: true
Nonlinearity correction enabled: false
Boxcar width: 0
XAxis mode: Wavelengths
Number of Pixels in Spectrum: 2048
>>>>>Begin Spectral Data<<<<<
223.165	-20.12
223.4	-20.12
223.635	-20.12
223.869	-26.12
224.104	-17.12
224.338	-14.12
224.573	-34.12
224.808	-10.12
225.042	-11.12
225.277	-7.12
225.511	1.88
225.746	20.88
225.98	12.88
226.215	6.88
226.449	19.88
226.683	9.88
226.918	33.88
227.152	33.88
227.387	26.88
227.621	47.88
227.856	63.88
228.09	45.88
228.324	49.88
228.559	41.88
228.793	74.88
229.027	138.88
229.262	132.88
229.496	162.88
229.73	175.88
229.964	170.88
230.199	221.88
230.433	213.88
230.667	200.88
230.901	196.88
231.136	200.88
231.37	223.88
231.604	219.88
231.838	248.88
232.072	241.88
232.306	241.88
232.541	239.88
232.775	233.88
233.009	269.88
233.243	289.88
233.477	306.88
233.711	343.88
233.945	300.88
234.179	327.88
234.413	326.88
234.647	380.88
234.881	425.88
235.115	409.88
235.349	366.88
235.583	337.88
235.817	343.88
236.051	353.88
236.285	418.88
236.519	443.88
236.753	422.88
236.987	419.88
237.221	373.88
237.455	403.88
237.689	429.88
237.922	431.88
238.156	443.88
238.39	541.88
238.624	614.88
238.858	562.88
239.091	457.88
239.325	483.88
239.559	475.88
239.793	507.88
240.027	639.88
240.26	561.88
240.494	561.88
240.728	584.88
240.961	652.88
241.195	607.88
241.429	587.88
241.662	580.88
241.896	498.88
242.13	479.88
242.363	443.88
242.597	464.88
242.83	525.88
243.064	527.88
243.298	552.88
243.531	610.88
243.765	618.88
243.998	608.88
244.232	565.88
244.465	584.88
244.699	554.88
244.932	634.88
245.166	642.88
245.399	541.88
245.633	511.88
245.866	555.88
246.099	584.88
246.333	676.88
246.566	729.88
246.8	706.88
247.033	713.88
247.266	677.88
247.5	667.88
247.733	655.88
247.966	637.88
248.2	649.88
248.433	721.88
248.666	787.88
248.899	783.88
249.133	816.88
249.366	952.88
249.599	1000.88
249.832	885.88
250.066	784.88
250.299	809.88
250.532	780.88
250.765	773.88
250.998	714.88
251.231	682.88
251.465	757.88
251.698	771.88
251.931	783.88
252.164	818.88
252.397	908.88
252.63	1011.88
252.863	1085.88
253.096	1137.88
253.329	1118.88
253.562	1025.88
253.795	1169.88
254.028	1285.88
254.261	1322.88
254.494	1205.88
254.727	1109.88
254.96	1049.88
255.193	1139.88
255.426	1088.88
255.659	815.88
255.892	793.88
256.124	867.88
256.357	979.88
256.59	1155.88
256.823	1092.88
257.056	955.88
257.289	868.88
257.521	975.88
257.754	1094.88
257.987	1270.88
258.22	1080.88
258.452	976.88
258.685	1101.88
258.918	1248.88
259.151	1208.88
259.383	1292.88
259.616	1467.88
259.849	1514.88
260.081	1671.88
260.314	1849.88
260.547	1406.88
260.779	1461.88
261.012	1656.88
261.244	1517.88
261.477	1531.88
261.71	1463.88
261.942	1244.88
262.175	1222.88
262.407	1171.88
262.64	1211.88
262.872	1440.88
263.105	1571.88
263.337	1650.88
263.57	1461.88
263.802	1021.88
264.035	885.88
264.267	874.88
264.499	773.88
264.732	729.88
264.964	688.88
265.197	704.88
265.429	762.88
265.661	795.88
265.894	829.88
266.126	901.88
266.358	1029.88
266.591	1239.88
266.823	1418.88
267.055	1360.88
267.287	1217.88
267.52	1237.88
267.752	1295.88
267.984	1425.88
268.216	1365.88
268.448	1111.88
268.681	1107.88
268.913	1181.88
269.145	1225.88
269.377	1290.88
269.609	1281.88
269.841	1172.88
270.073	1235.88
270.306	1317.88
270.538	1325.88
270.77	1354.88
271.002	1367.88
271.234	1422.88
271.466	1439.88
271.698	1344.88
271.93	1366.88
272.162	1418.88
272.394	1348.88
272.626	1335.88
272.858	1405.88
273.09	1377.88
273.322	1239.88
273.553	1205.88
273.785	1432.88
274.017	1864.88
274.249	2258.88
274.481	2357.88
274.713	2565.88
274.945	3000.88
275.176	3077.88
275.408	2706.88
275.64	2483.88
275.872	2473.88
276.104	2136.88
276.335	1835.88
276.567	1824.88
276.799	1888.88
277.031	2021.88
277.262	1521.88
277.494	1229.88
277.726	1179.88
277.957	1281.88
278.189	1466.88
278.421	1413.88
278.652	1366.88
278.884	1331.88
279.115	1231.88
279.347	1159.88
279.579	1177.88
279.81	1159.88
280.042	1158.88
280.273	1208.88
280.505	1107.88
280.736	998.88
280.968	996.88
281.199	1078.88
281.431	1238.88
281.662	1172.88
281.894	1146.88
282.125	1243.88
282.356	1331.88
282.588	1340.88
282.819	1207.88
283.051	1303.88
283.282	1665.88
283.513	1901.88
283.745	2109.88
283.976	2082.88
284.207	1935.88
284.439	2041.88
284.67	1922.88
284.901	1711.88
285.132	1859.88
285.364	1942.88
285.595	1827.88
285.826	1914.88
286.057	1926.88
286.288	1878.88
286.52	1896.88
286.751	2018.88
286.982	2014.88
287.213	1713.88
287.444	1689.88
287.675	1752.88
287.906	1735.88
288.138	1477.88
288.369	1328.88
288.6	1259.88
288.831	1298.88
289.062	1509.88
289.293	1661.88
289.524	1582.88
289.755	1555.88
289.986	1640.88
290.217	1408.88
290.448	1097.88
290.679	931.88
290.91	895.88
291.141	885.88
291.371	937.88
291.602	945.88
291.833	947.88
292.064	1029.88
292.295	1205.88
292.526	1346.88
292.757	1371.88
292.987	1502.88
293.218	1525.88
293.449	1549.88
293.68	1703.88
293.91	1599.88
294.141	1593.88
294.372	1507.88
294.603	1384.88
294.833	1500.88
295.064	1827.88
295.295	1693.88
295.525	1269.88
295.756	1114.88
295.987	960.88
296.217	981.88
296.448	988.88
296.679	1026.88
296.909	1160.88
297.14	1173.88
297.37	1364.88
297.601	1289.88
297.831	1127.88
298.062	1179.88
298.292	1359.88
298.523	1460.88
298.753	1677.88
298.984	1502.88
299.214	1195.88
299.445	1053.88
299.675	990.88
299.905	986.88
300.136	984.88
300.366	1086.88
300.597	1065.88
300.827	977.88
301.057	930.88
301.288	965.88
301.518	1052.88
301.748	1131.88
301.979	1202.88
302.209	1299.88
302.439	1337.88
302.669	1152.88
302.9	1174.88
303.13	1099.88
303.36	1065.88
303.59	1008.88
303.82	1036.88
304.051	1173.88
304.281	1314.88
304.511	1229.88
304.741	1081.88
304.971	1161.88
305.201	1213.88
305.431	1155.88
305.661	1021.88
305.891	1000.88
306.121	996.88
306.352	899.88
306.582	835.88
306.812	814.88
307.042	814.88
307.272	786.88
307.502	774.88
307.731	846.88
307.961	885.88
308.191	827.88
308.421	781.88
308.651	799.88
308.881	745.88
309.111	759.88
309.341	805.88
309.571	848.88
309.8	924.88
310.03	893.88
310.26	932.88
310.49	916.88
310.72	835.88
310.949	829.88
311.179	859.88
311.409	884.88
311.639	1055.88
311.868	1348.88
312.098	1705.88
312.328	1865.88
312.557	1776.88
312.787	1809.88
313.017	1602.88
313.246	1717.88
313.476	1830.88
313.706	1573.88
313.935	1237.88
314.165	1013.88
314.394	928.88
314.624	929.88
314.853	976.88
315.083	1040.88
315.312	968.88
315.542	978.88
315.771	873.88
316.001	813.88
316.23	799.88
316.46	794.88
316.689	853.88
316.919	856.88
317.148	851.88
317.377	858.88
317.607	874.88
317.836	922.88
318.065	1038.88
318.295	1156.88
318.524	1097.88
318.753	964.88
318.983	897.88
319.212	890.88
319.441	952.88
319.67	1059.88
319.9	1149.88
320.129	1084.88
320.358	919.88
320.587	876.88
320.816	949.88
321.046	1094.88
321.275	1215.88
321.504	1224.88
321.733	1215.88
321.962	1139.88
322.191	1075.88
322.42	1021.88
322.649	1063.88
322.878	1121.88
323.108	1118.88
323.337	1047.88
323.566	1047.88
323.795	1023.88
324.024	977.88
324.253	934.88
324.482	913.88
324.71	1013.88
324.939	1126.88
325.168	1075.88
325.397	882.88
325.626	870.88
325.855	881.88
326.084	911.88
326.313	839.88
326.542	815.88
326.77	826.88
326.999	884.88
327.228	899.88
327.457	978.88
327.686	956.88
327.914	855.88
328.143	806.88
328.372	798.88
328.6	811.88
328.829	826.88
329.058	831.88
329.287	859.88
329.515	863.88
329.744	848.88
329.972	841.88
330.201	787.88
330.43	800.88
330.658	930.88
330.887	1011.88
331.115	1010.88
331.344	966.88
331.572	932.88
331.801	897.88
332.03	850.88
332.258	851.88
332.486	911.88
332.715	963.88
332.943	880.88
333.172	891.88
333.4	910.88
333.629	986.88
333.857	1097.88
334.085	1076.88
334.314	1083.88
334.542	1049.88
334.771	924.88
334.999	935.88
335.227	925.88
335.455	922.88
335.684	982.88
335.912	1155.88
336.14	1278.88
336.369	1203.88
336.597	1178.88
336.825	1297.88
337.053	1443.88
337.281	1161.88
337.51	954.88
337.738	971.88
337.966	1021.88
338.194	1111.88
338.422	1051.88
338.65	930.88
338.878	855.88
339.106	889.88
339.334	985.88
339.562	1026.88
339.79	973.88
340.018	939.88
340.246	984.88
340.474	1142.88
340.702	1182.88
340.93	1232.88
341.158	1265.88
341.386	1028.88
341.614	1032.88
341.842	1042.88
342.07	1070.88
342.298	1263.88
342.526	1296.88
342.754	1107.88
342.981	1029.88
343.209	997.88
343.437	1073.88
343.665	1134.88
343.893	1147.88
344.12	1268.88
344.348	1479.88
344.576	1355.88
344.804	1133.88
345.031	998.88
345.259	926.88
345.487	922.88
345.714	962.88
345.942	1051.88
346.17	1145.88
346.397	1107.88
346.625	954.88
346.853	920.88
347.08	923.88
347.308	952.88
347.535	1062.88
347.763	1089.88
347.99	955.88
348.218	895.88
348.445	917.88
348.673	939.88
348.9	934.88
349.128	986.88
349.355	992.88
349.583	993.88
349.81	961.88
350.037	860.88
350.265	835.88
350.492	749.88
350.72	765.88
350.947	802.88
351.174	852.88
351.402	899.88
351.629	906.88
351.856	881.88
352.083	861.88
352.311	899.88
352.538	997.88
352.765	1040.88
352.992	964.88
353.22	925.88
353.447	915.88
353.674	917.88
353.901	924.88
354.128	917.88
354.355	907.88
354.583	906.88
354.81	931.88
355.037	970.88
355.264	915.88
355.491	1013.88
355.718	1072.88
355.945	1034.88
356.172	1016.88
356.399	1030.88
356.626	1175.88
356.853	1439.88
357.08	1496.88
357.307	1553.88
357.534	1226.88
357.761	1245.88
357.988	1535.88
358.215	1805.88
358.441	1739.88
358.668	1463.88
358.895	1351.88
359.122	1101.88
359.349	1107.88
359.576	1203.88
359.802	1024.88
360.029	890.88
360.256	950.88
360.483	1172.88
360.709	1439.88
360.936	1448.88
361.163	1304.88
361.39	1016.88
361.616	954.88
361.843	1109.88
362.07	1353.88
362.296	1226.88
362.523	992.88
362.749	874.88
362.976	931.88
363.203	1101.88
363.429	1228.88
363.656	983.88
363.882	895.88
364.109	929.88
364.335	906.88
364.562	934.88
364.788	1045.88
365.015	1179.88
365.241	1048.88
365.468	896.88
365.694	801.88
365.92	800.88
366.147	737.88
366.373	738.88
366.599	740.88
366.826	755.88
367.052	783.88
367.278	773.88
367.505	808.88
367.731	861.88
367.957	922.88
368.184	957.88
368.41	945.88
368.636	963.88
368.862	978.88
369.089	931.88
369.315	884.88
369.541	836.88
369.767	834.88
369.993	776.88
370.219	821.88
370.445	860.88
370.672	946.88
370.898	998.88
371.124	1010.88
371.35	929.88
371.576	854.88
371.802	925.88
372.028	1055.88
372.254	1195.88
372.48	1037.88
372.706	946.88
372.932	1003.88
373.158	1043.88
373.384	1209.88
373.61	1569.88
373.835	1641.88
374.061	1217.88
374.287	1071.88
374.513	1252.88
374.739	1434.88
374.965	1519.88
375.191	1510.88
375.416	1083.88
375.642	942.88
375.868	1129.88
376.094	1211.88
376.319	1073.88
376.545	1120.88
376.771	1246.88
376.997	1063.88
377.222	819.88
377.448	718.88
377.674	734.88
377.899	736.88
378.125	735.88
378.35	733.88
378.576	789.88
378.802	814.88
379.027	880.88
379.253	855.88
379.478	860.88
379.704	957.88
379.929	997.88
380.155	995.88
380.38	888.88
380.606	906.88
380.831	1047.88
381.057	960.88
381.282	907.88
381.507	1070.88
381.733	1333.88
381.958	1374.88
382.184	1451.88
382.409	1525.88
382.634	1473.88
382.86	1545.88
383.085	1289.88
383.31	1054.88
383.535	1142.88
383.761	1095.88
383.986	1074.88
384.211	1291.88
384.436	1225.88
384.662	996.88
384.887	962.88
385.112	975.88
385.337	973.88
385.562	953.88
385.787	1040.88
386.013	1133.88
386.238	1154.88
386.463	969.88
386.688	943.88
386.913	915.88
387.138	873.88
387.363	902.88
387.588	963.88
387.813	934.88
388.038	1034.88
388.263	942.88
388.488	907.88
388.713	1039.88
388.938	1123.88
389.163	961.88
389.387	881.88
389.612	861.88
389.837	904.88
390.062	907.88
390.287	943.88
390.512	983.88
390.736	916.88
390.961	865.88
391.186	838.88
391.411	834.88
391.636	813.88
391.86	917.88
392.085	935.88
392.31	958.88
392.534	935.88
392.759	884.88
392.984	914.88
393.208	913.88
393.433	835.88
393.658	799.88
393.882	798.88
394.107	759.88
394.331	806.88
394.556	793.88
394.78	802.88
395.005	837.88
395.229	831.88
395.454	852.88
395.678	875.88
395.903	875.88
396.127	846.88
396.352	831.88
396.576	926.88
396.801	927.88
397.025	1045.88
397.249	1072.88
397.474	901.88
397.698	899.88
397.922	944.88
398.147	890.88
398.371	898.88
398.595	961.88
398.82	931.88
399.044	954.88
399.268	993.88
399.492	1027.88
399.717	1039.88
399.941	1068.88
400.165	1055.88
400.389	1014.88
400.613	1026.88
400.837	992.88
401.062	890.88
401.286	886.88
401.51	886.88
401.734	866.88
401.958	912.88
402.182	908.88
402.406	911.88
402.63	879.88
402.854	930.88
403.078	1039.88
403.302	1249.88
403.526	1293.88
403.75	1160.88
403.974	1000.88
404.198	1075.88
404.422	1169.88
404.645	1333.88
404.869	1454.88
405.093	1133.88
405.317	978.88
405.541	960.88
405.765	1007.88
405.988	977.88
406.212	1077.88
406.436	1205.88
406.66	1324.88
406.883	1093.88
407.107	1097.88
407.331	1257.88
407.555	1243.88
407.778	1058.88
408.002	1015.88
408.226	1031.88
408.449	1048.88
408.673	1025.88
408.896	925.88
409.12	868.88
409.344	891.88
409.567	835.88
409.791	895.88
410.014	905.88
410.238	879.88
410.461	887.88
410.685	883.88
410.908	906.88
411.132	908.88
411.355	919.88
411.578	923.88
411.802	922.88
412.025	953.88
412.249	983.88
412.472	936.88
412.695	930.88
412.919	949.88
413.142	965.88
413.365	1056.88
413.589	1022.88
413.812	920.88
414.035	906.88
414.258	917.88
414.482	1023.88
414.705	1000.88
414.928	905.88
415.151	891.88
415.374	862.88
415.597	883.88
415.821	919.88
416.044	883.88
416.267	878.88
416.49	882.88
416.713	854.88
416.936	823.88
417.159	829.88
417.382	876.88
417.605	893.88
417.828	879.88
418.051	878.88
418.274	897.88
418.497	925.88
418.72	930.88
418.943	944.88
419.166	968.88
419.389	1015.88
419.611	990.88
419.834	991.88
420.057	1078.88
420.28	1059.88
420.503	973.88
420.726	884.88
420.948	866.88
421.171	864.88
421.394	861.88
421.617	869.88
421.839	888.88
422.062	923.88
422.285	889.88
422.507	916.88
422.73	931.88
422.953	916.88
423.175	928.88
423.398	930.88
423.621	992.88
423.843	1043.88
424.066	989.88
424.288	909.88
424.511	917.88
424.733	898.88
424.956	907.88
425.178	1034.88
425.401	1178.88
425.623	1267.88
425.846	1093.88
426.068	1015.88
426.291	1059.88
426.513	983.88
426.735	919.88
426.958	978.88
427.18	1104.88
427.402	1365.88
427.625	1350.88
427.847	1116.88
428.069	900.88
428.292	881.88
428.514	877.88
428.736	857.88
428.958	932.88
429.181	1070.88
429.403	946.88
429.625	862.88
429.847	841.88
430.069	889.88
430.292	884.88
430.514	832.88
430.736	925.88
430.958	1095.88
431.18	1000.88
431.402	827.88
431.624	811.88
431.846	807.88
432.068	790.88
432.29	818.88
432.512	892.88
432.734	1160.88
432.956	1039.88
433.178	846.88
433.4	842.88
433.622	831.88
433.844	856.88
434.066	907.88
434.287	909.88
434.509	857.88
434.731	943.88
434.953	866.88
435.175	892.88
435.397	1010.88
435.618	889.88
435.84	817.88
436.062	806.88
436.284	835.88
436.505	802.88
436.727	767.88
436.949	804.88
437.17	824.88
437.392	850.88
437.614	843.88
437.835	798.88
438.057	837.88
438.278	951.88
438.5	1279.88
438.721	1255.88
438.943	912.88
439.165	803.88
439.386	782.88
439.608	776.88
439.829	804.88
440.05	788.88
440.272	845.88
440.493	951.88
440.715	1145.88
440.936	960.88
441.158	856.88
441.379	875.88
441.6	939.88
441.822	989.88
442.043	869.88
442.264	859.88
442.486	866.88
442.707	856.88
442.928	845.88
443.149	886.88
443.371	880.88
443.592	920.88
443.813	926.88
444.034	885.88
444.255	914.88
444.476	954.88
444.698	918.88
444.919	939.88
445.14	1000.88
445.361	1001.88
445.582	966.88
445.803	905.88
446.024	921.88
446.245	932.88
446.466	912.88
446.687	878.88
446.908	854.88
447.129	852.88
447.35	814.88
447.571	798.88
447.792	785.88
448.013	777.88
448.234	784.88
448.455	775.88
448.675	794.88
448.896	803.88
449.117	797.88
449.338	807.88
449.559	839.88
449.779	839.88
450	867.88
450.221	841.88
450.442	803.88
450.662	768.88
450.883	806.88
451.104	813.88
451.324	783.88
451.545	803.88
451.766	790.88
451.986	786.88
452.207	759.88
452.428	795.88
452.648	772.88
452.869	797.88
453.089	833.88
453.31	813.88
453.53	744.88
453.751	755.88
453.971	742.88
454.192	777.88
454.412	773.88
454.633	729.88
454.853	759.88
455.073	723.88
455.294	734.88
455.514	734.88
455.734	762.88
455.955	820.88
456.175	803.88
456.395	762.88
456.616	699.88
456.836	689.88
457.056	705.88
457.276	685.88
457.497	704.88
457.717	725.88
457.937	722.88
458.157	714.88
458.377	724.88
458.598	739.88
458.818	738.88
459.038	775.88
459.258	819.88
459.478	841.88
459.698	888.88
459.918	880.88
460.138	869.88
460.358	887.88
460.578	853.88
460.798	881.88
461.018	879.88
461.238	851.88
461.458	871.88
461.678	881.88
461.898	913.88
462.118	915.88
462.338	911.88
462.558	931.88
462.777	978.88
462.997	997.88
463.217	989.88
463.437	1059.88
463.657	1038.88
463.876	945.88
464.096	957.88
464.316	976.88
464.536	948.88
464.755	998.88
464.975	982.88
465.195	951.88
465.414	964.88
465.634	967.88
465.854	911.88
466.073	867.88
466.293	870.88
466.512	932.88
466.732	1003.88
466.951	1009.88
467.171	911.88
467.391	861.88
467.61	856.88
467.829	923.88
468.049	927.88
468.268	890.88
468.488	877.88
468.707	885.88
468.927	1040.88
469.146	1123.88
469.365	1010.88
469.585	910.88
469.804	965.88
470.023	1098.88
470.243	951.88
470.462	914.88
470.681	915.88
470.901	907.88
471.12	922.88
471.339	923.88
471.558	891.88
471.777	904.88
471.997	988.88
472.216	1085.88
472.435	1040.88
472.654	985.88
472.873	929.88
473.092	989.88
473.311	998.88
473.53	927.88
473.749	927.88
473.968	957.88
474.187	969.88
474.406	909.88
474.625	878.88
474.844	921.88
475.063	1007.88
475.282	999.88
475.501	1069.88
475.72	1100.88
475.939	1032.88
476.158	1081.88
476.377	1221.88
476.596	1441.88
476.814	1481.88
477.033	1201.88
477.252	1036.88
477.471	994.88
477.69	1029.88
477.908	1089.88
478.127	1145.88
478.346	1059.88
478.564	1137.88
478.783	1075.88
479.002	1124.88
479.22	1259.88
479.439	1401.88
479.658	1217.88
479.876	1102.88
480.095	1149.88
480.313	1194.88
480.532	1124.88
480.751	1096.88
480.969	1109.88
481.188	1256.88
481.406	1276.88
481.624	1213.88
481.843	1089.88
482.061	1050.88
482.28	1183.88
482.498	1402.88
482.717	1339.88
482.935	1169.88
483.153	1085.88
483.372	1036.88
483.59	1062.88
483.808	1063.88
484.027	1029.88
484.245	967.88
484.463	976.88
484.681	1032.88
484.9	1105.88
485.118	1159.88
485.336	1096.88
485.554	1056.88
485.772	1078.88
485.99	1124.88
486.209	1177.88
486.427	1188.88
486.645	1166.88
486.863	1203.88
487.081	1209.88
487.299	1329.88
487.517	1271.88
487.735	1169.88
487.953	1233.88
488.171	1233.88
488.389	1204.88
488.607	1116.88
488.825	1142.88
489.043	1229.88
489.261	1347.88
489.479	1415.88
489.696	1277.88
489.914	1152.88
490.132	1113.88
490.35	1111.88
490.568	1103.88
490.786	1101.88
491.003	1093.88
491.221	1144.88
491.439	1114.88
491.657	1135.88
491.874	1171.88
492.092	1413.88
492.31	1608.88
492.527	1653.88
492.745	1455.88
492.963	1270.88
493.18	1247.88
493.398	1275.88
493.615	1281.88
493.833	1267.88
494.05	1221.88
494.268	1215.88
494.485	1212.88
494.703	1215.88
494.92	1203.88
495.138	1202.88
495.355	1206.88
