Data from NickelSpatula_HRD10591_16-34-34-126.txt Node
Date: Mon Jul 22 16:34:34 EDT 2019
User: cochatt
Spectrometer: HR+D1059
Trigger mode: 1
Integration Time (sec): 1.000000E-1
Scans to average: 1
Electric dark correction enabled: true
Nonlinearity correction enabled: false
Boxcar width: 0
XAxis mode: Wavelengths
Number of Pixels in Spectrum: 2048
>>>>>Begin Spectral Data<<<<<
223.165	-17
223.4	-17
223.635	-17
223.869	-13
224.104	-19
224.338	-23
224.573	-29
224.808	-14
225.042	-6
225.277	-2
225.511	3
225.746	22
225.98	6
226.215	8
226.449	3
226.683	10
226.918	30
227.152	41
227.387	39
227.621	39
227.856	46
228.09	33
228.324	45
228.559	42
228.793	66
229.027	65
229.262	69
229.496	66
229.73	74
229.964	88
230.199	80
230.433	101
230.667	96
230.901	85
231.136	100
231.37	96
231.604	90
231.838	90
232.072	84
232.306	95
232.541	97
232.775	89
233.009	88
233.243	102
233.477	104
233.711	114
233.945	115
234.179	111
234.413	114
234.647	113
234.881	140
235.115	143
235.349	126
235.583	122
235.817	121
236.051	127
236.285	125
236.519	136
236.753	112
236.987	118
237.221	134
237.455	113
237.689	129
237.922	132
238.156	143
238.39	151
238.624	153
238.858	134
239.091	145
239.325	141
239.559	142
239.793	127
240.027	172
240.26	149
240.494	143
240.728	155
240.961	178
241.195	170
241.429	162
241.662	138
241.896	153
242.13	151
242.363	140
242.597	131
242.83	153
243.064	144
243.298	160
243.531	151
243.765	170
243.998	154
244.232	142
244.465	173
244.699	135
244.932	161
245.166	160
245.399	150
245.633	138
245.866	150
246.099	160
246.333	182
246.566	196
246.8	185
247.033	182
247.266	170
247.5	155
247.733	166
247.966	159
248.2	183
248.433	189
248.666	189
248.899	193
249.133	190
249.366	213
249.599	224
249.832	205
250.066	180
250.299	187
250.532	200
250.765	198
250.998	165
251.231	154
251.465	184
251.698	184
251.931	178
252.164	198
252.397	215
252.63	233
252.863	250
253.096	246
253.329	249
253.562	247
253.795	257
254.028	297
254.261	297
254.494	266
254.727	244
254.96	231
255.193	263
255.426	245
255.659	201
255.892	182
256.124	212
256.357	228
256.59	259
256.823	226
257.056	226
257.289	195
257.521	219
257.754	232
257.987	285
258.22	257
258.452	230
258.685	247
258.918	277
259.151	259
259.383	295
259.616	312
259.849	312
260.081	340
260.314	366
260.547	303
260.779	305
261.012	359
261.244	352
261.477	333
261.71	303
261.942	271
262.175	282
262.407	252
262.64	255
262.872	288
263.105	336
263.337	348
263.57	320
263.802	222
264.035	196
264.267	210
264.499	189
264.732	169
264.964	158
265.197	170
265.429	171
265.661	194
265.894	196
266.126	221
266.358	218
266.591	258
266.823	310
267.055	297
267.287	268
267.52	270
267.752	286
267.984	322
268.216	283
268.448	247
268.681	232
268.913	263
269.145	278
269.377	286
269.609	276
269.841	257
270.073	283
270.306	301
270.538	293
270.77	305
271.002	295
271.234	317
271.466	335
271.698	302
271.93	288
272.162	296
272.394	295
272.626	287
272.858	296
273.09	305
273.322	277
273.553	257
273.785	296
274.017	361
274.249	453
274.481	471
274.713	512
274.945	559
275.176	591
275.408	544
275.64	500
275.872	502
276.104	434
276.335	377
276.567	351
276.799	395
277.031	416
277.262	332
277.494	264
277.726	261
277.957	286
278.189	304
278.421	306
278.652	287
278.884	265
279.115	262
279.347	244
279.579	264
279.81	241
280.042	261
280.273	265
280.505	247
280.736	230
280.968	225
281.199	230
281.431	263
281.662	262
281.894	259
282.125	235
282.356	283
282.588	292
282.819	247
283.051	281
283.282	318
283.513	363
283.745	407
283.976	419
284.207	396
284.439	405
284.67	400
284.901	345
285.132	391
285.364	386
285.595	367
285.826	375
286.057	385
286.288	354
286.52	397
286.751	398
286.982	400
287.213	365
287.444	332
287.675	365
287.906	370
288.138	320
288.369	274
288.6	246
288.831	274
289.062	313
289.293	343
289.524	314
289.755	321
289.986	343
290.217	315
290.448	226
290.679	205
290.91	208
291.141	221
291.371	215
291.602	201
291.833	209
292.064	230
292.295	233
292.526	278
292.757	277
292.987	302
293.218	301
293.449	328
293.68	355
293.91	317
294.141	352
294.372	316
294.603	268
294.833	310
295.064	362
295.295	359
295.525	281
295.756	240
295.987	229
296.217	222
296.448	232
296.679	240
296.909	234
297.14	243
297.37	273
297.601	267
297.831	237
298.062	272
298.292	292
298.523	303
298.753	346
298.984	316
299.214	265
299.445	241
299.675	229
299.905	218
300.136	229
300.366	234
300.597	229
300.827	218
301.057	216
301.288	201
301.518	225
301.748	250
301.979	257
302.209	284
302.439	275
302.669	254
302.9	247
303.13	248
303.36	229
303.59	222
303.82	220
304.051	268
304.281	265
304.511	265
304.741	230
304.971	218
305.201	246
305.431	259
305.661	218
305.891	219
306.121	209
306.352	219
306.582	185
306.812	189
307.042	188
307.272	183
307.502	185
307.731	188
307.961	194
308.191	185
308.421	178
308.651	168
308.881	175
309.111	170
309.341	174
309.571	193
309.8	204
310.03	196
310.26	209
310.49	217
310.72	194
310.949	186
311.179	195
311.409	204
311.639	222
311.868	269
312.098	326
312.328	368
312.557	348
312.787	373
313.017	315
313.246	328
313.476	367
313.706	321
313.935	271
314.165	198
314.394	212
314.624	198
314.853	204
315.083	229
315.312	221
315.542	206
315.771	214
316.001	190
316.23	184
316.46	183
316.689	193
316.919	184
317.148	190
317.377	196
317.607	189
317.836	200
318.065	234
318.295	257
318.524	252
318.753	207
318.983	201
319.212	191
319.441	207
319.67	220
319.9	253
320.129	239
320.358	195
320.587	189
320.816	196
321.046	218
321.275	256
321.504	241
321.733	244
321.962	232
322.191	243
322.42	214
322.649	225
322.878	255
323.108	232
323.337	217
323.566	233
323.795	231
324.024	200
324.253	194
324.482	200
324.71	216
324.939	226
325.168	219
325.397	192
325.626	207
325.855	194
326.084	190
326.313	185
326.542	181
326.77	194
326.999	186
327.228	200
327.457	197
327.686	204
327.914	186
328.143	182
328.372	182
328.6	187
328.829	187
329.058	184
329.287	173
329.515	199
329.744	166
329.972	170
330.201	154
330.43	173
330.658	182
330.887	216
331.115	213
331.344	206
331.572	207
331.801	200
332.03	195
332.258	169
332.486	207
332.715	209
332.943	183
333.172	210
333.4	197
333.629	227
333.857	233
334.085	215
334.314	224
334.542	219
334.771	205
334.999	205
335.227	198
335.455	213
335.684	213
335.912	241
336.14	273
336.369	243
336.597	239
336.825	256
337.053	281
337.281	259
337.51	189
337.738	207
337.966	214
338.194	230
338.422	229
338.65	200
338.878	185
339.106	198
339.334	205
339.562	216
339.79	204
340.018	189
340.246	206
340.474	230
340.702	243
340.93	258
341.158	255
341.386	225
341.614	204
341.842	212
342.07	237
342.298	248
342.526	274
342.754	230
342.981	223
343.209	213
343.437	220
343.665	233
343.893	234
344.12	259
344.348	310
344.576	262
344.804	231
345.031	195
345.259	197
345.487	202
345.714	200
345.942	210
346.17	231
346.397	254
346.625	206
346.853	195
347.08	187
347.308	195
347.535	234
347.763	238
347.99	211
348.218	191
348.445	183
348.673	210
348.9	202
349.128	227
349.355	202
349.583	198
349.81	200
350.037	199
350.265	188
350.492	179
350.72	191
350.947	174
351.174	169
351.402	171
351.629	186
351.856	195
352.083	193
352.311	188
352.538	198
352.765	213
352.992	213
353.22	198
353.447	211
353.674	199
353.901	187
354.128	189
354.355	214
354.583	218
354.81	221
355.037	215
355.264	217
355.491	206
355.718	229
355.945	223
356.172	211
356.399	200
356.626	231
356.853	294
357.08	325
357.307	348
357.534	269
357.761	251
357.988	327
358.215	346
358.441	343
358.668	296
358.895	279
359.122	239
359.349	244
359.576	269
359.802	217
360.029	201
360.256	206
360.483	230
360.709	281
360.936	298
361.163	264
361.39	222
361.616	213
361.843	217
362.07	260
362.296	241
362.523	203
362.749	184
362.976	187
363.203	216
363.429	258
363.656	207
363.882	196
364.109	194
364.335	185
364.562	199
364.788	215
365.015	226
365.241	208
365.468	199
365.694	174
365.92	181
366.147	183
366.373	165
366.599	170
366.826	170
367.052	183
367.278	178
367.505	173
367.731	168
367.957	199
368.184	179
368.41	190
368.636	217
368.862	222
369.089	211
369.315	184
369.541	173
369.767	170
369.993	184
370.219	177
370.445	176
370.672	199
370.898	215
371.124	199
371.35	181
371.576	206
371.802	178
372.028	206
372.254	228
372.48	223
372.706	216
372.932	215
373.158	216
373.384	250
373.61	291
373.835	307
374.061	262
374.287	226
374.513	263
374.739	294
374.965	293
375.191	309
375.416	224
375.642	221
375.868	234
376.094	249
376.319	216
376.545	242
376.771	254
376.997	246
377.222	186
377.448	158
377.674	162
377.899	162
378.125	150
378.35	183
378.576	178
378.802	186
379.027	191
379.253	185
379.478	192
379.704	213
379.929	224
380.155	207
380.38	196
380.606	206
380.831	235
381.057	203
381.282	201
381.507	218
381.733	265
381.958	263
382.184	291
382.409	301
382.634	311
382.86	309
383.085	278
383.31	216
383.535	213
383.761	237
383.986	217
384.211	267
384.436	249
384.662	216
384.887	208
385.112	218
385.337	205
385.562	206
385.787	224
386.013	249
386.238	253
386.463	206
386.688	198
386.913	202
387.138	193
387.363	194
387.588	222
387.813	203
388.038	215
388.263	192
388.488	194
388.713	221
388.938	241
389.163	231
389.387	187
389.612	178
389.837	213
390.062	185
390.287	210
390.512	228
390.736	208
390.961	203
391.186	188
391.411	173
391.636	183
391.86	202
392.085	224
392.31	223
392.534	214
392.759	195
392.984	210
393.208	203
393.433	189
393.658	179
393.882	175
394.107	191
394.331	180
394.556	161
394.78	179
395.005	182
395.229	180
395.454	191
395.678	195
395.903	197
396.127	186
396.352	183
396.576	208
396.801	202
397.025	232
397.249	224
397.474	211
397.698	184
397.922	194
398.147	208
398.371	201
398.595	210
398.82	211
399.044	200
399.268	223
399.492	232
399.717	223
399.941	240
400.165	224
400.389	214
400.613	216
400.837	221
401.062	206
401.286	195
401.51	187
401.734	191
401.958	184
402.182	185
402.406	211
402.63	192
402.854	218
403.078	227
403.302	290
403.526	289
403.75	278
403.974	235
404.198	230
404.422	254
404.645	261
404.869	301
405.093	235
405.317	196
405.541	215
405.765	223
405.988	219
406.212	202
406.436	246
406.66	289
406.883	239
407.107	232
407.331	279
407.555	244
407.778	216
408.002	220
408.226	231
408.449	209
408.673	211
408.896	202
409.12	207
409.344	207
409.567	192
409.791	203
410.014	203
410.238	200
410.461	190
410.685	208
410.908	209
411.132	199
411.355	183
411.578	197
411.802	191
412.025	194
412.249	202
412.472	206
412.695	195
412.919	211
413.142	206
413.365	214
413.589	221
413.812	193
414.035	223
414.258	218
414.482	220
414.705	233
414.928	193
415.151	175
415.374	186
415.597	201
415.821	191
416.044	188
416.267	194
416.49	202
416.713	203
416.936	189
417.159	193
417.382	199
417.605	183
417.828	210
418.051	200
418.274	197
418.497	191
418.72	209
418.943	227
419.166	204
419.389	214
419.611	217
419.834	204
420.057	224
420.28	242
420.503	223
420.726	185
420.948	175
421.171	195
421.394	204
421.617	179
421.839	192
422.062	207
422.285	197
422.507	207
422.73	201
422.953	203
423.175	207
423.398	214
423.621	210
423.843	231
424.066	217
424.288	218
424.511	217
424.733	174
424.956	199
425.178	225
425.401	241
425.623	278
425.846	246
426.068	211
426.291	215
426.513	209
426.735	191
426.958	224
427.18	227
427.402	280
427.625	295
427.847	242
428.069	192
428.292	183
428.514	205
428.736	191
428.958	201
429.181	231
429.403	213
429.625	192
429.847	182
430.069	201
430.292	194
430.514	189
430.736	193
430.958	233
431.18	218
431.402	179
431.624	175
431.846	183
432.068	190
432.29	187
432.512	198
432.734	223
432.956	213
433.178	186
433.4	190
433.622	174
433.844	185
434.066	201
434.287	180
434.509	191
434.731	223
434.953	184
435.175	197
435.397	224
435.618	197
435.84	180
436.062	197
436.284	189
436.505	168
436.727	173
436.949	177
437.17	192
437.392	182
437.614	183
437.835	193
438.057	181
438.278	201
438.5	251
438.721	264
438.943	213
439.165	189
439.386	189
439.608	173
439.829	183
440.05	181
440.272	196
440.493	203
440.715	238
440.936	201
441.158	175
441.379	174
441.6	223
441.822	221
442.043	193
442.264	174
442.486	197
442.707	185
442.928	189
443.149	200
443.371	202
443.592	182
443.813	203
444.034	195
444.255	188
444.476	203
444.698	212
444.919	201
445.14	322
445.361	267
445.582	201
445.803	199
446.024	197
446.245	208
446.466	189
446.687	180
446.908	190
447.129	174
447.35	166
447.571	181
447.792	180
448.013	167
448.234	165
448.455	177
448.675	170
448.896	172
449.117	175
449.338	177
449.559	173
449.779	182
450	185
450.221	186
450.442	166
450.662	157
450.883	177
451.104	180
451.324	177
451.545	167
451.766	186
451.986	182
452.207	178
452.428	164
452.648	186
452.869	171
453.089	196
453.31	182
453.53	175
453.751	158
453.971	161
454.192	158
454.412	164
454.633	171
454.853	178
455.073	167
455.294	166
455.514	171
455.734	170
455.955	170
456.175	174
456.395	173
456.616	179
456.836	164
457.056	163
457.276	173
457.497	166
457.717	177
457.937	171
458.157	171
458.377	149
458.598	150
458.818	176
459.038	188
459.258	192
459.478	182
459.698	186
459.918	198
460.138	191
460.358	198
460.578	199
460.798	190
461.018	201
461.238	178
461.458	199
461.678	197
461.898	203
462.118	200
462.338	208
462.558	214
462.777	233
462.997	223
463.217	232
463.437	226
463.657	226
463.876	215
464.096	223
464.316	208
464.536	200
464.755	223
464.975	228
465.195	228
465.414	230
465.634	214
465.854	206
466.073	182
466.293	169
466.512	188
466.732	210
466.951	232
467.171	199
467.391	173
467.61	179
467.829	189
468.049	185
468.268	186
468.488	188
468.707	177
468.927	229
469.146	241
469.365	200
469.585	197
469.804	215
470.023	225
470.243	202
470.462	180
470.681	192
470.901	191
471.12	217
471.339	197
471.558	204
471.777	206
471.997	213
472.216	235
472.435	208
472.654	197
472.873	196
473.092	198
473.311	213
473.53	205
473.749	206
473.968	217
474.187	199
474.406	177
474.625	192
474.844	207
475.063	216
475.282	211
475.501	227
475.72	213
475.939	226
476.158	223
476.377	256
476.596	289
476.814	298
477.033	266
477.252	209
477.471	210
477.69	211
477.908	234
478.127	235
478.346	226
478.564	255
478.783	221
479.002	238
479.22	245
479.439	268
479.658	249
479.876	233
480.095	240
480.313	246
480.532	232
480.751	228
480.969	220
481.188	246
481.406	264
481.624	244
481.843	222
482.061	224
482.28	229
482.498	300
482.717	301
482.935	247
483.153	241
483.372	210
483.59	201
483.808	202
484.027	208
484.245	199
484.463	194
484.681	205
484.9	218
485.118	221
485.336	211
485.554	222
485.772	203
485.99	218
486.209	250
486.427	229
486.645	233
486.863	241
487.081	251
487.299	273
487.517	273
487.735	213
487.953	229
488.171	255
488.389	222
488.607	197
488.825	234
489.043	243
489.261	280
489.479	309
489.696	242
489.914	220
490.132	214
490.35	210
490.568	219
490.786	220
491.003	219
491.221	207
491.439	221
491.657	226
491.874	214
492.092	290
492.31	335
492.527	323
492.745	282
492.963	259
493.18	238
493.398	225
493.615	227
493.833	234
494.05	237
494.268	245
494.485	241
494.703	236
494.92	255
495.138	244
495.355	243
495.573	245
495.79	271
496.008	350
496.225	295
496.442	235
496.66	244
496.877	277
497.094	262
497.312	273
497.529	253
497.746	250
497.963	260
498.181	274
498.398	294
498.615	308
498.832	324
499.049	327
499.267	309
499.484	292
499.701	331
499.918	359
500.135	408
500.352	394
500.569	415
500.786	430
501.003	424
501.22	358
501.437	342
501.654	339
501.871	326
502.088	333
502.305	300
502.522	286
502.739	280
502.956	264
503.172	273
503.389	246
503.606	253
503.823	257
504.04	259
504.256	260
504.473	253
504.69	267
504.907	261
505.123	258
505.34	259
505.557	274
505.773	247
505.99	254
506.207	270
506.423	253
506.64	226
506.856	254
507.073	256
507.289	278
507.506	253
507.722	275
507.939	281
508.155	274
508.372	253
508.588	247
508.805	253
509.021	246
509.238	231
509.454	227
509.67	224
509.887	221
510.103	275
510.319	257
510.536	225
510.752	222
510.968	207
511.184	204
511.401	206
511.617	197
511.833	218
512.049	220
512.265	224
512.481	234
512.698	254
512.914	278
513.13	252
513.346	238
513.562	224
513.778	237
513.994	231
514.21	251
514.426	246
514.642	226
514.858	226
515.074	223
515.29	265
515.506	285
515.721	269
515.937	249
516.153	215
516.369	221
516.585	263
516.801	263
517.016	307
517.232	299
517.448	319
517.664	283
517.879	259
518.095	261
518.311	261
518.527	261
518.742	264
518.958	302
519.173	278
519.389	288
519.605	286
519.82	279
520.036	311
520.251	310
520.467	304
520.682	473
520.898	599
521.113	567
521.329	345
521.544	299
521.76	266
521.975	282
522.19	256
522.406	253
522.621	287
522.836	289
523.052	298
523.267	241
523.482	257
523.698	266
523.913	267
524.128	228
524.343	225
524.559	234
524.774	220
524.989	249
525.204	234
525.419	251
525.634	246
525.849	248
526.064	244
526.28	237
526.495	282
526.71	328
526.925	255
527.14	277
527.355	273
527.57	240
527.785	259
527.999	215
528.214	223
528.429	218
528.644	207
528.859	203
529.074	201
529.289	185
529.503	204
529.718	215
529.933	259
530.148	291
530.363	233
530.577	207
530.792	196
531.007	202
531.221	207
531.436	206
531.651	204
531.865	214
532.08	202
532.295	201
532.509	198
532.724	237
532.938	284
533.153	352
533.367	270
533.582	243
533.796	227
534.011	213
534.225	217
534.44	219
534.654	224
534.868	267
535.083	262
535.297	226
535.511	213
535.726	223
535.94	222
536.154	225
536.369	197
536.583	209
536.797	231
537.011	212
537.225	222
537.44	259
537.654	223
537.868	211
538.082	198
538.296	224
538.51	230
538.724	196
538.938	221
539.153	217
539.367	201
539.581	192
539.795	213
540.009	232
540.222	227
540.436	216
540.65	224
540.864	232
541.078	256
541.292	313
541.506	245
541.72	224
541.934	212
542.147	209
542.361	207
542.575	197
542.789	206
543.002	194
543.216	225
543.43	216
543.644	213
543.857	184
544.071	207
544.285	197
544.498	205
544.712	179
544.925	217
545.139	224
545.352	189
545.566	188
545.779	216
545.993	212
546.206	194
546.42	177
546.633	193
546.847	186
547.06	179
547.274	176
547.487	198
547.7	202
547.914	204
548.127	213
548.34	224
548.554	202
548.767	202
548.98	212
549.193	217
549.407	208
549.62	250
549.833	236
550.046	243
550.259	238
550.473	198
550.686	214
550.899	231
551.112	208
551.325	211
551.538	253
551.751	207
551.964	185
552.177	201
552.39	184
552.603	191
552.816	202
553.029	191
553.242	185
553.455	206
553.667	221
553.88	230
554.093	193
554.306	194
554.519	185
554.732	186
554.944	167
555.157	165
555.37	160
555.583	157
555.795	176
556.008	160
556.221	185
556.433	181
556.646	193
556.859	168
557.071	197
557.284	186
557.496	180
557.709	191
557.921	186
558.134	171
558.346	175
558.559	168
558.771	198
558.984	202
559.196	185
559.409	150
559.621	165
559.833	159
560.046	156
560.258	162
560.47	178
560.683	166
560.895	160
561.107	143
561.32	161
561.532	157
561.744	190
561.956	191
562.168	165
562.381	169
562.593	171
562.805	184
563.017	173
563.229	167
563.441	145
563.653	155
563.865	175
564.077	150
564.289	166
564.501	174
