Data from NickelSpatula.Lamp.E10.P2_HRD10591_11-59-27-525.txt Node
Date: Tue Jul 23 11:59:27 EDT 2019
User: cochatt
Spectrometer: HR+D1059
Trigger mode: 1
Integration Time (sec): 1.000000E-1
Scans to average: 1
Electric dark correction enabled: true
Nonlinearity correction enabled: false
Boxcar width: 0
XAxis mode: Wavelengths
Number of Pixels in Spectrum: 2048
>>>>>Begin Spectral Data<<<<<
223.165	-13.81
223.4	-13.81
223.635	-13.81
223.869	-11.81
224.104	-29.81
224.338	-5.81
224.573	-16.81
224.808	-6.81
225.042	-20.81
225.277	1.19
225.511	2.19
225.746	0.19
225.98	2.19
226.215	9.19
226.449	-0.81
226.683	29.19
226.918	19.19
227.152	43.19
227.387	30.19
227.621	58.19
227.856	41.19
228.09	42.19
228.324	52.19
228.559	62.19
228.793	75.19
229.027	150.19
229.262	145.19
229.496	158.19
229.73	164.19
229.964	193.19
230.199	224.19
230.433	213.19
230.667	216.19
230.901	224.19
231.136	206.19
231.37	207.19
231.604	224.19
231.838	238.19
232.072	255.19
232.306	254.19
232.541	245.19
232.775	245.19
233.009	272.19
233.243	293.19
233.477	310.19
233.711	360.19
233.945	333.19
234.179	331.19
234.413	346.19
234.647	374.19
234.881	464.19
235.115	433.19
235.349	387.19
235.583	367.19
235.817	361.19
236.051	370.19
236.285	416.19
236.519	458.19
236.753	431.19
236.987	448.19
237.221	419.19
237.455	432.19
237.689	420.19
237.922	451.19
238.156	496.19
238.39	573.19
238.624	658.19
238.858	610.19
239.091	509.19
239.325	502.19
239.559	485.19
239.793	542.19
240.027	665.19
240.26	591.19
240.494	605.19
240.728	608.19
240.961	673.19
241.195	647.19
241.429	644.19
241.662	603.19
241.896	523.19
242.13	479.19
242.363	464.19
242.597	475.19
242.83	541.19
243.064	528.19
243.298	575.19
243.531	623.19
243.765	630.19
243.998	633.19
244.232	577.19
244.465	620.19
244.699	591.19
244.932	669.19
245.166	645.19
245.399	550.19
245.633	522.19
245.866	589.19
246.099	613.19
246.333	702.19
246.566	785.19
246.8	791.19
247.033	741.19
247.266	697.19
247.5	697.19
247.733	680.19
247.966	674.19
248.2	677.19
248.433	781.19
248.666	855.19
248.899	842.19
249.133	846.19
249.366	1023.19
249.599	1066.19
249.832	968.19
250.066	820.19
250.299	835.19
250.532	810.19
250.765	818.19
250.998	751.19
251.231	707.19
251.465	793.19
251.698	837.19
251.931	816.19
252.164	832.19
252.397	935.19
252.63	1073.19
252.863	1160.19
253.096	1234.19
253.329	1127.19
253.562	1085.19
253.795	1226.19
254.028	1381.19
254.261	1362.19
254.494	1229.19
254.727	1161.19
254.96	1131.19
255.193	1193.19
255.426	1147.19
255.659	862.19
255.892	787.19
256.124	870.19
256.357	1019.19
256.59	1173.19
256.823	1135.19
257.056	935.19
257.289	912.19
257.521	969.19
257.754	1144.19
257.987	1300.19
258.22	1135.19
258.452	982.19
258.685	1134.19
258.918	1291.19
259.151	1257.19
259.383	1307.19
259.616	1468.19
259.849	1537.19
260.081	1696.19
260.314	1892.19
260.547	1505.19
260.779	1491.19
261.012	1716.19
261.244	1589.19
261.477	1613.19
261.71	1531.19
261.942	1296.19
262.175	1287.19
262.407	1230.19
262.64	1265.19
262.872	1494.19
263.105	1663.19
263.337	1721.19
263.57	1516.19
263.802	1046.19
264.035	915.19
264.267	883.19
264.499	744.19
264.732	708.19
264.964	705.19
265.197	706.19
265.429	753.19
265.661	818.19
265.894	838.19
266.126	896.19
266.358	1025.19
266.591	1251.19
266.823	1458.19
267.055	1393.19
267.287	1252.19
267.52	1267.19
267.752	1311.19
267.984	1430.19
268.216	1352.19
268.448	1119.19
268.681	1109.19
268.913	1175.19
269.145	1263.19
269.377	1289.19
269.609	1315.19
269.841	1218.19
270.073	1262.19
270.306	1341.19
270.538	1365.19
270.77	1384.19
271.002	1389.19
271.234	1441.19
271.466	1505.19
271.698	1444.19
271.93	1418.19
272.162	1417.19
272.394	1420.19
272.626	1409.19
272.858	1449.19
273.09	1487.19
273.322	1327.19
273.553	1310.19
273.785	1524.19
274.017	2016.19
274.249	2436.19
274.481	2533.19
274.713	2753.19
274.945	3177.19
275.176	3255.19
275.408	2843.19
275.64	2579.19
275.872	2617.19
276.104	2223.19
276.335	1895.19
276.567	1903.19
276.799	1970.19
277.031	2066.19
277.262	1590.19
277.494	1227.19
277.726	1209.19
277.957	1276.19
278.189	1465.19
278.421	1452.19
278.652	1441.19
278.884	1377.19
279.115	1273.19
279.347	1200.19
279.579	1191.19
279.81	1217.19
280.042	1203.19
280.273	1268.19
280.505	1185.19
280.736	1017.19
280.968	1011.19
281.199	1089.19
281.431	1248.19
281.662	1207.19
281.894	1175.19
282.125	1233.19
282.356	1342.19
282.588	1371.19
282.819	1259.19
283.051	1330.19
283.282	1663.19
283.513	1959.19
283.745	2179.19
283.976	2168.19
284.207	2006.19
284.439	2082.19
284.67	2019.19
284.901	1785.19
285.132	1916.19
285.364	2014.19
285.595	1860.19
285.826	1979.19
286.057	2039.19
286.288	1920.19
286.52	1965.19
286.751	2120.19
286.982	2088.19
287.213	1806.19
287.444	1768.19
287.675	1825.19
287.906	1835.19
288.138	1541.19
288.369	1384.19
288.6	1273.19
288.831	1316.19
289.062	1505.19
289.293	1720.19
289.524	1590.19
289.755	1587.19
289.986	1603.19
290.217	1404.19
290.448	1081.19
290.679	951.19
290.91	921.19
291.141	939.19
291.371	981.19
291.602	995.19
291.833	1021.19
292.064	1065.19
292.295	1233.19
292.526	1429.19
292.757	1425.19
292.987	1543.19
293.218	1542.19
293.449	1609.19
293.68	1670.19
293.91	1564.19
294.141	1602.19
294.372	1528.19
294.603	1427.19
294.833	1595.19
295.064	1828.19
295.295	1679.19
295.525	1310.19
295.756	1163.19
295.987	1013.19
296.217	1013.19
296.448	1041.19
296.679	1108.19
296.909	1254.19
297.14	1329.19
297.37	1437.19
297.601	1353.19
297.831	1180.19
298.062	1265.19
298.292	1448.19
298.523	1578.19
298.753	1769.19
298.984	1598.19
299.214	1236.19
299.445	1099.19
299.675	1042.19
299.905	1067.19
300.136	1088.19
300.366	1220.19
300.597	1178.19
300.827	1041.19
301.057	1026.19
301.288	1037.19
301.518	1103.19
301.748	1254.19
301.979	1348.19
302.209	1484.19
302.439	1523.19
302.669	1287.19
302.9	1256.19
303.13	1139.19
303.36	1108.19
303.59	1061.19
303.82	1120.19
304.051	1223.19
304.281	1337.19
304.511	1269.19
304.741	1146.19
304.971	1182.19
305.201	1291.19
305.431	1219.19
305.661	1098.19
305.891	1111.19
306.121	1075.19
306.352	954.19
306.582	887.19
306.812	855.19
307.042	854.19
307.272	809.19
307.502	812.19
307.731	895.19
307.961	929.19
308.191	863.19
308.421	817.19
308.651	800.19
308.881	769.19
309.111	786.19
309.341	824.19
309.571	874.19
309.8	918.19
310.03	928.19
310.26	993.19
310.49	998.19
310.72	892.19
310.949	844.19
311.179	869.19
311.409	922.19
311.639	1071.19
311.868	1427.19
312.098	1768.19
312.328	1931.19
312.557	1841.19
312.787	1848.19
313.017	1690.19
313.246	1780.19
313.476	1959.19
313.706	1607.19
313.935	1277.19
314.165	1037.19
314.394	934.19
314.624	967.19
314.853	1032.19
315.083	1045.19
315.312	1024.19
315.542	1000.19
315.771	948.19
316.001	835.19
316.23	859.19
316.46	849.19
316.689	864.19
316.919	871.19
317.148	897.19
317.377	885.19
317.607	881.19
317.836	975.19
318.065	1117.19
318.295	1220.19
318.524	1145.19
318.753	987.19
318.983	926.19
319.212	943.19
319.441	1036.19
319.67	1136.19
319.9	1223.19
320.129	1171.19
320.358	983.19
320.587	938.19
320.816	1012.19
321.046	1174.19
321.275	1371.19
321.504	1316.19
321.733	1299.19
321.962	1251.19
322.191	1182.19
322.42	1136.19
322.649	1181.19
322.878	1243.19
323.108	1234.19
323.337	1087.19
323.566	1103.19
323.795	1085.19
324.024	1005.19
324.253	986.19
324.482	1010.19
324.71	1085.19
324.939	1229.19
325.168	1151.19
325.397	955.19
325.626	932.19
325.855	913.19
326.084	919.19
326.313	880.19
326.542	849.19
326.77	886.19
326.999	915.19
327.228	972.19
327.457	990.19
327.686	1037.19
327.914	900.19
328.143	865.19
328.372	833.19
328.6	810.19
328.829	883.19
329.058	925.19
329.287	866.19
329.515	895.19
329.744	890.19
329.972	848.19
330.201	825.19
330.43	835.19
330.658	960.19
330.887	1069.19
331.115	1022.19
331.344	1007.19
331.572	950.19
331.801	904.19
332.03	859.19
332.258	897.19
332.486	945.19
332.715	978.19
332.943	903.19
333.172	897.19
333.4	941.19
333.629	1010.19
333.857	1114.19
334.085	1107.19
334.314	1113.19
334.542	1033.19
334.771	958.19
334.999	947.19
335.227	928.19
335.455	941.19
335.684	1043.19
335.912	1176.19
336.14	1358.19
336.369	1297.19
336.597	1236.19
336.825	1373.19
337.053	1522.19
337.281	1253.19
337.51	987.19
337.738	1006.19
337.966	1073.19
338.194	1177.19
338.422	1128.19
338.65	963.19
338.878	892.19
339.106	926.19
339.334	1043.19
339.562	1094.19
339.79	998.19
340.018	971.19
340.246	1061.19
340.474	1175.19
340.702	1296.19
340.93	1316.19
341.158	1343.19
341.386	1123.19
341.614	1120.19
341.842	1123.19
342.07	1179.19
342.298	1316.19
342.526	1411.19
342.754	1217.19
342.981	1106.19
343.209	1057.19
343.437	1164.19
343.665	1202.19
343.893	1183.19
344.12	1407.19
344.348	1619.19
344.576	1423.19
344.804	1181.19
345.031	1052.19
345.259	1008.19
345.487	962.19
345.714	1033.19
345.942	1102.19
346.17	1199.19
346.397	1159.19
346.625	1009.19
346.853	968.19
347.08	969.19
347.308	1003.19
347.535	1138.19
347.763	1157.19
347.99	1000.19
348.218	937.19
348.445	975.19
348.673	967.19
348.9	955.19
349.128	1054.19
349.355	1111.19
349.583	1073.19
349.81	1015.19
350.037	961.19
350.265	849.19
350.492	811.19
350.72	799.19
350.947	866.19
351.174	892.19
351.402	957.19
351.629	1013.19
351.856	980.19
352.083	915.19
352.311	985.19
352.538	1119.19
352.765	1183.19
352.992	1077.19
353.22	982.19
353.447	993.19
353.674	977.19
353.901	999.19
354.128	988.19
354.355	1028.19
354.583	1015.19
354.81	1010.19
355.037	1026.19
355.264	1014.19
355.491	1117.19
355.718	1211.19
355.945	1173.19
356.172	1134.19
356.399	1087.19
356.626	1411.19
356.853	1671.19
357.08	1793.19
357.307	1798.19
357.534	1394.19
357.761	1437.19
357.988	1783.19
358.215	2144.19
358.441	1987.19
358.668	1660.19
358.895	1533.19
359.122	1201.19
359.349	1237.19
359.576	1334.19
359.802	1126.19
360.029	992.19
360.256	1059.19
360.483	1324.19
360.709	1663.19
360.936	1727.19
361.163	1520.19
361.39	1140.19
361.616	1071.19
361.843	1261.19
362.07	1585.19
362.296	1408.19
362.523	1113.19
362.749	957.19
362.976	995.19
363.203	1223.19
363.429	1387.19
363.656	1116.19
363.882	1014.19
364.109	1031.19
364.335	1029.19
364.562	1011.19
364.788	1136.19
365.015	1338.19
365.241	1164.19
365.468	963.19
365.694	841.19
365.92	821.19
366.147	814.19
366.373	799.19
366.599	780.19
366.826	813.19
367.052	850.19
367.278	843.19
367.505	820.19
367.731	927.19
367.957	1075.19
368.184	1054.19
368.41	1033.19
368.636	1073.19
368.862	1078.19
369.089	1045.19
369.315	934.19
369.541	921.19
369.767	902.19
369.993	845.19
370.219	864.19
370.445	931.19
370.672	1024.19
370.898	1108.19
371.124	1105.19
371.35	943.19
371.576	895.19
371.802	1011.19
372.028	1241.19
372.254	1390.19
372.48	1181.19
372.706	1051.19
372.932	1095.19
373.158	1146.19
373.384	1403.19
373.61	1941.19
373.835	1957.19
374.061	1405.19
374.287	1182.19
374.513	1427.19
374.739	1706.19
374.965	1761.19
375.191	1708.19
375.416	1189.19
375.642	1043.19
375.868	1261.19
376.094	1392.19
376.319	1206.19
376.545	1309.19
376.771	1413.19
376.997	1204.19
377.222	866.19
377.448	767.19
377.674	772.19
377.899	749.19
378.125	749.19
378.35	782.19
378.576	782.19
378.802	870.19
379.027	923.19
379.253	893.19
379.478	928.19
379.704	1077.19
379.929	1151.19
380.155	1082.19
380.38	993.19
380.606	1022.19
380.831	1153.19
381.057	1051.19
381.282	1025.19
381.507	1209.19
381.733	1495.19
381.958	1597.19
382.184	1692.19
382.409	1760.19
382.634	1715.19
382.86	1806.19
383.085	1480.19
383.31	1184.19
383.535	1258.19
383.761	1249.19
383.986	1186.19
384.211	1476.19
384.436	1399.19
384.662	1069.19
384.887	999.19
385.112	1058.19
385.337	1048.19
385.562	1020.19
385.787	1125.19
386.013	1262.19
386.238	1289.19
386.463	1043.19
386.688	993.19
386.913	957.19
387.138	933.19
387.363	963.19
387.588	1007.19
387.813	982.19
388.038	1113.19
388.263	982.19
388.488	973.19
388.713	1146.19
388.938	1246.19
389.163	1051.19
389.387	914.19
389.612	933.19
389.837	975.19
390.062	963.19
390.287	1024.19
390.512	1031.19
390.736	970.19
390.961	904.19
391.186	866.19
391.411	851.19
391.636	882.19
391.86	961.19
392.085	1023.19
392.31	997.19
392.534	949.19
392.759	938.19
392.984	1037.19
393.208	945.19
393.433	879.19
393.658	826.19
393.882	805.19
394.107	781.19
394.331	802.19
394.556	796.19
394.78	807.19
395.005	842.19
395.229	872.19
395.454	903.19
395.678	905.19
395.903	913.19
396.127	868.19
396.352	873.19
396.576	977.19
396.801	991.19
397.025	1104.19
397.249	1142.19
397.474	931.19
397.698	915.19
397.922	971.19
398.147	901.19
398.371	952.19
398.595	1002.19
398.82	956.19
399.044	980.19
399.268	1034.19
399.492	1008.19
399.717	1047.19
399.941	1124.19
400.165	1061.19
400.389	1035.19
400.613	1057.19
400.837	1055.19
401.062	935.19
401.286	891.19
401.51	921.19
401.734	889.19
401.958	923.19
402.182	909.19
402.406	902.19
402.63	921.19
402.854	928.19
403.078	1062.19
403.302	1328.19
403.526	1375.19
403.75	1230.19
403.974	1045.19
404.198	1107.19
404.422	1246.19
404.645	1471.19
404.869	1629.19
405.093	1189.19
405.317	1002.19
405.541	1009.19
405.765	1029.19
405.988	1025.19
406.212	1097.19
406.436	1285.19
406.66	1461.19
406.883	1145.19
407.107	1163.19
407.331	1377.19
407.555	1328.19
407.778	1134.19
408.002	1079.19
408.226	1070.19
408.449	1086.19
408.673	1018.19
408.896	939.19
409.12	921.19
409.344	913.19
409.567	877.19
409.791	909.19
410.014	866.19
410.238	903.19
410.461	917.19
410.685	904.19
410.908	917.19
411.132	921.19
411.355	935.19
411.578	960.19
411.802	943.19
412.025	977.19
412.249	995.19
412.472	953.19
412.695	946.19
412.919	941.19
413.142	987.19
413.365	1042.19
413.589	1078.19
413.812	942.19
414.035	935.19
414.258	955.19
414.482	1075.19
414.705	1091.19
414.928	926.19
415.151	897.19
415.374	875.19
415.597	915.19
415.821	917.19
416.044	926.19
416.267	873.19
416.49	864.19
416.713	873.19
416.936	841.19
417.159	867.19
417.382	887.19
417.605	897.19
417.828	937.19
418.051	930.19
418.274	930.19
418.497	953.19
418.72	939.19
418.943	963.19
419.166	1026.19
419.389	1050.19
419.611	1003.19
419.834	1041.19
420.057	1137.19
420.28	1140.19
420.503	1076.19
420.726	935.19
420.948	870.19
421.171	873.19
421.394	884.19
421.617	871.19
421.839	899.19
422.062	972.19
422.285	946.19
422.507	945.19
422.73	948.19
422.953	957.19
423.175	942.19
423.398	967.19
423.621	1021.19
423.843	1082.19
424.066	993.19
424.288	961.19
424.511	944.19
424.733	922.19
424.956	973.19
425.178	1077.19
425.401	1263.19
425.623	1428.19
425.846	1142.19
426.068	1047.19
426.291	1134.19
426.513	1071.19
426.735	983.19
426.958	1018.19
427.18	1177.19
427.402	1562.19
427.625	1513.19
427.847	1199.19
428.069	906.19
428.292	930.19
428.514	927.19
428.736	867.19
428.958	961.19
429.181	1142.19
429.403	995.19
429.625	897.19
429.847	864.19
430.069	922.19
430.292	933.19
430.514	871.19
430.736	966.19
430.958	1211.19
431.18	1111.19
431.402	859.19
431.624	838.19
431.846	838.19
432.068	801.19
432.29	817.19
432.512	931.19
432.734	1241.19
432.956	1139.19
433.178	882.19
433.4	859.19
433.622	866.19
433.844	900.19
434.066	955.19
434.287	925.19
434.509	901.19
434.731	948.19
434.953	880.19
435.175	930.19
435.397	1046.19
435.618	917.19
435.84	825.19
436.062	833.19
436.284	823.19
436.505	771.19
436.727	785.19
436.949	795.19
437.17	848.19
437.392	870.19
437.614	835.19
437.835	817.19
438.057	849.19
438.278	991.19
438.5	1401.19
438.721	1449.19
438.943	977.19
439.165	845.19
439.386	784.19
439.608	796.19
439.829	790.19
440.05	801.19
440.272	856.19
440.493	1032.19
440.715	1251.19
440.936	1012.19
441.158	861.19
441.379	855.19
441.6	982.19
441.822	1049.19
442.043	898.19
442.264	890.19
442.486	845.19
442.707	835.19
442.928	860.19
443.149	880.19
443.371	925.19
443.592	935.19
443.813	921.19
444.034	948.19
444.255	939.19
444.476	961.19
444.698	925.19
444.919	923.19
445.14	1061.19
445.361	1049.19
445.582	977.19
445.803	921.19
446.024	914.19
446.245	945.19
446.466	887.19
446.687	883.19
446.908	879.19
447.129	840.19
447.35	803.19
447.571	782.19
447.792	797.19
448.013	783.19
448.234	777.19
448.455	786.19
448.675	805.19
448.896	833.19
449.117	801.19
449.338	807.19
449.559	845.19
449.779	890.19
450	886.19
450.221	829.19
450.442	830.19
450.662	803.19
450.883	803.19
451.104	794.19
451.324	795.19
451.545	823.19
451.766	803.19
451.986	797.19
452.207	775.19
452.428	804.19
452.648	794.19
452.869	827.19
453.089	832.19
453.31	808.19
453.53	755.19
453.751	772.19
453.971	732.19
454.192	743.19
454.412	792.19
454.633	767.19
454.853	763.19
455.073	738.19
455.294	729.19
455.514	774.19
455.734	789.19
455.955	819.19
456.175	837.19
456.395	760.19
456.616	699.19
456.836	696.19
457.056	726.19
457.276	691.19
457.497	720.19
457.717	723.19
457.937	736.19
458.157	722.19
458.377	731.19
458.598	746.19
458.818	778.19
459.038	808.19
459.258	834.19
459.478	843.19
459.698	886.19
459.918	930.19
460.138	882.19
460.358	919.19
460.578	856.19
460.798	887.19
461.018	874.19
461.238	835.19
461.458	859.19
461.678	885.19
461.898	937.19
462.118	915.19
462.338	932.19
462.558	945.19
462.777	988.19
462.997	1004.19
463.217	1028.19
463.437	1037.19
463.657	1007.19
463.876	959.19
464.096	1005.19
464.316	966.19
464.536	961.19
464.755	1025.19
464.975	983.19
465.195	941.19
465.414	1015.19
465.634	961.19
465.854	959.19
466.073	881.19
466.293	883.19
466.512	930.19
466.732	1044.19
466.951	1039.19
467.171	915.19
467.391	874.19
467.61	867.19
467.829	931.19
468.049	935.19
468.268	873.19
468.488	872.19
468.707	904.19
468.927	1047.19
469.146	1147.19
469.365	1041.19
469.585	953.19
469.804	1028.19
470.023	1104.19
470.243	954.19
470.462	922.19
470.681	928.19
470.901	948.19
471.12	998.19
471.339	987.19
471.558	930.19
471.777	934.19
471.997	1012.19
472.216	1140.19
472.435	1099.19
472.654	983.19
472.873	966.19
473.092	1007.19
473.311	1051.19
473.53	972.19
473.749	927.19
473.968	1008.19
474.187	1009.19
474.406	955.19
474.625	936.19
474.844	960.19
475.063	1002.19
475.282	1058.19
475.501	1087.19
475.72	1138.19
475.939	1097.19
476.158	1102.19
476.377	1279.19
476.596	1448.19
476.814	1522.19
477.033	1265.19
477.252	1085.19
477.471	1002.19
477.69	999.19
477.908	1106.19
478.127	1178.19
478.346	1056.19
478.564	1121.19
478.783	1100.19
479.002	1097.19
479.22	1267.19
479.439	1417.19
479.658	1233.19
479.876	1157.19
480.095	1215.19
480.313	1246.19
480.532	1145.19
480.751	1109.19
480.969	1157.19
481.188	1261.19
481.406	1327.19
481.624	1245.19
481.843	1105.19
482.061	1077.19
482.28	1225.19
482.498	1456.19
482.717	1379.19
482.935	1162.19
483.153	1153.19
483.372	1077.19
483.59	1026.19
483.808	1041.19
484.027	1045.19
484.245	991.19
484.463	992.19
484.681	1032.19
484.9	1103.19
485.118	1185.19
485.336	1144.19
485.554	1069.19
485.772	1073.19
485.99	1210.19
486.209	1243.19
486.427	1210.19
486.645	1206.19
486.863	1258.19
487.081	1235.19
487.299	1396.19
487.517	1375.19
487.735	1207.19
487.953	1246.19
488.171	1266.19
488.389	1173.19
488.607	1136.19
488.825	1194.19
489.043	1256.19
489.261	1468.19
489.479	1568.19
489.696	1311.19
489.914	1197.19
490.132	1127.19
490.35	1141.19
490.568	1130.19
490.786	1124.19
491.003	1152.19
491.221	1172.19
491.439	1137.19
491.657	1154.19
491.874	1263.19
492.092	1531.19
492.31	1874.19
492.527	1820.19
492.745	1549.19
492.963	1344.19
493.18	1280.19
493.398	1303.19
493.615	1315.19
493.833	1237.19
494.05	1261.19
