Data from NickelSpatula_HRD10591_16-34-37-125.txt Node
Date: Mon Jul 22 16:34:37 EDT 2019
User: cochatt
Spectrometer: HR+D1059
Trigger mode: 1
Integration Time (sec): 1.000000E-1
Scans to average: 1
Electric dark correction enabled: true
Nonlinearity correction enabled: false
Boxcar width: 0
XAxis mode: Wavelengths
Number of Pixels in Spectrum: 2048
>>>>>Begin Spectral Data<<<<<
223.165	-20.06
223.4	-20.06
223.635	-20.06
223.869	-15.06
224.104	-21.06
224.338	-9.06
224.573	-8.06
224.808	-15.06
225.042	-3.06
225.277	-4.06
225.511	-15.06
225.746	5.94
225.98	11.94
226.215	0.94
226.449	8.94
226.683	24.94
226.918	20.94
227.152	36.94
227.387	51.94
227.621	32.94
227.856	31.94
228.09	45.94
228.324	43.94
228.559	41.94
228.793	61.94
229.027	75.94
229.262	85.94
229.496	78.94
229.73	82.94
229.964	79.94
230.199	92.94
230.433	94.94
230.667	104.94
230.901	94.94
231.136	108.94
231.37	113.94
231.604	105.94
231.838	96.94
232.072	89.94
232.306	110.94
232.541	94.94
232.775	102.94
233.009	90.94
233.243	119.94
233.477	114.94
233.711	123.94
233.945	126.94
234.179	98.94
234.413	110.94
234.647	124.94
234.881	132.94
235.115	128.94
235.349	118.94
235.583	129.94
235.817	127.94
236.051	127.94
236.285	119.94
236.519	137.94
236.753	138.94
236.987	126.94
237.221	105.94
237.455	128.94
237.689	130.94
237.922	137.94
238.156	135.94
238.39	138.94
238.624	156.94
238.858	145.94
239.091	126.94
239.325	136.94
239.559	134.94
239.793	130.94
240.027	158.94
240.26	160.94
240.494	149.94
240.728	167.94
240.961	154.94
241.195	166.94
241.429	158.94
241.662	162.94
241.896	134.94
242.13	142.94
242.363	133.94
242.597	142.94
242.83	134.94
243.064	143.94
243.298	152.94
243.531	168.94
243.765	161.94
243.998	161.94
244.232	159.94
244.465	171.94
244.699	150.94
244.932	165.94
245.166	167.94
245.399	158.94
245.633	146.94
245.866	138.94
246.099	166.94
246.333	173.94
246.566	179.94
246.8	194.94
247.033	172.94
247.266	171.94
247.5	180.94
247.733	180.94
247.966	164.94
248.2	177.94
248.433	186.94
248.666	190.94
248.899	192.94
249.133	178.94
249.366	221.94
249.599	234.94
249.832	226.94
250.066	196.94
250.299	199.94
250.532	207.94
250.765	191.94
250.998	177.94
251.231	169.94
251.465	186.94
251.698	192.94
251.931	188.94
252.164	191.94
252.397	226.94
252.63	217.94
252.863	244.94
253.096	240.94
253.329	254.94
253.562	244.94
253.795	255.94
254.028	315.94
254.261	285.94
254.494	267.94
254.727	235.94
254.96	235.94
255.193	254.94
255.426	246.94
255.659	182.94
255.892	210.94
256.124	208.94
256.357	208.94
256.59	247.94
256.823	244.94
257.056	235.94
257.289	198.94
257.521	207.94
257.754	234.94
257.987	274.94
258.22	248.94
258.452	218.94
258.685	253.94
258.918	270.94
259.151	247.94
259.383	279.94
259.616	323.94
259.849	312.94
260.081	325.94
260.314	368.94
260.547	306.94
260.779	299.94
261.012	325.94
261.244	323.94
261.477	312.94
261.71	291.94
261.942	279.94
262.175	250.94
262.407	259.94
262.64	269.94
262.872	307.94
263.105	331.94
263.337	324.94
263.57	318.94
263.802	241.94
264.035	224.94
264.267	213.94
264.499	188.94
264.732	185.94
264.964	182.94
265.197	172.94
265.429	183.94
265.661	199.94
265.894	198.94
266.126	212.94
266.358	212.94
266.591	267.94
266.823	317.94
267.055	289.94
267.287	274.94
267.52	257.94
267.752	263.94
267.984	296.94
268.216	264.94
268.448	246.94
268.681	234.94
268.913	247.94
269.145	278.94
269.377	277.94
269.609	278.94
269.841	265.94
270.073	267.94
270.306	295.94
270.538	302.94
270.77	291.94
271.002	280.94
271.234	321.94
271.466	310.94
271.698	304.94
271.93	286.94
272.162	282.94
272.394	288.94
272.626	301.94
272.858	286.94
273.09	316.94
273.322	280.94
273.553	254.94
273.785	299.94
274.017	375.94
274.249	423.94
274.481	412.94
274.713	492.94
274.945	542.94
275.176	577.94
275.408	521.94
275.64	469.94
275.872	483.94
276.104	433.94
276.335	380.94
276.567	361.94
276.799	399.94
277.031	388.94
277.262	333.94
277.494	260.94
277.726	250.94
277.957	266.94
278.189	311.94
278.421	279.94
278.652	287.94
278.884	266.94
279.115	264.94
279.347	258.94
279.579	251.94
279.81	245.94
280.042	266.94
280.273	278.94
280.505	254.94
280.736	219.94
280.968	213.94
281.199	242.94
281.431	260.94
281.662	249.94
281.894	240.94
282.125	252.94
282.356	266.94
282.588	273.94
282.819	251.94
283.051	268.94
283.282	317.94
283.513	375.94
283.745	397.94
283.976	395.94
284.207	363.94
284.439	397.94
284.67	370.94
284.901	349.94
285.132	354.94
285.364	369.94
285.595	348.94
285.826	368.94
286.057	368.94
286.288	359.94
286.52	365.94
286.751	384.94
286.982	382.94
287.213	334.94
287.444	336.94
287.675	334.94
287.906	357.94
288.138	293.94
288.369	272.94
288.6	271.94
288.831	278.94
289.062	312.94
289.293	342.94
289.524	320.94
289.755	320.94
289.986	318.94
290.217	296.94
290.448	235.94
290.679	219.94
290.91	212.94
291.141	212.94
291.371	200.94
291.602	219.94
291.833	202.94
292.064	198.94
292.295	261.94
292.526	269.94
292.757	300.94
292.987	301.94
293.218	301.94
293.449	307.94
293.68	337.94
293.91	294.94
294.141	327.94
294.372	307.94
294.603	301.94
294.833	317.94
295.064	355.94
295.295	361.94
295.525	293.94
295.756	233.94
295.987	214.94
296.217	229.94
296.448	205.94
296.679	228.94
296.909	245.94
297.14	262.94
297.37	291.94
297.601	267.94
297.831	237.94
298.062	241.94
298.292	296.94
298.523	282.94
298.753	321.94
298.984	314.94
299.214	248.94
299.445	237.94
299.675	219.94
299.905	211.94
300.136	198.94
300.366	232.94
300.597	231.94
300.827	222.94
301.057	205.94
301.288	201.94
301.518	228.94
301.748	252.94
301.979	252.94
302.209	245.94
302.439	249.94
302.669	242.94
302.9	240.94
303.13	237.94
303.36	228.94
303.59	214.94
303.82	226.94
304.051	230.94
304.281	266.94
304.511	262.94
304.741	242.94
304.971	249.94
305.201	248.94
305.431	229.94
305.661	226.94
305.891	232.94
306.121	219.94
306.352	189.94
306.582	189.94
306.812	181.94
307.042	196.94
307.272	174.94
307.502	183.94
307.731	196.94
307.961	202.94
308.191	185.94
308.421	184.94
308.651	178.94
308.881	172.94
309.111	162.94
309.341	172.94
309.571	183.94
309.8	176.94
310.03	195.94
310.26	214.94
310.49	200.94
310.72	181.94
310.949	191.94
311.179	195.94
311.409	189.94
311.639	211.94
311.868	262.94
312.098	324.94
312.328	354.94
312.557	360.94
312.787	340.94
313.017	308.94
313.246	326.94
313.476	355.94
313.706	304.94
313.935	258.94
314.165	218.94
314.394	192.94
314.624	196.94
314.853	219.94
315.083	209.94
315.312	225.94
315.542	206.94
315.771	189.94
316.001	178.94
316.23	165.94
316.46	182.94
316.689	178.94
316.919	174.94
317.148	185.94
317.377	190.94
317.607	192.94
317.836	185.94
318.065	221.94
318.295	230.94
318.524	216.94
318.753	203.94
318.983	196.94
319.212	196.94
319.441	197.94
319.67	218.94
319.9	236.94
320.129	222.94
320.358	201.94
320.587	182.94
320.816	197.94
321.046	226.94
321.275	261.94
321.504	272.94
321.733	235.94
321.962	219.94
322.191	230.94
322.42	195.94
322.649	225.94
322.878	220.94
323.108	244.94
323.337	218.94
323.566	235.94
323.795	224.94
324.024	213.94
324.253	208.94
324.482	211.94
324.71	208.94
324.939	226.94
325.168	229.94
325.397	194.94
325.626	201.94
325.855	197.94
326.084	202.94
326.313	193.94
326.542	188.94
326.77	188.94
326.999	192.94
327.228	180.94
327.457	195.94
327.686	192.94
327.914	179.94
328.143	184.94
328.372	175.94
328.6	184.94
328.829	177.94
329.058	185.94
329.287	184.94
329.515	186.94
329.744	198.94
329.972	176.94
330.201	173.94
330.43	184.94
330.658	188.94
330.887	213.94
331.115	205.94
331.344	194.94
331.572	216.94
331.801	184.94
332.03	193.94
332.258	165.94
332.486	186.94
332.715	190.94
332.943	188.94
333.172	177.94
333.4	194.94
333.629	214.94
333.857	226.94
334.085	221.94
334.314	225.94
334.542	211.94
334.771	195.94
334.999	206.94
335.227	181.94
335.455	188.94
335.684	222.94
335.912	243.94
336.14	247.94
336.369	248.94
336.597	236.94
336.825	236.94
337.053	283.94
337.281	257.94
337.51	195.94
337.738	195.94
337.966	219.94
338.194	220.94
338.422	211.94
338.65	195.94
338.878	177.94
339.106	184.94
339.334	189.94
339.562	209.94
339.79	198.94
340.018	216.94
340.246	190.94
340.474	218.94
340.702	230.94
340.93	246.94
341.158	254.94
341.386	219.94
341.614	195.94
341.842	193.94
342.07	224.94
342.298	237.94
342.526	260.94
342.754	222.94
342.981	207.94
343.209	212.94
343.437	221.94
343.665	234.94
343.893	217.94
344.12	258.94
344.348	301.94
344.576	281.94
344.804	246.94
345.031	201.94
345.259	196.94
345.487	182.94
345.714	205.94
345.942	211.94
346.17	230.94
346.397	215.94
346.625	208.94
346.853	192.94
347.08	186.94
347.308	201.94
347.535	239.94
347.763	222.94
347.99	209.94
348.218	184.94
348.445	214.94
348.673	197.94
348.9	215.94
349.128	202.94
349.355	204.94
349.583	203.94
349.81	204.94
350.037	177.94
350.265	186.94
350.492	163.94
350.72	167.94
350.947	174.94
351.174	190.94
351.402	196.94
351.629	197.94
351.856	201.94
352.083	176.94
352.311	188.94
352.538	202.94
352.765	202.94
352.992	215.94
353.22	211.94
353.447	196.94
353.674	201.94
353.901	193.94
354.128	193.94
354.355	206.94
354.583	198.94
354.81	191.94
355.037	221.94
355.264	203.94
355.491	217.94
355.718	229.94
355.945	221.94
356.172	201.94
356.399	202.94
356.626	240.94
356.853	292.94
357.08	304.94
357.307	310.94
357.534	257.94
357.761	274.94
357.988	312.94
358.215	338.94
358.441	315.94
358.668	313.94
358.895	270.94
359.122	237.94
359.349	226.94
359.576	242.94
359.802	201.94
360.029	177.94
360.256	193.94
360.483	234.94
360.709	271.94
360.936	274.94
361.163	253.94
361.39	219.94
361.616	205.94
361.843	213.94
362.07	253.94
362.296	244.94
362.523	206.94
362.749	167.94
362.976	204.94
363.203	226.94
363.429	272.94
363.656	199.94
363.882	204.94
364.109	195.94
364.335	207.94
364.562	195.94
364.788	193.94
365.015	230.94
365.241	229.94
365.468	183.94
365.694	176.94
365.92	160.94
366.147	171.94
366.373	169.94
366.599	166.94
366.826	166.94
367.052	162.94
367.278	171.94
367.505	184.94
367.731	206.94
367.957	193.94
368.184	206.94
368.41	194.94
368.636	189.94
368.862	206.94
369.089	190.94
369.315	197.94
369.541	174.94
369.767	169.94
369.993	168.94
370.219	176.94
370.445	179.94
370.672	200.94
370.898	198.94
371.124	208.94
371.35	209.94
371.576	180.94
371.802	178.94
372.028	209.94
372.254	225.94
372.48	197.94
372.706	190.94
372.932	218.94
373.158	211.94
373.384	244.94
373.61	294.94
373.835	287.94
374.061	227.94
374.287	203.94
374.513	239.94
374.739	269.94
374.965	299.94
375.191	275.94
375.416	213.94
375.642	211.94
375.868	216.94
376.094	226.94
376.319	220.94
376.545	230.94
376.771	225.94
376.997	212.94
377.222	168.94
377.448	172.94
377.674	163.94
377.899	165.94
378.125	158.94
378.35	163.94
378.576	168.94
378.802	179.94
379.027	192.94
379.253	197.94
379.478	193.94
379.704	204.94
379.929	217.94
380.155	213.94
380.38	176.94
380.606	193.94
380.831	233.94
381.057	216.94
381.282	187.94
381.507	207.94
381.733	247.94
381.958	257.94
382.184	267.94
382.409	297.94
382.634	297.94
382.86	295.94
383.085	257.94
383.31	221.94
383.535	222.94
383.761	236.94
383.986	218.94
384.211	273.94
384.436	248.94
384.662	206.94
384.887	202.94
385.112	192.94
385.337	210.94
385.562	197.94
385.787	215.94
386.013	221.94
386.238	243.94
386.463	203.94
386.688	194.94
386.913	187.94
387.138	178.94
387.363	188.94
387.588	196.94
387.813	187.94
388.038	228.94
388.263	213.94
388.488	192.94
388.713	229.94
388.938	247.94
389.163	203.94
389.387	180.94
389.612	180.94
389.837	195.94
390.062	193.94
390.287	200.94
390.512	196.94
390.736	199.94
390.961	189.94
391.186	182.94
391.411	178.94
391.636	174.94
391.86	194.94
392.085	195.94
392.31	206.94
392.534	180.94
392.759	197.94
392.984	205.94
393.208	206.94
393.433	173.94
393.658	188.94
393.882	171.94
394.107	163.94
394.331	164.94
394.556	163.94
394.78	157.94
395.005	163.94
395.229	179.94
395.454	171.94
395.678	201.94
395.903	172.94
396.127	178.94
396.352	194.94
396.576	195.94
396.801	195.94
397.025	217.94
397.249	230.94
397.474	199.94
397.698	182.94
397.922	211.94
398.147	190.94
398.371	195.94
398.595	206.94
398.82	205.94
399.044	195.94
399.268	203.94
399.492	209.94
399.717	216.94
399.941	234.94
400.165	208.94
400.389	198.94
400.613	206.94
400.837	192.94
401.062	205.94
401.286	192.94
401.51	192.94
401.734	187.94
401.958	199.94
402.182	190.94
402.406	181.94
402.63	178.94
402.854	191.94
403.078	216.94
403.302	274.94
403.526	299.94
403.75	256.94
403.974	216.94
404.198	214.94
404.422	256.94
404.645	239.94
404.869	277.94
405.093	216.94
405.317	217.94
405.541	204.94
405.765	193.94
405.988	205.94
406.212	223.94
406.436	232.94
406.66	251.94
406.883	231.94
407.107	222.94
407.331	258.94
407.555	264.94
407.778	218.94
408.002	205.94
408.226	203.94
408.449	195.94
408.673	219.94
408.896	191.94
409.12	190.94
409.344	196.94
409.567	190.94
409.791	199.94
410.014	216.94
410.238	171.94
410.461	185.94
410.685	193.94
410.908	196.94
411.132	177.94
411.355	183.94
411.578	197.94
411.802	222.94
412.025	188.94
412.249	198.94
412.472	212.94
412.695	196.94
412.919	184.94
413.142	201.94
413.365	197.94
413.589	227.94
413.812	193.94
414.035	192.94
414.258	203.94
414.482	216.94
414.705	200.94
414.928	205.94
415.151	186.94
415.374	185.94
415.597	193.94
415.821	208.94
416.044	180.94
416.267	190.94
416.49	188.94
416.713	170.94
416.936	200.94
417.159	186.94
417.382	187.94
417.605	187.94
417.828	192.94
418.051	208.94
418.274	197.94
418.497	194.94
418.72	195.94
418.943	207.94
419.166	220.94
419.389	216.94
419.611	210.94
419.834	216.94
420.057	232.94
420.28	207.94
420.503	219.94
420.726	190.94
420.948	180.94
421.171	173.94
421.394	182.94
421.617	191.94
421.839	188.94
422.062	204.94
422.285	200.94
422.507	191.94
422.73	202.94
422.953	188.94
423.175	199.94
423.398	205.94
423.621	212.94
423.843	226.94
424.066	202.94
424.288	213.94
424.511	192.94
424.733	194.94
424.956	199.94
425.178	217.94
425.401	221.94
425.623	265.94
425.846	242.94
426.068	201.94
426.291	233.94
426.513	210.94
426.735	187.94
426.958	208.94
427.18	229.94
427.402	282.94
427.625	275.94
427.847	250.94
428.069	196.94
428.292	190.94
428.514	178.94
428.736	165.94
428.958	200.94
429.181	237.94
429.403	210.94
429.625	186.94
429.847	179.94
430.069	185.94
430.292	194.94
430.514	176.94
430.736	180.94
430.958	212.94
431.18	223.94
431.402	176.94
431.624	172.94
431.846	173.94
432.068	165.94
432.29	170.94
432.512	189.94
432.734	217.94
432.956	229.94
433.178	180.94
433.4	172.94
433.622	188.94
433.844	190.94
434.066	213.94
434.287	196.94
434.509	200.94
434.731	201.94
434.953	177.94
435.175	204.94
435.397	235.94
435.618	203.94
435.84	183.94
436.062	170.94
436.284	175.94
436.505	169.94
436.727	176.94
436.949	172.94
437.17	158.94
437.392	179.94
437.614	171.94
437.835	162.94
438.057	191.94
438.278	210.94
438.5	265.94
438.721	258.94
438.943	195.94
439.165	176.94
439.386	164.94
439.608	161.94
439.829	167.94
440.05	173.94
440.272	169.94
440.493	203.94
440.715	220.94
440.936	204.94
441.158	172.94
441.379	182.94
441.6	180.94
441.822	205.94
442.043	176.94
442.264	181.94
442.486	190.94
442.707	180.94
442.928	194.94
443.149	205.94
443.371	198.94
443.592	182.94
443.813	188.94
444.034	186.94
444.255	181.94
444.476	176.94
444.698	192.94
444.919	206.94
445.14	341.94
445.361	262.94
445.582	207.94
445.803	210.94
446.024	219.94
446.245	202.94
446.466	214.94
446.687	182.94
446.908	183.94
447.129	178.94
447.35	173.94
447.571	160.94
447.792	172.94
448.013	185.94
448.234	171.94
448.455	162.94
448.675	176.94
448.896	165.94
449.117	179.94
449.338	165.94
449.559	182.94
449.779	172.94
450	182.94
450.221	176.94
450.442	182.94
450.662	186.94
450.883	162.94
451.104	172.94
451.324	177.94
451.545	192.94
451.766	185.94
451.986	170.94
452.207	165.94
452.428	170.94
452.648	156.94
452.869	184.94
453.089	192.94
453.31	188.94
453.53	161.94
453.751	164.94
453.971	167.94
454.192	164.94
454.412	185.94
454.633	161.94
454.853	175.94
455.073	165.94
455.294	147.94
455.514	162.94
455.734	171.94
455.955	163.94
456.175	164.94
456.395	166.94
456.616	162.94
456.836	156.94
457.056	141.94
457.276	171.94
457.497	154.94
457.717	162.94
457.937	166.94
458.157	161.94
458.377	153.94
458.598	155.94
458.818	161.94
459.038	181.94
459.258	170.94
459.478	194.94
459.698	205.94
459.918	184.94
460.138	191.94
460.358	209.94
460.578	197.94
460.798	199.94
461.018	190.94
461.238	184.94
461.458	181.94
461.678	186.94
461.898	200.94
462.118	203.94
462.338	192.94
462.558	197.94
462.777	215.94
462.997	215.94
463.217	199.94
463.437	220.94
463.657	199.94
463.876	204.94
464.096	207.94
464.316	216.94
464.536	192.94
464.755	216.94
464.975	215.94
465.195	197.94
465.414	216.94
465.634	199.94
465.854	192.94
466.073	166.94
466.293	177.94
466.512	196.94
466.732	212.94
466.951	205.94
467.171	195.94
467.391	188.94
467.61	178.94
467.829	188.94
468.049	172.94
468.268	175.94
468.488	178.94
468.707	201.94
468.927	205.94
469.146	236.94
469.365	216.94
469.585	190.94
469.804	194.94
470.023	221.94
470.243	206.94
470.462	205.94
470.681	192.94
470.901	202.94
471.12	194.94
471.339	211.94
471.558	192.94
471.777	183.94
471.997	201.94
472.216	210.94
472.435	226.94
472.654	201.94
472.873	193.94
473.092	209.94
473.311	223.94
473.53	196.94
473.749	196.94
473.968	216.94
474.187	207.94
474.406	185.94
474.625	200.94
474.844	196.94
475.063	207.94
475.282	206.94
475.501	217.94
475.72	246.94
475.939	233.94
476.158	221.94
476.377	255.94
476.596	276.94
476.814	299.94
477.033	245.94
477.252	212.94
477.471	169.94
477.69	199.94
477.908	212.94
478.127	242.94
478.346	224.94
478.564	242.94
478.783	226.94
479.002	226.94
479.22	247.94
479.439	274.94
479.658	253.94
479.876	211.94
480.095	262.94
480.313	241.94
480.532	236.94
480.751	222.94
480.969	229.94
481.188	217.94
481.406	250.94
481.624	246.94
481.843	221.94
482.061	219.94
482.28	226.94
482.498	273.94
482.717	290.94
482.935	234.94
483.153	200.94
483.372	216.94
483.59	214.94
483.808	200.94
484.027	212.94
484.245	196.94
484.463	208.94
484.681	218.94
484.9	204.94
485.118	222.94
485.336	220.94
485.554	197.94
485.772	210.94
485.99	231.94
486.209	257.94
486.427	234.94
486.645	237.94
486.863	228.94
487.081	245.94
487.299	265.94
487.517	261.94
487.735	237.94
487.953	242.94
488.171	249.94
488.389	234.94
488.607	217.94
488.825	240.94
489.043	237.94
489.261	275.94
489.479	292.94
489.696	241.94
489.914	227.94
490.132	221.94
490.35	230.94
490.568	229.94
490.786	212.94
491.003	221.94
491.221	230.94
491.439	228.94
491.657	201.94
491.874	226.94
492.092	279.94
492.31	336.94
492.527	316.94
492.745	257.94
492.963	262.94
493.18	240.94
493.398	245.94
493.615	258.94
493.833	256.94
494.05	217.94
494.268	234.94
494.485	227.94
494.703	223.94
494.92	253.94
495.138	242.94
495.355	209.94
495.573	239.94
495.79	250.94
496.008	341.94
496.225	283.94
496.442	252.94
496.66	264.94
496.877	279.94
497.094	256.94
497.312	251.94
497.529	239.94
497.746	229.94
497.963	245.94
498.181	266.94
498.398	288.94
498.615	288.94
498.832	314.94
499.049	321.94
499.267	290.94
499.484	302.94
499.701	319.94
499.918	354.94
500.135	388.94
500.352	377.94
500.569	404.94
500.786	402.94
501.003	399.94
501.22	355.94
501.437	356.94
501.654	325.94
501.871	304.94
502.088	308.94
502.305	265.94
502.522	269.94
502.739	280.94
