Data from NickelSpatula_HRD10591_16-35-08-125.txt Node
Date: Mon Jul 22 16:35:08 EDT 2019
User: cochatt
Spectrometer: HR+D1059
Trigger mode: 1
Integration Time (sec): 1.000000E-1
Scans to average: 1
Electric dark correction enabled: true
Nonlinearity correction enabled: false
Boxcar width: 0
XAxis mode: Wavelengths
Number of Pixels in Spectrum: 2048
>>>>>Begin Spectral Data<<<<<
223.165	-22.88
223.4	-22.88
223.635	-22.88
223.869	-19.88
224.104	-14.88
224.338	-31.88
224.573	-5.88
224.808	-24.88
225.042	-13.88
225.277	-0.88
225.511	4.12
225.746	11.12
225.98	8.12
226.215	5.12
226.449	6.12
226.683	24.12
226.918	33.12
227.152	43.12
227.387	36.12
227.621	56.12
227.856	54.12
228.09	43.12
228.324	51.12
228.559	51.12
228.793	63.12
229.027	77.12
229.262	81.12
229.496	95.12
229.73	92.12
229.964	99.12
230.199	105.12
230.433	83.12
230.667	112.12
230.901	100.12
231.136	101.12
231.37	85.12
231.604	105.12
231.838	104.12
232.072	110.12
232.306	107.12
232.541	117.12
232.775	118.12
233.009	102.12
233.243	104.12
233.477	121.12
233.711	129.12
233.945	128.12
234.179	99.12
234.413	131.12
234.647	123.12
234.881	147.12
235.115	139.12
235.349	135.12
235.583	135.12
235.817	121.12
236.051	119.12
236.285	143.12
236.519	150.12
236.753	134.12
236.987	124.12
237.221	133.12
237.455	131.12
237.689	134.12
237.922	144.12
238.156	139.12
238.39	144.12
238.624	171.12
238.858	153.12
239.091	127.12
239.325	152.12
239.559	143.12
239.793	144.12
240.027	175.12
240.26	153.12
240.494	156.12
240.728	144.12
240.961	163.12
241.195	155.12
241.429	165.12
241.662	159.12
241.896	134.12
242.13	159.12
242.363	134.12
242.597	141.12
242.83	149.12
243.064	161.12
243.298	160.12
243.531	177.12
243.765	171.12
243.998	167.12
244.232	157.12
244.465	161.12
244.699	164.12
244.932	171.12
245.166	174.12
245.399	144.12
245.633	146.12
245.866	153.12
246.099	170.12
246.333	170.12
246.566	183.12
246.8	179.12
247.033	180.12
247.266	175.12
247.5	183.12
247.733	163.12
247.966	174.12
248.2	170.12
248.433	183.12
248.666	206.12
248.899	200.12
249.133	213.12
249.366	220.12
249.599	231.12
249.832	213.12
250.066	214.12
250.299	214.12
250.532	176.12
250.765	203.12
250.998	174.12
251.231	188.12
251.465	183.12
251.698	196.12
251.931	201.12
252.164	208.12
252.397	213.12
252.63	230.12
252.863	274.12
253.096	256.12
253.329	268.12
253.562	252.12
253.795	270.12
254.028	303.12
254.261	321.12
254.494	288.12
254.727	270.12
254.96	260.12
255.193	261.12
255.426	256.12
255.659	216.12
255.892	185.12
256.124	202.12
256.357	222.12
256.59	264.12
256.823	254.12
257.056	235.12
257.289	225.12
257.521	231.12
257.754	247.12
257.987	278.12
258.22	275.12
258.452	245.12
258.685	236.12
258.918	277.12
259.151	277.12
259.383	281.12
259.616	303.12
259.849	323.12
260.081	331.12
260.314	365.12
260.547	304.12
260.779	300.12
261.012	331.12
261.244	349.12
261.477	346.12
261.71	299.12
261.942	292.12
262.175	279.12
262.407	279.12
262.64	290.12
262.872	299.12
263.105	332.12
263.337	355.12
263.57	315.12
263.802	224.12
264.035	202.12
264.267	201.12
264.499	187.12
264.732	178.12
264.964	175.12
265.197	182.12
265.429	199.12
265.661	183.12
265.894	202.12
266.126	221.12
266.358	233.12
266.591	259.12
266.823	300.12
267.055	311.12
267.287	283.12
267.52	271.12
267.752	282.12
267.984	307.12
268.216	299.12
268.448	243.12
268.681	247.12
268.913	264.12
269.145	281.12
269.377	279.12
269.609	300.12
269.841	262.12
270.073	280.12
270.306	297.12
270.538	289.12
270.77	314.12
271.002	297.12
271.234	325.12
271.466	326.12
271.698	301.12
271.93	291.12
272.162	280.12
272.394	286.12
272.626	278.12
272.858	300.12
273.09	312.12
273.322	285.12
273.553	256.12
273.785	297.12
274.017	367.12
274.249	456.12
274.481	459.12
274.713	510.12
274.945	553.12
275.176	590.12
275.408	521.12
275.64	489.12
275.872	482.12
276.104	435.12
276.335	380.12
276.567	362.12
276.799	381.12
277.031	413.12
277.262	321.12
277.494	263.12
277.726	240.12
277.957	263.12
278.189	313.12
278.421	308.12
278.652	292.12
278.884	291.12
279.115	266.12
279.347	253.12
279.579	273.12
279.81	271.12
280.042	260.12
280.273	279.12
280.505	258.12
280.736	237.12
280.968	220.12
281.199	219.12
281.431	260.12
281.662	279.12
281.894	262.12
282.125	266.12
282.356	291.12
282.588	295.12
282.819	259.12
283.051	269.12
283.282	319.12
283.513	381.12
283.745	406.12
283.976	408.12
284.207	383.12
284.439	393.12
284.67	396.12
284.901	340.12
285.132	368.12
285.364	387.12
285.595	366.12
285.826	386.12
286.057	402.12
286.288	379.12
286.52	405.12
286.751	399.12
286.982	423.12
287.213	378.12
287.444	357.12
287.675	371.12
287.906	348.12
288.138	317.12
288.369	280.12
288.6	269.12
288.831	273.12
289.062	324.12
289.293	371.12
289.524	323.12
289.755	329.12
289.986	316.12
290.217	308.12
290.448	245.12
290.679	203.12
290.91	202.12
291.141	203.12
291.371	206.12
291.602	195.12
291.833	231.12
292.064	223.12
292.295	223.12
292.526	277.12
292.757	286.12
292.987	320.12
293.218	312.12
293.449	335.12
293.68	341.12
293.91	326.12
294.141	334.12
294.372	313.12
294.603	272.12
294.833	331.12
295.064	337.12
295.295	355.12
295.525	277.12
295.756	244.12
295.987	215.12
296.217	203.12
296.448	224.12
296.679	222.12
296.909	241.12
297.14	263.12
297.37	287.12
297.601	288.12
297.831	226.12
298.062	263.12
298.292	279.12
298.523	326.12
298.753	333.12
298.984	342.12
299.214	250.12
299.445	218.12
299.675	211.12
299.905	218.12
300.136	213.12
300.366	238.12
300.597	231.12
300.827	230.12
301.057	225.12
301.288	218.12
301.518	225.12
301.748	238.12
301.979	268.12
302.209	278.12
302.439	268.12
302.669	259.12
302.9	259.12
303.13	248.12
303.36	228.12
303.59	217.12
303.82	243.12
304.051	254.12
304.281	277.12
304.511	273.12
304.741	255.12
304.971	241.12
305.201	256.12
305.431	259.12
305.661	232.12
305.891	222.12
306.121	220.12
306.352	210.12
306.582	203.12
306.812	187.12
307.042	188.12
307.272	179.12
307.502	179.12
307.731	185.12
307.961	202.12
308.191	198.12
308.421	184.12
308.651	187.12
308.881	184.12
309.111	172.12
309.341	192.12
309.571	207.12
309.8	191.12
310.03	192.12
310.26	225.12
310.49	203.12
310.72	186.12
310.949	172.12
311.179	187.12
311.409	195.12
311.639	214.12
311.868	276.12
312.098	340.12
312.328	360.12
312.557	368.12
312.787	346.12
313.017	316.12
313.246	337.12
313.476	362.12
313.706	335.12
313.935	261.12
314.165	212.12
314.394	189.12
314.624	194.12
314.853	227.12
315.083	208.12
315.312	215.12
315.542	195.12
315.771	194.12
316.001	188.12
316.23	178.12
316.46	187.12
316.689	188.12
316.919	187.12
317.148	185.12
317.377	207.12
317.607	199.12
317.836	206.12
318.065	208.12
318.295	254.12
318.524	245.12
318.753	195.12
318.983	190.12
319.212	189.12
319.441	215.12
319.67	230.12
319.9	232.12
320.129	231.12
320.358	191.12
320.587	187.12
320.816	197.12
321.046	220.12
321.275	256.12
321.504	236.12
321.733	241.12
321.962	235.12
322.191	229.12
322.42	212.12
322.649	224.12
322.878	233.12
323.108	224.12
323.337	220.12
323.566	233.12
323.795	225.12
324.024	214.12
324.253	211.12
324.482	205.12
324.71	217.12
324.939	236.12
325.168	225.12
325.397	205.12
325.626	192.12
325.855	200.12
326.084	206.12
326.313	192.12
326.542	162.12
326.77	191.12
326.999	197.12
327.228	188.12
327.457	196.12
327.686	208.12
327.914	176.12
328.143	201.12
328.372	183.12
328.6	178.12
328.829	188.12
329.058	193.12
329.287	169.12
329.515	183.12
329.744	186.12
329.972	184.12
330.201	164.12
330.43	178.12
330.658	203.12
330.887	222.12
331.115	201.12
331.344	211.12
331.572	198.12
331.801	171.12
332.03	167.12
332.258	205.12
332.486	197.12
332.715	191.12
332.943	190.12
333.172	191.12
333.4	195.12
333.629	203.12
333.857	216.12
334.085	228.12
334.314	230.12
334.542	202.12
334.771	211.12
334.999	191.12
335.227	196.12
335.455	187.12
335.684	193.12
335.912	236.12
336.14	228.12
336.369	256.12
336.597	240.12
336.825	274.12
337.053	288.12
337.281	267.12
337.51	200.12
337.738	193.12
337.966	218.12
338.194	235.12
338.422	211.12
338.65	197.12
338.878	186.12
339.106	182.12
339.334	207.12
339.562	218.12
339.79	196.12
340.018	203.12
340.246	205.12
340.474	228.12
340.702	248.12
340.93	261.12
341.158	253.12
341.386	219.12
341.614	221.12
341.842	213.12
342.07	218.12
342.298	260.12
342.526	283.12
342.754	231.12
342.981	204.12
343.209	194.12
343.437	229.12
343.665	233.12
343.893	225.12
344.12	275.12
344.348	313.12
344.576	277.12
344.804	234.12
345.031	213.12
345.259	195.12
345.487	196.12
345.714	200.12
345.942	219.12
346.17	243.12
346.397	235.12
346.625	202.12
346.853	195.12
347.08	201.12
347.308	208.12
347.535	220.12
347.763	220.12
347.99	208.12
348.218	182.12
348.445	202.12
348.673	189.12
348.9	219.12
349.128	227.12
349.355	211.12
349.583	202.12
349.81	192.12
350.037	210.12
350.265	179.12
350.492	175.12
350.72	159.12
350.947	187.12
351.174	185.12
351.402	209.12
351.629	187.12
351.856	177.12
352.083	194.12
352.311	193.12
352.538	208.12
352.765	228.12
352.992	208.12
353.22	211.12
353.447	240.12
353.674	215.12
353.901	205.12
354.128	207.12
354.355	203.12
354.583	186.12
354.81	204.12
355.037	211.12
355.264	204.12
355.491	220.12
355.718	222.12
355.945	217.12
356.172	210.12
356.399	195.12
356.626	247.12
356.853	284.12
357.08	325.12
357.307	337.12
357.534	288.12
357.761	271.12
357.988	309.12
358.215	356.12
358.441	323.12
358.668	282.12
358.895	307.12
359.122	240.12
359.349	222.12
359.576	256.12
359.802	227.12
360.029	203.12
360.256	204.12
360.483	259.12
360.709	291.12
360.936	293.12
361.163	270.12
361.39	224.12
361.616	198.12
361.843	224.12
362.07	291.12
362.296	236.12
362.523	212.12
362.749	203.12
362.976	195.12
363.203	224.12
363.429	247.12
363.656	208.12
363.882	196.12
364.109	201.12
364.335	216.12
364.562	207.12
364.788	204.12
365.015	239.12
365.241	232.12
365.468	190.12
365.694	194.12
365.92	179.12
366.147	163.12
366.373	172.12
366.599	176.12
366.826	159.12
367.052	184.12
367.278	169.12
367.505	164.12
367.731	183.12
367.957	206.12
368.184	208.12
368.41	211.12
368.636	206.12
368.862	216.12
369.089	203.12
369.315	183.12
369.541	192.12
369.767	186.12
369.993	183.12
370.219	191.12
370.445	183.12
370.672	182.12
370.898	216.12
371.124	215.12
371.35	183.12
371.576	176.12
371.802	199.12
372.028	222.12
372.254	241.12
372.48	224.12
372.706	206.12
372.932	214.12
373.158	212.12
373.384	213.12
373.61	288.12
373.835	316.12
374.061	236.12
374.287	236.12
374.513	258.12
374.739	289.12
374.965	307.12
375.191	291.12
375.416	236.12
375.642	196.12
375.868	220.12
376.094	237.12
376.319	208.12
376.545	239.12
376.771	239.12
376.997	217.12
377.222	185.12
377.448	173.12
377.674	167.12
377.899	174.12
378.125	165.12
378.35	160.12
378.576	172.12
378.802	170.12
379.027	203.12
379.253	191.12
379.478	195.12
379.704	213.12
379.929	213.12
380.155	227.12
380.38	218.12
380.606	191.12
380.831	243.12
381.057	213.12
381.282	214.12
381.507	237.12
381.733	256.12
381.958	263.12
382.184	270.12
382.409	293.12
382.634	296.12
382.86	313.12
383.085	273.12
383.31	222.12
383.535	247.12
383.761	251.12
383.986	220.12
384.211	239.12
384.436	266.12
384.662	196.12
384.887	215.12
385.112	208.12
385.337	219.12
385.562	219.12
385.787	215.12
386.013	256.12
386.238	240.12
386.463	208.12
386.688	206.12
386.913	192.12
387.138	186.12
387.363	174.12
387.588	199.12
387.813	219.12
388.038	233.12
388.263	203.12
388.488	191.12
388.713	220.12
388.938	233.12
389.163	207.12
389.387	188.12
389.612	175.12
389.837	201.12
390.062	199.12
390.287	193.12
390.512	220.12
390.736	201.12
390.961	198.12
391.186	183.12
391.411	183.12
391.636	188.12
391.86	199.12
392.085	207.12
392.31	203.12
392.534	203.12
392.759	185.12
392.984	199.12
393.208	189.12
393.433	179.12
393.658	154.12
393.882	175.12
394.107	171.12
394.331	175.12
394.556	165.12
394.78	176.12
395.005	168.12
395.229	177.12
395.454	182.12
395.678	172.12
395.903	183.12
396.127	179.12
396.352	180.12
396.576	186.12
396.801	205.12
397.025	220.12
397.249	223.12
397.474	189.12
397.698	176.12
397.922	207.12
398.147	197.12
398.371	198.12
398.595	215.12
398.82	197.12
399.044	199.12
399.268	223.12
399.492	208.12
399.717	216.12
399.941	215.12
400.165	205.12
400.389	202.12
400.613	196.12
400.837	211.12
401.062	184.12
401.286	192.12
401.51	212.12
401.734	185.12
401.958	191.12
402.182	195.12
402.406	187.12
402.63	186.12
402.854	205.12
403.078	222.12
403.302	282.12
403.526	288.12
403.75	263.12
403.974	224.12
404.198	234.12
404.422	248.12
404.645	256.12
404.869	303.12
405.093	238.12
405.317	207.12
405.541	209.12
405.765	219.12
405.988	224.12
406.212	204.12
406.436	215.12
406.66	264.12
406.883	222.12
407.107	242.12
407.331	263.12
407.555	269.12
407.778	230.12
408.002	203.12
408.226	232.12
408.449	216.12
408.673	209.12
408.896	217.12
409.12	189.12
409.344	197.12
409.567	189.12
409.791	180.12
410.014	186.12
410.238	175.12
410.461	181.12
410.685	192.12
410.908	198.12
411.132	204.12
411.355	193.12
411.578	194.12
411.802	191.12
412.025	197.12
412.249	196.12
412.472	200.12
412.695	183.12
412.919	196.12
413.142	214.12
413.365	220.12
413.589	225.12
413.812	203.12
414.035	197.12
414.258	200.12
414.482	221.12
414.705	227.12
414.928	217.12
415.151	174.12
415.374	203.12
415.597	189.12
415.821	195.12
416.044	191.12
416.267	181.12
416.49	191.12
416.713	185.12
416.936	177.12
417.159	193.12
417.382	198.12
417.605	201.12
417.828	201.12
418.051	193.12
418.274	208.12
418.497	192.12
418.72	211.12
418.943	207.12
419.166	209.12
419.389	196.12
419.611	194.12
419.834	212.12
420.057	221.12
420.28	229.12
420.503	206.12
420.726	197.12
420.948	192.12
421.171	209.12
421.394	187.12
421.617	193.12
421.839	180.12
422.062	197.12
422.285	215.12
422.507	200.12
422.73	220.12
422.953	219.12
423.175	206.12
423.398	201.12
423.621	213.12
423.843	224.12
424.066	209.12
424.288	205.12
424.511	187.12
424.733	176.12
424.956	198.12
425.178	222.12
425.401	254.12
425.623	298.12
425.846	238.12
426.068	220.12
426.291	243.12
426.513	209.12
426.735	188.12
426.958	196.12
427.18	232.12
427.402	265.12
427.625	273.12
427.847	236.12
428.069	197.12
428.292	189.12
428.514	198.12
428.736	185.12
428.958	201.12
429.181	240.12
429.403	207.12
429.625	179.12
429.847	196.12
430.069	188.12
430.292	177.12
430.514	184.12
430.736	187.12
430.958	232.12
431.18	236.12
431.402	176.12
431.624	168.12
431.846	184.12
432.068	175.12
432.29	186.12
432.512	177.12
432.734	235.12
432.956	217.12
433.178	176.12
433.4	176.12
433.622	183.12
433.844	195.12
434.066	209.12
434.287	215.12
434.509	190.12
434.731	190.12
434.953	199.12
435.175	192.12
435.397	227.12
435.618	192.12
435.84	184.12
436.062	189.12
436.284	181.12
436.505	171.12
436.727	168.12
436.949	181.12
437.17	187.12
437.392	173.12
437.614	187.12
437.835	176.12
438.057	181.12
438.278	206.12
438.5	254.12
438.721	244.12
438.943	204.12
439.165	183.12
439.386	166.12
439.608	189.12
439.829	179.12
440.05	169.12
440.272	189.12
440.493	200.12
440.715	237.12
440.936	208.12
441.158	192.12
441.379	195.12
441.6	221.12
441.822	215.12
442.043	195.12
442.264	204.12
442.486	192.12
442.707	171.12
442.928	189.12
443.149	181.12
443.371	192.12
443.592	191.12
443.813	201.12
444.034	185.12
444.255	197.12
444.476	205.12
444.698	215.12
444.919	194.12
445.14	330.12
445.361	254.12
445.582	222.12
445.803	204.12
446.024	219.12
446.245	201.12
446.466	196.12
446.687	207.12
446.908	179.12
447.129	187.12
447.35	175.12
447.571	179.12
447.792	171.12
448.013	191.12
448.234	182.12
448.455	180.12
448.675	173.12
448.896	170.12
449.117	174.12
449.338	180.12
449.559	179.12
449.779	185.12
450	206.12
450.221	160.12
450.442	175.12
450.662	181.12
450.883	159.12
451.104	183.12
451.324	173.12
451.545	163.12
451.766	187.12
451.986	168.12
452.207	171.12
452.428	181.12
452.648	192.12
452.869	175.12
453.089	182.12
453.31	184.12
453.53	176.12
453.751	195.12
453.971	169.12
454.192	165.12
454.412	182.12
454.633	167.12
454.853	180.12
455.073	157.12
455.294	164.12
455.514	163.12
455.734	181.12
455.955	186.12
456.175	174.12
456.395	175.12
456.616	158.12
456.836	141.12
457.056	152.12
457.276	165.12
457.497	158.12
457.717	158.12
457.937	155.12
458.157	168.12
458.377	167.12
458.598	173.12
458.818	162.12
459.038	181.12
459.258	174.12
459.478	181.12
459.698	187.12
459.918	191.12
460.138	204.12
460.358	193.12
460.578	180.12
460.798	190.12
461.018	199.12
461.238	187.12
461.458	186.12
461.678	196.12
461.898	221.12
462.118	201.12
462.338	196.12
462.558	208.12
462.777	198.12
462.997	233.12
463.217	209.12
463.437	218.12
463.657	211.12
463.876	220.12
464.096	212.12
464.316	212.12
464.536	209.12
464.755	204.12
464.975	201.12
465.195	195.12
465.414	222.12
465.634	215.12
465.854	199.12
466.073	176.12
466.293	185.12
466.512	193.12
466.732	214.12
466.951	217.12
467.171	202.12
467.391	184.12
467.61	187.12
467.829	188.12
468.049	191.12
468.268	184.12
468.488	181.12
468.707	194.12
468.927	199.12
469.146	229.12
469.365	218.12
469.585	202.12
469.804	210.12
470.023	229.12
470.243	211.12
470.462	190.12
470.681	177.12
470.901	197.12
471.12	205.12
471.339	209.12
471.558	193.12
471.777	214.12
471.997	213.12
472.216	226.12
472.435	238.12
472.654	186.12
472.873	197.12
473.092	215.12
473.311	219.12
473.53	194.12
473.749	204.12
473.968	216.12
474.187	208.12
474.406	212.12
474.625	196.12
474.844	204.12
475.063	218.12
475.282	237.12
475.501	245.12
475.72	268.12
475.939	229.12
476.158	224.12
476.377	270.12
476.596	293.12
476.814	284.12
477.033	268.12
477.252	219.12
477.471	206.12
477.69	215.12
477.908	209.12
478.127	228.12
478.346	216.12
478.564	247.12
478.783	226.12
479.002	220.12
479.22	249.12
479.439	271.12
479.658	251.12
479.876	215.12
480.095	217.12
480.313	247.12
480.532	222.12
480.751	216.12
480.969	216.12
481.188	247.12
481.406	256.12
481.624	248.12
481.843	228.12
482.061	207.12
482.28	230.12
482.498	292.12
482.717	311.12
482.935	232.12
483.153	221.12
483.372	213.12
483.59	216.12
483.808	217.12
484.027	210.12
484.245	208.12
484.463	217.12
484.681	198.12
484.9	207.12
485.118	240.12
485.336	225.12
485.554	207.12
485.772	203.12
485.99	229.12
486.209	243.12
486.427	232.12
486.645	237.12
486.863	245.12
487.081	245.12
487.299	249.12
487.517	265.12
487.735	240.12
487.953	255.12
488.171	243.12
488.389	236.12
488.607	215.12
488.825	218.12
489.043	231.12
489.261	281.12
489.479	315.12
489.696	252.12
489.914	224.12
490.132	211.12
490.35	223.12
490.568	217.12
490.786	213.12
491.003	244.12
491.221	228.12
491.439	215.12
491.657	213.12
491.874	216.12
492.092	285.12
492.31	348.12
492.527	324.12
492.745	273.12
492.963	261.12
493.18	247.12
493.398	240.12
493.615	250.12
493.833	227.12
494.05	231.12
494.268	241.12
494.485	254.12
494.703	229.12
494.92	230.12
495.138	230.12
495.355	228.12
495.573	237.12
495.79	264.12
496.008	340.12
496.225	299.12
496.442	267.12
496.66	244.12
496.877	280.12
497.094	262.12
497.312	252.12
497.529	261.12
497.746	265.12
497.963	268.12
498.181	267.12
498.398	284.12
498.615	309.12
498.832	310.12
499.049	316.12
499.267	287.12
499.484	294.12
499.701	309.12
499.918	327.12
500.135	371.12
500.352	357.12
500.569	379.12
500.786	393.12
501.003	400.12
501.22	374.12
501.437	338.12
501.654	306.12
501.871	315.12
502.088	319.12
502.305	281.12
502.522	280.12
