Data from NickelSpatula.Lamp.E5.5.P2_HRD10591_11-52-28-555.txt Node
Date: Tue Jul 23 11:52:28 EDT 2019
User: cochatt
Spectrometer: HR+D1059
Trigger mode: 1
Integration Time (sec): 1.000000E-1
Scans to average: 1
Electric dark correction enabled: true
Nonlinearity correction enabled: false
Boxcar width: 0
XAxis mode: Wavelengths
Number of Pixels in Spectrum: 2048
>>>>>Begin Spectral Data<<<<<
223.165	-7
223.4	-7
223.635	-7
223.869	-9
224.104	-32
224.338	-18
224.573	-19
224.808	-21
225.042	-10
225.277	2
225.511	-15
225.746	2
225.98	16
226.215	13
226.449	13
226.683	26
226.918	29
227.152	30
227.387	13
227.621	18
227.856	31
228.09	31
228.324	42
228.559	53
228.793	47
229.027	64
229.262	66
229.496	59
229.73	84
229.964	89
230.199	97
230.433	89
230.667	92
230.901	98
231.136	81
231.37	108
231.604	90
231.838	105
232.072	98
232.306	102
232.541	98
232.775	90
233.009	110
233.243	105
233.477	121
233.711	112
233.945	99
234.179	112
234.413	131
234.647	134
234.881	145
235.115	134
235.349	127
235.583	117
235.817	120
236.051	128
236.285	130
236.519	149
236.753	145
236.987	124
237.221	112
237.455	122
237.689	142
237.922	121
238.156	137
238.39	152
238.624	166
238.858	158
239.091	153
239.325	159
239.559	146
239.793	147
240.027	170
240.26	170
240.494	155
240.728	148
240.961	169
241.195	193
241.429	153
241.662	142
241.896	143
242.13	131
242.363	150
242.597	121
242.83	151
243.064	150
243.298	158
243.531	161
243.765	157
243.998	165
244.232	167
244.465	178
244.699	149
244.932	175
245.166	157
245.399	160
245.633	164
245.866	163
246.099	171
246.333	195
246.566	203
246.8	210
247.033	192
247.266	167
247.5	175
247.733	165
247.966	190
248.2	172
248.433	196
248.666	212
248.899	209
249.133	199
249.366	222
249.599	230
249.832	217
250.066	197
250.299	201
250.532	208
250.765	201
250.998	193
251.231	177
251.465	192
251.698	194
251.931	185
252.164	193
252.397	211
252.63	243
252.863	265
253.096	283
253.329	267
253.562	230
253.795	275
254.028	301
254.261	297
254.494	270
254.727	263
254.96	250
255.193	281
255.426	263
255.659	191
255.892	189
256.124	200
256.357	240
256.59	286
256.823	263
257.056	215
257.289	194
257.521	217
257.754	270
257.987	289
258.22	269
258.452	241
258.685	273
258.918	306
259.151	286
259.383	297
259.616	347
259.849	364
260.081	359
260.314	418
260.547	351
260.779	342
261.012	390
261.244	341
261.477	375
261.71	337
261.942	292
262.175	282
262.407	276
262.64	289
262.872	314
263.105	353
263.337	375
263.57	331
263.802	245
264.035	212
264.267	207
264.499	200
264.732	191
264.964	182
265.197	170
265.429	196
265.661	191
265.894	215
266.126	222
266.358	216
266.591	303
266.823	334
267.055	338
267.287	287
267.52	299
267.752	281
267.984	323
268.216	310
268.448	262
268.681	260
268.913	277
269.145	294
269.377	291
269.609	308
269.841	280
270.073	285
270.306	303
270.538	308
270.77	305
271.002	311
271.234	335
271.466	333
271.698	325
271.93	302
272.162	287
272.394	304
272.626	292
272.858	316
273.09	328
273.322	283
273.553	265
273.785	323
274.017	410
274.249	500
274.481	483
274.713	529
274.945	651
275.176	646
275.408	568
275.64	521
275.872	534
276.104	453
276.335	386
276.567	390
276.799	428
277.031	441
277.262	349
277.494	267
277.726	260
277.957	301
278.189	311
278.421	306
278.652	308
278.884	303
279.115	267
279.347	276
279.579	283
279.81	279
280.042	287
280.273	294
280.505	274
280.736	236
280.968	235
281.199	266
281.431	298
281.662	279
281.894	270
282.125	285
282.356	310
282.588	312
282.819	281
283.051	300
283.282	353
283.513	415
283.745	450
283.976	447
284.207	425
284.439	422
284.67	413
284.901	373
285.132	401
285.364	420
285.595	397
285.826	418
286.057	417
286.288	403
286.52	421
286.751	424
286.982	428
287.213	381
287.444	359
287.675	388
287.906	374
288.138	335
288.369	300
288.6	286
288.831	308
289.062	353
289.293	379
289.524	343
289.755	337
289.986	371
290.217	331
290.448	263
290.679	236
290.91	211
291.141	230
291.371	239
291.602	216
291.833	252
292.064	251
292.295	262
292.526	302
292.757	326
292.987	321
293.218	317
293.449	359
293.68	383
293.91	357
294.141	373
294.372	367
294.603	300
294.833	320
295.064	421
295.295	405
295.525	306
295.756	271
295.987	224
296.217	227
296.448	233
296.679	229
296.909	251
297.14	273
297.37	327
297.601	292
297.831	261
298.062	290
298.292	293
298.523	321
298.753	361
298.984	337
299.214	294
299.445	244
299.675	245
299.905	237
300.136	250
300.366	271
300.597	231
300.827	238
301.057	237
301.288	219
301.518	269
301.748	281
301.979	308
302.209	326
302.439	300
302.669	259
302.9	259
303.13	246
303.36	246
303.59	261
303.82	267
304.051	292
304.281	293
304.511	294
304.741	268
304.971	261
305.201	286
305.431	286
305.661	238
305.891	265
306.121	237
306.352	224
306.582	212
306.812	194
307.042	214
307.272	202
307.502	200
307.731	202
307.961	218
308.191	199
308.421	193
308.651	204
308.881	199
309.111	175
309.341	194
309.571	208
309.8	231
310.03	223
310.26	223
310.49	227
310.72	195
310.949	215
311.179	204
311.409	209
311.639	266
311.868	289
312.098	369
312.328	390
312.557	385
312.787	385
313.017	338
313.246	377
313.476	397
313.706	347
313.935	285
314.165	243
314.394	228
314.624	230
314.853	245
315.083	237
315.312	206
315.542	227
315.771	222
316.001	195
316.23	213
316.46	199
316.689	206
316.919	197
317.148	204
317.377	200
317.607	194
317.836	205
318.065	240
318.295	255
318.524	234
318.753	237
318.983	220
319.212	197
319.441	213
319.67	249
319.9	263
320.129	241
320.358	219
320.587	218
320.816	222
321.046	248
321.275	287
321.504	277
321.733	266
321.962	244
322.191	227
322.42	242
322.649	233
322.878	255
323.108	256
323.337	235
323.566	243
323.795	229
324.024	252
324.253	221
324.482	218
324.71	240
324.939	270
325.168	250
325.397	215
325.626	211
325.855	205
326.084	224
326.313	214
326.542	195
326.77	210
326.999	209
327.228	210
327.457	235
327.686	230
327.914	210
328.143	191
328.372	188
328.6	196
328.829	210
329.058	196
329.287	199
329.515	220
329.744	219
329.972	192
330.201	192
330.43	215
330.658	205
330.887	258
331.115	226
331.344	235
331.572	221
331.801	211
332.03	216
332.258	200
332.486	222
332.715	235
332.943	230
333.172	212
333.4	227
333.629	240
333.857	273
334.085	250
334.314	276
334.542	220
334.771	226
334.999	216
335.227	224
335.455	220
335.684	224
335.912	265
336.14	291
336.369	263
336.597	270
336.825	306
337.053	322
337.281	293
337.51	221
337.738	219
337.966	250
338.194	273
338.422	238
338.65	209
338.878	199
339.106	218
339.334	207
339.562	237
339.79	209
340.018	216
340.246	230
340.474	260
340.702	255
340.93	284
341.158	286
341.386	237
341.614	229
341.842	231
342.07	242
342.298	288
342.526	312
342.754	252
342.981	241
343.209	221
343.437	238
343.665	259
343.893	255
344.12	301
344.348	355
344.576	341
344.804	274
345.031	233
345.259	222
345.487	228
345.714	202
345.942	239
346.17	259
346.397	247
346.625	223
346.853	237
347.08	209
347.308	230
347.535	261
347.763	261
347.99	237
348.218	211
348.445	235
348.673	222
348.9	236
349.128	236
349.355	245
349.583	231
349.81	214
350.037	214
350.265	197
350.492	195
350.72	188
350.947	206
351.174	204
351.402	214
351.629	227
351.856	205
352.083	196
352.311	220
352.538	226
352.765	245
352.992	227
353.22	242
353.447	212
353.674	223
353.901	207
354.128	209
354.355	221
354.583	230
354.81	219
355.037	245
355.264	212
355.491	214
355.718	232
355.945	259
356.172	239
356.399	239
356.626	279
356.853	334
357.08	350
357.307	347
357.534	295
357.761	299
357.988	348
358.215	395
358.441	381
358.668	327
358.895	306
359.122	258
359.349	271
359.576	284
359.802	236
360.029	227
360.256	229
360.483	284
360.709	316
360.936	342
361.163	312
361.39	240
361.616	213
361.843	267
362.07	307
362.296	291
362.523	233
362.749	199
362.976	210
363.203	279
363.429	271
363.656	250
363.882	210
364.109	211
364.335	228
364.562	222
364.788	237
365.015	253
365.241	237
365.468	198
365.694	203
365.92	179
366.147	178
366.373	196
366.599	185
366.826	192
367.052	189
367.278	190
367.505	181
367.731	199
367.957	241
368.184	237
368.41	238
368.636	229
368.862	234
369.089	239
369.315	207
369.541	217
369.767	203
369.993	209
370.219	201
370.445	216
370.672	240
370.898	233
371.124	241
371.35	218
371.576	214
371.802	225
372.028	268
372.254	274
372.48	236
372.706	238
372.932	239
373.158	252
373.384	296
373.61	341
373.835	385
374.061	299
374.287	253
374.513	291
374.739	342
374.965	349
375.191	354
375.416	274
375.642	235
375.868	250
376.094	304
376.319	268
376.545	272
376.771	298
376.997	254
377.222	223
377.448	196
377.674	185
377.899	192
378.125	191
378.35	186
378.576	185
378.802	199
379.027	217
379.253	208
379.478	199
379.704	218
379.929	228
380.155	252
380.38	210
380.606	240
380.831	251
381.057	260
381.282	234
381.507	245
381.733	294
381.958	315
382.184	334
382.409	351
382.634	333
382.86	355
383.085	313
383.31	271
383.535	285
383.761	280
383.986	251
384.211	289
384.436	287
384.662	243
384.887	242
385.112	231
385.337	251
385.562	225
385.787	270
386.013	285
386.238	294
386.463	258
386.688	234
386.913	229
387.138	225
387.363	228
387.588	226
387.813	233
388.038	255
388.263	216
388.488	215
388.713	231
388.938	263
389.163	228
389.387	210
389.612	204
389.837	213
390.062	218
390.287	229
390.512	253
390.736	224
390.961	216
391.186	217
391.411	202
391.636	199
391.86	233
392.085	245
392.31	256
392.534	241
392.759	239
392.984	254
393.208	239
393.433	211
393.658	192
393.882	203
394.107	206
394.331	214
394.556	189
394.78	206
395.005	196
395.229	214
395.454	212
395.678	220
395.903	217
396.127	216
396.352	206
396.576	202
396.801	209
397.025	236
397.249	267
397.474	215
397.698	219
397.922	249
398.147	225
398.371	215
398.595	249
398.82	219
399.044	255
399.268	251
399.492	273
399.717	286
399.941	274
400.165	250
400.389	250
400.613	267
400.837	245
401.062	251
401.286	220
401.51	219
401.734	242
401.958	243
402.182	233
402.406	252
402.63	230
402.854	253
403.078	258
403.302	348
403.526	361
403.75	323
403.974	282
404.198	287
404.422	317
404.645	328
404.869	338
405.093	290
405.317	254
405.541	241
405.765	253
405.988	246
406.212	255
406.436	295
406.66	319
406.883	279
407.107	277
407.331	307
407.555	323
407.778	270
408.002	256
408.226	273
408.449	261
408.673	256
408.896	227
409.12	238
409.344	227
409.567	243
409.791	229
410.014	251
410.238	237
410.461	229
410.685	221
410.908	217
411.132	253
411.355	240
411.578	241
411.802	231
412.025	247
412.249	255
412.472	252
412.695	222
412.919	241
413.142	259
413.365	254
413.589	245
413.812	233
414.035	229
414.258	235
414.482	251
414.705	263
414.928	253
415.151	222
415.374	224
415.597	222
415.821	240
416.044	228
416.267	238
416.49	213
416.713	220
416.936	225
417.159	232
417.382	214
417.605	234
417.828	258
418.051	225
418.274	237
418.497	239
418.72	243
418.943	237
419.166	247
419.389	250
419.611	249
419.834	239
420.057	257
420.28	259
420.503	255
420.726	242
420.948	234
421.171	229
421.394	217
421.617	214
421.839	237
422.062	257
422.285	223
422.507	229
422.73	251
422.953	229
423.175	235
423.398	224
423.621	237
423.843	271
424.066	244
424.288	253
424.511	246
424.733	239
424.956	245
425.178	271
425.401	289
425.623	349
425.846	301
426.068	253
426.291	262
426.513	238
426.735	233
426.958	230
427.18	276
427.402	337
427.625	348
427.847	305
428.069	230
428.292	234
428.514	234
428.736	217
428.958	253
429.181	276
429.403	257
429.625	241
429.847	223
430.069	235
430.292	227
430.514	220
430.736	241
430.958	252
431.18	257
431.402	200
431.624	206
431.846	213
432.068	213
432.29	219
432.512	239
432.734	267
432.956	274
433.178	248
433.4	213
433.622	209
433.844	230
434.066	233
434.287	235
434.509	234
434.731	240
434.953	239
435.175	255
435.397	263
435.618	233
435.84	225
436.062	223
436.284	215
436.505	214
436.727	208
436.949	217
437.17	219
437.392	208
437.614	217
437.835	203
438.057	216
438.278	236
438.5	320
438.721	304
438.943	228
439.165	221
439.386	193
439.608	206
439.829	200
440.05	221
440.272	217
440.493	241
440.715	286
440.936	251
441.158	219
441.379	219
441.6	258
441.822	269
442.043	229
442.264	244
442.486	236
442.707	220
442.928	230
443.149	241
443.371	234
443.592	239
443.813	253
444.034	240
444.255	236
444.476	233
444.698	245
444.919	269
445.14	343
445.361	292
445.582	248
445.803	247
446.024	255
446.245	214
446.466	251
446.687	216
446.908	214
447.129	215
447.35	217
447.571	201
447.792	204
448.013	206
448.234	198
448.455	203
448.675	194
448.896	201
449.117	217
449.338	224
449.559	210
449.779	209
450	203
450.221	226
450.442	216
450.662	212
450.883	218
451.104	211
451.324	211
451.545	226
451.766	228
451.986	195
452.207	216
452.428	215
452.648	228
452.869	226
453.089	214
453.31	213
453.53	198
453.751	201
453.971	194
454.192	203
454.412	220
454.633	200
454.853	195
455.073	192
455.294	197
455.514	190
455.734	201
455.955	199
456.175	205
456.395	212
456.616	192
456.836	199
457.056	189
457.276	174
457.497	179
457.717	171
457.937	188
458.157	189
458.377	189
458.598	197
458.818	191
459.038	236
459.258	217
459.478	213
459.698	242
459.918	239
460.138	222
460.358	253
460.578	241
460.798	223
461.018	254
461.238	251
461.458	236
461.678	233
461.898	250
462.118	242
462.338	233
462.558	247
462.777	257
462.997	279
463.217	292
463.437	294
463.657	289
463.876	267
464.096	272
464.316	252
464.536	263
464.755	277
464.975	275
465.195	268
465.414	249
465.634	245
465.854	241
466.073	234
466.293	227
466.512	249
466.732	235
466.951	267
467.171	224
467.391	218
467.61	217
467.829	237
468.049	207
468.268	206
468.488	222
468.707	224
468.927	261
469.146	282
469.365	243
469.585	227
469.804	260
470.023	267
470.243	252
470.462	229
470.681	242
470.901	210
471.12	242
471.339	236
471.558	237
471.777	228
471.997	226
472.216	286
472.435	264
472.654	235
472.873	234
473.092	245
473.311	258
473.53	229
473.749	209
473.968	238
474.187	237
474.406	230
474.625	221
474.844	239
475.063	251
475.282	238
475.501	245
475.72	270
475.939	288
476.158	255
476.377	298
476.596	346
476.814	346
477.033	287
477.252	259
477.471	241
477.69	245
477.908	238
478.127	267
478.346	260
478.564	274
478.783	275
479.002	266
479.22	298
479.439	347
479.658	290
479.876	291
480.095	303
480.313	313
480.532	272
480.751	299
480.969	263
481.188	297
481.406	293
481.624	265
481.843	271
482.061	251
482.28	272
482.498	327
482.717	333
482.935	289
483.153	267
483.372	230
483.59	253
483.808	249
484.027	235
484.245	251
484.463	244
484.681	263
484.9	282
485.118	275
485.336	284
485.554	257
485.772	255
485.99	305
486.209	289
486.427	286
486.645	301
486.863	281
487.081	295
487.299	301
487.517	279
487.735	269
487.953	280
488.171	289
488.389	273
488.607	278
488.825	245
489.043	305
489.261	309
489.479	322
489.696	298
489.914	257
490.132	229
490.35	267
490.568	265
490.786	258
491.003	269
491.221	270
491.439	243
491.657	272
491.874	265
492.092	339
492.31	379
492.527	374
492.745	317
492.963	285
493.18	294
493.398	289
493.615	290
493.833	286
494.05	277
494.268	287
494.485	279
494.703	278
494.92	290
495.138	266
495.355	281
495.573	275
495.79	299
496.008	380
496.225	333
496.442	294
496.66	301
496.877	318
497.094	322
497.312	299
497.529	293
497.746	285
497.963	293
498.181	321
498.398	332
498.615	361
498.832	379
499.049	402
499.267	363
499.484	387
499.701	429
499.918	464
500.135	486
500.352	515
500.569	565
500.786	546
501.003	518
501.22	459
501.437	436
501.654	391
501.871	356
502.088	377
502.305	335
502.522	335
502.739	344
502.956	322
503.172	306
503.389	314
503.606	316
503.823	301
504.04	302
504.256	303
504.473	313
504.69	329
504.907	335
505.123	294
505.34	321
505.557	314
505.773	308
505.99	287
506.207	322
506.423	291
506.64	286
506.856	275
507.073	297
507.289	286
507.506	298
507.722	320
507.939	332
508.155	318
508.372	299
508.588	281
508.805	273
509.021	285
509.238	266
509.454	277
509.67	249
509.887	271
510.103	302
510.319	308
510.536	298
510.752	245
510.968	258
511.184	243
511.401	242
511.617	242
511.833	241
512.049	258
512.265	265
512.481	253
512.698	295
512.914	321
513.13	284
513.346	269
513.562	267
513.778	286
513.994	267
514.21	267
514.426	254
514.642	281
514.858	259
515.074	284
515.29	302
515.506	345
515.721	321
515.937	307
516.153	255
516.369	283
516.585	302
516.801	305
517.016	367
517.232	361
517.448	369
517.664	330
517.879	317
518.095	306
518.311	315
518.527	336
518.742	302
518.958	339
519.173	325
519.389	329
519.605	305
519.82	332
520.036	392
520.251	374
520.467	359
520.682	551
520.898	693
521.113	647
521.329	404
521.544	353
521.76	367
521.975	309
522.19	286
522.406	302
522.621	325
522.836	346
523.052	332
523.267	294
523.482	290
523.698	282
523.913	291
524.128	300
524.343	265
524.559	286
524.774	270
524.989	271
525.204	269
525.419	306
525.634	302
525.849	287
526.064	280
526.28	293
526.495	332
526.71	349
526.925	303
527.14	305
527.355	301
527.57	261
527.785	266
527.999	286
528.214	262
528.429	274
528.644	252
528.859	235
529.074	240
529.289	249
529.503	238
529.718	248
529.933	281
530.148	301
530.363	257
530.577	237
530.792	235
531.007	256
531.221	243
531.436	267
531.651	247
531.865	253
532.08	262
532.295	229
532.509	261
532.724	280
532.938	290
533.153	354
533.367	281
533.582	298
533.796	269
534.011	254
534.225	257
534.44	263
534.654	267
534.868	332
535.083	291
535.297	250
535.511	245
535.726	267
535.94	261
536.154	257
536.369	252
536.583	251
536.797	235
537.011	242
537.225	267
537.44	278
537.654	249
537.868	268
538.082	253
538.296	253
538.51	267
538.724	257
538.938	286
539.153	245
539.367	223
539.581	238
539.795	246
540.009	266
540.222	273
540.436	253
540.65	278
540.864	267
541.078	279
541.292	326
541.506	254
541.72	260
541.934	254
542.147	251
542.361	268
542.575	254
542.789	251
543.002	238
543.216	267
543.43	225
543.644	251
543.857	233
544.071	223
544.285	237
544.498	222
544.712	241
544.925	240
545.139	250
545.352	235
545.566	220
545.779	251
545.993	256
546.206	206
546.42	217
546.633	227
546.847	216
547.06	212
547.274	221
547.487	237
547.7	221
547.914	235
548.127	262
548.34	265
548.554	241
548.767	238
548.98	253
549.193	224
549.407	259
549.62	283
549.833	263
550.046	290
550.259	277
550.473	259
550.686	246
550.899	250
551.112	261
551.325	253
551.538	254
551.751	250
551.964	225
552.177	257
552.39	205
552.603	218
552.816	228
553.029	238
553.242	239
553.455	251
553.667	271
553.88	252
554.093	232
554.306	236
554.519	221
554.732	204
554.944	202
555.157	196
555.37	203
555.583	199
555.795	213
556.008	231
556.221	203
556.433	222
556.646	205
556.859	219
557.071	204
557.284	209
557.496	218
557.709	224
557.921	218
558.134	210
558.346	212
558.559	206
558.771	201
558.984	203
559.196	210
559.409	191
559.621	187
559.833	206
560.046	208
560.258	211
560.47	202
560.683	205
560.895	196
561.107	190
561.32	185
561.532	200
561.744	195
561.956	192
562.168	173
562.381	193
562.593	198
562.805	207
563.017	188
563.229	196
563.441	192
563.653	189
563.865	196
564.077	197
564.289	174
