Data from NickelSpatula_HRD10591_16-36-25-126.txt Node
Date: Mon Jul 22 16:36:25 EDT 2019
User: cochatt
Spectrometer: HR+D1059
Trigger mode: 1
Integration Time (sec): 1.000000E-1
Scans to average: 1
Electric dark correction enabled: true
Nonlinearity correction enabled: false
Boxcar width: 0
XAxis mode: Wavelengths
Number of Pixels in Spectrum: 2048
>>>>>Begin Spectral Data<<<<<
223.165	-15.56
223.4	-15.56
223.635	-15.56
223.869	-14.56
224.104	-24.56
224.338	-12.56
224.573	-12.56
224.808	-15.56
225.042	-6.56
225.277	-7.56
225.511	-2.56
225.746	2.44
225.98	13.44
226.215	14.44
226.449	19.44
226.683	15.44
226.918	18.44
227.152	28.44
227.387	42.44
227.621	42.44
227.856	46.44
228.09	58.44
228.324	70.44
228.559	45.44
228.793	72.44
229.027	74.44
229.262	76.44
229.496	71.44
229.73	75.44
229.964	90.44
230.199	88.44
230.433	73.44
230.667	95.44
230.901	97.44
231.136	89.44
231.37	85.44
231.604	94.44
231.838	100.44
232.072	98.44
232.306	89.44
232.541	88.44
232.775	94.44
233.009	90.44
233.243	110.44
233.477	97.44
233.711	97.44
233.945	110.44
234.179	106.44
234.413	111.44
234.647	108.44
234.881	117.44
235.115	102.44
235.349	108.44
235.583	110.44
235.817	113.44
236.051	105.44
236.285	113.44
236.519	108.44
236.753	106.44
236.987	99.44
237.221	97.44
237.455	111.44
237.689	96.44
237.922	109.44
238.156	107.44
238.39	107.44
238.624	116.44
238.858	113.44
239.091	111.44
239.325	112.44
239.559	99.44
239.793	106.44
240.027	115.44
240.26	117.44
240.494	113.44
240.728	127.44
240.961	130.44
241.195	110.44
241.429	116.44
241.662	121.44
241.896	121.44
242.13	100.44
242.363	109.44
242.597	106.44
242.83	112.44
243.064	110.44
243.298	121.44
243.531	119.44
243.765	126.44
243.998	123.44
244.232	109.44
244.465	124.44
244.699	114.44
244.932	114.44
245.166	129.44
245.399	108.44
245.633	118.44
245.866	130.44
246.099	132.44
246.333	121.44
246.566	129.44
246.8	120.44
247.033	109.44
247.266	119.44
247.5	112.44
247.733	100.44
247.966	120.44
248.2	137.44
248.433	125.44
248.666	125.44
248.899	120.44
249.133	109.44
249.366	132.44
249.599	154.44
249.832	134.44
250.066	128.44
250.299	113.44
250.532	123.44
250.765	148.44
250.998	128.44
251.231	125.44
251.465	124.44
251.698	140.44
251.931	128.44
252.164	136.44
252.397	155.44
252.63	148.44
252.863	149.44
253.096	158.44
253.329	148.44
253.562	156.44
253.795	160.44
254.028	166.44
254.261	162.44
254.494	180.44
254.727	154.44
254.96	157.44
255.193	146.44
255.426	143.44
255.659	137.44
255.892	128.44
256.124	134.44
256.357	149.44
256.59	154.44
256.823	151.44
257.056	142.44
257.289	132.44
257.521	123.44
257.754	154.44
257.987	145.44
258.22	159.44
258.452	137.44
258.685	154.44
258.918	157.44
259.151	153.44
259.383	177.44
259.616	169.44
259.849	168.44
260.081	171.44
260.314	187.44
260.547	168.44
260.779	180.44
261.012	185.44
261.244	178.44
261.477	180.44
261.71	174.44
261.942	162.44
262.175	168.44
262.407	168.44
262.64	161.44
262.872	175.44
263.105	177.44
263.337	189.44
263.57	172.44
263.802	146.44
264.035	140.44
264.267	136.44
264.499	123.44
264.732	118.44
264.964	121.44
265.197	126.44
265.429	121.44
265.661	122.44
265.894	134.44
266.126	137.44
266.358	154.44
266.591	167.44
266.823	174.44
267.055	182.44
267.287	160.44
267.52	165.44
267.752	148.44
267.984	160.44
268.216	172.44
268.448	153.44
268.681	144.44
268.913	168.44
269.145	160.44
269.377	170.44
269.609	168.44
269.841	157.44
270.073	161.44
270.306	171.44
270.538	177.44
270.77	170.44
271.002	168.44
271.234	174.44
271.466	168.44
271.698	167.44
271.93	176.44
272.162	163.44
272.394	171.44
272.626	162.44
272.858	175.44
273.09	167.44
273.322	162.44
273.553	148.44
273.785	188.44
274.017	190.44
274.249	209.44
274.481	227.44
274.713	233.44
274.945	266.44
275.176	250.44
275.408	258.44
275.64	250.44
275.872	233.44
276.104	203.44
276.335	197.44
276.567	196.44
276.799	186.44
277.031	199.44
277.262	188.44
277.494	159.44
277.726	151.44
277.957	152.44
278.189	167.44
278.421	179.44
278.652	164.44
278.884	156.44
279.115	173.44
279.347	150.44
279.579	161.44
279.81	156.44
280.042	129.44
280.273	138.44
280.505	138.44
280.736	149.44
280.968	128.44
281.199	148.44
281.431	166.44
281.662	162.44
281.894	155.44
282.125	168.44
282.356	165.44
282.588	161.44
282.819	153.44
283.051	169.44
283.282	178.44
283.513	201.44
283.745	220.44
283.976	220.44
284.207	184.44
284.439	196.44
284.67	199.44
284.901	195.44
285.132	193.44
285.364	201.44
285.595	207.44
285.826	217.44
286.057	214.44
286.288	202.44
286.52	193.44
286.751	201.44
286.982	188.44
287.213	190.44
287.444	195.44
287.675	206.44
287.906	192.44
288.138	173.44
288.369	152.44
288.6	160.44
288.831	170.44
289.062	175.44
289.293	188.44
289.524	184.44
289.755	199.44
289.986	156.44
290.217	162.44
290.448	145.44
290.679	125.44
290.91	116.44
291.141	123.44
291.371	121.44
291.602	137.44
291.833	143.44
292.064	121.44
292.295	152.44
292.526	159.44
292.757	173.44
292.987	193.44
293.218	177.44
293.449	192.44
293.68	202.44
293.91	192.44
294.141	194.44
294.372	169.44
294.603	159.44
294.833	169.44
295.064	185.44
295.295	184.44
295.525	154.44
295.756	154.44
295.987	138.44
296.217	128.44
296.448	140.44
296.679	137.44
296.909	159.44
297.14	158.44
297.37	174.44
297.601	161.44
297.831	153.44
298.062	150.44
298.292	154.44
298.523	175.44
298.753	180.44
298.984	157.44
299.214	143.44
299.445	129.44
299.675	134.44
299.905	146.44
300.136	132.44
300.366	136.44
300.597	149.44
300.827	146.44
301.057	130.44
301.288	140.44
301.518	144.44
301.748	155.44
301.979	149.44
302.209	148.44
302.439	146.44
302.669	148.44
302.9	148.44
303.13	156.44
303.36	148.44
303.59	128.44
303.82	140.44
304.051	160.44
304.281	148.44
304.511	157.44
304.741	153.44
304.971	142.44
305.201	155.44
305.431	139.44
305.661	137.44
305.891	124.44
306.121	152.44
306.352	117.44
306.582	110.44
306.812	134.44
307.042	145.44
307.272	123.44
307.502	126.44
307.731	128.44
307.961	128.44
308.191	119.44
308.421	123.44
308.651	119.44
308.881	133.44
309.111	118.44
309.341	112.44
309.571	120.44
309.8	132.44
310.03	130.44
310.26	116.44
310.49	118.44
310.72	113.44
310.949	128.44
311.179	132.44
311.409	129.44
311.639	142.44
311.868	161.44
312.098	180.44
312.328	196.44
312.557	194.44
312.787	191.44
313.017	181.44
313.246	205.44
313.476	183.44
313.706	167.44
313.935	150.44
314.165	133.44
314.394	136.44
314.624	132.44
314.853	125.44
315.083	125.44
315.312	130.44
315.542	129.44
315.771	128.44
316.001	135.44
316.23	120.44
316.46	124.44
316.689	115.44
316.919	118.44
317.148	129.44
317.377	137.44
317.607	136.44
317.836	135.44
318.065	132.44
318.295	141.44
318.524	130.44
318.753	126.44
318.983	112.44
319.212	125.44
319.441	117.44
319.67	140.44
319.9	152.44
320.129	140.44
320.358	126.44
320.587	141.44
320.816	144.44
321.046	143.44
321.275	152.44
321.504	157.44
321.733	136.44
321.962	139.44
322.191	145.44
322.42	143.44
322.649	134.44
322.878	135.44
323.108	144.44
323.337	135.44
323.566	137.44
323.795	145.44
324.024	125.44
324.253	144.44
324.482	134.44
324.71	129.44
324.939	136.44
325.168	130.44
325.397	120.44
325.626	126.44
325.855	129.44
326.084	120.44
326.313	119.44
326.542	129.44
326.77	134.44
326.999	119.44
327.228	127.44
327.457	143.44
327.686	124.44
327.914	118.44
328.143	136.44
328.372	107.44
328.6	124.44
328.829	117.44
329.058	121.44
329.287	118.44
329.515	125.44
329.744	127.44
329.972	129.44
330.201	116.44
330.43	124.44
330.658	132.44
330.887	148.44
331.115	125.44
331.344	128.44
331.572	136.44
331.801	106.44
332.03	110.44
332.258	126.44
332.486	122.44
332.715	134.44
332.943	124.44
333.172	136.44
333.4	117.44
333.629	136.44
333.857	127.44
334.085	133.44
334.314	129.44
334.542	136.44
334.771	125.44
334.999	124.44
335.227	124.44
335.455	132.44
335.684	130.44
335.912	142.44
336.14	146.44
336.369	132.44
336.597	158.44
336.825	166.44
337.053	179.44
337.281	136.44
337.51	121.44
337.738	126.44
337.966	133.44
338.194	135.44
338.422	125.44
338.65	116.44
338.878	125.44
339.106	127.44
339.334	130.44
339.562	144.44
339.79	133.44
340.018	125.44
340.246	132.44
340.474	142.44
340.702	159.44
340.93	160.44
341.158	115.44
341.386	114.44
341.614	130.44
341.842	120.44
342.07	126.44
342.298	141.44
342.526	150.44
342.754	152.44
342.981	142.44
343.209	140.44
343.437	141.44
343.665	139.44
343.893	133.44
344.12	146.44
344.348	171.44
344.576	143.44
344.804	149.44
345.031	134.44
345.259	110.44
345.487	133.44
345.714	117.44
345.942	135.44
346.17	138.44
346.397	147.44
346.625	132.44
346.853	130.44
347.08	136.44
347.308	135.44
347.535	152.44
347.763	140.44
347.99	128.44
348.218	138.44
348.445	122.44
348.673	133.44
348.9	138.44
349.128	139.44
349.355	136.44
349.583	123.44
349.81	132.44
350.037	146.44
350.265	130.44
350.492	121.44
350.72	105.44
350.947	134.44
351.174	126.44
351.402	136.44
351.629	130.44
351.856	139.44
352.083	133.44
352.311	142.44
352.538	147.44
352.765	158.44
352.992	119.44
353.22	140.44
353.447	135.44
353.674	144.44
353.901	123.44
354.128	131.44
354.355	126.44
354.583	129.44
354.81	142.44
355.037	139.44
355.264	125.44
355.491	134.44
355.718	137.44
355.945	138.44
356.172	134.44
356.399	129.44
356.626	142.44
356.853	156.44
357.08	180.44
357.307	166.44
357.534	156.44
357.761	154.44
357.988	175.44
358.215	184.44
358.441	173.44
358.668	173.44
358.895	146.44
359.122	144.44
359.349	134.44
359.576	149.44
359.802	122.44
360.029	140.44
360.256	130.44
360.483	145.44
360.709	162.44
360.936	157.44
361.163	151.44
361.39	142.44
361.616	126.44
361.843	144.44
362.07	137.44
362.296	151.44
362.523	129.44
362.749	128.44
362.976	128.44
363.203	146.44
363.429	142.44
363.656	131.44
363.882	136.44
364.109	132.44
364.335	133.44
364.562	135.44
364.788	136.44
365.015	136.44
365.241	141.44
365.468	154.44
365.694	114.44
365.92	112.44
366.147	107.44
366.373	127.44
366.599	129.44
366.826	118.44
367.052	118.44
367.278	119.44
367.505	118.44
367.731	130.44
367.957	128.44
368.184	128.44
368.41	127.44
368.636	130.44
368.862	124.44
369.089	136.44
369.315	121.44
369.541	127.44
369.767	120.44
369.993	124.44
370.219	118.44
370.445	113.44
370.672	128.44
370.898	138.44
371.124	139.44
371.35	116.44
371.576	130.44
371.802	134.44
372.028	128.44
372.254	126.44
372.48	123.44
372.706	128.44
372.932	134.44
373.158	115.44
373.384	152.44
373.61	183.44
373.835	160.44
374.061	153.44
374.287	146.44
374.513	159.44
374.739	159.44
374.965	174.44
375.191	162.44
375.416	109.44
375.642	116.44
375.868	157.44
376.094	145.44
376.319	138.44
376.545	135.44
376.771	148.44
376.997	124.44
377.222	120.44
377.448	106.44
377.674	124.44
377.899	106.44
378.125	111.44
378.35	125.44
378.576	126.44
378.802	128.44
379.027	122.44
379.253	126.44
379.478	112.44
379.704	128.44
379.929	129.44
380.155	135.44
380.38	127.44
380.606	123.44
380.831	141.44
381.057	135.44
381.282	132.44
381.507	141.44
381.733	179.44
381.958	155.44
382.184	165.44
382.409	159.44
382.634	166.44
382.86	182.44
383.085	138.44
383.31	133.44
383.535	143.44
383.761	148.44
383.986	138.44
384.211	147.44
384.436	152.44
384.662	163.44
384.887	144.44
385.112	113.44
385.337	123.44
385.562	126.44
385.787	134.44
386.013	169.44
386.238	130.44
386.463	138.44
386.688	122.44
386.913	128.44
387.138	128.44
387.363	136.44
387.588	136.44
387.813	147.44
388.038	134.44
388.263	132.44
388.488	142.44
388.713	124.44
388.938	135.44
389.163	131.44
389.387	134.44
389.612	128.44
389.837	123.44
390.062	122.44
390.287	118.44
390.512	123.44
390.736	128.44
390.961	121.44
391.186	136.44
391.411	128.44
391.636	121.44
391.86	127.44
392.085	132.44
392.31	130.44
392.534	140.44
392.759	133.44
392.984	140.44
393.208	130.44
393.433	129.44
393.658	127.44
393.882	118.44
394.107	128.44
394.331	118.44
394.556	122.44
394.78	104.44
395.005	130.44
395.229	134.44
395.454	128.44
395.678	127.44
395.903	113.44
396.127	124.44
396.352	126.44
396.576	129.44
396.801	153.44
397.025	139.44
397.249	135.44
397.474	130.44
397.698	126.44
397.922	142.44
398.147	144.44
398.371	129.44
398.595	129.44
398.82	135.44
399.044	127.44
399.268	132.44
399.492	154.44
399.717	130.44
399.941	132.44
400.165	135.44
400.389	138.44
400.613	134.44
400.837	122.44
401.062	124.44
401.286	113.44
401.51	142.44
401.734	119.44
401.958	120.44
402.182	129.44
402.406	123.44
402.63	131.44
402.854	120.44
403.078	137.44
403.302	160.44
403.526	161.44
403.75	153.44
403.974	150.44
404.198	157.44
404.422	152.44
404.645	148.44
404.869	156.44
405.093	135.44
405.317	125.44
405.541	146.44
405.765	147.44
405.988	132.44
406.212	152.44
406.436	136.44
406.66	153.44
406.883	152.44
407.107	140.44
407.331	137.44
407.555	149.44
407.778	138.44
408.002	150.44
408.226	125.44
408.449	134.44
408.673	132.44
408.896	147.44
409.12	125.44
409.344	126.44
409.567	128.44
409.791	140.44
410.014	133.44
410.238	104.44
410.461	121.44
410.685	124.44
410.908	116.44
411.132	127.44
411.355	142.44
411.578	125.44
411.802	143.44
412.025	125.44
412.249	126.44
412.472	129.44
412.695	113.44
412.919	134.44
413.142	140.44
413.365	130.44
413.589	129.44
413.812	136.44
414.035	129.44
414.258	132.44
414.482	138.44
414.705	143.44
414.928	130.44
415.151	126.44
415.374	130.44
415.597	123.44
415.821	112.44
416.044	120.44
416.267	124.44
416.49	138.44
416.713	126.44
416.936	131.44
417.159	129.44
417.382	132.44
417.605	140.44
417.828	133.44
418.051	137.44
418.274	141.44
418.497	134.44
418.72	108.44
418.943	156.44
419.166	143.44
419.389	128.44
419.611	135.44
419.834	138.44
420.057	144.44
420.28	136.44
420.503	137.44
420.726	124.44
420.948	124.44
421.171	136.44
421.394	129.44
421.617	128.44
421.839	118.44
422.062	128.44
422.285	122.44
422.507	142.44
422.73	131.44
422.953	136.44
423.175	134.44
423.398	121.44
423.621	134.44
423.843	146.44
424.066	126.44
424.288	130.44
424.511	130.44
424.733	124.44
424.956	125.44
425.178	136.44
425.401	146.44
425.623	159.44
425.846	148.44
426.068	132.44
426.291	137.44
426.513	149.44
426.735	131.44
426.958	128.44
427.18	150.44
427.402	162.44
427.625	168.44
427.847	158.44
428.069	126.44
428.292	130.44
428.514	133.44
428.736	124.44
428.958	132.44
429.181	144.44
429.403	126.44
429.625	137.44
429.847	118.44
430.069	134.44
430.292	117.44
430.514	132.44
430.736	137.44
430.958	136.44
431.18	136.44
431.402	100.44
431.624	120.44
431.846	133.44
432.068	113.44
432.29	112.44
432.512	152.44
432.734	148.44
432.956	133.44
433.178	129.44
433.4	115.44
433.622	115.44
433.844	113.44
434.066	140.44
434.287	128.44
434.509	126.44
434.731	142.44
434.953	124.44
435.175	122.44
435.397	128.44
435.618	128.44
435.84	121.44
436.062	133.44
436.284	128.44
436.505	115.44
436.727	129.44
436.949	119.44
437.17	120.44
437.392	128.44
437.614	124.44
437.835	130.44
438.057	126.44
438.278	141.44
438.5	147.44
438.721	170.44
438.943	126.44
439.165	113.44
439.386	122.44
439.608	126.44
439.829	124.44
440.05	122.44
440.272	112.44
440.493	126.44
440.715	142.44
440.936	156.44
441.158	121.44
441.379	126.44
441.6	120.44
441.822	141.44
442.043	130.44
442.264	129.44
442.486	120.44
442.707	126.44
442.928	105.44
443.149	126.44
443.371	132.44
443.592	132.44
443.813	136.44
444.034	115.44
444.255	114.44
444.476	128.44
444.698	126.44
444.919	147.44
445.14	272.44
445.361	198.44
445.582	139.44
445.803	136.44
446.024	130.44
446.245	144.44
446.466	122.44
446.687	143.44
446.908	134.44
447.129	132.44
447.35	122.44
447.571	136.44
447.792	120.44
448.013	142.44
448.234	110.44
448.455	103.44
448.675	122.44
448.896	118.44
449.117	143.44
449.338	129.44
449.559	123.44
449.779	132.44
450	131.44
450.221	118.44
450.442	134.44
450.662	108.44
450.883	125.44
451.104	134.44
451.324	126.44
451.545	130.44
451.766	113.44
451.986	120.44
452.207	120.44
452.428	119.44
452.648	126.44
452.869	128.44
453.089	131.44
453.31	130.44
453.53	122.44
453.751	105.44
453.971	120.44
454.192	120.44
454.412	117.44
454.633	117.44
454.853	128.44
455.073	128.44
455.294	120.44
455.514	106.44
455.734	132.44
455.955	146.44
456.175	128.44
456.395	112.44
456.616	130.44
456.836	111.44
457.056	112.44
457.276	117.44
457.497	107.44
457.717	112.44
457.937	106.44
458.157	108.44
458.377	126.44
458.598	120.44
458.818	121.44
459.038	117.44
459.258	122.44
459.478	123.44
459.698	142.44
459.918	125.44
460.138	128.44
460.358	119.44
460.578	121.44
460.798	125.44
461.018	117.44
461.238	130.44
461.458	124.44
461.678	125.44
461.898	130.44
462.118	119.44
462.338	137.44
462.558	129.44
462.777	132.44
462.997	121.44
463.217	137.44
463.437	144.44
463.657	136.44
463.876	126.44
464.096	139.44
464.316	132.44
464.536	147.44
464.755	143.44
464.975	139.44
465.195	131.44
465.414	140.44
465.634	137.44
465.854	128.44
466.073	130.44
466.293	122.44
466.512	130.44
466.732	128.44
466.951	149.44
467.171	143.44
467.391	123.44
467.61	142.44
467.829	134.44
468.049	134.44
468.268	124.44
468.488	136.44
468.707	118.44
468.927	137.44
469.146	140.44
469.365	141.44
469.585	134.44
469.804	124.44
470.023	144.44
470.243	137.44
470.462	137.44
470.681	130.44
470.901	119.44
471.12	141.44
471.339	139.44
471.558	137.44
471.777	133.44
471.997	143.44
472.216	136.44
472.435	152.44
472.654	140.44
472.873	143.44
473.092	132.44
473.311	140.44
473.53	129.44
473.749	140.44
473.968	124.44
474.187	134.44
474.406	120.44
474.625	137.44
474.844	138.44
475.063	135.44
475.282	139.44
475.501	149.44
475.72	150.44
475.939	163.44
476.158	141.44
476.377	149.44
476.596	172.44
476.814	177.44
477.033	160.44
477.252	150.44
477.471	137.44
477.69	137.44
477.908	149.44
478.127	136.44
478.346	146.44
478.564	161.44
478.783	132.44
479.002	140.44
479.22	173.44
479.439	167.44
479.658	159.44
479.876	151.44
480.095	136.44
480.313	157.44
480.532	138.44
480.751	128.44
480.969	149.44
481.188	147.44
481.406	167.44
481.624	146.44
481.843	133.44
482.061	131.44
482.28	155.44
482.498	164.44
482.717	172.44
482.935	152.44
483.153	138.44
483.372	136.44
483.59	125.44
483.808	138.44
484.027	137.44
484.245	133.44
484.463	132.44
484.681	146.44
484.9	144.44
485.118	153.44
485.336	138.44
485.554	147.44
485.772	144.44
485.99	141.44
486.209	146.44
486.427	133.44
486.645	143.44
486.863	153.44
487.081	167.44
487.299	150.44
487.517	174.44
487.735	143.44
487.953	146.44
488.171	155.44
488.389	145.44
488.607	144.44
488.825	143.44
489.043	156.44
489.261	183.44
489.479	170.44
489.696	143.44
489.914	145.44
490.132	142.44
490.35	148.44
490.568	135.44
490.786	146.44
491.003	135.44
491.221	143.44
491.439	154.44
491.657	149.44
491.874	158.44
492.092	174.44
492.31	176.44
492.527	202.44
492.745	159.44
492.963	161.44
493.18	161.44
493.398	148.44
493.615	153.44
493.833	148.44
494.05	149.44
494.268	156.44
494.485	161.44
494.703	153.44
494.92	136.44
495.138	144.44
495.355	166.44
495.573	161.44
495.79	170.44
496.008	203.44
496.225	169.44
496.442	148.44
496.66	146.44
496.877	152.44
497.094	150.44
497.312	149.44
497.529	167.44
497.746	150.44
497.963	159.44
498.181	157.44
498.398	156.44
498.615	160.44
498.832	175.44
499.049	171.44
499.267	186.44
499.484	167.44
499.701	173.44
499.918	169.44
500.135	192.44
500.352	187.44
500.569	182.44
500.786	194.44
501.003	197.44
501.22	160.44
501.437	171.44
501.654	175.44
501.871	175.44
502.088	170.44
502.305	148.44
502.522	160.44
502.739	173.44
