Data from NickelSpatula_HRD10591_16-33-27-126.txt Node
Date: Mon Jul 22 16:33:27 EDT 2019
User: cochatt
Spectrometer: HR+D1059
Trigger mode: 1
Integration Time (sec): 1.000000E-1
Scans to average: 1
Electric dark correction enabled: true
Nonlinearity correction enabled: false
Boxcar width: 0
XAxis mode: Wavelengths
Number of Pixels in Spectrum: 2048
>>>>>Begin Spectral Data<<<<<
223.165	-13.44
223.4	-13.44
223.635	-13.44
223.869	-16.44
224.104	-21.44
224.338	-7.44
224.573	-17.44
224.808	-17.44
225.042	6.56
225.277	-16.44
225.511	-13.44
225.746	20.56
225.98	9.56
226.215	-8.44
226.449	10.56
226.683	26.56
226.918	24.56
227.152	33.56
227.387	40.56
227.621	32.56
227.856	45.56
228.09	40.56
228.324	41.56
228.559	52.56
228.793	67.56
229.027	75.56
229.262	88.56
229.496	91.56
229.73	84.56
229.964	88.56
230.199	87.56
230.433	90.56
230.667	101.56
230.901	99.56
231.136	96.56
231.37	96.56
231.604	98.56
231.838	111.56
232.072	102.56
232.306	116.56
232.541	99.56
232.775	106.56
233.009	117.56
233.243	112.56
233.477	99.56
233.711	114.56
233.945	118.56
234.179	95.56
234.413	117.56
234.647	117.56
234.881	122.56
235.115	125.56
235.349	116.56
235.583	122.56
235.817	112.56
236.051	114.56
236.285	128.56
236.519	158.56
236.753	140.56
236.987	116.56
237.221	131.56
237.455	116.56
237.689	152.56
237.922	135.56
238.156	147.56
238.39	139.56
238.624	154.56
238.858	142.56
239.091	132.56
239.325	135.56
239.559	127.56
239.793	127.56
240.027	160.56
240.26	158.56
240.494	151.56
240.728	152.56
240.961	160.56
241.195	164.56
241.429	154.56
241.662	155.56
241.896	134.56
242.13	136.56
242.363	127.56
242.597	126.56
242.83	148.56
243.064	135.56
243.298	164.56
243.531	169.56
243.765	164.56
243.998	168.56
244.232	168.56
244.465	144.56
244.699	150.56
244.932	163.56
245.166	175.56
245.399	164.56
245.633	144.56
245.866	152.56
246.099	160.56
246.333	176.56
246.566	166.56
246.8	191.56
247.033	186.56
247.266	167.56
247.5	174.56
247.733	183.56
247.966	168.56
248.2	156.56
248.433	178.56
248.666	174.56
248.899	187.56
249.133	193.56
249.366	195.56
249.599	206.56
249.832	213.56
250.066	207.56
250.299	191.56
250.532	196.56
250.765	192.56
250.998	179.56
251.231	194.56
251.465	174.56
251.698	190.56
251.931	201.56
252.164	188.56
252.397	205.56
252.63	217.56
252.863	235.56
253.096	255.56
253.329	248.56
253.562	262.56
253.795	252.56
254.028	290.56
254.261	295.56
254.494	241.56
254.727	238.56
254.96	243.56
255.193	258.56
255.426	250.56
255.659	210.56
255.892	185.56
256.124	208.56
256.357	231.56
256.59	278.56
256.823	230.56
257.056	219.56
257.289	187.56
257.521	208.56
257.754	235.56
257.987	272.56
258.22	258.56
258.452	224.56
258.685	234.56
258.918	254.56
259.151	238.56
259.383	272.56
259.616	307.56
259.849	294.56
260.081	302.56
260.314	345.56
260.547	287.56
260.779	283.56
261.012	348.56
261.244	307.56
261.477	307.56
261.71	304.56
261.942	258.56
262.175	265.56
262.407	270.56
262.64	268.56
262.872	293.56
263.105	328.56
263.337	344.56
263.57	309.56
263.802	220.56
264.035	203.56
264.267	209.56
264.499	184.56
264.732	192.56
264.964	167.56
265.197	191.56
265.429	191.56
265.661	194.56
265.894	198.56
266.126	206.56
266.358	223.56
266.591	275.56
266.823	315.56
267.055	298.56
267.287	259.56
267.52	271.56
267.752	262.56
267.984	286.56
268.216	278.56
268.448	232.56
268.681	251.56
268.913	262.56
269.145	269.56
269.377	267.56
269.609	285.56
269.841	238.56
270.073	295.56
270.306	276.56
270.538	303.56
270.77	309.56
271.002	298.56
271.234	296.56
271.466	313.56
271.698	321.56
271.93	286.56
272.162	280.56
272.394	293.56
272.626	276.56
272.858	298.56
273.09	295.56
273.322	266.56
273.553	248.56
273.785	298.56
274.017	354.56
274.249	426.56
274.481	426.56
274.713	433.56
274.945	532.56
275.176	539.56
275.408	490.56
275.64	448.56
275.872	450.56
276.104	409.56
276.335	383.56
276.567	362.56
276.799	363.56
277.031	381.56
277.262	321.56
277.494	250.56
277.726	224.56
277.957	267.56
278.189	294.56
278.421	287.56
278.652	294.56
278.884	270.56
279.115	272.56
279.347	253.56
279.579	260.56
279.81	261.56
280.042	266.56
280.273	249.56
280.505	247.56
280.736	218.56
280.968	217.56
281.199	234.56
281.431	265.56
281.662	246.56
281.894	244.56
282.125	276.56
282.356	263.56
282.588	288.56
282.819	256.56
283.051	281.56
283.282	315.56
283.513	367.56
283.745	406.56
283.976	372.56
284.207	354.56
284.439	366.56
284.67	363.56
284.901	330.56
285.132	357.56
285.364	373.56
285.595	351.56
285.826	370.56
286.057	378.56
286.288	376.56
286.52	371.56
286.751	392.56
286.982	418.56
287.213	354.56
287.444	356.56
287.675	338.56
287.906	334.56
288.138	304.56
288.369	299.56
288.6	266.56
288.831	277.56
289.062	317.56
289.293	358.56
289.524	330.56
289.755	311.56
289.986	329.56
290.217	285.56
290.448	252.56
290.679	236.56
290.91	204.56
291.141	206.56
291.371	214.56
291.602	225.56
291.833	217.56
292.064	213.56
292.295	247.56
292.526	271.56
292.757	289.56
292.987	318.56
293.218	312.56
293.449	337.56
293.68	355.56
293.91	311.56
294.141	331.56
294.372	306.56
294.603	286.56
294.833	321.56
295.064	377.56
295.295	360.56
295.525	282.56
295.756	258.56
295.987	228.56
296.217	221.56
296.448	228.56
296.679	222.56
296.909	250.56
297.14	273.56
297.37	298.56
297.601	259.56
297.831	232.56
298.062	252.56
298.292	290.56
298.523	295.56
298.753	337.56
298.984	303.56
299.214	261.56
299.445	231.56
299.675	212.56
299.905	231.56
300.136	215.56
300.366	252.56
300.597	239.56
300.827	220.56
301.057	230.56
301.288	231.56
301.518	232.56
301.748	266.56
301.979	264.56
302.209	271.56
302.439	261.56
302.669	263.56
302.9	239.56
303.13	250.56
303.36	235.56
303.59	236.56
303.82	244.56
304.051	256.56
304.281	278.56
304.511	271.56
304.741	244.56
304.971	240.56
305.201	262.56
305.431	258.56
305.661	218.56
305.891	216.56
306.121	223.56
306.352	234.56
306.582	208.56
306.812	203.56
307.042	191.56
307.272	196.56
307.502	176.56
307.731	197.56
307.961	222.56
308.191	205.56
308.421	183.56
308.651	177.56
308.881	187.56
309.111	187.56
309.341	186.56
309.571	206.56
309.8	226.56
310.03	223.56
310.26	204.56
310.49	201.56
310.72	194.56
310.949	198.56
311.179	204.56
311.409	202.56
311.639	224.56
311.868	280.56
312.098	348.56
312.328	362.56
312.557	347.56
312.787	362.56
313.017	304.56
313.246	328.56
313.476	385.56
313.706	328.56
313.935	266.56
314.165	247.56
314.394	210.56
314.624	208.56
314.853	228.56
315.083	231.56
315.312	211.56
315.542	223.56
315.771	223.56
316.001	202.56
316.23	178.56
316.46	189.56
316.689	203.56
316.919	200.56
317.148	182.56
317.377	191.56
317.607	187.56
317.836	207.56
318.065	234.56
318.295	249.56
318.524	243.56
318.753	212.56
318.983	218.56
319.212	214.56
319.441	191.56
319.67	234.56
319.9	260.56
320.129	224.56
320.358	207.56
320.587	213.56
320.816	212.56
321.046	254.56
321.275	278.56
321.504	272.56
321.733	245.56
321.962	243.56
322.191	256.56
322.42	226.56
322.649	230.56
322.878	252.56
323.108	251.56
323.337	225.56
323.566	228.56
323.795	230.56
324.024	231.56
324.253	216.56
324.482	215.56
324.71	227.56
324.939	249.56
325.168	227.56
325.397	202.56
325.626	212.56
325.855	193.56
326.084	208.56
326.313	196.56
326.542	195.56
326.77	198.56
326.999	203.56
327.228	186.56
327.457	202.56
327.686	211.56
327.914	193.56
328.143	207.56
328.372	187.56
328.6	193.56
328.829	183.56
329.058	200.56
329.287	195.56
329.515	186.56
329.744	190.56
329.972	190.56
330.201	191.56
330.43	182.56
330.658	195.56
330.887	234.56
331.115	212.56
331.344	206.56
331.572	215.56
331.801	205.56
332.03	192.56
332.258	214.56
332.486	207.56
332.715	211.56
332.943	211.56
333.172	212.56
333.4	198.56
333.629	231.56
333.857	255.56
334.085	237.56
334.314	243.56
334.542	228.56
334.771	205.56
334.999	208.56
335.227	198.56
335.455	212.56
335.684	239.56
335.912	275.56
336.14	252.56
336.369	250.56
336.597	233.56
336.825	270.56
337.053	307.56
337.281	251.56
337.51	210.56
337.738	208.56
337.966	229.56
338.194	242.56
338.422	229.56
338.65	224.56
338.878	188.56
339.106	208.56
339.334	223.56
339.562	229.56
339.79	213.56
340.018	192.56
340.246	220.56
340.474	260.56
340.702	248.56
340.93	258.56
341.158	256.56
341.386	217.56
341.614	230.56
341.842	222.56
342.07	237.56
342.298	283.56
342.526	279.56
342.754	252.56
342.981	224.56
343.209	213.56
343.437	226.56
343.665	246.56
343.893	266.56
344.12	274.56
344.348	318.56
344.576	290.56
344.804	242.56
345.031	244.56
345.259	219.56
345.487	219.56
345.714	220.56
345.942	210.56
346.17	268.56
346.397	246.56
346.625	216.56
346.853	213.56
347.08	202.56
347.308	212.56
347.535	238.56
347.763	244.56
347.99	227.56
348.218	194.56
348.445	224.56
348.673	216.56
348.9	218.56
349.128	215.56
349.355	223.56
349.583	223.56
349.81	214.56
350.037	195.56
350.265	189.56
350.492	183.56
350.72	175.56
350.947	178.56
351.174	189.56
351.402	201.56
351.629	203.56
351.856	186.56
352.083	195.56
352.311	208.56
352.538	219.56
352.765	242.56
352.992	248.56
353.22	204.56
353.447	234.56
353.674	216.56
353.901	208.56
354.128	219.56
354.355	218.56
354.583	216.56
354.81	220.56
355.037	232.56
355.264	205.56
355.491	227.56
355.718	245.56
355.945	228.56
356.172	242.56
356.399	215.56
356.626	266.56
356.853	295.56
357.08	332.56
357.307	329.56
357.534	268.56
357.761	266.56
357.988	319.56
358.215	347.56
358.441	351.56
358.668	311.56
358.895	319.56
359.122	256.56
359.349	221.56
359.576	268.56
359.802	228.56
360.029	220.56
360.256	206.56
360.483	254.56
360.709	310.56
360.936	342.56
361.163	299.56
361.39	220.56
361.616	222.56
361.843	239.56
362.07	287.56
362.296	253.56
362.523	213.56
362.749	195.56
362.976	203.56
363.203	228.56
363.429	263.56
363.656	213.56
363.882	228.56
364.109	213.56
364.335	205.56
364.562	200.56
364.788	216.56
365.015	248.56
365.241	248.56
365.468	208.56
365.694	176.56
365.92	183.56
366.147	179.56
366.373	162.56
366.599	167.56
366.826	178.56
367.052	172.56
367.278	178.56
367.505	161.56
367.731	184.56
367.957	208.56
368.184	214.56
368.41	206.56
368.636	217.56
368.862	214.56
369.089	219.56
369.315	200.56
369.541	190.56
369.767	199.56
369.993	173.56
370.219	181.56
370.445	186.56
370.672	223.56
370.898	229.56
371.124	212.56
371.35	198.56
371.576	180.56
371.802	194.56
372.028	228.56
372.254	252.56
372.48	239.56
372.706	205.56
372.932	221.56
373.158	224.56
373.384	273.56
373.61	330.56
373.835	324.56
374.061	270.56
374.287	242.56
374.513	264.56
374.739	319.56
374.965	310.56
375.191	310.56
375.416	232.56
375.642	201.56
375.868	236.56
376.094	279.56
376.319	238.56
376.545	260.56
376.771	258.56
376.997	235.56
377.222	204.56
377.448	171.56
377.674	176.56
377.899	168.56
378.125	172.56
378.35	190.56
378.576	179.56
378.802	180.56
379.027	212.56
379.253	189.56
379.478	203.56
379.704	232.56
379.929	229.56
380.155	226.56
380.38	221.56
380.606	208.56
380.831	224.56
381.057	216.56
381.282	199.56
381.507	238.56
381.733	269.56
381.958	286.56
382.184	300.56
382.409	330.56
382.634	318.56
382.86	315.56
383.085	266.56
383.31	228.56
383.535	247.56
383.761	243.56
383.986	231.56
384.211	281.56
384.436	270.56
384.662	216.56
384.887	220.56
385.112	221.56
385.337	218.56
385.562	214.56
385.787	226.56
386.013	260.56
386.238	243.56
386.463	234.56
386.688	214.56
386.913	221.56
387.138	199.56
387.363	216.56
387.588	201.56
387.813	204.56
388.038	243.56
388.263	217.56
388.488	197.56
388.713	226.56
388.938	240.56
389.163	218.56
389.387	189.56
389.612	197.56
389.837	201.56
390.062	205.56
390.287	223.56
390.512	220.56
390.736	221.56
390.961	200.56
391.186	204.56
391.411	174.56
391.636	184.56
391.86	219.56
392.085	251.56
392.31	234.56
392.534	205.56
392.759	206.56
392.984	216.56
393.208	208.56
393.433	209.56
393.658	201.56
393.882	185.56
394.107	179.56
394.331	175.56
394.556	174.56
394.78	193.56
395.005	191.56
395.229	195.56
395.454	189.56
395.678	191.56
395.903	216.56
396.127	191.56
396.352	188.56
396.576	214.56
396.801	208.56
397.025	243.56
397.249	257.56
397.474	200.56
397.698	198.56
397.922	212.56
398.147	218.56
398.371	185.56
398.595	221.56
398.82	212.56
399.044	216.56
399.268	230.56
399.492	235.56
399.717	243.56
399.941	238.56
400.165	216.56
400.389	242.56
400.613	234.56
400.837	204.56
401.062	200.56
401.286	208.56
401.51	194.56
401.734	193.56
401.958	197.56
402.182	218.56
402.406	180.56
402.63	200.56
402.854	218.56
403.078	238.56
403.302	281.56
403.526	278.56
403.75	283.56
403.974	249.56
404.198	246.56
404.422	280.56
404.645	283.56
404.869	306.56
405.093	248.56
405.317	227.56
405.541	233.56
405.765	216.56
405.988	237.56
406.212	233.56
406.436	267.56
406.66	290.56
406.883	234.56
407.107	251.56
407.331	287.56
407.555	272.56
407.778	250.56
408.002	243.56
408.226	242.56
408.449	238.56
408.673	226.56
408.896	217.56
409.12	203.56
409.344	199.56
409.567	190.56
409.791	205.56
410.014	222.56
410.238	199.56
410.461	198.56
410.685	212.56
410.908	214.56
411.132	206.56
411.355	203.56
411.578	189.56
411.802	199.56
412.025	210.56
412.249	229.56
412.472	203.56
412.695	223.56
412.919	209.56
413.142	209.56
413.365	235.56
413.589	234.56
413.812	207.56
414.035	206.56
414.258	195.56
414.482	232.56
414.705	250.56
414.928	198.56
415.151	203.56
415.374	201.56
415.597	200.56
415.821	213.56
416.044	198.56
416.267	207.56
416.49	218.56
416.713	200.56
416.936	196.56
417.159	194.56
417.382	189.56
417.605	179.56
417.828	206.56
418.051	214.56
418.274	228.56
418.497	221.56
418.72	206.56
418.943	207.56
419.166	227.56
419.389	220.56
419.611	224.56
419.834	226.56
420.057	244.56
420.28	230.56
420.503	224.56
420.726	201.56
420.948	195.56
421.171	207.56
421.394	206.56
421.617	204.56
421.839	189.56
422.062	203.56
422.285	207.56
422.507	209.56
422.73	225.56
422.953	226.56
423.175	195.56
423.398	218.56
423.621	228.56
423.843	229.56
424.066	209.56
424.288	212.56
424.511	205.56
424.733	208.56
424.956	204.56
425.178	235.56
425.401	280.56
425.623	296.56
425.846	249.56
426.068	232.56
426.291	238.56
426.513	215.56
426.735	199.56
426.958	202.56
427.18	240.56
427.402	297.56
427.625	309.56
427.847	278.56
428.069	217.56
428.292	204.56
428.514	192.56
428.736	198.56
428.958	196.56
429.181	254.56
429.403	219.56
429.625	194.56
429.847	189.56
430.069	195.56
430.292	204.56
430.514	193.56
430.736	186.56
430.958	237.56
431.18	233.56
431.402	203.56
431.624	195.56
431.846	174.56
432.068	180.56
432.29	187.56
432.512	188.56
432.734	244.56
432.956	254.56
433.178	210.56
433.4	197.56
433.622	204.56
433.844	202.56
434.066	235.56
434.287	201.56
434.509	206.56
434.731	189.56
434.953	218.56
435.175	201.56
435.397	232.56
435.618	218.56
435.84	189.56
436.062	193.56
436.284	178.56
436.505	179.56
436.727	194.56
436.949	187.56
437.17	175.56
437.392	198.56
437.614	199.56
437.835	200.56
438.057	194.56
438.278	218.56
438.5	271.56
438.721	262.56
438.943	202.56
439.165	191.56
439.386	178.56
439.608	179.56
439.829	187.56
440.05	187.56
440.272	184.56
440.493	222.56
440.715	242.56
440.936	206.56
441.158	181.56
441.379	192.56
441.6	208.56
441.822	226.56
442.043	215.56
442.264	181.56
442.486	195.56
442.707	202.56
442.928	193.56
443.149	196.56
443.371	197.56
443.592	212.56
443.813	201.56
444.034	217.56
444.255	194.56
444.476	207.56
444.698	203.56
444.919	226.56
445.14	310.56
445.361	262.56
445.582	208.56
445.803	198.56
446.024	212.56
446.245	218.56
446.466	212.56
446.687	196.56
446.908	199.56
447.129	191.56
447.35	196.56
447.571	172.56
447.792	184.56
448.013	175.56
448.234	188.56
448.455	176.56
448.675	189.56
448.896	198.56
449.117	181.56
449.338	182.56
449.559	192.56
449.779	202.56
450	208.56
450.221	172.56
450.442	170.56
450.662	182.56
450.883	186.56
451.104	176.56
451.324	179.56
451.545	191.56
451.766	173.56
451.986	182.56
452.207	168.56
452.428	164.56
452.648	179.56
452.869	183.56
453.089	194.56
453.31	204.56
453.53	170.56
453.751	187.56
453.971	186.56
454.192	191.56
454.412	204.56
454.633	175.56
454.853	180.56
455.073	170.56
455.294	165.56
455.514	175.56
455.734	183.56
455.955	166.56
456.175	184.56
456.395	176.56
456.616	164.56
456.836	180.56
457.056	173.56
457.276	186.56
457.497	182.56
457.717	170.56
457.937	164.56
458.157	173.56
458.377	163.56
458.598	165.56
458.818	194.56
459.038	174.56
459.258	174.56
459.478	186.56
459.698	214.56
459.918	203.56
460.138	214.56
460.358	208.56
460.578	202.56
460.798	193.56
461.018	212.56
461.238	190.56
461.458	206.56
461.678	219.56
461.898	210.56
462.118	212.56
462.338	220.56
462.558	212.56
462.777	231.56
462.997	241.56
463.217	246.56
463.437	230.56
463.657	229.56
463.876	211.56
464.096	213.56
464.316	216.56
464.536	219.56
464.755	242.56
464.975	258.56
465.195	211.56
465.414	226.56
465.634	209.56
465.854	207.56
466.073	182.56
466.293	199.56
466.512	211.56
466.732	216.56
466.951	216.56
467.171	206.56
467.391	188.56
467.61	171.56
467.829	205.56
468.049	175.56
468.268	185.56
468.488	195.56
468.707	196.56
468.927	228.56
469.146	217.56
469.365	193.56
469.585	199.56
469.804	198.56
470.023	216.56
470.243	225.56
470.462	192.56
470.681	206.56
470.901	187.56
471.12	199.56
471.339	223.56
471.558	199.56
471.777	202.56
471.997	199.56
472.216	223.56
472.435	222.56
472.654	211.56
472.873	215.56
473.092	219.56
473.311	232.56
473.53	211.56
473.749	212.56
473.968	209.56
474.187	212.56
474.406	195.56
474.625	193.56
474.844	203.56
475.063	211.56
475.282	213.56
475.501	225.56
475.72	263.56
475.939	244.56
476.158	220.56
476.377	255.56
476.596	298.56
476.814	322.56
477.033	250.56
477.252	221.56
477.471	232.56
477.69	213.56
477.908	216.56
478.127	234.56
478.346	216.56
478.564	253.56
478.783	223.56
479.002	226.56
479.22	265.56
479.439	270.56
479.658	260.56
479.876	245.56
480.095	245.56
480.313	251.56
480.532	245.56
480.751	220.56
480.969	242.56
481.188	252.56
481.406	254.56
481.624	229.56
481.843	225.56
482.061	207.56
482.28	231.56
482.498	279.56
482.717	298.56
482.935	243.56
483.153	227.56
483.372	222.56
483.59	220.56
483.808	210.56
484.027	231.56
484.245	220.56
484.463	190.56
484.681	227.56
484.9	227.56
485.118	231.56
485.336	220.56
485.554	216.56
485.772	226.56
485.99	252.56
486.209	270.56
486.427	264.56
486.645	236.56
486.863	242.56
487.081	244.56
487.299	279.56
487.517	269.56
487.735	244.56
487.953	238.56
488.171	246.56
488.389	253.56
488.607	237.56
488.825	235.56
489.043	246.56
489.261	279.56
489.479	309.56
489.696	253.56
489.914	232.56
490.132	214.56
490.35	218.56
490.568	219.56
490.786	209.56
491.003	234.56
491.221	232.56
491.439	226.56
491.657	223.56
491.874	246.56
492.092	322.56
492.31	349.56
492.527	350.56
492.745	281.56
492.963	248.56
493.18	250.56
493.398	250.56
493.615	244.56
493.833	235.56
494.05	243.56
494.268	244.56
494.485	246.56
494.703	245.56
494.92	226.56
495.138	233.56
495.355	237.56
495.573	255.56
495.79	277.56
496.008	364.56
496.225	306.56
496.442	278.56
496.66	259.56
496.877	280.56
497.094	250.56
497.312	258.56
497.529	261.56
497.746	258.56
497.963	253.56
498.181	271.56
498.398	290.56
498.615	323.56
498.832	330.56
499.049	326.56
499.267	303.56
499.484	328.56
499.701	333.56
499.918	356.56
500.135	382.56
500.352	398.56
500.569	432.56
500.786	467.56
501.003	428.56
501.22	391.56
501.437	364.56
501.654	333.56
501.871	322.56
502.088	346.56
502.305	317.56
502.522	294.56
502.739	295.56
