Data from NickelSpatula_HRD10591_16-34-35-126.txt Node
Date: Mon Jul 22 16:34:35 EDT 2019
User: cochatt
Spectrometer: HR+D1059
Trigger mode: 1
Integration Time (sec): 1.000000E-1
Scans to average: 1
Electric dark correction enabled: true
Nonlinearity correction enabled: false
Boxcar width: 0
XAxis mode: Wavelengths
Number of Pixels in Spectrum: 2048
>>>>>Begin Spectral Data<<<<<
223.165	-4.12
223.4	-4.12
223.635	-4.12
223.869	-10.12
224.104	-19.12
224.338	-26.12
224.573	-11.12
224.808	-24.12
225.042	-11.12
225.277	-10.12
225.511	1.88
225.746	6.88
225.98	10.88
226.215	10.88
226.449	18.88
226.683	15.88
226.918	24.88
227.152	25.88
227.387	35.88
227.621	26.88
227.856	54.88
228.09	28.88
228.324	43.88
228.559	50.88
228.793	61.88
229.027	64.88
229.262	73.88
229.496	78.88
229.73	90.88
229.964	88.88
230.199	84.88
230.433	88.88
230.667	99.88
230.901	100.88
231.136	95.88
231.37	97.88
231.604	84.88
231.838	113.88
232.072	100.88
232.306	104.88
232.541	103.88
232.775	98.88
233.009	120.88
233.243	115.88
233.477	107.88
233.711	120.88
233.945	135.88
234.179	114.88
234.413	121.88
234.647	123.88
234.881	131.88
235.115	122.88
235.349	127.88
235.583	117.88
235.817	128.88
236.051	116.88
236.285	119.88
236.519	132.88
236.753	138.88
236.987	140.88
237.221	138.88
237.455	127.88
237.689	141.88
237.922	129.88
238.156	128.88
238.39	160.88
238.624	175.88
238.858	160.88
239.091	139.88
239.325	147.88
239.559	137.88
239.793	143.88
240.027	170.88
240.26	149.88
240.494	151.88
240.728	164.88
240.961	183.88
241.195	177.88
241.429	176.88
241.662	180.88
241.896	154.88
242.13	137.88
242.363	137.88
242.597	130.88
242.83	156.88
243.064	151.88
243.298	177.88
243.531	171.88
243.765	171.88
243.998	163.88
244.232	180.88
244.465	158.88
244.699	153.88
244.932	179.88
245.166	164.88
245.399	156.88
245.633	149.88
245.866	158.88
246.099	173.88
246.333	179.88
246.566	187.88
246.8	205.88
247.033	203.88
247.266	175.88
247.5	180.88
247.733	196.88
247.966	171.88
248.2	171.88
248.433	192.88
248.666	211.88
248.899	197.88
249.133	207.88
249.366	232.88
249.599	266.88
249.832	243.88
250.066	201.88
250.299	203.88
250.532	207.88
250.765	205.88
250.998	195.88
251.231	184.88
251.465	186.88
251.698	189.88
251.931	194.88
252.164	205.88
252.397	226.88
252.63	241.88
252.863	264.88
253.096	287.88
253.329	256.88
253.562	266.88
253.795	291.88
254.028	315.88
254.261	323.88
254.494	293.88
254.727	285.88
254.96	258.88
255.193	273.88
255.426	273.88
255.659	213.88
255.892	204.88
256.124	224.88
256.357	232.88
256.59	274.88
256.823	273.88
257.056	232.88
257.289	215.88
257.521	249.88
257.754	282.88
257.987	301.88
258.22	288.88
258.452	217.88
258.685	236.88
258.918	285.88
259.151	296.88
259.383	307.88
259.616	351.88
259.849	363.88
260.081	361.88
260.314	406.88
260.547	340.88
260.779	346.88
261.012	370.88
261.244	371.88
261.477	381.88
261.71	349.88
261.942	295.88
262.175	284.88
262.407	304.88
262.64	281.88
262.872	332.88
263.105	361.88
263.337	381.88
263.57	355.88
263.802	259.88
264.035	224.88
264.267	216.88
264.499	200.88
264.732	179.88
264.964	183.88
265.197	189.88
265.429	179.88
265.661	195.88
265.894	218.88
266.126	218.88
266.358	244.88
266.591	272.88
266.823	331.88
267.055	324.88
267.287	308.88
267.52	294.88
267.752	309.88
267.984	342.88
268.216	313.88
268.448	280.88
268.681	268.88
268.913	269.88
269.145	315.88
269.377	298.88
269.609	300.88
269.841	288.88
270.073	308.88
270.306	314.88
270.538	330.88
270.77	328.88
271.002	315.88
271.234	322.88
271.466	323.88
271.698	325.88
271.93	295.88
272.162	307.88
272.394	313.88
272.626	305.88
272.858	312.88
273.09	325.88
273.322	297.88
273.553	275.88
273.785	294.88
274.017	393.88
274.249	482.88
274.481	499.88
274.713	505.88
274.945	615.88
275.176	674.88
275.408	579.88
275.64	543.88
275.872	527.88
276.104	480.88
276.335	413.88
276.567	424.88
276.799	434.88
277.031	453.88
277.262	346.88
277.494	283.88
277.726	261.88
277.957	279.88
278.189	336.88
278.421	327.88
278.652	312.88
278.884	300.88
279.115	279.88
279.347	273.88
279.579	265.88
279.81	286.88
280.042	269.88
280.273	284.88
280.505	278.88
280.736	227.88
280.968	246.88
281.199	253.88
281.431	267.88
281.662	284.88
281.894	278.88
282.125	272.88
282.356	287.88
282.588	319.88
282.819	266.88
283.051	280.88
283.282	367.88
283.513	421.88
283.745	456.88
283.976	453.88
284.207	405.88
284.439	397.88
284.67	419.88
284.901	377.88
285.132	413.88
285.364	392.88
285.595	382.88
285.826	391.88
286.057	390.88
286.288	415.88
286.52	412.88
286.751	426.88
286.982	449.88
287.213	386.88
287.444	359.88
287.675	385.88
287.906	385.88
288.138	321.88
288.369	299.88
288.6	277.88
288.831	284.88
289.062	334.88
289.293	356.88
289.524	331.88
289.755	345.88
289.986	360.88
290.217	324.88
290.448	259.88
290.679	217.88
290.91	215.88
291.141	210.88
291.371	214.88
291.602	215.88
291.833	217.88
292.064	226.88
292.295	253.88
292.526	289.88
292.757	318.88
292.987	323.88
293.218	311.88
293.449	361.88
293.68	380.88
293.91	357.88
294.141	375.88
294.372	325.88
294.603	305.88
294.833	316.88
295.064	393.88
295.295	401.88
295.525	287.88
295.756	270.88
295.987	227.88
296.217	225.88
296.448	226.88
296.679	232.88
296.909	252.88
297.14	281.88
297.37	305.88
297.601	273.88
297.831	259.88
298.062	276.88
298.292	326.88
298.523	321.88
298.753	361.88
298.984	346.88
299.214	272.88
299.445	246.88
299.675	214.88
299.905	205.88
300.136	220.88
300.366	265.88
300.597	241.88
300.827	234.88
301.057	215.88
301.288	210.88
301.518	241.88
301.748	281.88
301.979	257.88
302.209	271.88
302.439	277.88
302.669	284.88
302.9	276.88
303.13	264.88
303.36	231.88
303.59	234.88
303.82	243.88
304.051	259.88
304.281	290.88
304.511	292.88
304.741	253.88
304.971	259.88
305.201	288.88
305.431	280.88
305.661	216.88
305.891	234.88
306.121	216.88
306.352	211.88
306.582	192.88
306.812	205.88
307.042	198.88
307.272	218.88
307.502	175.88
307.731	199.88
307.961	194.88
308.191	197.88
308.421	194.88
308.651	173.88
308.881	171.88
309.111	184.88
309.341	185.88
309.571	208.88
309.8	203.88
310.03	204.88
310.26	213.88
310.49	208.88
310.72	212.88
310.949	203.88
311.179	199.88
311.409	215.88
311.639	211.88
311.868	278.88
312.098	357.88
312.328	389.88
312.557	377.88
312.787	384.88
313.017	334.88
313.246	351.88
313.476	401.88
313.706	338.88
313.935	273.88
314.165	230.88
314.394	215.88
314.624	212.88
314.853	228.88
315.083	229.88
315.312	209.88
315.542	202.88
315.771	200.88
316.001	177.88
316.23	200.88
316.46	175.88
316.689	184.88
316.919	183.88
317.148	186.88
317.377	193.88
317.607	183.88
317.836	189.88
318.065	218.88
318.295	252.88
318.524	247.88
318.753	210.88
318.983	195.88
319.212	189.88
319.441	197.88
319.67	212.88
319.9	261.88
320.129	241.88
320.358	206.88
320.587	186.88
320.816	231.88
321.046	238.88
321.275	265.88
321.504	259.88
321.733	249.88
321.962	239.88
322.191	236.88
322.42	231.88
322.649	229.88
322.878	272.88
323.108	235.88
323.337	226.88
323.566	221.88
323.795	224.88
324.024	231.88
324.253	220.88
324.482	207.88
324.71	215.88
324.939	239.88
325.168	247.88
325.397	194.88
325.626	189.88
325.855	198.88
326.084	212.88
326.313	193.88
326.542	170.88
326.77	198.88
326.999	183.88
327.228	197.88
327.457	201.88
327.686	201.88
327.914	188.88
328.143	179.88
328.372	162.88
328.6	185.88
328.829	198.88
329.058	201.88
329.287	184.88
329.515	212.88
329.744	187.88
329.972	188.88
330.201	164.88
330.43	177.88
330.658	208.88
330.887	228.88
331.115	215.88
331.344	212.88
331.572	200.88
331.801	204.88
332.03	187.88
332.258	172.88
332.486	198.88
332.715	203.88
332.943	213.88
333.172	209.88
333.4	219.88
333.629	228.88
333.857	230.88
334.085	221.88
334.314	252.88
334.542	240.88
334.771	213.88
334.999	203.88
335.227	184.88
335.455	215.88
335.684	228.88
335.912	243.88
336.14	263.88
336.369	264.88
336.597	226.88
336.825	272.88
337.053	306.88
337.281	249.88
337.51	204.88
337.738	201.88
337.966	196.88
338.194	244.88
338.422	228.88
338.65	201.88
338.878	192.88
339.106	183.88
339.334	215.88
339.562	230.88
339.79	192.88
340.018	208.88
340.246	204.88
340.474	234.88
340.702	238.88
340.93	241.88
341.158	261.88
341.386	231.88
341.614	218.88
341.842	209.88
342.07	224.88
342.298	268.88
342.526	287.88
342.754	218.88
342.981	230.88
343.209	209.88
343.437	232.88
343.665	243.88
343.893	233.88
344.12	266.88
344.348	301.88
344.576	302.88
344.804	243.88
345.031	204.88
345.259	200.88
345.487	212.88
345.714	220.88
345.942	244.88
346.17	243.88
346.397	218.88
346.625	199.88
346.853	205.88
347.08	178.88
347.308	216.88
347.535	224.88
347.763	243.88
347.99	209.88
348.218	194.88
348.445	215.88
348.673	211.88
348.9	220.88
349.128	211.88
349.355	213.88
349.583	229.88
349.81	213.88
350.037	205.88
350.265	170.88
350.492	176.88
350.72	167.88
350.947	157.88
351.174	196.88
351.402	184.88
351.629	201.88
351.856	204.88
352.083	183.88
352.311	205.88
352.538	211.88
352.765	233.88
352.992	207.88
353.22	181.88
353.447	220.88
353.674	205.88
353.901	181.88
354.128	202.88
354.355	206.88
354.583	198.88
354.81	223.88
355.037	231.88
355.264	210.88
355.491	230.88
355.718	224.88
355.945	206.88
356.172	223.88
356.399	211.88
356.626	247.88
356.853	301.88
357.08	319.88
357.307	336.88
357.534	272.88
357.761	291.88
357.988	300.88
358.215	389.88
358.441	364.88
358.668	309.88
358.895	279.88
359.122	245.88
359.349	246.88
359.576	255.88
359.802	224.88
360.029	203.88
360.256	202.88
360.483	251.88
360.709	307.88
360.936	311.88
361.163	285.88
361.39	226.88
361.616	220.88
361.843	234.88
362.07	275.88
362.296	255.88
362.523	191.88
362.749	178.88
362.976	199.88
363.203	239.88
363.429	255.88
363.656	211.88
363.882	207.88
364.109	197.88
364.335	207.88
364.562	213.88
364.788	210.88
365.015	234.88
365.241	212.88
365.468	187.88
365.694	176.88
365.92	187.88
366.147	169.88
366.373	177.88
366.599	186.88
366.826	164.88
367.052	182.88
367.278	181.88
367.505	167.88
367.731	185.88
367.957	208.88
368.184	197.88
368.41	185.88
368.636	214.88
368.862	201.88
369.089	200.88
369.315	185.88
369.541	186.88
369.767	192.88
369.993	171.88
370.219	170.88
370.445	188.88
370.672	195.88
370.898	205.88
371.124	215.88
371.35	197.88
371.576	186.88
371.802	219.88
372.028	220.88
372.254	252.88
372.48	227.88
372.706	224.88
372.932	212.88
373.158	221.88
373.384	234.88
373.61	313.88
373.835	311.88
374.061	260.88
374.287	209.88
374.513	261.88
374.739	327.88
374.965	305.88
375.191	301.88
375.416	231.88
375.642	205.88
375.868	239.88
376.094	252.88
376.319	228.88
376.545	226.88
376.771	249.88
376.997	223.88
377.222	183.88
377.448	170.88
377.674	167.88
377.899	159.88
378.125	163.88
378.35	160.88
378.576	164.88
378.802	183.88
379.027	191.88
379.253	191.88
379.478	191.88
379.704	210.88
379.929	228.88
380.155	223.88
380.38	196.88
380.606	204.88
380.831	221.88
381.057	209.88
381.282	208.88
381.507	225.88
381.733	266.88
381.958	272.88
382.184	295.88
382.409	320.88
382.634	311.88
382.86	311.88
383.085	262.88
383.31	233.88
383.535	248.88
383.761	251.88
383.986	224.88
384.211	285.88
384.436	271.88
384.662	205.88
384.887	220.88
385.112	229.88
385.337	235.88
385.562	208.88
385.787	224.88
386.013	254.88
386.238	247.88
386.463	215.88
386.688	199.88
386.913	209.88
387.138	189.88
387.363	188.88
387.588	209.88
387.813	196.88
388.038	238.88
388.263	209.88
388.488	198.88
388.713	232.88
388.938	261.88
389.163	202.88
389.387	199.88
389.612	203.88
389.837	208.88
390.062	198.88
390.287	220.88
390.512	225.88
390.736	205.88
390.961	187.88
391.186	181.88
391.411	185.88
391.636	187.88
391.86	211.88
392.085	214.88
392.31	229.88
392.534	207.88
392.759	192.88
392.984	201.88
393.208	219.88
393.433	195.88
393.658	187.88
393.882	187.88
394.107	177.88
394.331	182.88
394.556	188.88
394.78	167.88
395.005	172.88
395.229	188.88
395.454	197.88
395.678	183.88
395.903	200.88
396.127	182.88
396.352	193.88
396.576	203.88
396.801	210.88
397.025	219.88
397.249	259.88
397.474	207.88
397.698	196.88
397.922	193.88
398.147	186.88
398.371	187.88
398.595	206.88
398.82	203.88
399.044	209.88
399.268	215.88
399.492	224.88
399.717	243.88
399.941	236.88
400.165	240.88
400.389	229.88
400.613	207.88
400.837	219.88
401.062	188.88
401.286	202.88
401.51	208.88
401.734	197.88
401.958	204.88
402.182	199.88
402.406	202.88
402.63	190.88
402.854	209.88
403.078	229.88
403.302	267.88
403.526	303.88
403.75	255.88
403.974	244.88
404.198	225.88
404.422	247.88
404.645	283.88
404.869	297.88
405.093	261.88
405.317	228.88
405.541	207.88
405.765	205.88
405.988	230.88
406.212	232.88
406.436	243.88
406.66	293.88
406.883	236.88
407.107	230.88
407.331	273.88
407.555	265.88
407.778	243.88
408.002	231.88
408.226	230.88
408.449	204.88
408.673	225.88
408.896	208.88
409.12	195.88
409.344	212.88
409.567	198.88
409.791	187.88
410.014	202.88
410.238	197.88
410.461	191.88
410.685	196.88
410.908	195.88
411.132	192.88
411.355	202.88
411.578	204.88
411.802	197.88
412.025	222.88
412.249	191.88
412.472	212.88
412.695	193.88
412.919	210.88
413.142	213.88
413.365	209.88
413.589	217.88
413.812	192.88
414.035	203.88
414.258	204.88
414.482	228.88
414.705	208.88
414.928	201.88
415.151	194.88
415.374	188.88
415.597	213.88
415.821	189.88
416.044	195.88
416.267	180.88
416.49	190.88
416.713	192.88
416.936	191.88
417.159	189.88
417.382	193.88
417.605	193.88
417.828	209.88
418.051	187.88
418.274	193.88
418.497	204.88
418.72	188.88
418.943	180.88
419.166	221.88
419.389	210.88
419.611	222.88
419.834	220.88
420.057	228.88
420.28	228.88
420.503	231.88
420.726	209.88
420.948	189.88
421.171	186.88
421.394	206.88
421.617	200.88
421.839	211.88
422.062	203.88
422.285	197.88
422.507	181.88
422.73	216.88
422.953	205.88
423.175	199.88
423.398	184.88
423.621	206.88
423.843	227.88
424.066	187.88
424.288	210.88
424.511	201.88
424.733	199.88
424.956	203.88
425.178	228.88
425.401	250.88
425.623	275.88
425.846	234.88
426.068	219.88
426.291	257.88
426.513	210.88
426.735	187.88
426.958	210.88
427.18	225.88
427.402	295.88
427.625	299.88
427.847	242.88
428.069	194.88
428.292	196.88
428.514	195.88
428.736	170.88
428.958	217.88
429.181	248.88
429.403	205.88
429.625	199.88
429.847	173.88
430.069	209.88
430.292	204.88
430.514	189.88
430.736	198.88
430.958	243.88
431.18	223.88
431.402	169.88
431.624	175.88
431.846	188.88
432.068	197.88
432.29	189.88
432.512	206.88
432.734	245.88
432.956	241.88
433.178	199.88
433.4	181.88
433.622	193.88
433.844	200.88
434.066	215.88
434.287	214.88
434.509	186.88
434.731	211.88
434.953	195.88
435.175	195.88
435.397	241.88
435.618	202.88
435.84	183.88
436.062	191.88
436.284	185.88
436.505	164.88
436.727	173.88
436.949	197.88
437.17	184.88
437.392	193.88
437.614	185.88
437.835	179.88
438.057	191.88
438.278	206.88
438.5	259.88
438.721	284.88
438.943	196.88
439.165	186.88
439.386	177.88
439.608	171.88
439.829	187.88
440.05	184.88
440.272	193.88
440.493	216.88
440.715	253.88
440.936	191.88
441.158	204.88
441.379	191.88
441.6	216.88
441.822	227.88
442.043	207.88
442.264	194.88
442.486	188.88
442.707	177.88
442.928	193.88
443.149	188.88
443.371	205.88
443.592	214.88
443.813	207.88
444.034	194.88
444.255	189.88
444.476	212.88
444.698	206.88
444.919	210.88
445.14	326.88
445.361	258.88
445.582	213.88
445.803	211.88
446.024	214.88
446.245	210.88
446.466	224.88
446.687	193.88
446.908	197.88
447.129	190.88
447.35	195.88
447.571	208.88
447.792	188.88
448.013	189.88
448.234	182.88
448.455	170.88
448.675	196.88
448.896	172.88
449.117	177.88
449.338	178.88
449.559	196.88
449.779	204.88
450	189.88
450.221	167.88
450.442	193.88
450.662	183.88
450.883	188.88
451.104	183.88
451.324	196.88
451.545	181.88
451.766	188.88
451.986	163.88
452.207	179.88
452.428	177.88
452.648	172.88
452.869	172.88
453.089	200.88
453.31	193.88
453.53	187.88
453.751	159.88
453.971	175.88
454.192	167.88
454.412	163.88
454.633	168.88
454.853	193.88
455.073	175.88
455.294	187.88
455.514	165.88
455.734	180.88
455.955	152.88
456.175	183.88
456.395	168.88
456.616	175.88
456.836	166.88
457.056	161.88
457.276	171.88
457.497	157.88
457.717	162.88
457.937	179.88
458.157	165.88
458.377	172.88
458.598	176.88
458.818	181.88
459.038	181.88
459.258	188.88
459.478	193.88
459.698	186.88
459.918	188.88
460.138	196.88
460.358	215.88
460.578	189.88
460.798	209.88
461.018	206.88
461.238	185.88
461.458	216.88
461.678	195.88
461.898	201.88
462.118	208.88
462.338	210.88
462.558	217.88
462.777	226.88
462.997	210.88
463.217	228.88
463.437	243.88
463.657	236.88
463.876	225.88
464.096	217.88
464.316	208.88
464.536	220.88
464.755	239.88
464.975	232.88
465.195	205.88
465.414	214.88
465.634	208.88
465.854	177.88
466.073	185.88
466.293	196.88
466.512	204.88
466.732	201.88
466.951	217.88
467.171	199.88
467.391	207.88
467.61	197.88
467.829	200.88
468.049	199.88
468.268	198.88
468.488	202.88
468.707	197.88
468.927	202.88
469.146	232.88
469.365	210.88
469.585	186.88
469.804	230.88
470.023	240.88
470.243	203.88
470.462	197.88
470.681	191.88
470.901	208.88
471.12	213.88
471.339	203.88
471.558	198.88
471.777	205.88
471.997	216.88
472.216	228.88
472.435	241.88
472.654	209.88
472.873	211.88
473.092	217.88
473.311	247.88
473.53	211.88
473.749	198.88
473.968	215.88
474.187	210.88
474.406	193.88
474.625	201.88
474.844	217.88
475.063	217.88
475.282	219.88
475.501	228.88
475.72	253.88
475.939	237.88
476.158	220.88
476.377	260.88
476.596	291.88
476.814	318.88
477.033	255.88
477.252	215.88
477.471	195.88
477.69	218.88
477.908	221.88
478.127	244.88
478.346	240.88
478.564	256.88
478.783	235.88
479.002	221.88
479.22	273.88
479.439	289.88
479.658	246.88
479.876	242.88
480.095	234.88
480.313	246.88
480.532	246.88
480.751	245.88
480.969	242.88
481.188	248.88
481.406	264.88
481.624	246.88
481.843	227.88
482.061	215.88
482.28	239.88
482.498	292.88
482.717	297.88
482.935	243.88
483.153	242.88
483.372	222.88
483.59	223.88
483.808	222.88
484.027	229.88
484.245	210.88
484.463	209.88
484.681	215.88
484.9	226.88
485.118	243.88
485.336	217.88
485.554	217.88
485.772	217.88
485.99	246.88
486.209	271.88
486.427	261.88
486.645	234.88
486.863	237.88
487.081	250.88
487.299	276.88
487.517	273.88
487.735	244.88
487.953	269.88
488.171	251.88
488.389	234.88
488.607	228.88
488.825	231.88
489.043	240.88
489.261	308.88
489.479	307.88
489.696	242.88
489.914	242.88
490.132	224.88
490.35	229.88
490.568	222.88
490.786	212.88
491.003	225.88
491.221	240.88
491.439	212.88
491.657	227.88
491.874	260.88
492.092	290.88
492.31	344.88
492.527	347.88
492.745	283.88
492.963	264.88
493.18	264.88
493.398	264.88
493.615	269.88
493.833	260.88
494.05	250.88
494.268	245.88
494.485	240.88
494.703	231.88
494.92	240.88
495.138	224.88
495.355	248.88
495.573	239.88
495.79	263.88
496.008	362.88
496.225	305.88
496.442	263.88
496.66	272.88
496.877	295.88
497.094	269.88
497.312	250.88
497.529	251.88
497.746	235.88
497.963	251.88
498.181	284.88
498.398	316.88
498.615	320.88
498.832	334.88
499.049	335.88
499.267	323.88
499.484	332.88
499.701	331.88
499.918	377.88
500.135	411.88
500.352	398.88
500.569	397.88
500.786	438.88
501.003	427.88
501.22	399.88
501.437	367.88
501.654	342.88
501.871	303.88
502.088	321.88
502.305	298.88
502.522	286.88
502.739	315.88
