Data from NickelSpatula.Lamp.E10.P2_HRD10591_11-58-47-528.txt Node
Date: Tue Jul 23 11:58:47 EDT 2019
User: cochatt
Spectrometer: HR+D1059
Trigger mode: 1
Integration Time (sec): 1.000000E-1
Scans to average: 1
Electric dark correction enabled: true
Nonlinearity correction enabled: false
Boxcar width: 0
XAxis mode: Wavelengths
Number of Pixels in Spectrum: 2048
>>>>>Begin Spectral Data<<<<<
223.165	-1.19
223.4	-1.19
223.635	-1.19
223.869	-11.19
224.104	-23.19
224.338	-5.19
224.573	-20.19
224.808	-0.19
225.042	-9.19
225.277	-2.19
225.511	-17.19
225.746	-2.19
225.98	2.81
226.215	-2.19
226.449	28.81
226.683	13.81
226.918	13.81
227.152	34.81
227.387	23.81
227.621	37.81
227.856	32.81
228.09	48.81
228.324	54.81
228.559	63.81
228.793	74.81
229.027	138.81
229.262	151.81
229.496	166.81
229.73	159.81
229.964	189.81
230.199	219.81
230.433	206.81
230.667	212.81
230.901	206.81
231.136	192.81
231.37	203.81
231.604	225.81
231.838	238.81
232.072	239.81
232.306	264.81
232.541	225.81
232.775	243.81
233.009	270.81
233.243	299.81
233.477	297.81
233.711	344.81
233.945	341.81
234.179	331.81
234.413	337.81
234.647	388.81
234.881	458.81
235.115	417.81
235.349	394.81
235.583	362.81
235.817	354.81
236.051	391.81
236.285	413.81
236.519	448.81
236.753	443.81
236.987	441.81
237.221	405.81
237.455	406.81
237.689	408.81
237.922	452.81
238.156	453.81
238.39	557.81
238.624	656.81
238.858	592.81
239.091	498.81
239.325	514.81
239.559	485.81
239.793	533.81
240.027	633.81
240.26	593.81
240.494	590.81
240.728	586.81
240.961	667.81
241.195	648.81
241.429	620.81
241.662	620.81
241.896	524.81
242.13	468.81
242.363	448.81
242.597	484.81
242.83	544.81
243.064	532.81
243.298	591.81
243.531	600.81
243.765	654.81
243.998	611.81
244.232	587.81
244.465	613.81
244.699	574.81
244.932	644.81
245.166	629.81
245.399	555.81
245.633	538.81
245.866	557.81
246.099	620.81
246.333	690.81
246.566	779.81
246.8	763.81
247.033	729.81
247.266	671.81
247.5	672.81
247.733	687.81
247.966	637.81
248.2	669.81
248.433	785.81
248.666	841.81
248.899	855.81
249.133	872.81
249.366	966.81
249.599	1053.81
249.832	930.81
250.066	827.81
250.299	842.81
250.532	769.81
250.765	811.81
250.998	706.81
251.231	668.81
251.465	792.81
251.698	810.81
251.931	793.81
252.164	857.81
252.397	911.81
252.63	1039.81
252.863	1157.81
253.096	1185.81
253.329	1130.81
253.562	1122.81
253.795	1219.81
254.028	1317.81
254.261	1405.81
254.494	1231.81
254.727	1117.81
254.96	1091.81
255.193	1183.81
255.426	1107.81
255.659	847.81
255.892	797.81
256.124	834.81
256.357	1021.81
256.59	1178.81
256.823	1113.81
257.056	969.81
257.289	915.81
257.521	961.81
257.754	1096.81
257.987	1250.81
258.22	1094.81
258.452	1011.81
258.685	1117.81
258.918	1280.81
259.151	1244.81
259.383	1273.81
259.616	1506.81
259.849	1510.81
260.081	1681.81
260.314	1834.81
260.547	1463.81
260.779	1425.81
261.012	1691.81
261.244	1552.81
261.477	1615.81
261.71	1538.81
261.942	1270.81
262.175	1246.81
262.407	1241.81
262.64	1229.81
262.872	1495.81
263.105	1638.81
263.337	1718.81
263.57	1533.81
263.802	1023.81
264.035	898.81
264.267	859.81
264.499	753.81
264.732	723.81
264.964	683.81
265.197	723.81
265.429	781.81
265.661	832.81
265.894	834.81
266.126	917.81
266.358	1042.81
266.591	1220.81
266.823	1439.81
267.055	1380.81
267.287	1224.81
267.52	1250.81
267.752	1284.81
267.984	1444.81
268.216	1386.81
268.448	1101.81
268.681	1085.81
268.913	1149.81
269.145	1235.81
269.377	1257.81
269.609	1267.81
269.841	1206.81
270.073	1265.81
270.306	1315.81
270.538	1365.81
270.77	1358.81
271.002	1380.81
271.234	1468.81
271.466	1501.81
271.698	1428.81
271.93	1392.81
272.162	1417.81
272.394	1400.81
272.626	1382.81
272.858	1429.81
273.09	1523.81
273.322	1299.81
273.553	1280.81
273.785	1490.81
274.017	1979.81
274.249	2421.81
274.481	2513.81
274.713	2744.81
274.945	3122.81
275.176	3221.81
275.408	2778.81
275.64	2609.81
275.872	2563.81
276.104	2169.81
276.335	1880.81
276.567	1846.81
276.799	1936.81
277.031	2017.81
277.262	1581.81
277.494	1242.81
277.726	1219.81
277.957	1289.81
278.189	1448.81
278.421	1465.81
278.652	1403.81
278.884	1339.81
279.115	1241.81
279.347	1159.81
279.579	1214.81
279.81	1205.81
280.042	1219.81
280.273	1238.81
280.505	1112.81
280.736	1017.81
280.968	989.81
281.199	1080.81
281.431	1242.81
281.662	1204.81
281.894	1187.81
282.125	1231.81
282.356	1331.81
282.588	1373.81
282.819	1238.81
283.051	1367.81
283.282	1694.81
283.513	1891.81
283.745	2144.81
283.976	2158.81
284.207	2012.81
284.439	2051.81
284.67	2011.81
284.901	1770.81
285.132	1915.81
285.364	1972.81
285.595	1851.81
285.826	1940.81
286.057	2017.81
286.288	1938.81
286.52	1954.81
286.751	2054.81
286.982	2011.81
287.213	1787.81
287.444	1747.81
287.675	1825.81
287.906	1821.81
288.138	1522.81
288.369	1381.81
288.6	1291.81
288.831	1314.81
289.062	1509.81
289.293	1657.81
289.524	1560.81
289.755	1573.81
289.986	1581.81
290.217	1385.81
290.448	1103.81
290.679	946.81
290.91	916.81
291.141	930.81
291.371	947.81
291.602	944.81
291.833	990.81
292.064	1042.81
292.295	1209.81
292.526	1390.81
292.757	1415.81
292.987	1517.81
293.218	1523.81
293.449	1569.81
293.68	1673.81
293.91	1584.81
294.141	1599.81
294.372	1481.81
294.603	1428.81
294.833	1562.81
295.064	1820.81
295.295	1681.81
295.525	1313.81
295.756	1124.81
295.987	1008.81
296.217	1001.81
296.448	1034.81
296.679	1083.81
296.909	1213.81
297.14	1271.81
297.37	1407.81
297.601	1350.81
297.831	1176.81
298.062	1231.81
298.292	1396.81
298.523	1543.81
298.753	1791.81
298.984	1579.81
299.214	1262.81
299.445	1092.81
299.675	1047.81
299.905	1029.81
300.136	1061.81
300.366	1165.81
300.597	1114.81
300.827	1009.81
301.057	997.81
301.288	1028.81
301.518	1108.81
301.748	1231.81
301.979	1335.81
302.209	1417.81
302.439	1431.81
302.669	1199.81
302.9	1229.81
303.13	1131.81
303.36	1094.81
303.59	1034.81
303.82	1086.81
304.051	1251.81
304.281	1303.81
304.511	1261.81
304.741	1142.81
304.971	1185.81
305.201	1257.81
305.431	1190.81
305.661	1053.81
305.891	1056.81
306.121	1088.81
306.352	954.81
306.582	853.81
306.812	854.81
307.042	847.81
307.272	796.81
307.502	799.81
307.731	894.81
307.961	921.81
308.191	841.81
308.421	815.81
308.651	801.81
308.881	758.81
309.111	751.81
309.341	801.81
309.571	901.81
309.8	895.81
310.03	950.81
310.26	978.81
310.49	947.81
310.72	855.81
310.949	839.81
311.179	866.81
311.409	946.81
311.639	1084.81
311.868	1376.81
312.098	1773.81
312.328	1867.81
312.557	1822.81
312.787	1877.81
313.017	1630.81
313.246	1755.81
313.476	1938.81
313.706	1558.81
313.935	1301.81
314.165	1080.81
314.394	941.81
314.624	962.81
314.853	999.81
315.083	1031.81
315.312	1006.81
315.542	999.81
315.771	941.81
316.001	853.81
316.23	860.81
316.46	834.81
316.689	854.81
316.919	862.81
317.148	898.81
317.377	878.81
317.607	867.81
317.836	938.81
318.065	1092.81
318.295	1226.81
318.524	1133.81
318.753	985.81
318.983	955.81
319.212	904.81
319.441	993.81
319.67	1080.81
319.9	1175.81
320.129	1108.81
320.358	971.81
320.587	934.81
320.816	1013.81
321.046	1190.81
321.275	1254.81
321.504	1310.81
321.733	1261.81
321.962	1218.81
322.191	1147.81
322.42	1076.81
322.649	1111.81
322.878	1194.81
323.108	1190.81
323.337	1086.81
323.566	1064.81
323.795	1058.81
324.024	1023.81
324.253	951.81
324.482	961.81
324.71	1069.81
324.939	1201.81
325.168	1094.81
325.397	902.81
325.626	918.81
325.855	883.81
326.084	906.81
326.313	870.81
326.542	839.81
326.77	881.81
326.999	905.81
327.228	948.81
327.457	1018.81
327.686	997.81
327.914	853.81
328.143	831.81
328.372	829.81
328.6	848.81
328.829	859.81
329.058	887.81
329.287	901.81
329.515	881.81
329.744	873.81
329.972	806.81
330.201	780.81
330.43	827.81
330.658	919.81
330.887	1063.81
331.115	1022.81
331.344	973.81
331.572	953.81
331.801	912.81
332.03	843.81
332.258	842.81
332.486	981.81
332.715	972.81
332.943	886.81
333.172	898.81
333.4	946.81
333.629	1039.81
333.857	1085.81
334.085	1092.81
334.314	1106.81
334.542	1071.81
334.771	941.81
334.999	942.81
335.227	898.81
335.455	921.81
335.684	1009.81
335.912	1162.81
336.14	1292.81
336.369	1253.81
336.597	1197.81
336.825	1364.81
337.053	1513.81
337.281	1223.81
337.51	983.81
337.738	985.81
337.966	1057.81
338.194	1124.81
338.422	1110.81
338.65	931.81
338.878	853.81
339.106	904.81
339.334	989.81
339.562	1065.81
339.79	979.81
340.018	954.81
340.246	1037.81
340.474	1187.81
340.702	1238.81
340.93	1320.81
341.158	1292.81
341.386	1085.81
341.614	1135.81
341.842	1090.81
342.07	1127.81
342.298	1328.81
342.526	1391.81
342.754	1181.81
342.981	1111.81
343.209	1054.81
343.437	1117.81
343.665	1166.81
343.893	1166.81
344.12	1366.81
344.348	1557.81
344.576	1411.81
344.804	1175.81
345.031	1037.81
345.259	963.81
345.487	1009.81
345.714	1002.81
345.942	1100.81
346.17	1183.81
346.397	1120.81
346.625	1006.81
346.853	968.81
347.08	941.81
347.308	986.81
347.535	1086.81
347.763	1159.81
347.99	991.81
348.218	923.81
348.445	971.81
348.673	967.81
348.9	943.81
349.128	1032.81
349.355	1065.81
349.583	1039.81
349.81	1000.81
350.037	947.81
350.265	822.81
350.492	803.81
350.72	791.81
350.947	842.81
351.174	894.81
351.402	933.81
351.629	988.81
351.856	955.81
352.083	902.81
352.311	950.81
352.538	1069.81
352.765	1120.81
352.992	1046.81
353.22	968.81
353.447	985.81
353.674	938.81
353.901	938.81
354.128	946.81
354.355	1001.81
354.583	977.81
354.81	985.81
355.037	982.81
355.264	970.81
355.491	1059.81
355.718	1142.81
355.945	1127.81
356.172	1103.81
356.399	1093.81
356.626	1329.81
356.853	1610.81
357.08	1697.81
357.307	1732.81
357.534	1367.81
357.761	1359.81
357.988	1733.81
358.215	2031.81
358.441	1909.81
358.668	1604.81
358.895	1443.81
359.122	1217.81
359.349	1201.81
359.576	1335.81
359.802	1091.81
360.029	960.81
360.256	1018.81
360.483	1272.81
360.709	1592.81
360.936	1619.81
361.163	1471.81
361.39	1114.81
361.616	1060.81
361.843	1223.81
362.07	1494.81
362.296	1365.81
362.523	1073.81
362.749	906.81
362.976	988.81
363.203	1189.81
363.429	1297.81
363.656	1058.81
363.882	988.81
364.109	971.81
364.335	975.81
364.562	992.81
364.788	1114.81
365.015	1325.81
365.241	1136.81
365.468	944.81
365.694	837.81
365.92	799.81
366.147	796.81
366.373	761.81
366.599	807.81
366.826	799.81
367.052	789.81
367.278	829.81
367.505	818.81
367.731	925.81
367.957	1012.81
368.184	1029.81
368.41	983.81
368.636	1029.81
368.862	1066.81
369.089	1030.81
369.315	922.81
369.541	879.81
369.767	874.81
369.993	823.81
370.219	853.81
370.445	901.81
370.672	970.81
370.898	1096.81
371.124	1066.81
371.35	942.81
371.576	893.81
371.802	956.81
372.028	1175.81
372.254	1338.81
372.48	1123.81
372.706	1008.81
372.932	1079.81
373.158	1122.81
373.384	1364.81
373.61	1807.81
373.835	1826.81
374.061	1389.81
374.287	1168.81
374.513	1383.81
374.739	1649.81
374.965	1715.81
375.191	1677.81
375.416	1164.81
375.642	1002.81
375.868	1165.81
376.094	1355.81
376.319	1158.81
376.545	1283.81
376.771	1347.81
376.997	1149.81
377.222	850.81
377.448	751.81
377.674	746.81
377.899	731.81
378.125	750.81
378.35	730.81
378.576	765.81
378.802	870.81
379.027	914.81
379.253	859.81
379.478	921.81
379.704	1034.81
379.929	1095.81
380.155	1080.81
380.38	949.81
380.606	972.81
380.831	1084.81
381.057	1038.81
381.282	937.81
381.507	1157.81
381.733	1460.81
381.958	1501.81
382.184	1640.81
382.409	1696.81
382.634	1665.81
382.86	1728.81
383.085	1433.81
383.31	1114.81
383.535	1215.81
383.761	1238.81
383.986	1136.81
384.211	1432.81
384.436	1377.81
384.662	1041.81
384.887	1009.81
385.112	1038.81
385.337	1050.81
385.562	981.81
385.787	1073.81
386.013	1214.81
386.238	1237.81
386.463	998.81
386.688	995.81
386.913	971.81
387.138	889.81
387.363	956.81
387.588	971.81
387.813	979.81
388.038	1105.81
388.263	990.81
388.488	939.81
388.713	1129.81
388.938	1188.81
389.163	995.81
389.387	881.81
389.612	933.81
389.837	955.81
390.062	972.81
390.287	964.81
390.512	998.81
390.736	928.81
390.961	891.81
391.186	837.81
391.411	845.81
391.636	835.81
391.86	903.81
392.085	993.81
392.31	997.81
392.534	950.81
392.759	915.81
392.984	992.81
393.208	959.81
393.433	822.81
393.658	769.81
393.882	785.81
394.107	790.81
394.331	817.81
394.556	792.81
394.78	793.81
395.005	825.81
395.229	855.81
395.454	858.81
395.678	864.81
395.903	915.81
396.127	856.81
396.352	889.81
396.576	972.81
396.801	992.81
397.025	1099.81
397.249	1134.81
397.474	924.81
397.698	915.81
397.922	959.81
398.147	912.81
398.371	942.81
398.595	943.81
398.82	949.81
399.044	963.81
399.268	1014.81
399.492	1029.81
399.717	1048.81
399.941	1085.81
400.165	1039.81
400.389	1011.81
400.613	1008.81
400.837	1041.81
401.062	941.81
401.286	888.81
401.51	891.81
401.734	920.81
401.958	928.81
402.182	894.81
402.406	911.81
402.63	908.81
402.854	931.81
403.078	1033.81
403.302	1275.81
403.526	1320.81
403.75	1217.81
403.974	1049.81
404.198	1066.81
404.422	1206.81
404.645	1433.81
404.869	1611.81
405.093	1169.81
405.317	989.81
405.541	968.81
405.765	983.81
405.988	1001.81
406.212	1121.81
406.436	1297.81
406.66	1410.81
406.883	1113.81
407.107	1187.81
407.331	1361.81
407.555	1307.81
407.778	1087.81
408.002	1047.81
408.226	1012.81
408.449	1029.81
408.673	994.81
408.896	938.81
409.12	916.81
409.344	925.81
409.567	887.81
409.791	889.81
410.014	879.81
410.238	889.81
410.461	890.81
410.685	880.81
410.908	911.81
411.132	933.81
411.355	954.81
411.578	943.81
411.802	931.81
412.025	986.81
412.249	974.81
412.472	972.81
412.695	959.81
412.919	946.81
413.142	989.81
413.365	1035.81
413.589	1056.81
413.812	963.81
414.035	909.81
414.258	938.81
414.482	1065.81
414.705	1059.81
414.928	928.81
415.151	879.81
415.374	908.81
415.597	910.81
415.821	919.81
416.044	897.81
416.267	849.81
416.49	855.81
416.713	846.81
416.936	869.81
417.159	846.81
417.382	904.81
417.605	893.81
417.828	898.81
418.051	931.81
418.274	936.81
418.497	917.81
418.72	903.81
418.943	939.81
419.166	966.81
419.389	1031.81
419.611	991.81
419.834	1017.81
420.057	1145.81
420.28	1090.81
420.503	1019.81
420.726	895.81
420.948	871.81
421.171	895.81
421.394	905.81
421.617	867.81
421.839	881.81
422.062	925.81
422.285	890.81
422.507	921.81
422.73	961.81
422.953	950.81
423.175	931.81
423.398	930.81
423.621	1009.81
423.843	1042.81
424.066	962.81
424.288	939.81
424.511	919.81
424.733	924.81
424.956	953.81
425.178	1079.81
425.401	1237.81
425.623	1376.81
425.846	1157.81
426.068	1023.81
426.291	1116.81
426.513	1026.81
426.735	902.81
426.958	990.81
427.18	1181.81
427.402	1489.81
427.625	1422.81
427.847	1166.81
428.069	916.81
428.292	901.81
428.514	843.81
428.736	868.81
428.958	962.81
429.181	1121.81
429.403	964.81
429.625	902.81
429.847	868.81
430.069	862.81
430.292	901.81
430.514	883.81
430.736	943.81
430.958	1168.81
431.18	1083.81
431.402	805.81
431.624	813.81
431.846	817.81
432.068	782.81
432.29	846.81
432.512	938.81
432.734	1219.81
432.956	1111.81
433.178	852.81
433.4	830.81
433.622	842.81
433.844	873.81
434.066	936.81
434.287	911.81
434.509	886.81
434.731	911.81
434.953	836.81
435.175	929.81
435.397	1021.81
435.618	883.81
435.84	782.81
436.062	852.81
436.284	831.81
436.505	805.81
436.727	808.81
436.949	786.81
437.17	807.81
437.392	835.81
437.614	819.81
437.835	830.81
438.057	852.81
438.278	957.81
438.5	1423.81
438.721	1399.81
438.943	940.81
439.165	822.81
439.386	769.81
439.608	783.81
439.829	788.81
440.05	784.81
440.272	846.81
440.493	986.81
440.715	1241.81
440.936	968.81
441.158	849.81
441.379	882.81
441.6	965.81
441.822	1015.81
442.043	880.81
442.264	865.81
442.486	853.81
442.707	880.81
442.928	859.81
443.149	866.81
443.371	889.81
443.592	937.81
443.813	933.81
444.034	898.81
444.255	867.81
444.476	919.81
444.698	948.81
444.919	927.81
445.14	1058.81
445.361	1005.81
445.582	973.81
445.803	904.81
446.024	953.81
446.245	914.81
446.466	901.81
446.687	872.81
446.908	858.81
447.129	834.81
447.35	800.81
447.571	814.81
447.792	775.81
448.013	793.81
448.234	779.81
448.455	790.81
448.675	791.81
448.896	798.81
449.117	817.81
449.338	806.81
449.559	831.81
449.779	888.81
450	857.81
450.221	844.81
450.442	808.81
450.662	802.81
450.883	793.81
451.104	798.81
451.324	783.81
451.545	797.81
451.766	814.81
451.986	784.81
452.207	773.81
452.428	770.81
452.648	769.81
452.869	840.81
453.089	855.81
453.31	841.81
453.53	754.81
453.751	739.81
453.971	725.81
454.192	732.81
454.412	811.81
454.633	741.81
454.853	745.81
455.073	738.81
455.294	738.81
455.514	731.81
455.734	763.81
455.955	805.81
456.175	827.81
456.395	758.81
456.616	744.81
456.836	682.81
457.056	707.81
457.276	708.81
457.497	735.81
457.717	734.81
457.937	718.81
458.157	741.81
458.377	734.81
458.598	730.81
458.818	778.81
459.038	790.81
459.258	809.81
459.478	847.81
459.698	885.81
459.918	875.81
460.138	860.81
460.358	888.81
460.578	861.81
460.798	869.81
461.018	877.81
461.238	856.81
461.458	885.81
461.678	884.81
461.898	946.81
462.118	922.81
462.338	913.81
462.558	975.81
462.777	989.81
462.997	987.81
463.217	1025.81
463.437	1033.81
463.657	996.81
463.876	934.81
464.096	955.81
464.316	976.81
464.536	984.81
464.755	1006.81
464.975	1049.81
465.195	959.81
465.414	1013.81
465.634	984.81
465.854	926.81
466.073	866.81
466.293	868.81
466.512	938.81
466.732	1041.81
466.951	1010.81
467.171	908.81
467.391	883.81
467.61	858.81
467.829	943.81
468.049	923.81
468.268	875.81
468.488	874.81
468.707	884.81
468.927	1046.81
469.146	1150.81
469.365	1058.81
469.585	971.81
469.804	995.81
470.023	1098.81
470.243	982.81
470.462	929.81
470.681	915.81
470.901	918.81
471.12	963.81
471.339	947.81
471.558	950.81
471.777	917.81
471.997	1004.81
472.216	1144.81
472.435	1064.81
472.654	948.81
472.873	932.81
473.092	986.81
473.311	1042.81
473.53	945.81
473.749	916.81
473.968	996.81
474.187	970.81
474.406	967.81
474.625	925.81
474.844	962.81
475.063	1031.81
475.282	1016.81
475.501	1047.81
475.72	1114.81
475.939	1091.81
476.158	1109.81
476.377	1244.81
476.596	1423.81
476.814	1481.81
477.033	1228.81
477.252	1069.81
477.471	997.81
477.69	993.81
477.908	1095.81
478.127	1104.81
478.346	1037.81
478.564	1126.81
478.783	1058.81
479.002	1083.81
479.22	1267.81
479.439	1375.81
479.658	1222.81
479.876	1107.81
480.095	1197.81
480.313	1227.81
480.532	1135.81
480.751	1092.81
480.969	1118.81
481.188	1242.81
481.406	1306.81
481.624	1223.81
481.843	1105.81
482.061	1073.81
482.28	1188.81
482.498	1454.81
482.717	1347.81
482.935	1179.81
483.153	1127.81
483.372	1048.81
483.59	1058.81
483.808	1039.81
484.027	1073.81
484.245	1018.81
484.463	1001.81
484.681	1009.81
484.9	1064.81
485.118	1198.81
485.336	1097.81
485.554	1055.81
485.772	1069.81
485.99	1174.81
486.209	1220.81
486.427	1220.81
486.645	1183.81
486.863	1230.81
487.081	1227.81
487.299	1361.81
487.517	1327.81
487.735	1202.81
487.953	1234.81
488.171	1233.81
488.389	1162.81
488.607	1109.81
488.825	1160.81
489.043	1263.81
489.261	1439.81
489.479	1535.81
489.696	1294.81
489.914	1189.81
490.132	1117.81
490.35	1123.81
490.568	1142.81
490.786	1115.81
491.003	1169.81
491.221	1141.81
491.439	1137.81
491.657	1138.81
491.874	1231.81
492.092	1465.81
492.31	1759.81
492.527	1735.81
492.745	1496.81
492.963	1306.81
493.18	1295.81
493.398	1269.81
493.615	1283.81
493.833	1257.81
494.05	1235.81
494.268	1227.81
494.485	1258.81
