Data from NickelSpatula_HRD10591_16-36-05-126.txt Node
Date: Mon Jul 22 16:36:05 EDT 2019
User: cochatt
Spectrometer: HR+D1059
Trigger mode: 1
Integration Time (sec): 1.000000E-1
Scans to average: 1
Electric dark correction enabled: true
Nonlinearity correction enabled: false
Boxcar width: 0
XAxis mode: Wavelengths
Number of Pixels in Spectrum: 2048
>>>>>Begin Spectral Data<<<<<
223.165	1.5
223.4	1.5
223.635	1.5
223.869	-19.5
224.104	-23.5
224.338	-15.5
224.573	-12.5
224.808	-19.5
225.042	-4.5
225.277	-10.5
225.511	-6.5
225.746	-4.5
225.98	7.5
226.215	-2.5
226.449	16.5
226.683	26.5
226.918	37.5
227.152	29.5
227.387	39.5
227.621	36.5
227.856	38.5
228.09	44.5
228.324	43.5
228.559	62.5
228.793	74.5
229.027	62.5
229.262	63.5
229.496	79.5
229.73	69.5
229.964	80.5
230.199	82.5
230.433	84.5
230.667	77.5
230.901	85.5
231.136	87.5
231.37	73.5
231.604	88.5
231.838	82.5
232.072	86.5
232.306	83.5
232.541	80.5
232.775	101.5
233.009	91.5
233.243	101.5
233.477	98.5
233.711	102.5
233.945	95.5
234.179	100.5
234.413	101.5
234.647	97.5
234.881	131.5
235.115	110.5
235.349	112.5
235.583	109.5
235.817	110.5
236.051	111.5
236.285	99.5
236.519	111.5
236.753	107.5
236.987	113.5
237.221	101.5
237.455	114.5
237.689	121.5
237.922	99.5
238.156	111.5
238.39	113.5
238.624	118.5
238.858	122.5
239.091	116.5
239.325	108.5
239.559	123.5
239.793	96.5
240.027	121.5
240.26	113.5
240.494	103.5
240.728	124.5
240.961	127.5
241.195	137.5
241.429	130.5
241.662	131.5
241.896	124.5
242.13	115.5
242.363	121.5
242.597	97.5
242.83	119.5
243.064	98.5
243.298	121.5
243.531	121.5
243.765	130.5
243.998	112.5
244.232	123.5
244.465	113.5
244.699	116.5
244.932	121.5
245.166	121.5
245.399	116.5
245.633	129.5
245.866	117.5
246.099	134.5
246.333	144.5
246.566	148.5
246.8	135.5
247.033	146.5
247.266	126.5
247.5	139.5
247.733	149.5
247.966	124.5
248.2	143.5
248.433	135.5
248.666	123.5
248.899	133.5
249.133	149.5
249.366	155.5
249.599	156.5
249.832	156.5
250.066	155.5
250.299	154.5
250.532	135.5
250.765	135.5
250.998	139.5
251.231	134.5
251.465	137.5
251.698	135.5
251.931	151.5
252.164	140.5
252.397	149.5
252.63	167.5
252.863	167.5
253.096	211.5
253.329	178.5
253.562	153.5
253.795	175.5
254.028	200.5
254.261	195.5
254.494	185.5
254.727	188.5
254.96	179.5
255.193	167.5
255.426	197.5
255.659	136.5
255.892	141.5
256.124	139.5
256.357	171.5
256.59	171.5
256.823	175.5
257.056	157.5
257.289	133.5
257.521	153.5
257.754	177.5
257.987	189.5
258.22	178.5
258.452	157.5
258.685	179.5
258.918	170.5
259.151	165.5
259.383	179.5
259.616	180.5
259.849	203.5
260.081	207.5
260.314	234.5
260.547	185.5
260.779	198.5
261.012	213.5
261.244	201.5
261.477	210.5
261.71	202.5
261.942	184.5
262.175	183.5
262.407	176.5
262.64	185.5
262.872	200.5
263.105	208.5
263.337	205.5
263.57	195.5
263.802	166.5
264.035	148.5
264.267	142.5
264.499	128.5
264.732	130.5
264.964	131.5
265.197	117.5
265.429	155.5
265.661	140.5
265.894	154.5
266.126	146.5
266.358	161.5
266.591	188.5
266.823	211.5
267.055	195.5
267.287	194.5
267.52	167.5
267.752	175.5
267.984	201.5
268.216	191.5
268.448	164.5
268.681	179.5
268.913	181.5
269.145	194.5
269.377	182.5
269.609	183.5
269.841	192.5
270.073	178.5
270.306	186.5
270.538	196.5
270.77	204.5
271.002	198.5
271.234	214.5
271.466	222.5
271.698	194.5
271.93	193.5
272.162	188.5
272.394	192.5
272.626	184.5
272.858	210.5
273.09	201.5
273.322	177.5
273.553	179.5
273.785	181.5
274.017	239.5
274.249	264.5
274.481	268.5
274.713	288.5
274.945	320.5
275.176	355.5
275.408	321.5
275.64	290.5
275.872	287.5
276.104	261.5
276.335	217.5
276.567	234.5
276.799	242.5
277.031	277.5
277.262	199.5
277.494	179.5
277.726	181.5
277.957	184.5
278.189	202.5
278.421	196.5
278.652	192.5
278.884	183.5
279.115	184.5
279.347	182.5
279.579	178.5
279.81	173.5
280.042	177.5
280.273	181.5
280.505	169.5
280.736	143.5
280.968	156.5
281.199	176.5
281.431	173.5
281.662	185.5
281.894	183.5
282.125	177.5
282.356	193.5
282.588	191.5
282.819	183.5
283.051	189.5
283.282	219.5
283.513	240.5
283.745	255.5
283.976	257.5
284.207	265.5
284.439	232.5
284.67	233.5
284.901	228.5
285.132	237.5
285.364	252.5
285.595	214.5
285.826	229.5
286.057	224.5
286.288	219.5
286.52	225.5
286.751	281.5
286.982	229.5
287.213	242.5
287.444	233.5
287.675	235.5
287.906	226.5
288.138	196.5
288.369	172.5
288.6	177.5
288.831	198.5
289.062	208.5
289.293	211.5
289.524	211.5
289.755	200.5
289.986	203.5
290.217	202.5
290.448	157.5
290.679	165.5
290.91	144.5
291.141	135.5
291.371	147.5
291.602	170.5
291.833	160.5
292.064	179.5
292.295	160.5
292.526	188.5
292.757	187.5
292.987	213.5
293.218	196.5
293.449	200.5
293.68	205.5
293.91	216.5
294.141	204.5
294.372	213.5
294.603	183.5
294.833	202.5
295.064	220.5
295.295	223.5
295.525	171.5
295.756	186.5
295.987	159.5
296.217	153.5
296.448	165.5
296.679	154.5
296.909	163.5
297.14	184.5
297.37	177.5
297.601	187.5
297.831	163.5
298.062	180.5
298.292	184.5
298.523	212.5
298.753	230.5
298.984	221.5
299.214	167.5
299.445	157.5
299.675	159.5
299.905	170.5
300.136	170.5
300.366	170.5
300.597	167.5
300.827	164.5
301.057	151.5
301.288	157.5
301.518	159.5
301.748	186.5
301.979	175.5
302.209	185.5
302.439	184.5
302.669	178.5
302.9	176.5
303.13	172.5
303.36	179.5
303.59	160.5
303.82	167.5
304.051	188.5
304.281	182.5
304.511	177.5
304.741	183.5
304.971	177.5
305.201	168.5
305.431	168.5
305.661	164.5
305.891	151.5
306.121	153.5
306.352	145.5
306.582	146.5
306.812	135.5
307.042	142.5
307.272	137.5
307.502	157.5
307.731	143.5
307.961	132.5
308.191	137.5
308.421	142.5
308.651	127.5
308.881	126.5
309.111	139.5
309.341	136.5
309.571	146.5
309.8	157.5
310.03	152.5
310.26	142.5
310.49	143.5
310.72	123.5
310.949	148.5
311.179	147.5
311.409	149.5
311.639	167.5
311.868	197.5
312.098	221.5
312.328	232.5
312.557	224.5
312.787	228.5
313.017	207.5
313.246	213.5
313.476	240.5
313.706	208.5
313.935	181.5
314.165	161.5
314.394	160.5
314.624	155.5
314.853	158.5
315.083	146.5
315.312	155.5
315.542	156.5
315.771	139.5
316.001	129.5
316.23	139.5
316.46	132.5
316.689	136.5
316.919	135.5
317.148	134.5
317.377	141.5
317.607	132.5
317.836	148.5
318.065	170.5
318.295	159.5
318.524	162.5
318.753	145.5
318.983	155.5
319.212	149.5
319.441	165.5
319.67	170.5
319.9	170.5
320.129	156.5
320.358	147.5
320.587	163.5
320.816	145.5
321.046	149.5
321.275	171.5
321.504	177.5
321.733	176.5
321.962	163.5
322.191	168.5
322.42	162.5
322.649	179.5
322.878	158.5
323.108	158.5
323.337	170.5
323.566	167.5
323.795	160.5
324.024	161.5
324.253	153.5
324.482	149.5
324.71	148.5
324.939	182.5
325.168	160.5
325.397	137.5
325.626	149.5
325.855	139.5
326.084	155.5
326.313	140.5
326.542	140.5
326.77	126.5
326.999	146.5
327.228	150.5
327.457	150.5
327.686	160.5
327.914	145.5
328.143	146.5
328.372	141.5
328.6	131.5
328.829	137.5
329.058	141.5
329.287	130.5
329.515	148.5
329.744	143.5
329.972	147.5
330.201	145.5
330.43	133.5
330.658	130.5
330.887	152.5
331.115	143.5
331.344	151.5
331.572	146.5
331.801	143.5
332.03	130.5
332.258	137.5
332.486	161.5
332.715	139.5
332.943	154.5
333.172	137.5
333.4	163.5
333.629	180.5
333.857	164.5
334.085	153.5
334.314	145.5
334.542	142.5
334.771	136.5
334.999	145.5
335.227	149.5
335.455	140.5
335.684	154.5
335.912	171.5
336.14	184.5
336.369	170.5
336.597	156.5
336.825	179.5
337.053	209.5
337.281	176.5
337.51	145.5
337.738	157.5
337.966	154.5
338.194	154.5
338.422	165.5
338.65	129.5
338.878	135.5
339.106	143.5
339.334	143.5
339.562	161.5
339.79	154.5
340.018	153.5
340.246	154.5
340.474	180.5
340.702	185.5
340.93	179.5
341.158	168.5
341.386	162.5
341.614	142.5
341.842	157.5
342.07	163.5
342.298	177.5
342.526	185.5
342.754	177.5
342.981	145.5
343.209	143.5
343.437	176.5
343.665	144.5
343.893	184.5
344.12	188.5
344.348	218.5
344.576	187.5
344.804	177.5
345.031	157.5
345.259	143.5
345.487	164.5
345.714	160.5
345.942	163.5
346.17	172.5
346.397	177.5
346.625	153.5
346.853	126.5
347.08	141.5
347.308	160.5
347.535	172.5
347.763	162.5
347.99	154.5
348.218	141.5
348.445	164.5
348.673	152.5
348.9	146.5
349.128	157.5
349.355	158.5
349.583	163.5
349.81	145.5
350.037	151.5
350.265	125.5
350.492	140.5
350.72	123.5
350.947	127.5
351.174	138.5
351.402	124.5
351.629	148.5
351.856	143.5
352.083	140.5
352.311	157.5
352.538	165.5
352.765	159.5
352.992	156.5
353.22	143.5
353.447	160.5
353.674	152.5
353.901	159.5
354.128	159.5
354.355	148.5
354.583	167.5
354.81	165.5
355.037	153.5
355.264	163.5
355.491	169.5
355.718	167.5
355.945	168.5
356.172	161.5
356.399	155.5
356.626	185.5
356.853	225.5
357.08	229.5
357.307	234.5
357.534	178.5
357.761	199.5
357.988	236.5
358.215	270.5
358.441	239.5
358.668	217.5
358.895	199.5
359.122	183.5
359.349	189.5
359.576	187.5
359.802	165.5
360.029	158.5
360.256	166.5
360.483	188.5
360.709	213.5
360.936	232.5
361.163	200.5
361.39	161.5
361.616	153.5
361.843	171.5
362.07	200.5
362.296	191.5
362.523	162.5
362.749	134.5
362.976	151.5
363.203	175.5
363.429	179.5
363.656	174.5
363.882	145.5
364.109	143.5
364.335	160.5
364.562	171.5
364.788	169.5
365.015	182.5
365.241	179.5
365.468	151.5
365.694	155.5
365.92	148.5
366.147	131.5
366.373	140.5
366.599	141.5
366.826	136.5
367.052	142.5
367.278	120.5
367.505	133.5
367.731	143.5
367.957	151.5
368.184	163.5
368.41	165.5
368.636	148.5
368.862	174.5
369.089	140.5
369.315	137.5
369.541	154.5
369.767	163.5
369.993	125.5
370.219	142.5
370.445	139.5
370.672	162.5
370.898	167.5
371.124	159.5
371.35	148.5
371.576	147.5
371.802	138.5
372.028	168.5
372.254	177.5
372.48	163.5
372.706	157.5
372.932	177.5
373.158	144.5
373.384	190.5
373.61	221.5
373.835	227.5
374.061	183.5
374.287	163.5
374.513	197.5
374.739	228.5
374.965	229.5
375.191	197.5
375.416	169.5
375.642	159.5
375.868	167.5
376.094	186.5
376.319	173.5
376.545	169.5
376.771	180.5
376.997	159.5
377.222	141.5
377.448	128.5
377.674	128.5
377.899	128.5
378.125	138.5
378.35	149.5
378.576	139.5
378.802	126.5
379.027	150.5
379.253	156.5
379.478	157.5
379.704	163.5
379.929	154.5
380.155	167.5
380.38	155.5
380.606	160.5
380.831	169.5
381.057	157.5
381.282	152.5
381.507	159.5
381.733	196.5
381.958	202.5
382.184	197.5
382.409	205.5
382.634	223.5
382.86	243.5
383.085	186.5
383.31	165.5
383.535	187.5
383.761	177.5
383.986	167.5
384.211	209.5
384.436	192.5
384.662	153.5
384.887	136.5
385.112	165.5
385.337	157.5
385.562	163.5
385.787	165.5
386.013	177.5
386.238	188.5
386.463	153.5
386.688	154.5
386.913	148.5
387.138	147.5
387.363	152.5
387.588	159.5
387.813	154.5
388.038	142.5
388.263	159.5
388.488	156.5
388.713	177.5
388.938	175.5
389.163	156.5
389.387	161.5
389.612	147.5
389.837	147.5
390.062	147.5
390.287	148.5
390.512	139.5
390.736	132.5
390.961	140.5
391.186	141.5
391.411	137.5
391.636	132.5
391.86	144.5
392.085	148.5
392.31	180.5
392.534	155.5
392.759	164.5
392.984	167.5
393.208	148.5
393.433	135.5
393.658	144.5
393.882	141.5
394.107	141.5
394.331	142.5
394.556	136.5
394.78	139.5
395.005	122.5
395.229	140.5
395.454	139.5
395.678	140.5
395.903	135.5
396.127	145.5
396.352	157.5
396.576	152.5
396.801	143.5
397.025	169.5
397.249	157.5
397.474	154.5
397.698	139.5
397.922	137.5
398.147	141.5
398.371	149.5
398.595	155.5
398.82	149.5
399.044	150.5
399.268	156.5
399.492	154.5
399.717	157.5
399.941	168.5
400.165	169.5
400.389	163.5
400.613	154.5
400.837	158.5
401.062	160.5
401.286	137.5
401.51	159.5
401.734	135.5
401.958	145.5
402.182	148.5
402.406	147.5
402.63	143.5
402.854	136.5
403.078	166.5
403.302	196.5
403.526	218.5
403.75	197.5
403.974	179.5
404.198	194.5
404.422	191.5
404.645	203.5
404.869	205.5
405.093	185.5
405.317	155.5
405.541	132.5
405.765	150.5
405.988	163.5
406.212	179.5
406.436	182.5
406.66	192.5
406.883	153.5
407.107	159.5
407.331	191.5
407.555	172.5
407.778	177.5
408.002	160.5
408.226	149.5
408.449	161.5
408.673	133.5
408.896	144.5
409.12	149.5
409.344	152.5
409.567	149.5
409.791	130.5
410.014	138.5
410.238	146.5
410.461	149.5
410.685	143.5
410.908	138.5
411.132	140.5
411.355	156.5
411.578	148.5
411.802	169.5
412.025	149.5
412.249	160.5
412.472	149.5
412.695	148.5
412.919	151.5
413.142	159.5
413.365	157.5
413.589	163.5
413.812	159.5
414.035	162.5
414.258	149.5
414.482	156.5
414.705	171.5
414.928	148.5
415.151	146.5
415.374	141.5
415.597	143.5
415.821	161.5
416.044	152.5
416.267	141.5
416.49	140.5
416.713	133.5
416.936	136.5
417.159	148.5
417.382	149.5
417.605	145.5
417.828	149.5
418.051	156.5
418.274	160.5
418.497	155.5
418.72	141.5
418.943	156.5
419.166	152.5
419.389	165.5
419.611	153.5
419.834	169.5
420.057	159.5
420.28	155.5
420.503	166.5
420.726	142.5
420.948	140.5
421.171	146.5
421.394	127.5
421.617	155.5
421.839	130.5
422.062	151.5
422.285	149.5
422.507	131.5
422.73	147.5
422.953	145.5
423.175	139.5
423.398	147.5
423.621	161.5
423.843	154.5
424.066	154.5
424.288	144.5
424.511	147.5
424.733	145.5
424.956	144.5
425.178	168.5
425.401	188.5
425.623	200.5
425.846	151.5
426.068	164.5
426.291	173.5
426.513	169.5
426.735	147.5
426.958	148.5
427.18	164.5
427.402	215.5
427.625	226.5
427.847	173.5
428.069	160.5
428.292	144.5
428.514	161.5
428.736	144.5
428.958	148.5
429.181	176.5
429.403	149.5
429.625	148.5
429.847	136.5
430.069	169.5
430.292	139.5
430.514	147.5
430.736	153.5
430.958	176.5
431.18	161.5
431.402	129.5
431.624	136.5
431.846	130.5
432.068	147.5
432.29	157.5
432.512	154.5
432.734	180.5
432.956	171.5
433.178	147.5
433.4	147.5
433.622	150.5
433.844	147.5
434.066	167.5
434.287	160.5
434.509	151.5
434.731	164.5
434.953	148.5
435.175	152.5
435.397	168.5
435.618	148.5
435.84	145.5
436.062	147.5
436.284	151.5
436.505	139.5
436.727	118.5
436.949	139.5
437.17	138.5
437.392	147.5
437.614	140.5
437.835	155.5
438.057	153.5
438.278	149.5
438.5	200.5
438.721	193.5
438.943	170.5
439.165	145.5
439.386	136.5
439.608	142.5
439.829	133.5
440.05	139.5
440.272	147.5
440.493	171.5
440.715	170.5
440.936	155.5
441.158	141.5
441.379	142.5
441.6	154.5
441.822	155.5
442.043	144.5
442.264	123.5
442.486	150.5
442.707	148.5
442.928	128.5
443.149	129.5
443.371	160.5
443.592	140.5
443.813	161.5
444.034	148.5
444.255	143.5
444.476	146.5
444.698	147.5
444.919	145.5
445.14	297.5
445.361	224.5
445.582	152.5
445.803	160.5
446.024	157.5
446.245	159.5
446.466	147.5
446.687	152.5
446.908	131.5
447.129	136.5
447.35	135.5
447.571	148.5
447.792	129.5
448.013	136.5
448.234	135.5
448.455	123.5
448.675	139.5
448.896	136.5
449.117	142.5
449.338	140.5
449.559	127.5
449.779	139.5
450	159.5
450.221	154.5
450.442	158.5
450.662	138.5
450.883	121.5
451.104	143.5
451.324	133.5
451.545	148.5
451.766	116.5
451.986	144.5
452.207	120.5
452.428	130.5
452.648	141.5
452.869	147.5
453.089	155.5
453.31	156.5
453.53	122.5
453.751	142.5
453.971	139.5
454.192	146.5
454.412	135.5
454.633	141.5
454.853	133.5
455.073	122.5
455.294	131.5
455.514	135.5
455.734	134.5
455.955	144.5
456.175	127.5
456.395	123.5
456.616	135.5
456.836	132.5
457.056	133.5
457.276	128.5
457.497	140.5
457.717	120.5
457.937	132.5
458.157	134.5
458.377	129.5
458.598	141.5
458.818	141.5
459.038	132.5
459.258	140.5
459.478	143.5
459.698	139.5
459.918	161.5
460.138	150.5
460.358	149.5
460.578	144.5
460.798	147.5
461.018	146.5
461.238	139.5
461.458	158.5
461.678	149.5
461.898	142.5
462.118	145.5
462.338	156.5
462.558	175.5
462.777	164.5
462.997	171.5
463.217	158.5
463.437	156.5
463.657	155.5
463.876	142.5
464.096	149.5
464.316	165.5
464.536	159.5
464.755	159.5
464.975	159.5
465.195	157.5
465.414	183.5
465.634	155.5
465.854	148.5
466.073	153.5
466.293	151.5
466.512	157.5
466.732	183.5
466.951	173.5
467.171	145.5
467.391	156.5
467.61	154.5
467.829	146.5
468.049	158.5
468.268	145.5
468.488	150.5
468.707	147.5
468.927	152.5
469.146	169.5
469.365	150.5
469.585	151.5
469.804	154.5
470.023	168.5
470.243	148.5
470.462	167.5
470.681	147.5
470.901	162.5
471.12	160.5
471.339	172.5
471.558	148.5
471.777	149.5
471.997	177.5
472.216	181.5
472.435	169.5
472.654	163.5
472.873	164.5
473.092	171.5
473.311	192.5
473.53	153.5
473.749	140.5
473.968	169.5
474.187	159.5
474.406	148.5
474.625	147.5
474.844	160.5
475.063	148.5
475.282	167.5
475.501	173.5
475.72	184.5
475.939	160.5
476.158	164.5
476.377	200.5
476.596	201.5
476.814	229.5
477.033	185.5
477.252	170.5
477.471	159.5
477.69	139.5
477.908	159.5
478.127	175.5
478.346	161.5
478.564	205.5
478.783	171.5
479.002	176.5
479.22	177.5
479.439	168.5
479.658	189.5
479.876	156.5
480.095	191.5
480.313	180.5
480.532	177.5
480.751	169.5
480.969	150.5
481.188	177.5
481.406	191.5
481.624	172.5
481.843	171.5
482.061	163.5
482.28	198.5
482.498	224.5
482.717	209.5
482.935	177.5
483.153	157.5
483.372	155.5
483.59	164.5
483.808	175.5
484.027	164.5
484.245	165.5
484.463	164.5
484.681	156.5
484.9	151.5
485.118	170.5
485.336	172.5
485.554	150.5
485.772	171.5
485.99	169.5
486.209	179.5
486.427	178.5
486.645	169.5
486.863	163.5
487.081	179.5
487.299	187.5
487.517	207.5
487.735	183.5
487.953	179.5
488.171	190.5
488.389	173.5
488.607	177.5
488.825	179.5
489.043	178.5
489.261	212.5
489.479	213.5
489.696	175.5
489.914	170.5
490.132	156.5
490.35	163.5
490.568	172.5
490.786	155.5
491.003	163.5
491.221	175.5
491.439	166.5
491.657	178.5
491.874	167.5
492.092	209.5
492.31	258.5
492.527	248.5
492.745	211.5
492.963	185.5
493.18	186.5
493.398	155.5
493.615	191.5
493.833	181.5
494.05	175.5
494.268	175.5
494.485	176.5
494.703	181.5
494.92	176.5
495.138	168.5
495.355	177.5
495.573	189.5
495.79	208.5
496.008	261.5
496.225	209.5
496.442	191.5
496.66	188.5
496.877	187.5
497.094	187.5
497.312	194.5
497.529	177.5
497.746	184.5
497.963	193.5
498.181	208.5
498.398	226.5
498.615	219.5
498.832	218.5
499.049	227.5
499.267	195.5
499.484	219.5
499.701	202.5
499.918	216.5
500.135	245.5
500.352	247.5
500.569	255.5
500.786	259.5
501.003	266.5
501.22	240.5
501.437	218.5
501.654	214.5
501.871	202.5
502.088	216.5
502.305	200.5
502.522	199.5
502.739	203.5
502.956	186.5
503.172	195.5
503.389	191.5
503.606	192.5
503.823	204.5
504.04	191.5
504.256	170.5
504.473	188.5
504.69	196.5
504.907	185.5
505.123	204.5
505.34	193.5
505.557	195.5
505.773	192.5
505.99	196.5
506.207	188.5
506.423	175.5
506.64	164.5
506.856	184.5
507.073	203.5
507.289	188.5
507.506	199.5
507.722	194.5
507.939	204.5
508.155	206.5
508.372	193.5
508.588	186.5
508.805	191.5
509.021	175.5
509.238	193.5
509.454	189.5
509.67	176.5
509.887	180.5
510.103	178.5
510.319	194.5
510.536	175.5
510.752	157.5
510.968	183.5
511.184	168.5
511.401	161.5
511.617	148.5
511.833	153.5
512.049	167.5
512.265	175.5
512.481	166.5
512.698	175.5
512.914	189.5
513.13	174.5
513.346	159.5
513.562	174.5
513.778	170.5
513.994	171.5
514.21	196.5
514.426	179.5
514.642	177.5
514.858	157.5
515.074	167.5
515.29	181.5
515.506	196.5
515.721	173.5
515.937	183.5
516.153	183.5
516.369	175.5
516.585	195.5
516.801	194.5
517.016	216.5
517.232	225.5
517.448	211.5
517.664	170.5
517.879	189.5
518.095	193.5
518.311	186.5
518.527	174.5
518.742	195.5
518.958	198.5
519.173	191.5
519.389	211.5
519.605	209.5
519.82	223.5
520.036	232.5
520.251	219.5
520.467	224.5
520.682	350.5
520.898	432.5
