Data from NickelSpatula.Lamp.E10.P2_HRD10591_11-57-46-531.txt Node
Date: Tue Jul 23 11:57:46 EDT 2019
User: cochatt
Spectrometer: HR+D1059
Trigger mode: 1
Integration Time (sec): 1.000000E-1
Scans to average: 1
Electric dark correction enabled: true
Nonlinearity correction enabled: false
Boxcar width: 0
XAxis mode: Wavelengths
Number of Pixels in Spectrum: 2048
>>>>>Begin Spectral Data<<<<<
223.165	-9.5
223.4	-9.5
223.635	-9.5
223.869	-11.5
224.104	-15.5
224.338	-7.5
224.573	-16.5
224.808	-15.5
225.042	-16.5
225.277	-27.5
225.511	3.5
225.746	5.5
225.98	7.5
226.215	13.5
226.449	17.5
226.683	24.5
226.918	19.5
227.152	28.5
227.387	33.5
227.621	42.5
227.856	35.5
228.09	33.5
228.324	27.5
228.559	38.5
228.793	82.5
229.027	137.5
229.262	141.5
229.496	150.5
229.73	164.5
229.964	189.5
230.199	202.5
230.433	214.5
230.667	214.5
230.901	199.5
231.136	192.5
231.37	193.5
231.604	205.5
231.838	238.5
232.072	243.5
232.306	241.5
232.541	223.5
232.775	246.5
233.009	252.5
233.243	276.5
233.477	312.5
233.711	341.5
233.945	330.5
234.179	318.5
234.413	342.5
234.647	375.5
234.881	432.5
235.115	426.5
235.349	386.5
235.583	318.5
235.817	344.5
236.051	371.5
236.285	388.5
236.519	477.5
236.753	432.5
236.987	421.5
237.221	398.5
237.455	405.5
237.689	406.5
237.922	431.5
238.156	472.5
238.39	531.5
238.624	650.5
238.858	584.5
239.091	472.5
239.325	502.5
239.559	489.5
239.793	546.5
240.027	614.5
240.26	596.5
240.494	581.5
240.728	586.5
240.961	694.5
241.195	626.5
241.429	607.5
241.662	618.5
241.896	488.5
242.13	475.5
242.363	450.5
242.597	450.5
242.83	539.5
243.064	550.5
243.298	591.5
243.531	643.5
243.765	641.5
243.998	611.5
244.232	603.5
244.465	585.5
244.699	590.5
244.932	634.5
245.166	611.5
245.399	545.5
245.633	541.5
245.866	556.5
246.099	594.5
246.333	700.5
246.566	734.5
246.8	746.5
247.033	712.5
247.266	670.5
247.5	657.5
247.733	663.5
247.966	634.5
248.2	652.5
248.433	769.5
248.666	818.5
248.899	796.5
249.133	864.5
249.366	972.5
249.599	995.5
249.832	928.5
250.066	819.5
250.299	827.5
250.532	821.5
250.765	773.5
250.998	718.5
251.231	716.5
251.465	758.5
251.698	836.5
251.931	798.5
252.164	811.5
252.397	931.5
252.63	1042.5
252.863	1143.5
253.096	1166.5
253.329	1182.5
253.562	1096.5
253.795	1231.5
254.028	1344.5
254.261	1359.5
254.494	1219.5
254.727	1115.5
254.96	1104.5
255.193	1200.5
255.426	1113.5
255.659	851.5
255.892	752.5
256.124	836.5
256.357	1019.5
256.59	1203.5
256.823	1115.5
257.056	952.5
257.289	916.5
257.521	941.5
257.754	1137.5
257.987	1271.5
258.22	1110.5
258.452	1006.5
258.685	1142.5
258.918	1281.5
259.151	1236.5
259.383	1304.5
259.616	1474.5
259.849	1556.5
260.081	1700.5
260.314	1875.5
260.547	1485.5
260.779	1448.5
261.012	1704.5
261.244	1613.5
261.477	1608.5
261.71	1500.5
261.942	1257.5
262.175	1296.5
262.407	1206.5
262.64	1276.5
262.872	1462.5
263.105	1658.5
263.337	1697.5
263.57	1509.5
263.802	1048.5
264.035	908.5
264.267	876.5
264.499	746.5
264.732	709.5
264.964	688.5
265.197	715.5
265.429	769.5
265.661	826.5
265.894	840.5
266.126	913.5
266.358	1024.5
266.591	1228.5
266.823	1448.5
267.055	1413.5
267.287	1258.5
267.52	1224.5
267.752	1302.5
267.984	1436.5
268.216	1378.5
268.448	1113.5
268.681	1102.5
268.913	1209.5
269.145	1263.5
269.377	1305.5
269.609	1286.5
269.841	1211.5
270.073	1274.5
270.306	1332.5
270.538	1380.5
270.77	1384.5
271.002	1381.5
271.234	1442.5
271.466	1498.5
271.698	1452.5
271.93	1377.5
272.162	1393.5
272.394	1400.5
272.626	1393.5
272.858	1465.5
273.09	1470.5
273.322	1292.5
273.553	1217.5
273.785	1506.5
274.017	1938.5
274.249	2349.5
274.481	2508.5
274.713	2752.5
274.945	3135.5
275.176	3257.5
275.408	2787.5
275.64	2597.5
275.872	2566.5
276.104	2219.5
276.335	1866.5
276.567	1907.5
276.799	1908.5
277.031	2016.5
277.262	1588.5
277.494	1243.5
277.726	1179.5
277.957	1281.5
278.189	1502.5
278.421	1457.5
278.652	1416.5
278.884	1362.5
279.115	1245.5
279.347	1185.5
279.579	1164.5
279.81	1168.5
280.042	1206.5
280.273	1231.5
280.505	1138.5
280.736	1006.5
280.968	1035.5
281.199	1113.5
281.431	1227.5
281.662	1196.5
281.894	1181.5
282.125	1224.5
282.356	1354.5
282.588	1360.5
282.819	1234.5
283.051	1362.5
283.282	1669.5
283.513	1935.5
283.745	2207.5
283.976	2165.5
284.207	1976.5
284.439	2063.5
284.67	2046.5
284.901	1791.5
285.132	1937.5
285.364	2020.5
285.595	1886.5
285.826	1933.5
286.057	2038.5
286.288	1902.5
286.52	1983.5
286.751	2130.5
286.982	2085.5
287.213	1790.5
287.444	1765.5
287.675	1830.5
287.906	1810.5
288.138	1570.5
288.369	1349.5
288.6	1269.5
288.831	1332.5
289.062	1558.5
289.293	1693.5
289.524	1592.5
289.755	1595.5
289.986	1650.5
290.217	1458.5
290.448	1106.5
290.679	968.5
290.91	902.5
291.141	921.5
291.371	946.5
291.602	944.5
291.833	984.5
292.064	1038.5
292.295	1203.5
292.526	1385.5
292.757	1408.5
292.987	1531.5
293.218	1555.5
293.449	1562.5
293.68	1690.5
293.91	1592.5
294.141	1606.5
294.372	1520.5
294.603	1378.5
294.833	1564.5
295.064	1863.5
295.295	1744.5
295.525	1309.5
295.756	1122.5
295.987	972.5
296.217	984.5
296.448	1069.5
296.679	1050.5
296.909	1228.5
297.14	1285.5
297.37	1412.5
297.601	1344.5
297.831	1140.5
298.062	1258.5
298.292	1422.5
298.523	1524.5
298.753	1737.5
298.984	1557.5
299.214	1256.5
299.445	1058.5
299.675	1030.5
299.905	1024.5
300.136	1016.5
300.366	1131.5
300.597	1139.5
300.827	976.5
301.057	934.5
301.288	968.5
301.518	1058.5
301.748	1180.5
301.979	1308.5
302.209	1412.5
302.439	1424.5
302.669	1204.5
302.9	1189.5
303.13	1092.5
303.36	1073.5
303.59	1064.5
303.82	1097.5
304.051	1210.5
304.281	1326.5
304.511	1260.5
304.741	1110.5
304.971	1149.5
305.201	1262.5
305.431	1219.5
305.661	1035.5
305.891	1024.5
306.121	1066.5
306.352	930.5
306.582	854.5
306.812	836.5
307.042	836.5
307.272	789.5
307.502	772.5
307.731	853.5
307.961	898.5
308.191	857.5
308.421	802.5
308.651	785.5
308.881	779.5
309.111	769.5
309.341	804.5
309.571	872.5
309.8	908.5
310.03	910.5
310.26	948.5
310.49	930.5
310.72	862.5
310.949	858.5
311.179	883.5
311.409	930.5
311.639	1070.5
311.868	1390.5
312.098	1781.5
312.328	1970.5
312.557	1870.5
312.787	1878.5
313.017	1671.5
313.246	1814.5
313.476	1934.5
313.706	1637.5
313.935	1291.5
314.165	1045.5
314.394	925.5
314.624	946.5
314.853	984.5
315.083	1046.5
315.312	1001.5
315.542	980.5
315.771	922.5
316.001	848.5
316.23	810.5
316.46	842.5
316.689	832.5
316.919	877.5
317.148	845.5
317.377	861.5
317.607	861.5
317.836	926.5
318.065	1093.5
318.295	1214.5
318.524	1144.5
318.753	961.5
318.983	898.5
319.212	885.5
319.441	994.5
319.67	1111.5
319.9	1178.5
320.129	1094.5
320.358	978.5
320.587	894.5
320.816	979.5
321.046	1130.5
321.275	1263.5
321.504	1277.5
321.733	1247.5
321.962	1184.5
322.191	1139.5
322.42	1055.5
322.649	1100.5
322.878	1175.5
323.108	1157.5
323.337	1100.5
323.566	1056.5
323.795	1041.5
324.024	978.5
324.253	954.5
324.482	965.5
324.71	1070.5
324.939	1192.5
325.168	1066.5
325.397	930.5
325.626	882.5
325.855	904.5
326.084	905.5
326.313	869.5
326.542	831.5
326.77	862.5
326.999	890.5
327.228	929.5
327.457	986.5
327.686	961.5
327.914	868.5
328.143	819.5
328.372	822.5
328.6	813.5
328.829	853.5
329.058	885.5
329.287	884.5
329.515	856.5
329.744	877.5
329.972	802.5
330.201	797.5
330.43	853.5
330.658	949.5
330.887	1057.5
331.115	1019.5
331.344	992.5
331.572	922.5
331.801	892.5
332.03	828.5
332.258	850.5
332.486	938.5
332.715	967.5
332.943	902.5
333.172	908.5
333.4	938.5
333.629	1006.5
333.857	1104.5
334.085	1089.5
334.314	1093.5
334.542	1009.5
334.771	975.5
334.999	929.5
335.227	901.5
335.455	928.5
335.684	1034.5
335.912	1196.5
336.14	1314.5
336.369	1258.5
336.597	1222.5
336.825	1357.5
337.053	1502.5
337.281	1200.5
337.51	992.5
337.738	971.5
337.966	1041.5
338.194	1175.5
338.422	1070.5
338.65	930.5
338.878	866.5
339.106	891.5
339.334	1000.5
339.562	1088.5
339.79	965.5
340.018	939.5
340.246	1028.5
340.474	1192.5
340.702	1282.5
340.93	1302.5
341.158	1295.5
341.386	1086.5
341.614	1076.5
341.842	1084.5
342.07	1133.5
342.298	1318.5
342.526	1372.5
342.754	1180.5
342.981	1092.5
343.209	1040.5
343.437	1123.5
343.665	1164.5
343.893	1150.5
344.12	1355.5
344.348	1564.5
344.576	1405.5
344.804	1153.5
345.031	996.5
345.259	957.5
345.487	973.5
345.714	1012.5
345.942	1060.5
346.17	1177.5
346.397	1089.5
346.625	963.5
346.853	948.5
347.08	928.5
347.308	965.5
347.535	1088.5
347.763	1138.5
347.99	949.5
348.218	946.5
348.445	945.5
348.673	966.5
348.9	1001.5
349.128	1016.5
349.355	1040.5
349.583	1027.5
349.81	1003.5
350.037	918.5
350.265	844.5
350.492	806.5
350.72	814.5
350.947	805.5
351.174	877.5
351.402	908.5
351.629	961.5
351.856	918.5
352.083	874.5
352.311	960.5
352.538	1036.5
352.765	1103.5
352.992	1017.5
353.22	990.5
353.447	948.5
353.674	943.5
353.901	925.5
354.128	930.5
354.355	966.5
354.583	964.5
354.81	949.5
355.037	1023.5
355.264	987.5
355.491	1035.5
355.718	1110.5
355.945	1072.5
356.172	1083.5
356.399	1057.5
356.626	1288.5
356.853	1525.5
357.08	1598.5
357.307	1658.5
357.534	1325.5
357.761	1358.5
357.988	1697.5
358.215	1950.5
358.441	1872.5
358.668	1553.5
358.895	1433.5
359.122	1139.5
359.349	1183.5
359.576	1293.5
359.802	1056.5
360.029	933.5
360.256	1006.5
360.483	1248.5
360.709	1550.5
360.936	1588.5
361.163	1410.5
361.39	1096.5
361.616	1028.5
361.843	1196.5
362.07	1424.5
362.296	1338.5
362.523	1052.5
362.749	910.5
362.976	964.5
363.203	1139.5
363.429	1290.5
363.656	1022.5
363.882	949.5
364.109	1007.5
364.335	952.5
364.562	963.5
364.788	1082.5
365.015	1232.5
365.241	1141.5
365.468	933.5
365.694	832.5
365.92	812.5
366.147	798.5
366.373	768.5
366.599	786.5
366.826	787.5
367.052	811.5
367.278	819.5
367.505	803.5
367.731	880.5
367.957	1012.5
368.184	1002.5
368.41	980.5
368.636	967.5
368.862	1023.5
369.089	982.5
369.315	860.5
369.541	878.5
369.767	877.5
369.993	844.5
370.219	837.5
370.445	894.5
370.672	952.5
370.898	1037.5
371.124	1035.5
371.35	937.5
371.576	878.5
371.802	942.5
372.028	1134.5
372.254	1269.5
372.48	1112.5
372.706	1034.5
372.932	1065.5
373.158	1091.5
373.384	1311.5
373.61	1731.5
373.835	1788.5
374.061	1294.5
374.287	1133.5
374.513	1352.5
374.739	1571.5
374.965	1622.5
375.191	1604.5
375.416	1096.5
375.642	998.5
375.868	1158.5
376.094	1306.5
376.319	1149.5
376.545	1243.5
376.771	1294.5
376.997	1102.5
377.222	854.5
377.448	736.5
377.674	730.5
377.899	734.5
378.125	745.5
378.35	733.5
378.576	774.5
378.802	829.5
379.027	906.5
379.253	878.5
379.478	882.5
379.704	996.5
379.929	1058.5
380.155	1001.5
380.38	928.5
380.606	960.5
380.831	1053.5
381.057	959.5
381.282	934.5
381.507	1125.5
381.733	1376.5
381.958	1467.5
382.184	1552.5
382.409	1594.5
382.634	1617.5
382.86	1673.5
383.085	1393.5
383.31	1104.5
383.535	1172.5
383.761	1160.5
383.986	1134.5
384.211	1335.5
384.436	1300.5
384.662	1018.5
384.887	975.5
385.112	1028.5
385.337	1028.5
385.562	979.5
385.787	1073.5
386.013	1158.5
386.238	1225.5
386.463	1004.5
386.688	950.5
386.913	947.5
387.138	852.5
387.363	930.5
387.588	958.5
387.813	964.5
388.038	1073.5
388.263	960.5
388.488	957.5
388.713	1100.5
388.938	1128.5
389.163	1010.5
389.387	900.5
389.612	886.5
389.837	900.5
390.062	912.5
390.287	986.5
390.512	987.5
390.736	938.5
390.961	862.5
391.186	821.5
391.411	815.5
391.636	829.5
391.86	926.5
392.085	986.5
392.31	964.5
392.534	933.5
392.759	939.5
392.984	957.5
393.208	924.5
393.433	845.5
393.658	818.5
393.882	792.5
394.107	798.5
394.331	766.5
394.556	796.5
394.78	804.5
395.005	821.5
395.229	837.5
395.454	863.5
395.678	852.5
395.903	906.5
396.127	862.5
396.352	845.5
396.576	946.5
396.801	982.5
397.025	1073.5
397.249	1097.5
397.474	902.5
397.698	908.5
397.922	995.5
398.147	888.5
398.371	917.5
398.595	976.5
398.82	922.5
399.044	933.5
399.268	997.5
399.492	1037.5
399.717	1023.5
399.941	1080.5
400.165	1036.5
400.389	1015.5
400.613	1010.5
400.837	1007.5
401.062	910.5
401.286	890.5
401.51	893.5
401.734	923.5
401.958	898.5
402.182	919.5
402.406	879.5
402.63	896.5
402.854	925.5
403.078	1050.5
403.302	1252.5
403.526	1323.5
403.75	1194.5
403.974	1038.5
404.198	1073.5
404.422	1215.5
404.645	1400.5
404.869	1505.5
405.093	1164.5
405.317	995.5
405.541	968.5
405.765	997.5
405.988	1004.5
406.212	1089.5
406.436	1262.5
406.66	1394.5
406.883	1116.5
407.107	1179.5
407.331	1346.5
407.555	1272.5
407.778	1132.5
408.002	1035.5
408.226	1038.5
408.449	1038.5
408.673	1001.5
408.896	912.5
409.12	917.5
409.344	895.5
409.567	878.5
409.791	881.5
410.014	893.5
410.238	868.5
410.461	872.5
410.685	900.5
410.908	900.5
411.132	925.5
411.355	920.5
411.578	932.5
411.802	904.5
412.025	972.5
412.249	992.5
412.472	947.5
412.695	944.5
412.919	931.5
413.142	948.5
413.365	1039.5
413.589	1052.5
413.812	948.5
414.035	888.5
414.258	879.5
414.482	1024.5
414.705	1039.5
414.928	897.5
415.151	869.5
415.374	869.5
415.597	883.5
415.821	894.5
416.044	874.5
416.267	896.5
416.49	880.5
416.713	866.5
416.936	857.5
417.159	836.5
417.382	874.5
417.605	898.5
417.828	925.5
418.051	926.5
418.274	953.5
418.497	910.5
418.72	917.5
418.943	945.5
419.166	968.5
419.389	1004.5
419.611	976.5
419.834	990.5
420.057	1072.5
420.28	1065.5
420.503	1000.5
420.726	909.5
420.948	862.5
421.171	902.5
421.394	861.5
421.617	840.5
421.839	890.5
422.062	926.5
422.285	928.5
422.507	942.5
422.73	960.5
422.953	952.5
423.175	908.5
423.398	923.5
423.621	972.5
423.843	1032.5
424.066	954.5
424.288	942.5
424.511	909.5
424.733	896.5
424.956	979.5
425.178	1053.5
425.401	1172.5
425.623	1299.5
425.846	1127.5
426.068	1000.5
426.291	1070.5
426.513	1022.5
426.735	921.5
426.958	996.5
427.18	1140.5
427.402	1444.5
427.625	1446.5
427.847	1166.5
428.069	919.5
428.292	889.5
428.514	890.5
428.736	869.5
428.958	900.5
429.181	1105.5
429.403	933.5
429.625	872.5
429.847	842.5
430.069	894.5
430.292	888.5
430.514	887.5
430.736	938.5
430.958	1176.5
431.18	1068.5
431.402	827.5
431.624	789.5
431.846	814.5
432.068	785.5
432.29	808.5
432.512	901.5
432.734	1164.5
432.956	1113.5
433.178	845.5
433.4	835.5
433.622	834.5
433.844	881.5
434.066	901.5
434.287	900.5
434.509	865.5
434.731	914.5
434.953	828.5
435.175	894.5
435.397	1004.5
435.618	907.5
435.84	815.5
436.062	837.5
436.284	827.5
436.505	795.5
436.727	771.5
436.949	768.5
437.17	856.5
437.392	870.5
437.614	812.5
437.835	812.5
438.057	837.5
438.278	945.5
438.5	1329.5
438.721	1352.5
438.943	928.5
439.165	797.5
439.386	780.5
439.608	783.5
439.829	751.5
440.05	789.5
440.272	833.5
440.493	959.5
440.715	1167.5
440.936	945.5
441.158	857.5
441.379	848.5
441.6	969.5
441.822	1010.5
442.043	893.5
442.264	869.5
442.486	856.5
442.707	882.5
442.928	868.5
443.149	915.5
443.371	888.5
443.592	913.5
443.813	907.5
444.034	881.5
444.255	896.5
444.476	931.5
444.698	908.5
444.919	958.5
445.14	1038.5
445.361	1018.5
445.582	953.5
445.803	911.5
446.024	926.5
446.245	938.5
446.466	910.5
446.687	885.5
446.908	866.5
447.129	844.5
447.35	784.5
447.571	782.5
447.792	804.5
448.013	795.5
448.234	770.5
448.455	774.5
448.675	793.5
448.896	790.5
449.117	811.5
449.338	797.5
449.559	826.5
449.779	873.5
450	865.5
450.221	830.5
450.442	800.5
450.662	771.5
450.883	799.5
451.104	805.5
451.324	801.5
451.545	795.5
451.766	778.5
451.986	769.5
452.207	787.5
452.428	785.5
452.648	771.5
452.869	817.5
453.089	847.5
453.31	856.5
453.53	752.5
453.751	747.5
453.971	746.5
454.192	768.5
454.412	772.5
454.633	767.5
454.853	701.5
455.073	707.5
455.294	722.5
455.514	710.5
455.734	784.5
455.955	797.5
456.175	830.5
456.395	721.5
456.616	692.5
456.836	672.5
457.056	713.5
457.276	689.5
457.497	707.5
457.717	706.5
457.937	722.5
458.157	702.5
458.377	717.5
458.598	740.5
458.818	761.5
459.038	784.5
459.258	820.5
459.478	813.5
459.698	908.5
459.918	882.5
460.138	862.5
460.358	894.5
460.578	848.5
460.798	869.5
461.018	874.5
461.238	852.5
461.458	834.5
461.678	853.5
461.898	913.5
462.118	909.5
462.338	924.5
462.558	933.5
462.777	996.5
462.997	992.5
463.217	957.5
463.437	1039.5
463.657	1010.5
463.876	964.5
464.096	1003.5
464.316	954.5
464.536	955.5
464.755	1015.5
464.975	1000.5
465.195	945.5
465.414	972.5
465.634	956.5
465.854	904.5
466.073	852.5
466.293	848.5
466.512	913.5
466.732	1014.5
466.951	1037.5
467.171	911.5
467.391	866.5
467.61	874.5
467.829	932.5
468.049	941.5
468.268	848.5
468.488	857.5
468.707	906.5
468.927	1056.5
469.146	1137.5
469.365	1024.5
469.585	926.5
469.804	992.5
470.023	1117.5
470.243	958.5
470.462	920.5
470.681	912.5
470.901	917.5
471.12	981.5
471.339	963.5
471.558	910.5
471.777	924.5
471.997	969.5
472.216	1091.5
472.435	1068.5
472.654	982.5
472.873	927.5
473.092	982.5
473.311	1013.5
473.53	948.5
473.749	940.5
473.968	956.5
474.187	950.5
474.406	949.5
474.625	923.5
474.844	945.5
475.063	1043.5
475.282	1021.5
475.501	1061.5
475.72	1124.5
475.939	1071.5
476.158	1076.5
476.377	1248.5
476.596	1444.5
476.814	1514.5
477.033	1274.5
477.252	1075.5
477.471	984.5
477.69	1012.5
477.908	1082.5
478.127	1127.5
478.346	1044.5
478.564	1113.5
478.783	1074.5
479.002	1098.5
479.22	1297.5
479.439	1404.5
479.658	1224.5
479.876	1119.5
480.095	1194.5
480.313	1222.5
480.532	1137.5
480.751	1109.5
480.969	1107.5
481.188	1227.5
481.406	1265.5
481.624	1224.5
481.843	1092.5
482.061	1056.5
482.28	1189.5
482.498	1454.5
482.717	1363.5
482.935	1210.5
483.153	1125.5
483.372	1092.5
483.59	1068.5
483.808	1028.5
484.027	1007.5
484.245	975.5
484.463	988.5
484.681	1014.5
484.9	1089.5
485.118	1150.5
485.336	1128.5
485.554	1042.5
485.772	1077.5
485.99	1169.5
486.209	1217.5
486.427	1198.5
486.645	1155.5
486.863	1224.5
487.081	1229.5
487.299	1306.5
487.517	1279.5
487.735	1213.5
487.953	1216.5
488.171	1220.5
488.389	1165.5
488.607	1090.5
488.825	1150.5
489.043	1257.5
489.261	1404.5
489.479	1509.5
489.696	1280.5
489.914	1176.5
490.132	1118.5
490.35	1123.5
490.568	1123.5
490.786	1102.5
491.003	1137.5
491.221	1180.5
491.439	1128.5
491.657	1107.5
491.874	1192.5
492.092	1438.5
492.31	1735.5
492.527	1666.5
492.745	1507.5
492.963	1332.5
493.18	1282.5
493.398	1298.5
493.615	1282.5
493.833	1230.5
494.05	1226.5
494.268	1246.5
494.485	1217.5
494.703	1188.5
494.92	1230.5
495.138	1189.5
495.355	1174.5
495.573	1224.5
495.79	1343.5
496.008	1722.5
496.225	1537.5
496.442	1324.5
496.66	1299.5
496.877	1410.5
497.094	1381.5
497.312	1317.5
497.529	1300.5
497.746	1300.5
497.963	1344.5
498.181	1487.5
498.398	1566.5
498.615	1645.5
498.832	1641.5
499.049	1718.5
499.267	1524.5
499.484	1535.5
499.701	1636.5
499.918	1769.5
500.135	1822.5
500.352	1901.5
500.569	1964.5
500.786	1995.5
501.003	1984.5
501.22	1836.5
501.437	1741.5
501.654	1621.5
501.871	1598.5
502.088	1644.5
502.305	1500.5
502.522	1513.5
502.739	1477.5
502.956	1365.5
503.172	1340.5
503.389	1281.5
503.606	1315.5
503.823	1249.5
504.04	1300.5
504.256	1322.5
504.473	1331.5
504.69	1348.5
504.907	1382.5
505.123	1354.5
505.34	1424.5
505.557	1400.5
505.773	1308.5
505.99	1280.5
506.207	1373.5
506.423	1276.5
506.64	1168.5
506.856	1222.5
507.073	1338.5
507.289	1313.5
507.506	1310.5
507.722	1393.5
507.939	1425.5
508.155	1428.5
508.372	1306.5
508.588	1274.5
508.805	1249.5
509.021	1213.5
509.238	1165.5
509.454	1167.5
509.67	1158.5
509.887	1166.5
510.103	1298.5
510.319	1274.5
510.536	1184.5
510.752	1077.5
510.968	1032.5
511.184	1036.5
