Data from NickelSpatula.Lamp.E5.5.P2_HRD10591_11-53-42-555.txt Node
Date: Tue Jul 23 11:53:42 EDT 2019
User: cochatt
Spectrometer: HR+D1059
Trigger mode: 1
Integration Time (sec): 1.000000E-1
Scans to average: 1
Electric dark correction enabled: true
Nonlinearity correction enabled: false
Boxcar width: 0
XAxis mode: Wavelengths
Number of Pixels in Spectrum: 2048
>>>>>Begin Spectral Data<<<<<
223.165	-3.19
223.4	-3.19
223.635	-3.19
223.869	-19.19
224.104	-13.19
224.338	-9.19
224.573	-15.19
224.808	-22.19
225.042	-8.19
225.277	0.81
225.511	-1.19
225.746	-5.19
225.98	6.81
226.215	12.81
226.449	13.81
226.683	8.81
226.918	27.81
227.152	25.81
227.387	34.81
227.621	39.81
227.856	38.81
228.09	45.81
228.324	44.81
228.559	47.81
228.793	61.81
229.027	71.81
229.262	73.81
229.496	71.81
229.73	83.81
229.964	99.81
230.199	80.81
230.433	84.81
230.667	89.81
230.901	92.81
231.136	94.81
231.37	100.81
231.604	117.81
231.838	114.81
232.072	113.81
232.306	100.81
232.541	113.81
232.775	99.81
233.009	123.81
233.243	122.81
233.477	110.81
233.711	126.81
233.945	119.81
234.179	124.81
234.413	121.81
234.647	129.81
234.881	144.81
235.115	122.81
235.349	121.81
235.583	127.81
235.817	121.81
236.051	139.81
236.285	140.81
236.519	133.81
236.753	133.81
236.987	143.81
237.221	136.81
237.455	128.81
237.689	117.81
237.922	141.81
238.156	151.81
238.39	154.81
238.624	189.81
238.858	173.81
239.091	146.81
239.325	164.81
239.559	131.81
239.793	149.81
240.027	157.81
240.26	166.81
240.494	182.81
240.728	164.81
240.961	167.81
241.195	185.81
241.429	170.81
241.662	188.81
241.896	158.81
242.13	133.81
242.363	152.81
242.597	153.81
242.83	145.81
243.064	154.81
243.298	189.81
243.531	169.81
243.765	164.81
243.998	185.81
244.232	178.81
244.465	171.81
244.699	167.81
244.932	179.81
245.166	176.81
245.399	155.81
245.633	160.81
245.866	166.81
246.099	166.81
246.333	189.81
246.566	191.81
246.8	192.81
247.033	178.81
247.266	168.81
247.5	190.81
247.733	191.81
247.966	167.81
248.2	192.81
248.433	191.81
248.666	223.81
248.899	215.81
249.133	210.81
249.366	241.81
249.599	239.81
249.832	228.81
250.066	208.81
250.299	211.81
250.532	215.81
250.765	192.81
250.998	191.81
251.231	176.81
251.465	198.81
251.698	208.81
251.931	207.81
252.164	208.81
252.397	234.81
252.63	258.81
252.863	264.81
253.096	265.81
253.329	264.81
253.562	246.81
253.795	287.81
254.028	302.81
254.261	310.81
254.494	282.81
254.727	263.81
254.96	259.81
255.193	285.81
255.426	270.81
255.659	213.81
255.892	211.81
256.124	232.81
256.357	254.81
256.59	290.81
256.823	258.81
257.056	251.81
257.289	245.81
257.521	230.81
257.754	262.81
257.987	327.81
258.22	282.81
258.452	241.81
258.685	258.81
258.918	295.81
259.151	264.81
259.383	294.81
259.616	342.81
259.849	359.81
260.081	366.81
260.314	398.81
260.547	320.81
260.779	336.81
261.012	389.81
261.244	348.81
261.477	364.81
261.71	353.81
261.942	295.81
262.175	297.81
262.407	284.81
262.64	286.81
262.872	358.81
263.105	366.81
263.337	367.81
263.57	345.81
263.802	230.81
264.035	229.81
264.267	228.81
264.499	192.81
264.732	184.81
264.964	181.81
265.197	177.81
265.429	192.81
265.661	197.81
265.894	208.81
266.126	222.81
266.358	246.81
266.591	280.81
266.823	326.81
267.055	322.81
267.287	286.81
267.52	295.81
267.752	293.81
267.984	330.81
268.216	323.81
268.448	255.81
268.681	244.81
268.913	272.81
269.145	297.81
269.377	285.81
269.609	312.81
269.841	275.81
270.073	280.81
270.306	311.81
270.538	321.81
270.77	319.81
271.002	338.81
271.234	339.81
271.466	347.81
271.698	328.81
271.93	292.81
272.162	321.81
272.394	306.81
272.626	313.81
272.858	328.81
273.09	332.81
273.322	280.81
273.553	264.81
273.785	320.81
274.017	369.81
274.249	475.81
274.481	496.81
274.713	550.81
274.945	637.81
275.176	659.81
275.408	560.81
275.64	541.81
275.872	541.81
276.104	453.81
276.335	392.81
276.567	406.81
276.799	408.81
277.031	418.81
277.262	349.81
277.494	300.81
277.726	271.81
277.957	293.81
278.189	327.81
278.421	320.81
278.652	314.81
278.884	298.81
279.115	269.81
279.347	265.81
279.579	279.81
279.81	294.81
280.042	273.81
280.273	288.81
280.505	271.81
280.736	221.81
280.968	236.81
281.199	242.81
281.431	279.81
281.662	261.81
281.894	272.81
282.125	280.81
282.356	302.81
282.588	305.81
282.819	284.81
283.051	286.81
283.282	365.81
283.513	408.81
283.745	457.81
283.976	460.81
284.207	404.81
284.439	438.81
284.67	411.81
284.901	352.81
285.132	386.81
285.364	428.81
285.595	384.81
285.826	398.81
286.057	425.81
286.288	404.81
286.52	419.81
286.751	440.81
286.982	453.81
287.213	387.81
287.444	376.81
287.675	377.81
287.906	407.81
288.138	346.81
288.369	302.81
288.6	308.81
288.831	294.81
289.062	337.81
289.293	392.81
289.524	338.81
289.755	335.81
289.986	348.81
290.217	329.81
290.448	275.81
290.679	228.81
290.91	228.81
291.141	223.81
291.371	206.81
291.602	226.81
291.833	227.81
292.064	233.81
292.295	279.81
292.526	323.81
292.757	289.81
292.987	327.81
293.218	340.81
293.449	378.81
293.68	391.81
293.91	371.81
294.141	368.81
294.372	359.81
294.603	319.81
294.833	334.81
295.064	394.81
295.295	398.81
295.525	317.81
295.756	246.81
295.987	244.81
296.217	236.81
296.448	239.81
296.679	241.81
296.909	256.81
297.14	284.81
297.37	308.81
297.601	289.81
297.831	265.81
298.062	309.81
298.292	301.81
298.523	316.81
298.753	390.81
298.984	334.81
299.214	280.81
299.445	256.81
299.675	240.81
299.905	231.81
300.136	236.81
300.366	274.81
300.597	257.81
300.827	230.81
301.057	220.81
301.288	240.81
301.518	246.81
301.748	276.81
301.979	303.81
302.209	317.81
302.439	314.81
302.669	289.81
302.9	277.81
303.13	277.81
303.36	269.81
303.59	272.81
303.82	256.81
304.051	274.81
304.281	315.81
304.511	305.81
304.741	268.81
304.971	273.81
305.201	287.81
305.431	289.81
305.661	257.81
305.891	238.81
306.121	247.81
306.352	239.81
306.582	222.81
306.812	209.81
307.042	205.81
307.272	191.81
307.502	203.81
307.731	200.81
307.961	209.81
308.191	211.81
308.421	203.81
308.651	184.81
308.881	178.81
309.111	208.81
309.341	207.81
309.571	213.81
309.8	220.81
310.03	223.81
310.26	241.81
310.49	231.81
310.72	210.81
310.949	196.81
311.179	198.81
311.409	226.81
311.639	237.81
311.868	310.81
312.098	377.81
312.328	397.81
312.557	385.81
312.787	378.81
313.017	368.81
313.246	372.81
313.476	420.81
313.706	355.81
313.935	280.81
314.165	246.81
314.394	215.81
314.624	213.81
314.853	242.81
315.083	225.81
315.312	208.81
315.542	236.81
315.771	222.81
316.001	202.81
316.23	189.81
316.46	198.81
316.689	200.81
316.919	207.81
317.148	223.81
317.377	214.81
317.607	210.81
317.836	207.81
318.065	254.81
318.295	270.81
318.524	257.81
318.753	211.81
318.983	206.81
319.212	202.81
319.441	220.81
319.67	236.81
319.9	245.81
320.129	253.81
320.358	216.81
320.587	212.81
320.816	230.81
321.046	262.81
321.275	256.81
321.504	281.81
321.733	280.81
321.962	265.81
322.191	244.81
322.42	246.81
322.649	245.81
322.878	251.81
323.108	264.81
323.337	242.81
323.566	238.81
323.795	249.81
324.024	233.81
324.253	206.81
324.482	231.81
324.71	254.81
324.939	268.81
325.168	240.81
325.397	210.81
325.626	217.81
325.855	221.81
326.084	208.81
326.313	223.81
326.542	204.81
326.77	208.81
326.999	220.81
327.228	231.81
327.457	229.81
327.686	230.81
327.914	230.81
328.143	202.81
328.372	185.81
328.6	192.81
328.829	216.81
329.058	217.81
329.287	218.81
329.515	202.81
329.744	216.81
329.972	202.81
330.201	197.81
330.43	205.81
330.658	219.81
330.887	241.81
331.115	248.81
331.344	222.81
331.572	224.81
331.801	213.81
332.03	211.81
332.258	204.81
332.486	226.81
332.715	236.81
332.943	222.81
333.172	225.81
333.4	231.81
333.629	255.81
333.857	265.81
334.085	262.81
334.314	256.81
334.542	246.81
334.771	232.81
334.999	240.81
335.227	214.81
335.455	234.81
335.684	226.81
335.912	265.81
336.14	295.81
336.369	290.81
336.597	272.81
336.825	298.81
337.053	329.81
337.281	288.81
337.51	214.81
337.738	225.81
337.966	241.81
338.194	250.81
338.422	252.81
338.65	216.81
338.878	209.81
339.106	220.81
339.334	252.81
339.562	248.81
339.79	213.81
340.018	216.81
340.246	231.81
340.474	246.81
340.702	270.81
340.93	279.81
341.158	289.81
341.386	240.81
341.614	236.81
341.842	250.81
342.07	247.81
342.298	294.81
342.526	295.81
342.754	251.81
342.981	233.81
343.209	226.81
343.437	255.81
343.665	256.81
343.893	287.81
344.12	304.81
344.348	361.81
344.576	313.81
344.804	270.81
345.031	250.81
345.259	223.81
345.487	234.81
345.714	240.81
345.942	233.81
346.17	278.81
346.397	261.81
346.625	232.81
346.853	229.81
347.08	218.81
347.308	249.81
347.535	267.81
347.763	262.81
347.99	248.81
348.218	215.81
348.445	242.81
348.673	244.81
348.9	245.81
349.128	237.81
349.355	240.81
349.583	229.81
349.81	212.81
350.037	212.81
350.265	199.81
350.492	206.81
350.72	199.81
350.947	188.81
351.174	216.81
351.402	228.81
351.629	216.81
351.856	230.81
352.083	216.81
352.311	213.81
352.538	245.81
352.765	255.81
352.992	230.81
353.22	216.81
353.447	220.81
353.674	222.81
353.901	222.81
354.128	230.81
354.355	212.81
354.583	246.81
354.81	240.81
355.037	239.81
355.264	221.81
355.491	240.81
355.718	244.81
355.945	240.81
356.172	260.81
356.399	256.81
356.626	269.81
356.853	338.81
357.08	353.81
357.307	366.81
357.534	287.81
357.761	300.81
357.988	374.81
358.215	396.81
358.441	398.81
358.668	326.81
358.895	319.81
359.122	287.81
359.349	264.81
359.576	302.81
359.802	271.81
360.029	233.81
360.256	246.81
360.483	261.81
360.709	352.81
360.936	352.81
361.163	294.81
361.39	252.81
361.616	245.81
361.843	249.81
362.07	307.81
362.296	289.81
362.523	223.81
362.749	222.81
362.976	229.81
363.203	264.81
363.429	284.81
363.656	225.81
363.882	217.81
364.109	235.81
364.335	228.81
364.562	226.81
364.788	255.81
365.015	284.81
365.241	256.81
365.468	229.81
365.694	193.81
365.92	195.81
366.147	190.81
366.373	194.81
366.599	206.81
366.826	194.81
367.052	210.81
367.278	190.81
367.505	189.81
367.731	221.81
367.957	233.81
368.184	240.81
368.41	244.81
368.636	233.81
368.862	233.81
369.089	237.81
369.315	212.81
369.541	220.81
369.767	206.81
369.993	192.81
370.219	218.81
370.445	226.81
370.672	240.81
370.898	258.81
371.124	239.81
371.35	218.81
371.576	224.81
371.802	239.81
372.028	274.81
372.254	308.81
372.48	266.81
372.706	252.81
372.932	256.81
373.158	273.81
373.384	284.81
373.61	338.81
373.835	376.81
374.061	321.81
374.287	263.81
374.513	301.81
374.739	356.81
374.965	365.81
375.191	349.81
375.416	268.81
375.642	227.81
375.868	260.81
376.094	311.81
376.319	263.81
376.545	270.81
376.771	295.81
376.997	256.81
377.222	219.81
377.448	207.81
377.674	190.81
377.899	189.81
378.125	195.81
378.35	197.81
378.576	196.81
378.802	222.81
379.027	227.81
379.253	223.81
379.478	220.81
379.704	242.81
379.929	268.81
380.155	241.81
380.38	222.81
380.606	236.81
380.831	249.81
381.057	261.81
381.282	227.81
381.507	252.81
381.733	298.81
381.958	319.81
382.184	359.81
382.409	348.81
382.634	345.81
382.86	354.81
383.085	307.81
383.31	260.81
383.535	274.81
383.761	273.81
383.986	270.81
384.211	317.81
384.436	310.81
384.662	263.81
384.887	249.81
385.112	239.81
385.337	253.81
385.562	227.81
385.787	276.81
386.013	288.81
386.238	296.81
386.463	247.81
386.688	236.81
386.913	246.81
387.138	233.81
387.363	239.81
387.588	229.81
387.813	254.81
388.038	270.81
388.263	229.81
388.488	220.81
388.713	256.81
388.938	278.81
389.163	262.81
389.387	208.81
389.612	212.81
389.837	226.81
390.062	206.81
390.287	244.81
390.512	223.81
390.736	235.81
390.961	212.81
391.186	209.81
391.411	196.81
391.636	208.81
391.86	214.81
392.085	230.81
392.31	246.81
392.534	237.81
392.759	237.81
392.984	250.81
393.208	247.81
393.433	209.81
393.658	228.81
393.882	201.81
394.107	203.81
394.331	220.81
394.556	216.81
394.78	200.81
395.005	207.81
395.229	206.81
395.454	217.81
395.678	210.81
395.903	214.81
396.127	200.81
396.352	221.81
396.576	236.81
396.801	245.81
397.025	271.81
397.249	228.81
397.474	240.81
397.698	243.81
397.922	241.81
398.147	215.81
398.371	221.81
398.595	232.81
398.82	238.81
399.044	245.81
399.268	276.81
399.492	267.81
399.717	272.81
399.941	281.81
400.165	263.81
400.389	233.81
400.613	258.81
400.837	260.81
401.062	238.81
401.286	206.81
401.51	224.81
401.734	214.81
401.958	237.81
402.182	233.81
402.406	225.81
402.63	237.81
402.854	248.81
403.078	296.81
403.302	358.81
403.526	369.81
403.75	316.81
403.974	287.81
404.198	282.81
404.422	314.81
404.645	330.81
404.869	373.81
405.093	278.81
405.317	247.81
405.541	262.81
405.765	261.81
405.988	263.81
406.212	257.81
406.436	302.81
406.66	336.81
406.883	260.81
407.107	286.81
407.331	321.81
407.555	312.81
407.778	279.81
408.002	256.81
408.226	262.81
408.449	273.81
408.673	262.81
408.896	228.81
409.12	241.81
409.344	244.81
409.567	242.81
409.791	245.81
410.014	244.81
410.238	217.81
410.461	238.81
410.685	230.81
410.908	228.81
411.132	230.81
411.355	245.81
411.578	232.81
411.802	233.81
412.025	246.81
412.249	239.81
412.472	245.81
412.695	232.81
412.919	245.81
413.142	252.81
413.365	240.81
413.589	253.81
413.812	240.81
414.035	217.81
414.258	239.81
414.482	255.81
414.705	268.81
414.928	232.81
415.151	228.81
415.374	218.81
415.597	206.81
415.821	239.81
416.044	242.81
416.267	223.81
416.49	210.81
416.713	223.81
416.936	229.81
417.159	223.81
417.382	228.81
417.605	228.81
417.828	244.81
418.051	241.81
418.274	243.81
418.497	221.81
418.72	232.81
418.943	236.81
419.166	252.81
419.389	247.81
419.611	230.81
419.834	261.81
420.057	278.81
420.28	265.81
420.503	254.81
420.726	232.81
420.948	228.81
421.171	228.81
421.394	228.81
421.617	239.81
421.839	228.81
422.062	225.81
422.285	243.81
422.507	248.81
422.73	260.81
422.953	255.81
423.175	236.81
423.398	241.81
423.621	252.81
423.843	252.81
424.066	248.81
424.288	246.81
424.511	237.81
424.733	233.81
424.956	243.81
425.178	262.81
425.401	295.81
425.623	335.81
425.846	302.81
426.068	252.81
426.291	266.81
426.513	241.81
426.735	240.81
426.958	253.81
427.18	269.81
427.402	350.81
427.625	354.81
427.847	318.81
428.069	240.81
428.292	224.81
428.514	225.81
428.736	220.81
428.958	248.81
429.181	305.81
429.403	267.81
429.625	237.81
429.847	227.81
430.069	230.81
430.292	226.81
430.514	228.81
430.736	238.81
430.958	277.81
431.18	261.81
431.402	213.81
431.624	212.81
431.846	211.81
432.068	210.81
432.29	223.81
432.512	237.81
432.734	279.81
432.956	252.81
433.178	221.81
433.4	226.81
433.622	243.81
433.844	216.81
434.066	247.81
434.287	239.81
434.509	233.81
434.731	251.81
434.953	238.81
435.175	241.81
435.397	265.81
435.618	213.81
435.84	204.81
436.062	225.81
436.284	238.81
436.505	222.81
436.727	209.81
436.949	212.81
437.17	216.81
437.392	221.81
437.614	208.81
437.835	220.81
438.057	199.81
438.278	243.81
438.5	325.81
438.721	318.81
438.943	245.81
439.165	204.81
439.386	204.81
439.608	205.81
439.829	211.81
440.05	198.81
440.272	220.81
440.493	241.81
440.715	284.81
440.936	269.81
441.158	219.81
441.379	205.81
441.6	263.81
441.822	262.81
442.043	233.81
442.264	238.81
442.486	226.81
442.707	220.81
442.928	233.81
443.149	220.81
443.371	215.81
443.592	246.81
443.813	252.81
444.034	245.81
444.255	258.81
444.476	257.81
444.698	264.81
444.919	251.81
445.14	329.81
445.361	282.81
445.582	265.81
445.803	261.81
446.024	264.81
446.245	253.81
446.466	241.81
446.687	218.81
446.908	203.81
447.129	225.81
447.35	211.81
447.571	207.81
447.792	217.81
448.013	210.81
448.234	216.81
448.455	223.81
448.675	218.81
448.896	212.81
449.117	203.81
449.338	208.81
449.559	212.81
449.779	236.81
450	218.81
450.221	228.81
450.442	189.81
450.662	211.81
450.883	211.81
451.104	205.81
451.324	192.81
451.545	221.81
451.766	219.81
451.986	218.81
452.207	196.81
452.428	183.81
452.648	193.81
452.869	222.81
453.089	218.81
453.31	229.81
453.53	196.81
453.751	204.81
453.971	201.81
454.192	204.81
454.412	223.81
454.633	210.81
454.853	207.81
455.073	190.81
455.294	184.81
455.514	207.81
455.734	212.81
455.955	214.81
456.175	220.81
456.395	199.81
456.616	192.81
456.836	198.81
457.056	196.81
457.276	189.81
457.497	196.81
457.717	196.81
457.937	190.81
458.157	193.81
458.377	206.81
458.598	206.81
458.818	194.81
459.038	207.81
459.258	206.81
459.478	224.81
459.698	238.81
459.918	236.81
460.138	229.81
460.358	236.81
460.578	226.81
460.798	240.81
461.018	238.81
461.238	227.81
461.458	230.81
461.678	225.81
461.898	247.81
462.118	244.81
462.338	248.81
462.558	250.81
462.777	271.81
462.997	273.81
463.217	283.81
463.437	293.81
463.657	269.81
463.876	276.81
464.096	258.81
464.316	262.81
464.536	266.81
464.755	265.81
464.975	273.81
465.195	264.81
465.414	274.81
465.634	254.81
465.854	256.81
466.073	221.81
466.293	212.81
466.512	248.81
466.732	245.81
466.951	252.81
467.171	229.81
467.391	222.81
467.61	216.81
467.829	232.81
468.049	217.81
468.268	230.81
468.488	211.81
468.707	212.81
468.927	263.81
469.146	276.81
469.365	260.81
469.585	250.81
469.804	252.81
470.023	272.81
470.243	231.81
470.462	239.81
470.681	231.81
470.901	227.81
471.12	225.81
471.339	249.81
471.558	223.81
471.777	242.81
471.997	242.81
472.216	273.81
472.435	273.81
472.654	225.81
472.873	250.81
473.092	244.81
473.311	256.81
473.53	244.81
473.749	237.81
473.968	248.81
474.187	244.81
474.406	249.81
474.625	247.81
474.844	249.81
475.063	229.81
475.282	257.81
475.501	274.81
475.72	286.81
475.939	256.81
476.158	262.81
476.377	300.81
476.596	321.81
476.814	347.81
477.033	294.81
477.252	270.81
477.471	243.81
477.69	236.81
477.908	265.81
478.127	288.81
478.346	268.81
478.564	301.81
478.783	278.81
479.002	277.81
479.22	287.81
479.439	339.81
479.658	298.81
479.876	255.81
480.095	293.81
480.313	304.81
480.532	267.81
480.751	272.81
480.969	269.81
481.188	302.81
481.406	310.81
481.624	309.81
481.843	260.81
482.061	244.81
482.28	272.81
482.498	341.81
482.717	326.81
482.935	269.81
483.153	274.81
483.372	254.81
483.59	249.81
483.808	271.81
484.027	246.81
484.245	249.81
484.463	248.81
484.681	249.81
484.9	278.81
485.118	282.81
485.336	267.81
485.554	243.81
485.772	254.81
485.99	278.81
486.209	277.81
486.427	296.81
486.645	281.81
486.863	295.81
487.081	288.81
487.299	320.81
487.517	296.81
487.735	273.81
487.953	304.81
488.171	302.81
488.389	273.81
488.607	262.81
488.825	285.81
489.043	290.81
489.261	350.81
489.479	348.81
489.696	304.81
489.914	280.81
490.132	255.81
490.35	253.81
490.568	271.81
490.786	280.81
491.003	280.81
491.221	270.81
491.439	259.81
491.657	276.81
491.874	274.81
492.092	332.81
492.31	370.81
492.527	364.81
492.745	334.81
492.963	293.81
493.18	293.81
493.398	301.81
493.615	284.81
493.833	270.81
494.05	279.81
494.268	283.81
494.485	306.81
494.703	294.81
494.92	292.81
495.138	271.81
495.355	288.81
495.573	278.81
495.79	308.81
496.008	377.81
496.225	326.81
496.442	293.81
496.66	292.81
496.877	317.81
497.094	298.81
497.312	299.81
497.529	291.81
497.746	293.81
497.963	323.81
498.181	304.81
498.398	351.81
498.615	378.81
498.832	365.81
499.049	393.81
499.267	373.81
499.484	376.81
499.701	383.81
499.918	430.81
500.135	476.81
500.352	493.81
500.569	528.81
500.786	532.81
501.003	538.81
501.22	470.81
501.437	424.81
501.654	397.81
501.871	374.81
502.088	369.81
502.305	338.81
502.522	357.81
