Data from NickelSpatula_HRD10591_16-35-54-126.txt Node
Date: Mon Jul 22 16:35:54 EDT 2019
User: cochatt
Spectrometer: HR+D1059
Trigger mode: 1
Integration Time (sec): 1.000000E-1
Scans to average: 1
Electric dark correction enabled: true
Nonlinearity correction enabled: false
Boxcar width: 0
XAxis mode: Wavelengths
Number of Pixels in Spectrum: 2048
>>>>>Begin Spectral Data<<<<<
223.165	-17.19
223.4	-17.19
223.635	-17.19
223.869	-14.19
224.104	-21.19
224.338	-25.19
224.573	-13.19
224.808	-12.19
225.042	0.81
225.277	-1.19
225.511	-9.19
225.746	5.81
225.98	11.81
226.215	12.81
226.449	17.81
226.683	22.81
226.918	20.81
227.152	20.81
227.387	30.81
227.621	32.81
227.856	60.81
228.09	34.81
228.324	56.81
228.559	56.81
228.793	46.81
229.027	81.81
229.262	72.81
229.496	54.81
229.73	75.81
229.964	85.81
230.199	89.81
230.433	87.81
230.667	86.81
230.901	74.81
231.136	84.81
231.37	86.81
231.604	84.81
231.838	89.81
232.072	110.81
232.306	99.81
232.541	101.81
232.775	79.81
233.009	90.81
233.243	99.81
233.477	98.81
233.711	115.81
233.945	101.81
234.179	96.81
234.413	104.81
234.647	103.81
234.881	123.81
235.115	126.81
235.349	114.81
235.583	108.81
235.817	93.81
236.051	106.81
236.285	115.81
236.519	110.81
236.753	103.81
236.987	114.81
237.221	104.81
237.455	101.81
237.689	106.81
237.922	110.81
238.156	103.81
238.39	120.81
238.624	124.81
238.858	123.81
239.091	107.81
239.325	112.81
239.559	96.81
239.793	126.81
240.027	135.81
240.26	124.81
240.494	124.81
240.728	119.81
240.961	133.81
241.195	139.81
241.429	120.81
241.662	136.81
241.896	132.81
242.13	109.81
242.363	112.81
242.597	114.81
242.83	121.81
243.064	115.81
243.298	124.81
243.531	106.81
243.765	122.81
243.998	139.81
244.232	132.81
244.465	142.81
244.699	128.81
244.932	138.81
245.166	131.81
245.399	130.81
245.633	129.81
245.866	135.81
246.099	136.81
246.333	137.81
246.566	146.81
246.8	156.81
247.033	132.81
247.266	132.81
247.5	128.81
247.733	138.81
247.966	130.81
248.2	139.81
248.433	162.81
248.666	150.81
248.899	141.81
249.133	159.81
249.366	159.81
249.599	167.81
249.832	140.81
250.066	159.81
250.299	148.81
250.532	151.81
250.765	146.81
250.998	132.81
251.231	116.81
251.465	135.81
251.698	150.81
251.931	124.81
252.164	148.81
252.397	165.81
252.63	166.81
252.863	186.81
253.096	177.81
253.329	173.81
253.562	165.81
253.795	182.81
254.028	188.81
254.261	187.81
254.494	195.81
254.727	192.81
254.96	183.81
255.193	190.81
255.426	180.81
255.659	156.81
255.892	157.81
256.124	160.81
256.357	165.81
256.59	171.81
256.823	191.81
257.056	152.81
257.289	171.81
257.521	166.81
257.754	174.81
257.987	195.81
258.22	180.81
258.452	163.81
258.685	183.81
258.918	177.81
259.151	175.81
259.383	206.81
259.616	208.81
259.849	199.81
260.081	240.81
260.314	223.81
260.547	205.81
260.779	213.81
261.012	230.81
261.244	223.81
261.477	232.81
261.71	204.81
261.942	180.81
262.175	186.81
262.407	190.81
262.64	186.81
262.872	206.81
263.105	230.81
263.337	221.81
263.57	233.81
263.802	178.81
264.035	166.81
264.267	163.81
264.499	140.81
264.732	123.81
264.964	123.81
265.197	131.81
265.429	141.81
265.661	133.81
265.894	146.81
266.126	144.81
266.358	160.81
266.591	179.81
266.823	196.81
267.055	212.81
267.287	175.81
267.52	188.81
267.752	186.81
267.984	208.81
268.216	190.81
268.448	188.81
268.681	184.81
268.913	179.81
269.145	184.81
269.377	193.81
269.609	186.81
269.841	179.81
270.073	203.81
270.306	197.81
270.538	193.81
270.77	202.81
271.002	209.81
271.234	216.81
271.466	210.81
271.698	212.81
271.93	216.81
272.162	212.81
272.394	199.81
272.626	196.81
272.858	196.81
273.09	205.81
273.322	200.81
273.553	176.81
273.785	207.81
274.017	265.81
274.249	288.81
274.481	302.81
274.713	299.81
274.945	347.81
275.176	362.81
275.408	349.81
275.64	302.81
275.872	315.81
276.104	310.81
276.335	262.81
276.567	242.81
276.799	258.81
277.031	265.81
277.262	221.81
277.494	191.81
277.726	190.81
277.957	196.81
278.189	217.81
278.421	212.81
278.652	214.81
278.884	198.81
279.115	180.81
279.347	169.81
279.579	187.81
279.81	193.81
280.042	195.81
280.273	190.81
280.505	159.81
280.736	164.81
280.968	174.81
281.199	181.81
281.431	179.81
281.662	173.81
281.894	186.81
282.125	188.81
282.356	205.81
282.588	196.81
282.819	170.81
283.051	203.81
283.282	217.81
283.513	259.81
283.745	275.81
283.976	263.81
284.207	268.81
284.439	263.81
284.67	252.81
284.901	223.81
285.132	252.81
285.364	267.81
285.595	246.81
285.826	233.81
286.057	267.81
286.288	258.81
286.52	264.81
286.751	263.81
286.982	274.81
287.213	228.81
287.444	227.81
287.675	240.81
287.906	252.81
288.138	227.81
288.369	190.81
288.6	188.81
288.831	188.81
289.062	211.81
289.293	242.81
289.524	229.81
289.755	220.81
289.986	226.81
290.217	201.81
290.448	165.81
290.679	146.81
290.91	134.81
291.141	145.81
291.371	147.81
291.602	164.81
291.833	168.81
292.064	162.81
292.295	174.81
292.526	182.81
292.757	191.81
292.987	215.81
293.218	209.81
293.449	219.81
293.68	227.81
293.91	225.81
294.141	231.81
294.372	219.81
294.603	208.81
294.833	200.81
295.064	230.81
295.295	238.81
295.525	189.81
295.756	174.81
295.987	147.81
296.217	155.81
296.448	158.81
296.679	163.81
296.909	151.81
297.14	167.81
297.37	184.81
297.601	196.81
297.831	168.81
298.062	186.81
298.292	198.81
298.523	198.81
298.753	224.81
298.984	222.81
299.214	163.81
299.445	174.81
299.675	166.81
299.905	152.81
300.136	165.81
300.366	163.81
300.597	176.81
300.827	159.81
301.057	150.81
301.288	162.81
301.518	171.81
301.748	176.81
301.979	181.81
302.209	203.81
302.439	180.81
302.669	186.81
302.9	179.81
303.13	170.81
303.36	169.81
303.59	164.81
303.82	167.81
304.051	162.81
304.281	202.81
304.511	188.81
304.741	181.81
304.971	175.81
305.201	165.81
305.431	184.81
305.661	170.81
305.891	148.81
306.121	158.81
306.352	152.81
306.582	150.81
306.812	143.81
307.042	162.81
307.272	126.81
307.502	138.81
307.731	146.81
307.961	152.81
308.191	127.81
308.421	136.81
308.651	130.81
308.881	139.81
309.111	138.81
309.341	143.81
309.571	138.81
309.8	156.81
310.03	144.81
310.26	143.81
310.49	138.81
310.72	128.81
310.949	128.81
311.179	144.81
311.409	148.81
311.639	168.81
311.868	197.81
312.098	234.81
312.328	238.81
312.557	233.81
312.787	251.81
313.017	221.81
313.246	227.81
313.476	233.81
313.706	217.81
313.935	180.81
314.165	159.81
314.394	148.81
314.624	159.81
314.853	140.81
315.083	160.81
315.312	158.81
315.542	151.81
315.771	170.81
316.001	142.81
316.23	141.81
316.46	142.81
316.689	137.81
316.919	126.81
317.148	140.81
317.377	145.81
317.607	145.81
317.836	137.81
318.065	162.81
318.295	168.81
318.524	165.81
318.753	156.81
318.983	150.81
319.212	132.81
319.441	157.81
319.67	171.81
319.9	168.81
320.129	160.81
320.358	147.81
320.587	135.81
320.816	155.81
321.046	164.81
321.275	170.81
321.504	175.81
321.733	176.81
321.962	177.81
322.191	178.81
322.42	153.81
322.649	153.81
322.878	187.81
323.108	174.81
323.337	145.81
323.566	158.81
323.795	150.81
324.024	158.81
324.253	144.81
324.482	123.81
324.71	164.81
324.939	166.81
325.168	160.81
325.397	149.81
325.626	152.81
325.855	132.81
326.084	146.81
326.313	141.81
326.542	139.81
326.77	147.81
326.999	140.81
327.228	140.81
327.457	137.81
327.686	139.81
327.914	131.81
328.143	135.81
328.372	126.81
328.6	130.81
328.829	127.81
329.058	145.81
329.287	126.81
329.515	132.81
329.744	141.81
329.972	134.81
330.201	112.81
330.43	139.81
330.658	142.81
330.887	171.81
331.115	161.81
331.344	145.81
331.572	146.81
331.801	147.81
332.03	147.81
332.258	138.81
332.486	150.81
332.715	145.81
332.943	138.81
333.172	142.81
333.4	159.81
333.629	168.81
333.857	158.81
334.085	172.81
334.314	168.81
334.542	147.81
334.771	135.81
334.999	143.81
335.227	141.81
335.455	134.81
335.684	168.81
335.912	151.81
336.14	198.81
336.369	183.81
336.597	165.81
336.825	197.81
337.053	207.81
337.281	159.81
337.51	140.81
337.738	141.81
337.966	152.81
338.194	161.81
338.422	163.81
338.65	136.81
338.878	133.81
339.106	129.81
339.334	147.81
339.562	160.81
339.79	170.81
340.018	148.81
340.246	159.81
340.474	171.81
340.702	193.81
340.93	185.81
341.158	169.81
341.386	151.81
341.614	169.81
341.842	152.81
342.07	183.81
342.298	191.81
342.526	201.81
342.754	184.81
342.981	160.81
343.209	144.81
343.437	164.81
343.665	166.81
343.893	157.81
344.12	196.81
344.348	201.81
344.576	187.81
344.804	168.81
345.031	148.81
345.259	140.81
345.487	135.81
345.714	154.81
345.942	160.81
346.17	171.81
346.397	190.81
346.625	148.81
346.853	146.81
347.08	128.81
347.308	147.81
347.535	171.81
347.763	161.81
347.99	159.81
348.218	156.81
348.445	139.81
348.673	149.81
348.9	154.81
349.128	170.81
349.355	163.81
349.583	151.81
349.81	153.81
350.037	147.81
350.265	143.81
350.492	138.81
350.72	120.81
350.947	138.81
351.174	134.81
351.402	135.81
351.629	130.81
351.856	152.81
352.083	138.81
352.311	136.81
352.538	148.81
352.765	172.81
352.992	163.81
353.22	151.81
353.447	146.81
353.674	142.81
353.901	152.81
354.128	146.81
354.355	144.81
354.583	154.81
354.81	146.81
355.037	150.81
355.264	169.81
355.491	158.81
355.718	169.81
355.945	160.81
356.172	148.81
356.399	152.81
356.626	165.81
356.853	221.81
357.08	225.81
357.307	225.81
357.534	195.81
357.761	195.81
357.988	223.81
358.215	238.81
358.441	233.81
358.668	206.81
358.895	212.81
359.122	171.81
359.349	151.81
359.576	182.81
359.802	162.81
360.029	149.81
360.256	157.81
360.483	174.81
360.709	220.81
360.936	211.81
361.163	194.81
361.39	143.81
361.616	147.81
361.843	169.81
362.07	183.81
362.296	188.81
362.523	141.81
362.749	138.81
362.976	159.81
363.203	160.81
363.429	170.81
363.656	154.81
363.882	145.81
364.109	154.81
364.335	164.81
364.562	147.81
364.788	149.81
365.015	187.81
365.241	170.81
365.468	150.81
365.694	134.81
365.92	127.81
366.147	135.81
366.373	128.81
366.599	127.81
366.826	135.81
367.052	132.81
367.278	133.81
367.505	137.81
367.731	143.81
367.957	154.81
368.184	162.81
368.41	154.81
368.636	153.81
368.862	153.81
369.089	150.81
369.315	135.81
369.541	152.81
369.767	139.81
369.993	137.81
370.219	138.81
370.445	138.81
370.672	149.81
370.898	166.81
371.124	159.81
371.35	145.81
371.576	145.81
371.802	148.81
372.028	151.81
372.254	179.81
372.48	150.81
372.706	158.81
372.932	163.81
373.158	180.81
373.384	187.81
373.61	204.81
373.835	214.81
374.061	178.81
374.287	164.81
374.513	182.81
374.739	225.81
374.965	240.81
375.191	203.81
375.416	168.81
375.642	166.81
375.868	171.81
376.094	185.81
376.319	175.81
376.545	191.81
376.771	185.81
376.997	164.81
377.222	142.81
377.448	130.81
377.674	138.81
377.899	147.81
378.125	137.81
378.35	125.81
378.576	128.81
378.802	129.81
379.027	153.81
379.253	149.81
379.478	149.81
379.704	155.81
379.929	167.81
380.155	167.81
380.38	164.81
380.606	153.81
380.831	163.81
381.057	165.81
381.282	141.81
381.507	164.81
381.733	183.81
381.958	200.81
382.184	209.81
382.409	211.81
382.634	228.81
382.86	230.81
383.085	174.81
383.31	186.81
383.535	177.81
383.761	164.81
383.986	170.81
384.211	187.81
384.436	195.81
384.662	153.81
384.887	154.81
385.112	159.81
385.337	155.81
385.562	153.81
385.787	164.81
386.013	180.81
386.238	172.81
386.463	146.81
386.688	154.81
386.913	150.81
387.138	155.81
387.363	135.81
387.588	157.81
387.813	156.81
388.038	170.81
388.263	165.81
388.488	154.81
388.713	155.81
388.938	178.81
389.163	136.81
389.387	142.81
389.612	135.81
389.837	148.81
390.062	140.81
390.287	139.81
390.512	170.81
390.736	162.81
390.961	136.81
391.186	167.81
391.411	135.81
391.636	136.81
391.86	143.81
392.085	158.81
392.31	151.81
392.534	146.81
392.759	166.81
392.984	153.81
393.208	140.81
393.433	135.81
393.658	136.81
393.882	129.81
394.107	131.81
394.331	131.81
394.556	150.81
394.78	136.81
395.005	139.81
395.229	146.81
395.454	155.81
395.678	159.81
395.903	144.81
396.127	148.81
396.352	150.81
396.576	153.81
396.801	151.81
397.025	175.81
397.249	162.81
397.474	142.81
397.698	151.81
397.922	158.81
398.147	139.81
398.371	136.81
398.595	156.81
398.82	154.81
399.044	146.81
399.268	148.81
399.492	172.81
399.717	164.81
399.941	179.81
400.165	153.81
400.389	160.81
400.613	162.81
400.837	153.81
401.062	154.81
401.286	144.81
401.51	129.81
401.734	155.81
401.958	150.81
402.182	156.81
402.406	156.81
402.63	150.81
402.854	154.81
403.078	165.81
403.302	209.81
403.526	213.81
403.75	196.81
403.974	177.81
404.198	178.81
404.422	186.81
404.645	208.81
404.869	219.81
405.093	175.81
405.317	151.81
405.541	158.81
405.765	144.81
405.988	147.81
406.212	160.81
406.436	179.81
406.66	183.81
406.883	153.81
407.107	178.81
407.331	180.81
407.555	175.81
407.778	175.81
408.002	166.81
408.226	168.81
408.449	174.81
408.673	178.81
408.896	154.81
409.12	146.81
409.344	154.81
409.567	136.81
409.791	141.81
410.014	146.81
410.238	144.81
410.461	131.81
410.685	139.81
410.908	150.81
411.132	150.81
411.355	144.81
411.578	146.81
411.802	164.81
412.025	165.81
412.249	162.81
412.472	166.81
412.695	158.81
412.919	156.81
413.142	166.81
413.365	159.81
413.589	158.81
413.812	153.81
414.035	157.81
414.258	147.81
414.482	154.81
414.705	164.81
414.928	148.81
415.151	152.81
415.374	163.81
415.597	151.81
415.821	149.81
416.044	142.81
416.267	172.81
416.49	146.81
416.713	150.81
416.936	154.81
417.159	141.81
417.382	146.81
417.605	128.81
417.828	147.81
418.051	139.81
418.274	159.81
418.497	158.81
418.72	144.81
418.943	159.81
419.166	161.81
419.389	176.81
419.611	148.81
419.834	161.81
420.057	169.81
420.28	169.81
420.503	165.81
420.726	158.81
420.948	137.81
421.171	153.81
421.394	147.81
421.617	141.81
421.839	152.81
422.062	146.81
422.285	146.81
422.507	150.81
422.73	152.81
422.953	146.81
423.175	160.81
423.398	155.81
423.621	158.81
423.843	178.81
424.066	142.81
424.288	149.81
424.511	135.81
424.733	150.81
424.956	150.81
425.178	167.81
425.401	183.81
425.623	180.81
425.846	161.81
426.068	160.81
426.291	171.81
426.513	165.81
426.735	148.81
426.958	155.81
427.18	176.81
427.402	230.81
427.625	223.81
427.847	163.81
428.069	150.81
428.292	148.81
428.514	158.81
428.736	145.81
428.958	165.81
429.181	178.81
429.403	163.81
429.625	165.81
429.847	143.81
430.069	160.81
430.292	164.81
430.514	154.81
430.736	161.81
430.958	165.81
431.18	154.81
431.402	141.81
431.624	132.81
431.846	138.81
432.068	142.81
432.29	144.81
432.512	156.81
432.734	177.81
432.956	187.81
433.178	146.81
433.4	130.81
433.622	153.81
433.844	171.81
434.066	169.81
434.287	163.81
434.509	139.81
434.731	172.81
434.953	146.81
435.175	156.81
435.397	167.81
435.618	136.81
435.84	136.81
436.062	141.81
436.284	141.81
436.505	135.81
436.727	140.81
436.949	137.81
437.17	130.81
437.392	141.81
437.614	139.81
437.835	150.81
438.057	155.81
438.278	160.81
438.5	196.81
438.721	187.81
438.943	154.81
439.165	138.81
439.386	121.81
439.608	122.81
439.829	152.81
440.05	149.81
440.272	156.81
440.493	142.81
440.715	177.81
440.936	163.81
441.158	139.81
441.379	160.81
441.6	156.81
441.822	152.81
442.043	158.81
442.264	140.81
442.486	142.81
442.707	151.81
442.928	122.81
443.149	148.81
443.371	153.81
443.592	153.81
443.813	140.81
444.034	159.81
444.255	160.81
444.476	153.81
444.698	150.81
444.919	140.81
445.14	277.81
445.361	226.81
445.582	159.81
445.803	163.81
446.024	167.81
446.245	150.81
446.466	146.81
446.687	138.81
446.908	154.81
447.129	131.81
447.35	128.81
447.571	131.81
447.792	156.81
448.013	155.81
448.234	137.81
448.455	158.81
448.675	152.81
448.896	138.81
449.117	145.81
449.338	153.81
449.559	142.81
449.779	142.81
450	128.81
450.221	150.81
450.442	137.81
450.662	136.81
450.883	141.81
451.104	146.81
451.324	143.81
451.545	135.81
451.766	148.81
451.986	140.81
452.207	131.81
452.428	139.81
452.648	142.81
452.869	147.81
453.089	146.81
453.31	136.81
453.53	154.81
453.751	130.81
453.971	130.81
454.192	145.81
454.412	146.81
454.633	135.81
454.853	130.81
455.073	150.81
455.294	141.81
455.514	131.81
455.734	134.81
455.955	131.81
456.175	129.81
456.395	139.81
456.616	140.81
456.836	116.81
457.056	133.81
457.276	126.81
457.497	123.81
457.717	138.81
457.937	144.81
458.157	130.81
458.377	135.81
458.598	135.81
458.818	130.81
459.038	139.81
459.258	145.81
459.478	138.81
459.698	158.81
459.918	150.81
460.138	132.81
460.358	157.81
460.578	150.81
460.798	151.81
461.018	139.81
461.238	152.81
461.458	164.81
461.678	168.81
461.898	147.81
462.118	158.81
462.338	153.81
462.558	149.81
462.777	151.81
462.997	151.81
463.217	149.81
463.437	163.81
463.657	166.81
463.876	145.81
464.096	164.81
464.316	143.81
464.536	154.81
464.755	174.81
464.975	162.81
465.195	176.81
465.414	168.81
465.634	150.81
465.854	147.81
466.073	148.81
466.293	153.81
466.512	166.81
466.732	154.81
466.951	158.81
467.171	160.81
467.391	148.81
467.61	154.81
467.829	154.81
468.049	148.81
468.268	140.81
468.488	150.81
468.707	148.81
468.927	161.81
469.146	192.81
469.365	169.81
469.585	142.81
469.804	148.81
470.023	186.81
470.243	168.81
470.462	140.81
470.681	159.81
470.901	152.81
471.12	160.81
471.339	157.81
471.558	139.81
471.777	155.81
471.997	160.81
472.216	183.81
472.435	159.81
472.654	151.81
472.873	152.81
473.092	161.81
473.311	173.81
473.53	153.81
473.749	150.81
473.968	162.81
474.187	150.81
474.406	160.81
474.625	168.81
474.844	164.81
475.063	155.81
475.282	182.81
475.501	177.81
475.72	183.81
475.939	182.81
476.158	171.81
476.377	176.81
476.596	210.81
476.814	219.81
477.033	186.81
477.252	163.81
477.471	155.81
477.69	159.81
477.908	152.81
478.127	185.81
478.346	170.81
478.564	194.81
478.783	160.81
479.002	159.81
479.22	184.81
479.439	203.81
479.658	166.81
479.876	162.81
480.095	183.81
480.313	168.81
480.532	171.81
480.751	177.81
480.969	180.81
481.188	178.81
481.406	182.81
481.624	164.81
481.843	169.81
482.061	181.81
482.28	192.81
482.498	218.81
482.717	220.81
482.935	170.81
483.153	165.81
483.372	154.81
483.59	177.81
483.808	167.81
484.027	176.81
484.245	171.81
484.463	152.81
484.681	152.81
484.9	168.81
485.118	177.81
485.336	162.81
485.554	159.81
485.772	178.81
485.99	166.81
486.209	162.81
486.427	196.81
486.645	178.81
486.863	177.81
487.081	187.81
487.299	211.81
487.517	202.81
487.735	178.81
487.953	187.81
488.171	182.81
488.389	159.81
488.607	144.81
488.825	183.81
489.043	192.81
489.261	205.81
489.479	231.81
489.696	176.81
489.914	189.81
490.132	151.81
490.35	161.81
490.568	179.81
490.786	171.81
491.003	178.81
491.221	176.81
491.439	166.81
491.657	168.81
491.874	180.81
492.092	217.81
492.31	246.81
492.527	223.81
492.745	204.81
492.963	180.81
493.18	183.81
493.398	197.81
493.615	172.81
493.833	166.81
494.05	181.81
494.268	193.81
494.485	178.81
494.703	173.81
494.92	182.81
495.138	181.81
495.355	185.81
495.573	187.81
495.79	201.81
496.008	252.81
496.225	193.81
496.442	211.81
496.66	211.81
496.877	192.81
497.094	178.81
497.312	180.81
497.529	190.81
497.746	184.81
497.963	185.81
498.181	204.81
498.398	215.81
498.615	216.81
498.832	220.81
499.049	225.81
499.267	193.81
499.484	216.81
499.701	222.81
499.918	247.81
500.135	244.81
500.352	263.81
500.569	262.81
500.786	284.81
501.003	288.81
501.22	252.81
501.437	225.81
501.654	226.81
501.871	215.81
502.088	220.81
502.305	224.81
502.522	212.81
502.739	207.81
