Data from NickelSpatula_HRD10591_16-34-43-125.txt Node
Date: Mon Jul 22 16:34:43 EDT 2019
User: cochatt
Spectrometer: HR+D1059
Trigger mode: 1
Integration Time (sec): 1.000000E-1
Scans to average: 1
Electric dark correction enabled: true
Nonlinearity correction enabled: false
Boxcar width: 0
XAxis mode: Wavelengths
Number of Pixels in Spectrum: 2048
>>>>>Begin Spectral Data<<<<<
223.165	-23.62
223.4	-23.62
223.635	-23.62
223.869	-24.62
224.104	-0.62
224.338	-13.62
224.573	-0.62
224.808	-8.62
225.042	-12.62
225.277	-10.62
225.511	-3.62
225.746	3.38
225.98	-5.62
226.215	17.38
226.449	3.38
226.683	22.38
226.918	24.38
227.152	33.38
227.387	28.38
227.621	37.38
227.856	51.38
228.09	43.38
228.324	53.38
228.559	56.38
228.793	54.38
229.027	69.38
229.262	61.38
229.496	75.38
229.73	73.38
229.964	95.38
230.199	88.38
230.433	95.38
230.667	87.38
230.901	95.38
231.136	87.38
231.37	91.38
231.604	101.38
231.838	99.38
232.072	97.38
232.306	106.38
232.541	104.38
232.775	102.38
233.009	121.38
233.243	124.38
233.477	112.38
233.711	140.38
233.945	108.38
234.179	127.38
234.413	129.38
234.647	117.38
234.881	154.38
235.115	140.38
235.349	121.38
235.583	138.38
235.817	116.38
236.051	133.38
236.285	130.38
236.519	128.38
236.753	136.38
236.987	136.38
237.221	141.38
237.455	134.38
237.689	142.38
237.922	139.38
238.156	129.38
238.39	147.38
238.624	175.38
238.858	156.38
239.091	155.38
239.325	148.38
239.559	157.38
239.793	146.38
240.027	164.38
240.26	160.38
240.494	167.38
240.728	161.38
240.961	180.38
241.195	184.38
241.429	181.38
241.662	172.38
241.896	147.38
242.13	137.38
242.363	145.38
242.597	142.38
242.83	160.38
243.064	162.38
243.298	176.38
243.531	181.38
243.765	184.38
243.998	167.38
244.232	164.38
244.465	160.38
244.699	169.38
244.932	194.38
245.166	172.38
245.399	152.38
245.633	146.38
245.866	164.38
246.099	183.38
246.333	192.38
246.566	209.38
246.8	216.38
247.033	194.38
247.266	203.38
247.5	189.38
247.733	193.38
247.966	165.38
248.2	191.38
248.433	201.38
248.666	211.38
248.899	202.38
249.133	201.38
249.366	241.38
249.599	269.38
249.832	239.38
250.066	187.38
250.299	210.38
250.532	207.38
250.765	199.38
250.998	198.38
251.231	183.38
251.465	188.38
251.698	208.38
251.931	206.38
252.164	210.38
252.397	225.38
252.63	245.38
252.863	279.38
253.096	307.38
253.329	279.38
253.562	256.38
253.795	283.38
254.028	307.38
254.261	304.38
254.494	284.38
254.727	261.38
254.96	261.38
255.193	273.38
255.426	266.38
255.659	207.38
255.892	193.38
256.124	212.38
256.357	244.38
256.59	283.38
256.823	279.38
257.056	234.38
257.289	213.38
257.521	216.38
257.754	266.38
257.987	298.38
258.22	272.38
258.452	241.38
258.685	250.38
258.918	285.38
259.151	293.38
259.383	298.38
259.616	337.38
259.849	353.38
260.081	349.38
260.314	394.38
260.547	329.38
260.779	343.38
261.012	391.38
261.244	362.38
261.477	377.38
261.71	344.38
261.942	303.38
262.175	282.38
262.407	286.38
262.64	283.38
262.872	337.38
263.105	358.38
263.337	389.38
263.57	360.38
263.802	252.38
264.035	226.38
264.267	222.38
264.499	211.38
264.732	186.38
264.964	188.38
265.197	183.38
265.429	178.38
265.661	191.38
265.894	222.38
266.126	229.38
266.358	221.38
266.591	286.38
266.823	326.38
267.055	326.38
267.287	275.38
267.52	288.38
267.752	305.38
267.984	339.38
268.216	300.38
268.448	269.38
268.681	260.38
268.913	276.38
269.145	304.38
269.377	297.38
269.609	285.38
269.841	295.38
270.073	298.38
270.306	337.38
270.538	327.38
270.77	324.38
271.002	333.38
271.234	318.38
271.466	333.38
271.698	326.38
271.93	302.38
272.162	324.38
272.394	322.38
272.626	309.38
272.858	323.38
273.09	331.38
273.322	284.38
273.553	276.38
273.785	304.38
274.017	386.38
274.249	462.38
274.481	495.38
274.713	541.38
274.945	622.38
275.176	636.38
275.408	578.38
275.64	534.38
275.872	520.38
276.104	469.38
276.335	417.38
276.567	422.38
276.799	411.38
277.031	432.38
277.262	378.38
277.494	294.38
277.726	254.38
277.957	296.38
278.189	312.38
278.421	324.38
278.652	296.38
278.884	309.38
279.115	264.38
279.347	259.38
279.579	279.38
279.81	265.38
280.042	276.38
280.273	271.38
280.505	250.38
280.736	221.38
280.968	228.38
281.199	259.38
281.431	287.38
281.662	269.38
281.894	263.38
282.125	268.38
282.356	289.38
282.588	303.38
282.819	290.38
283.051	300.38
283.282	356.38
283.513	415.38
283.745	445.38
283.976	437.38
284.207	385.38
284.439	425.38
284.67	404.38
284.901	361.38
285.132	388.38
285.364	411.38
285.595	377.38
285.826	407.38
286.057	414.38
286.288	395.38
286.52	407.38
286.751	415.38
286.982	423.38
287.213	359.38
287.444	350.38
287.675	372.38
287.906	380.38
288.138	329.38
288.369	300.38
288.6	275.38
288.831	283.38
289.062	336.38
289.293	365.38
289.524	348.38
289.755	334.38
289.986	354.38
290.217	320.38
290.448	241.38
290.679	215.38
290.91	217.38
291.141	204.38
291.371	226.38
291.602	234.38
291.833	195.38
292.064	222.38
292.295	248.38
292.526	281.38
292.757	315.38
292.987	323.38
293.218	343.38
293.449	344.38
293.68	351.38
293.91	338.38
294.141	345.38
294.372	337.38
294.603	297.38
294.833	332.38
295.064	378.38
295.295	379.38
295.525	290.38
295.756	232.38
295.987	213.38
296.217	219.38
296.448	226.38
296.679	219.38
296.909	254.38
297.14	273.38
297.37	300.38
297.601	290.38
297.831	235.38
298.062	262.38
298.292	307.38
298.523	330.38
298.753	353.38
298.984	323.38
299.214	272.38
299.445	251.38
299.675	203.38
299.905	214.38
300.136	230.38
300.366	225.38
300.597	244.38
300.827	221.38
301.057	213.38
301.288	223.38
301.518	232.38
301.748	244.38
301.979	255.38
302.209	272.38
302.439	275.38
302.669	243.38
302.9	269.38
303.13	244.38
303.36	245.38
303.59	223.38
303.82	228.38
304.051	242.38
304.281	287.38
304.511	277.38
304.741	243.38
304.971	249.38
305.201	270.38
305.431	252.38
305.661	233.38
305.891	202.38
306.121	216.38
306.352	199.38
306.582	200.38
306.812	191.38
307.042	191.38
307.272	183.38
307.502	187.38
307.731	184.38
307.961	206.38
308.191	197.38
308.421	173.38
308.651	182.38
308.881	173.38
309.111	175.38
309.341	191.38
309.571	199.38
309.8	193.38
310.03	205.38
310.26	204.38
310.49	198.38
310.72	189.38
310.949	196.38
311.179	190.38
311.409	208.38
311.639	242.38
311.868	274.38
312.098	339.38
312.328	385.38
312.557	351.38
312.787	387.38
313.017	321.38
313.246	351.38
313.476	379.38
313.706	333.38
313.935	283.38
314.165	192.38
314.394	201.38
314.624	227.38
314.853	212.38
315.083	223.38
315.312	220.38
315.542	216.38
315.771	207.38
316.001	166.38
316.23	189.38
316.46	199.38
316.689	188.38
316.919	169.38
317.148	197.38
317.377	191.38
317.607	196.38
317.836	204.38
318.065	252.38
318.295	259.38
318.524	239.38
318.753	222.38
318.983	202.38
319.212	192.38
319.441	199.38
319.67	210.38
319.9	249.38
320.129	223.38
320.358	199.38
320.587	187.38
320.816	198.38
321.046	226.38
321.275	249.38
321.504	265.38
321.733	256.38
321.962	242.38
322.191	228.38
322.42	222.38
322.649	242.38
322.878	239.38
323.108	242.38
323.337	235.38
323.566	217.38
323.795	204.38
324.024	213.38
324.253	195.38
324.482	203.38
324.71	207.38
324.939	247.38
325.168	243.38
325.397	175.38
325.626	183.38
325.855	206.38
326.084	191.38
326.313	186.38
326.542	181.38
326.77	183.38
326.999	202.38
327.228	204.38
327.457	208.38
327.686	204.38
327.914	172.38
328.143	183.38
328.372	179.38
328.6	179.38
328.829	185.38
329.058	188.38
329.287	179.38
329.515	196.38
329.744	191.38
329.972	179.38
330.201	160.38
330.43	158.38
330.658	188.38
330.887	222.38
331.115	197.38
331.344	210.38
331.572	221.38
331.801	196.38
332.03	183.38
332.258	195.38
332.486	177.38
332.715	212.38
332.943	194.38
333.172	189.38
333.4	203.38
333.629	223.38
333.857	240.38
334.085	218.38
334.314	242.38
334.542	233.38
334.771	213.38
334.999	190.38
335.227	187.38
335.455	210.38
335.684	203.38
335.912	237.38
336.14	255.38
336.369	252.38
336.597	252.38
336.825	260.38
337.053	299.38
337.281	253.38
337.51	215.38
337.738	194.38
337.966	215.38
338.194	225.38
338.422	209.38
338.65	198.38
338.878	196.38
339.106	183.38
339.334	205.38
339.562	199.38
339.79	200.38
340.018	193.38
340.246	211.38
340.474	228.38
340.702	248.38
340.93	241.38
341.158	267.38
341.386	231.38
341.614	224.38
341.842	199.38
342.07	223.38
342.298	251.38
342.526	263.38
342.754	227.38
342.981	215.38
343.209	215.38
343.437	218.38
343.665	242.38
343.893	244.38
344.12	269.38
344.348	301.38
344.576	291.38
344.804	221.38
345.031	223.38
345.259	194.38
345.487	195.38
345.714	205.38
345.942	207.38
346.17	232.38
346.397	228.38
346.625	200.38
346.853	197.38
347.08	201.38
347.308	203.38
347.535	200.38
347.763	215.38
347.99	204.38
348.218	195.38
348.445	204.38
348.673	200.38
348.9	193.38
349.128	211.38
349.355	202.38
349.583	207.38
349.81	210.38
350.037	188.38
350.265	152.38
350.492	167.38
350.72	162.38
350.947	177.38
351.174	181.38
351.402	191.38
351.629	189.38
351.856	193.38
352.083	187.38
352.311	192.38
352.538	211.38
352.765	226.38
352.992	207.38
353.22	192.38
353.447	204.38
353.674	192.38
353.901	188.38
354.128	183.38
354.355	181.38
354.583	213.38
354.81	183.38
355.037	220.38
355.264	202.38
355.491	202.38
355.718	215.38
355.945	224.38
356.172	201.38
356.399	195.38
356.626	232.38
356.853	269.38
357.08	303.38
357.307	319.38
357.534	259.38
357.761	259.38
357.988	291.38
358.215	359.38
358.441	344.38
358.668	292.38
358.895	282.38
359.122	250.38
359.349	230.38
359.576	264.38
359.802	232.38
360.029	175.38
360.256	200.38
360.483	247.38
360.709	264.38
360.936	289.38
361.163	247.38
361.39	203.38
361.616	189.38
361.843	201.38
362.07	271.38
362.296	267.38
362.523	203.38
362.749	179.38
362.976	200.38
363.203	204.38
363.429	237.38
363.656	203.38
363.882	194.38
364.109	188.38
364.335	190.38
364.562	191.38
364.788	200.38
365.015	236.38
365.241	212.38
365.468	192.38
365.694	179.38
365.92	188.38
366.147	174.38
366.373	156.38
366.599	167.38
366.826	156.38
367.052	178.38
367.278	188.38
367.505	178.38
367.731	183.38
367.957	193.38
368.184	193.38
368.41	197.38
368.636	204.38
368.862	208.38
369.089	206.38
369.315	179.38
369.541	192.38
369.767	189.38
369.993	181.38
370.219	181.38
370.445	184.38
370.672	182.38
370.898	205.38
371.124	200.38
371.35	180.38
371.576	177.38
371.802	197.38
372.028	225.38
372.254	256.38
372.48	223.38
372.706	188.38
372.932	207.38
373.158	213.38
373.384	255.38
373.61	302.38
373.835	299.38
374.061	227.38
374.287	223.38
374.513	238.38
374.739	284.38
374.965	305.38
375.191	283.38
375.416	233.38
375.642	194.38
375.868	223.38
376.094	232.38
376.319	216.38
376.545	255.38
376.771	231.38
376.997	203.38
377.222	185.38
377.448	158.38
377.674	168.38
377.899	159.38
378.125	176.38
378.35	153.38
378.576	156.38
378.802	177.38
379.027	192.38
379.253	193.38
379.478	182.38
379.704	225.38
379.929	225.38
380.155	212.38
380.38	188.38
380.606	186.38
380.831	222.38
381.057	222.38
381.282	212.38
381.507	224.38
381.733	257.38
381.958	274.38
382.184	284.38
382.409	281.38
382.634	283.38
382.86	305.38
383.085	267.38
383.31	213.38
383.535	231.38
383.761	231.38
383.986	204.38
384.211	242.38
384.436	232.38
384.662	202.38
384.887	204.38
385.112	205.38
385.337	206.38
385.562	205.38
385.787	206.38
386.013	230.38
386.238	225.38
386.463	220.38
386.688	206.38
386.913	197.38
387.138	187.38
387.363	207.38
387.588	203.38
387.813	198.38
388.038	209.38
388.263	207.38
388.488	202.38
388.713	220.38
388.938	232.38
389.163	221.38
389.387	197.38
389.612	204.38
389.837	191.38
390.062	198.38
390.287	197.38
390.512	188.38
390.736	194.38
390.961	194.38
391.186	192.38
391.411	175.38
391.636	189.38
391.86	213.38
392.085	214.38
392.31	236.38
392.534	187.38
392.759	203.38
392.984	217.38
393.208	204.38
393.433	172.38
393.658	168.38
393.882	154.38
394.107	171.38
394.331	172.38
394.556	171.38
394.78	157.38
395.005	180.38
395.229	183.38
395.454	179.38
395.678	200.38
395.903	197.38
396.127	188.38
396.352	204.38
396.576	205.38
396.801	185.38
397.025	217.38
397.249	234.38
397.474	201.38
397.698	207.38
397.922	194.38
398.147	187.38
398.371	185.38
398.595	213.38
398.82	203.38
399.044	193.38
399.268	214.38
399.492	215.38
399.717	239.38
399.941	241.38
400.165	234.38
400.389	226.38
400.613	212.38
400.837	207.38
401.062	204.38
401.286	193.38
401.51	205.38
401.734	191.38
401.958	187.38
402.182	174.38
402.406	187.38
402.63	196.38
402.854	189.38
403.078	230.38
403.302	281.38
403.526	298.38
403.75	255.38
403.974	217.38
404.198	239.38
404.422	260.38
404.645	269.38
404.869	283.38
405.093	242.38
405.317	200.38
405.541	225.38
405.765	194.38
405.988	209.38
406.212	208.38
406.436	225.38
406.66	250.38
406.883	211.38
407.107	226.38
407.331	249.38
407.555	244.38
407.778	239.38
408.002	225.38
408.226	201.38
408.449	221.38
408.673	217.38
408.896	184.38
409.12	205.38
409.344	208.38
409.567	186.38
409.791	200.38
410.014	188.38
410.238	188.38
410.461	186.38
410.685	188.38
410.908	175.38
411.132	208.38
411.355	204.38
411.578	215.38
411.802	197.38
412.025	213.38
412.249	204.38
412.472	201.38
412.695	195.38
412.919	193.38
413.142	193.38
413.365	223.38
413.589	209.38
413.812	203.38
414.035	195.38
414.258	193.38
414.482	201.38
414.705	221.38
414.928	204.38
415.151	184.38
415.374	200.38
415.597	195.38
415.821	193.38
416.044	193.38
416.267	192.38
416.49	204.38
416.713	188.38
416.936	186.38
417.159	188.38
417.382	177.38
417.605	182.38
417.828	194.38
418.051	195.38
418.274	191.38
418.497	191.38
418.72	189.38
418.943	194.38
419.166	216.38
419.389	227.38
419.611	213.38
419.834	208.38
420.057	223.38
420.28	218.38
420.503	206.38
420.726	179.38
420.948	185.38
421.171	197.38
421.394	183.38
421.617	164.38
421.839	199.38
422.062	195.38
422.285	188.38
422.507	208.38
422.73	194.38
422.953	201.38
423.175	214.38
423.398	182.38
423.621	200.38
423.843	207.38
424.066	192.38
424.288	201.38
424.511	189.38
424.733	203.38
424.956	202.38
425.178	230.38
425.401	241.38
425.623	282.38
425.846	235.38
426.068	201.38
426.291	227.38
426.513	217.38
426.735	194.38
426.958	198.38
427.18	217.38
427.402	281.38
427.625	283.38
427.847	245.38
428.069	189.38
428.292	207.38
428.514	204.38
428.736	203.38
428.958	195.38
429.181	232.38
429.403	201.38
429.625	189.38
429.847	183.38
430.069	201.38
430.292	197.38
430.514	176.38
430.736	198.38
430.958	228.38
431.18	219.38
431.402	185.38
431.624	195.38
431.846	183.38
432.068	183.38
432.29	188.38
432.512	196.38
432.734	236.38
432.956	211.38
433.178	181.38
433.4	191.38
433.622	183.38
433.844	188.38
434.066	199.38
434.287	196.38
434.509	186.38
434.731	204.38
434.953	201.38
435.175	215.38
435.397	216.38
435.618	187.38
435.84	185.38
436.062	172.38
436.284	200.38
436.505	180.38
436.727	171.38
436.949	172.38
437.17	176.38
437.392	179.38
437.614	190.38
437.835	184.38
438.057	194.38
438.278	211.38
438.5	251.38
438.721	272.38
438.943	203.38
439.165	196.38
439.386	161.38
439.608	175.38
439.829	168.38
440.05	171.38
440.272	193.38
440.493	200.38
440.715	267.38
440.936	202.38
441.158	185.38
441.379	181.38
441.6	206.38
441.822	219.38
442.043	188.38
442.264	201.38
442.486	202.38
442.707	193.38
442.928	191.38
443.149	181.38
443.371	193.38
443.592	201.38
443.813	198.38
444.034	182.38
444.255	199.38
444.476	207.38
444.698	197.38
444.919	202.38
445.14	333.38
445.361	269.38
445.582	203.38
445.803	187.38
446.024	205.38
446.245	201.38
446.466	205.38
446.687	189.38
446.908	195.38
447.129	181.38
447.35	173.38
447.571	188.38
447.792	181.38
448.013	187.38
448.234	172.38
448.455	159.38
448.675	179.38
448.896	179.38
449.117	172.38
449.338	176.38
449.559	189.38
449.779	191.38
450	193.38
450.221	186.38
450.442	176.38
450.662	181.38
450.883	180.38
451.104	190.38
451.324	150.38
451.545	187.38
451.766	186.38
451.986	156.38
452.207	180.38
452.428	163.38
452.648	183.38
452.869	186.38
453.089	192.38
453.31	184.38
453.53	166.38
453.751	160.38
453.971	166.38
454.192	175.38
454.412	188.38
454.633	163.38
454.853	180.38
455.073	183.38
455.294	171.38
455.514	164.38
455.734	181.38
455.955	169.38
456.175	197.38
456.395	171.38
456.616	163.38
456.836	166.38
457.056	166.38
457.276	158.38
457.497	148.38
457.717	152.38
457.937	167.38
458.157	156.38
458.377	152.38
458.598	161.38
458.818	172.38
459.038	185.38
459.258	172.38
459.478	199.38
459.698	181.38
459.918	185.38
460.138	194.38
460.358	195.38
460.578	196.38
460.798	189.38
461.018	186.38
461.238	175.38
461.458	188.38
461.678	201.38
461.898	205.38
462.118	205.38
462.338	208.38
462.558	213.38
462.777	240.38
462.997	227.38
463.217	220.38
463.437	233.38
463.657	225.38
463.876	212.38
464.096	228.38
464.316	195.38
464.536	223.38
464.755	207.38
464.975	218.38
465.195	197.38
465.414	239.38
465.634	222.38
465.854	197.38
466.073	198.38
466.293	178.38
466.512	199.38
466.732	225.38
466.951	228.38
467.171	205.38
467.391	197.38
467.61	186.38
467.829	202.38
468.049	202.38
468.268	192.38
468.488	186.38
468.707	187.38
468.927	220.38
469.146	220.38
469.365	216.38
469.585	205.38
469.804	210.38
470.023	222.38
470.243	205.38
470.462	189.38
470.681	187.38
470.901	212.38
471.12	215.38
471.339	223.38
471.558	192.38
471.777	193.38
471.997	199.38
472.216	238.38
472.435	228.38
472.654	226.38
472.873	197.38
473.092	205.38
473.311	207.38
473.53	192.38
473.749	211.38
473.968	219.38
474.187	211.38
474.406	195.38
474.625	210.38
474.844	206.38
475.063	212.38
475.282	224.38
475.501	208.38
475.72	255.38
475.939	228.38
476.158	223.38
476.377	278.38
476.596	297.38
476.814	312.38
477.033	244.38
477.252	219.38
477.471	205.38
477.69	215.38
477.908	235.38
478.127	257.38
478.346	228.38
478.564	271.38
478.783	255.38
479.002	240.38
479.22	237.38
479.439	287.38
479.658	273.38
479.876	232.38
480.095	219.38
480.313	246.38
480.532	245.38
480.751	231.38
480.969	236.38
481.188	277.38
481.406	285.38
481.624	250.38
481.843	226.38
482.061	216.38
482.28	244.38
482.498	288.38
482.717	293.38
482.935	236.38
483.153	236.38
483.372	226.38
483.59	200.38
483.808	215.38
484.027	233.38
484.245	204.38
484.463	207.38
484.681	219.38
484.9	228.38
485.118	248.38
485.336	243.38
485.554	219.38
485.772	227.38
485.99	231.38
486.209	239.38
486.427	234.38
486.645	242.38
486.863	247.38
487.081	244.38
487.299	277.38
487.517	256.38
487.735	229.38
487.953	229.38
488.171	255.38
488.389	238.38
488.607	237.38
488.825	245.38
489.043	257.38
489.261	300.38
489.479	314.38
489.696	263.38
489.914	262.38
490.132	211.38
490.35	231.38
490.568	236.38
490.786	217.38
491.003	234.38
491.221	224.38
491.439	228.38
491.657	228.38
491.874	235.38
492.092	294.38
492.31	317.38
492.527	332.38
492.745	297.38
492.963	249.38
493.18	263.38
493.398	264.38
493.615	254.38
493.833	229.38
494.05	249.38
494.268	224.38
494.485	253.38
494.703	228.38
494.92	234.38
495.138	220.38
495.355	247.38
495.573	234.38
495.79	257.38
496.008	356.38
496.225	287.38
496.442	260.38
496.66	256.38
496.877	266.38
497.094	283.38
497.312	260.38
497.529	253.38
497.746	253.38
497.963	276.38
498.181	284.38
498.398	315.38
498.615	304.38
498.832	344.38
499.049	336.38
499.267	313.38
499.484	314.38
499.701	332.38
499.918	359.38
500.135	387.38
500.352	417.38
500.569	414.38
500.786	440.38
501.003	425.38
501.22	368.38
501.437	356.38
501.654	340.38
501.871	299.38
502.088	304.38
502.305	315.38
502.522	309.38
502.739	298.38
