Data from NickelSpatula_HRD10591_16-34-55-126.txt Node
Date: Mon Jul 22 16:34:55 EDT 2019
User: cochatt
Spectrometer: HR+D1059
Trigger mode: 1
Integration Time (sec): 1.000000E-1
Scans to average: 1
Electric dark correction enabled: true
Nonlinearity correction enabled: false
Boxcar width: 0
XAxis mode: Wavelengths
Number of Pixels in Spectrum: 2048
>>>>>Begin Spectral Data<<<<<
223.165	-2.19
223.4	-2.19
223.635	-2.19
223.869	-4.19
224.104	-17.19
224.338	-24.19
224.573	-10.19
224.808	-23.19
225.042	-12.19
225.277	-12.19
225.511	6.81
225.746	-6.19
225.98	-1.19
226.215	5.81
226.449	23.81
226.683	19.81
226.918	24.81
227.152	31.81
227.387	37.81
227.621	55.81
227.856	43.81
228.09	40.81
228.324	47.81
228.559	39.81
228.793	41.81
229.027	65.81
229.262	71.81
229.496	69.81
229.73	75.81
229.964	91.81
230.199	79.81
230.433	87.81
230.667	92.81
230.901	89.81
231.136	103.81
231.37	97.81
231.604	90.81
231.838	84.81
232.072	107.81
232.306	101.81
232.541	105.81
232.775	94.81
233.009	102.81
233.243	112.81
233.477	106.81
233.711	112.81
233.945	125.81
234.179	103.81
234.413	119.81
234.647	124.81
234.881	123.81
235.115	117.81
235.349	122.81
235.583	116.81
235.817	108.81
236.051	107.81
236.285	140.81
236.519	124.81
236.753	119.81
236.987	113.81
237.221	116.81
237.455	121.81
237.689	114.81
237.922	125.81
238.156	124.81
238.39	132.81
238.624	157.81
238.858	145.81
239.091	132.81
239.325	125.81
239.559	126.81
239.793	133.81
240.027	155.81
240.26	141.81
240.494	134.81
240.728	153.81
240.961	149.81
241.195	150.81
241.429	133.81
241.662	155.81
241.896	126.81
242.13	132.81
242.363	129.81
242.597	127.81
242.83	127.81
243.064	140.81
243.298	154.81
243.531	159.81
243.765	142.81
243.998	150.81
244.232	161.81
244.465	156.81
244.699	150.81
244.932	162.81
245.166	138.81
245.399	139.81
245.633	131.81
245.866	129.81
246.099	135.81
246.333	179.81
246.566	170.81
246.8	192.81
247.033	172.81
247.266	160.81
247.5	161.81
247.733	156.81
247.966	157.81
248.2	157.81
248.433	165.81
248.666	182.81
248.899	177.81
249.133	193.81
249.366	213.81
249.599	209.81
249.832	193.81
250.066	171.81
250.299	179.81
250.532	187.81
250.765	199.81
250.998	165.81
251.231	166.81
251.465	175.81
251.698	195.81
251.931	197.81
252.164	193.81
252.397	212.81
252.63	212.81
252.863	239.81
253.096	228.81
253.329	238.81
253.562	235.81
253.795	253.81
254.028	288.81
254.261	279.81
254.494	253.81
254.727	253.81
254.96	229.81
255.193	252.81
255.426	242.81
255.659	211.81
255.892	165.81
256.124	204.81
256.357	212.81
256.59	254.81
256.823	228.81
257.056	214.81
257.289	185.81
257.521	213.81
257.754	223.81
257.987	256.81
258.22	240.81
258.452	210.81
258.685	234.81
258.918	256.81
259.151	248.81
259.383	272.81
259.616	305.81
259.849	322.81
260.081	306.81
260.314	331.81
260.547	279.81
260.779	291.81
261.012	319.81
261.244	324.81
261.477	297.81
261.71	295.81
261.942	264.81
262.175	253.81
262.407	239.81
262.64	262.81
262.872	279.81
263.105	294.81
263.337	306.81
263.57	286.81
263.802	228.81
264.035	202.81
264.267	209.81
264.499	174.81
264.732	161.81
264.964	167.81
265.197	156.81
265.429	205.81
265.661	179.81
265.894	192.81
266.126	183.81
266.358	213.81
266.591	255.81
266.823	305.81
267.055	302.81
267.287	266.81
267.52	261.81
267.752	251.81
267.984	277.81
268.216	286.81
268.448	269.81
268.681	228.81
268.913	254.81
269.145	271.81
269.377	271.81
269.609	272.81
269.841	243.81
270.073	281.81
270.306	289.81
270.538	297.81
270.77	297.81
271.002	286.81
271.234	303.81
271.466	315.81
271.698	301.81
271.93	270.81
272.162	271.81
272.394	301.81
272.626	269.81
272.858	281.81
273.09	295.81
273.322	255.81
273.553	244.81
273.785	275.81
274.017	349.81
274.249	404.81
274.481	438.81
274.713	461.81
274.945	505.81
275.176	537.81
275.408	460.81
275.64	451.81
275.872	451.81
276.104	397.81
276.335	363.81
276.567	349.81
276.799	373.81
277.031	369.81
277.262	302.81
277.494	248.81
277.726	232.81
277.957	268.81
278.189	300.81
278.421	292.81
278.652	287.81
278.884	267.81
279.115	247.81
279.347	255.81
279.579	253.81
279.81	250.81
280.042	258.81
280.273	260.81
280.505	254.81
280.736	215.81
280.968	220.81
281.199	235.81
281.431	271.81
281.662	258.81
281.894	236.81
282.125	260.81
282.356	263.81
282.588	263.81
282.819	244.81
283.051	273.81
283.282	315.81
283.513	340.81
283.745	385.81
283.976	382.81
284.207	353.81
284.439	374.81
284.67	368.81
284.901	322.81
285.132	343.81
285.364	375.81
285.595	341.81
285.826	360.81
286.057	381.81
286.288	363.81
286.52	379.81
286.751	378.81
286.982	381.81
287.213	342.81
287.444	329.81
287.675	350.81
287.906	353.81
288.138	307.81
288.369	279.81
288.6	251.81
288.831	282.81
289.062	302.81
289.293	337.81
289.524	328.81
289.755	317.81
289.986	331.81
290.217	299.81
290.448	227.81
290.679	207.81
290.91	192.81
291.141	193.81
291.371	209.81
291.602	195.81
291.833	202.81
292.064	221.81
292.295	229.81
292.526	263.81
292.757	279.81
292.987	300.81
293.218	309.81
293.449	315.81
293.68	333.81
293.91	339.81
294.141	336.81
294.372	286.81
294.603	287.81
294.833	300.81
295.064	342.81
295.295	349.81
295.525	271.81
295.756	227.81
295.987	217.81
296.217	198.81
296.448	198.81
296.679	211.81
296.909	239.81
297.14	246.81
297.37	265.81
297.601	273.81
297.831	224.81
298.062	272.81
298.292	250.81
298.523	289.81
298.753	328.81
298.984	300.81
299.214	232.81
299.445	215.81
299.675	195.81
299.905	209.81
300.136	198.81
300.366	217.81
300.597	217.81
300.827	202.81
301.057	200.81
301.288	206.81
301.518	230.81
301.748	253.81
301.979	239.81
302.209	249.81
302.439	276.81
302.669	260.81
302.9	228.81
303.13	240.81
303.36	227.81
303.59	216.81
303.82	239.81
304.051	261.81
304.281	278.81
304.511	262.81
304.741	211.81
304.971	261.81
305.201	245.81
305.431	236.81
305.661	208.81
305.891	206.81
306.121	207.81
306.352	184.81
306.582	189.81
306.812	188.81
307.042	172.81
307.272	163.81
307.502	166.81
307.731	163.81
307.961	189.81
308.191	185.81
308.421	183.81
308.651	178.81
308.881	168.81
309.111	163.81
309.341	179.81
309.571	192.81
309.8	191.81
310.03	175.81
310.26	196.81
310.49	193.81
310.72	179.81
310.949	173.81
311.179	187.81
311.409	206.81
311.639	205.81
311.868	253.81
312.098	341.81
312.328	347.81
312.557	355.81
312.787	347.81
313.017	319.81
313.246	342.81
313.476	364.81
313.706	312.81
313.935	255.81
314.165	213.81
314.394	179.81
314.624	206.81
314.853	185.81
315.083	207.81
315.312	196.81
315.542	191.81
315.771	178.81
316.001	162.81
316.23	174.81
316.46	165.81
316.689	166.81
316.919	161.81
317.148	191.81
317.377	165.81
317.607	184.81
317.836	183.81
318.065	207.81
318.295	249.81
318.524	223.81
318.753	188.81
318.983	181.81
319.212	207.81
319.441	203.81
319.67	214.81
319.9	210.81
320.129	194.81
320.358	198.81
320.587	178.81
320.816	198.81
321.046	225.81
321.275	249.81
321.504	243.81
321.733	225.81
321.962	244.81
322.191	217.81
322.42	201.81
322.649	206.81
322.878	232.81
323.108	225.81
323.337	217.81
323.566	207.81
323.795	210.81
324.024	201.81
324.253	195.81
324.482	199.81
324.71	189.81
324.939	219.81
325.168	210.81
325.397	190.81
325.626	187.81
325.855	196.81
326.084	175.81
326.313	187.81
326.542	166.81
326.77	177.81
326.999	177.81
327.228	177.81
327.457	192.81
327.686	182.81
327.914	159.81
328.143	166.81
328.372	160.81
328.6	161.81
328.829	162.81
329.058	176.81
329.287	165.81
329.515	172.81
329.744	169.81
329.972	164.81
330.201	173.81
330.43	175.81
330.658	169.81
330.887	201.81
331.115	197.81
331.344	185.81
331.572	191.81
331.801	163.81
332.03	186.81
332.258	190.81
332.486	175.81
332.715	191.81
332.943	156.81
333.172	187.81
333.4	179.81
333.629	214.81
333.857	211.81
334.085	220.81
334.314	203.81
334.542	182.81
334.771	189.81
334.999	187.81
335.227	176.81
335.455	189.81
335.684	182.81
335.912	212.81
336.14	243.81
336.369	235.81
336.597	218.81
336.825	245.81
337.053	261.81
337.281	234.81
337.51	182.81
337.738	189.81
337.966	192.81
338.194	196.81
338.422	228.81
338.65	184.81
338.878	184.81
339.106	182.81
339.334	188.81
339.562	201.81
339.79	195.81
340.018	196.81
340.246	187.81
340.474	212.81
340.702	224.81
340.93	230.81
341.158	233.81
341.386	206.81
341.614	202.81
341.842	210.81
342.07	219.81
342.298	222.81
342.526	240.81
342.754	223.81
342.981	205.81
343.209	188.81
343.437	210.81
343.665	214.81
343.893	219.81
344.12	255.81
344.348	286.81
344.576	260.81
344.804	239.81
345.031	200.81
345.259	193.81
345.487	196.81
345.714	197.81
345.942	196.81
346.17	220.81
346.397	201.81
346.625	200.81
346.853	179.81
347.08	187.81
347.308	191.81
347.535	204.81
347.763	212.81
347.99	183.81
348.218	173.81
348.445	189.81
348.673	193.81
348.9	183.81
349.128	206.81
349.355	207.81
349.583	208.81
349.81	194.81
350.037	197.81
350.265	178.81
350.492	150.81
350.72	175.81
350.947	158.81
351.174	191.81
351.402	170.81
351.629	183.81
351.856	186.81
352.083	178.81
352.311	189.81
352.538	201.81
352.765	218.81
352.992	223.81
353.22	201.81
353.447	219.81
353.674	195.81
353.901	183.81
354.128	182.81
354.355	215.81
354.583	196.81
354.81	223.81
355.037	226.81
355.264	212.81
355.491	201.81
355.718	198.81
355.945	207.81
356.172	208.81
356.399	206.81
356.626	251.81
356.853	284.81
357.08	303.81
357.307	320.81
357.534	274.81
357.761	271.81
357.988	320.81
358.215	347.81
358.441	320.81
358.668	292.81
358.895	280.81
359.122	219.81
359.349	226.81
359.576	242.81
359.802	218.81
360.029	191.81
360.256	197.81
360.483	245.81
360.709	293.81
360.936	307.81
361.163	260.81
361.39	204.81
361.616	202.81
361.843	214.81
362.07	244.81
362.296	235.81
362.523	206.81
362.749	181.81
362.976	183.81
363.203	224.81
363.429	235.81
363.656	197.81
363.882	207.81
364.109	210.81
364.335	200.81
364.562	198.81
364.788	193.81
365.015	232.81
365.241	194.81
365.468	168.81
365.694	175.81
365.92	171.81
366.147	160.81
366.373	151.81
366.599	147.81
366.826	155.81
367.052	155.81
367.278	158.81
367.505	175.81
367.731	194.81
367.957	198.81
368.184	199.81
368.41	197.81
368.636	198.81
368.862	211.81
369.089	196.81
369.315	171.81
369.541	186.81
369.767	162.81
369.993	161.81
370.219	178.81
370.445	188.81
370.672	188.81
370.898	189.81
371.124	219.81
371.35	185.81
371.576	168.81
371.802	184.81
372.028	210.81
372.254	226.81
372.48	203.81
372.706	194.81
372.932	215.81
373.158	212.81
373.384	242.81
373.61	303.81
373.835	309.81
374.061	239.81
374.287	201.81
374.513	233.81
374.739	268.81
374.965	278.81
375.191	273.81
375.416	207.81
375.642	195.81
375.868	204.81
376.094	228.81
376.319	209.81
376.545	208.81
376.771	228.81
376.997	199.81
377.222	165.81
377.448	149.81
377.674	163.81
377.899	157.81
378.125	159.81
378.35	140.81
378.576	134.81
378.802	163.81
379.027	175.81
379.253	179.81
379.478	196.81
379.704	198.81
379.929	220.81
380.155	199.81
380.38	178.81
380.606	214.81
380.831	220.81
381.057	212.81
381.282	184.81
381.507	212.81
381.733	244.81
381.958	246.81
382.184	291.81
382.409	292.81
382.634	291.81
382.86	300.81
383.085	259.81
383.31	208.81
383.535	235.81
383.761	221.81
383.986	218.81
384.211	239.81
384.436	241.81
384.662	210.81
384.887	206.81
385.112	203.81
385.337	206.81
385.562	201.81
385.787	205.81
386.013	239.81
386.238	239.81
386.463	197.81
386.688	203.81
386.913	191.81
387.138	188.81
387.363	190.81
387.588	200.81
387.813	197.81
388.038	210.81
388.263	195.81
388.488	185.81
388.713	213.81
388.938	230.81
389.163	195.81
389.387	179.81
389.612	188.81
389.837	198.81
390.062	186.81
390.287	191.81
390.512	181.81
390.736	179.81
390.961	182.81
391.186	191.81
391.411	159.81
391.636	176.81
391.86	173.81
392.085	202.81
392.31	196.81
392.534	195.81
392.759	200.81
392.984	186.81
393.208	191.81
393.433	185.81
393.658	177.81
393.882	167.81
394.107	183.81
394.331	149.81
394.556	145.81
394.78	159.81
395.005	179.81
395.229	158.81
395.454	171.81
395.678	169.81
395.903	167.81
396.127	156.81
396.352	183.81
396.576	215.81
396.801	208.81
397.025	229.81
397.249	223.81
397.474	185.81
397.698	191.81
397.922	202.81
398.147	177.81
398.371	201.81
398.595	192.81
398.82	190.81
399.044	193.81
399.268	203.81
399.492	214.81
399.717	205.81
399.941	214.81
400.165	195.81
400.389	197.81
400.613	211.81
400.837	195.81
401.062	184.81
401.286	185.81
401.51	169.81
401.734	196.81
401.958	180.81
402.182	195.81
402.406	187.81
402.63	183.81
402.854	205.81
403.078	203.81
403.302	270.81
403.526	290.81
403.75	256.81
403.974	220.81
404.198	224.81
404.422	255.81
404.645	251.81
404.869	266.81
405.093	227.81
405.317	205.81
405.541	188.81
405.765	204.81
405.988	218.81
406.212	212.81
406.436	214.81
406.66	255.81
406.883	212.81
407.107	221.81
407.331	243.81
407.555	220.81
407.778	207.81
408.002	197.81
408.226	219.81
408.449	214.81
408.673	217.81
408.896	190.81
409.12	176.81
409.344	173.81
409.567	185.81
409.791	182.81
410.014	168.81
410.238	181.81
410.461	184.81
410.685	179.81
410.908	178.81
411.132	183.81
411.355	201.81
411.578	198.81
411.802	178.81
412.025	193.81
412.249	207.81
412.472	193.81
412.695	196.81
412.919	195.81
413.142	196.81
413.365	221.81
413.589	219.81
413.812	195.81
414.035	189.81
414.258	198.81
414.482	196.81
414.705	200.81
414.928	191.81
415.151	183.81
415.374	183.81
415.597	180.81
415.821	171.81
416.044	191.81
416.267	175.81
416.49	183.81
416.713	189.81
416.936	175.81
417.159	165.81
417.382	179.81
417.605	174.81
417.828	195.81
418.051	179.81
418.274	204.81
418.497	198.81
418.72	179.81
418.943	213.81
419.166	194.81
419.389	210.81
419.611	200.81
419.834	188.81
420.057	209.81
420.28	229.81
420.503	214.81
420.726	173.81
420.948	171.81
421.171	168.81
421.394	188.81
421.617	203.81
421.839	179.81
422.062	188.81
422.285	177.81
422.507	192.81
422.73	214.81
422.953	212.81
423.175	185.81
423.398	192.81
423.621	205.81
423.843	216.81
424.066	219.81
424.288	195.81
424.511	189.81
424.733	173.81
424.956	191.81
425.178	218.81
425.401	242.81
425.623	281.81
425.846	233.81
426.068	212.81
426.291	228.81
426.513	220.81
426.735	183.81
426.958	199.81
427.18	208.81
427.402	291.81
427.625	291.81
427.847	244.81
428.069	184.81
428.292	184.81
428.514	200.81
428.736	183.81
428.958	200.81
429.181	247.81
429.403	215.81
429.625	188.81
429.847	179.81
430.069	200.81
430.292	183.81
430.514	184.81
430.736	189.81
430.958	230.81
431.18	200.81
431.402	182.81
431.624	177.81
431.846	169.81
432.068	149.81
432.29	154.81
432.512	178.81
432.734	219.81
432.956	225.81
433.178	167.81
433.4	167.81
433.622	167.81
433.844	187.81
434.066	225.81
434.287	179.81
434.509	178.81
434.731	193.81
434.953	200.81
435.175	182.81
435.397	213.81
435.618	188.81
435.84	159.81
436.062	167.81
436.284	167.81
436.505	168.81
436.727	164.81
436.949	166.81
437.17	181.81
437.392	180.81
437.614	183.81
437.835	168.81
438.057	180.81
438.278	202.81
438.5	235.81
438.721	256.81
438.943	186.81
439.165	159.81
439.386	166.81
439.608	171.81
439.829	157.81
440.05	178.81
440.272	174.81
440.493	196.81
440.715	218.81
440.936	189.81
441.158	172.81
441.379	171.81
441.6	206.81
441.822	198.81
442.043	183.81
442.264	185.81
442.486	187.81
442.707	163.81
442.928	174.81
443.149	167.81
443.371	189.81
443.592	186.81
443.813	175.81
444.034	181.81
444.255	187.81
444.476	197.81
444.698	175.81
444.919	205.81
445.14	344.81
445.361	246.81
445.582	208.81
445.803	199.81
446.024	211.81
446.245	213.81
446.466	200.81
446.687	185.81
446.908	180.81
447.129	178.81
447.35	172.81
447.571	175.81
447.792	189.81
448.013	177.81
448.234	171.81
448.455	153.81
448.675	149.81
448.896	160.81
449.117	155.81
449.338	177.81
449.559	173.81
449.779	194.81
450	185.81
450.221	181.81
450.442	182.81
450.662	195.81
450.883	168.81
451.104	167.81
451.324	170.81
451.545	176.81
451.766	166.81
451.986	150.81
452.207	156.81
452.428	163.81
452.648	176.81
452.869	190.81
453.089	175.81
453.31	175.81
453.53	159.81
453.751	159.81
453.971	173.81
454.192	173.81
454.412	175.81
454.633	145.81
454.853	188.81
455.073	155.81
455.294	141.81
455.514	178.81
455.734	167.81
455.955	161.81
456.175	173.81
456.395	167.81
456.616	151.81
456.836	137.81
457.056	131.81
457.276	167.81
457.497	166.81
457.717	147.81
457.937	144.81
458.157	171.81
458.377	163.81
458.598	155.81
458.818	167.81
459.038	172.81
459.258	175.81
459.478	177.81
459.698	197.81
459.918	185.81
460.138	181.81
460.358	168.81
460.578	191.81
460.798	179.81
461.018	189.81
461.238	171.81
461.458	169.81
461.678	195.81
461.898	201.81
462.118	188.81
462.338	196.81
462.558	196.81
462.777	194.81
462.997	216.81
463.217	201.81
463.437	205.81
463.657	221.81
463.876	216.81
464.096	195.81
464.316	195.81
464.536	200.81
464.755	197.81
464.975	221.81
465.195	198.81
465.414	199.81
465.634	178.81
465.854	200.81
466.073	191.81
466.293	172.81
466.512	198.81
466.732	201.81
466.951	212.81
467.171	193.81
467.391	183.81
467.61	174.81
467.829	189.81
468.049	177.81
468.268	179.81
468.488	177.81
468.707	171.81
468.927	195.81
469.146	209.81
469.365	193.81
469.585	191.81
469.804	201.81
470.023	198.81
470.243	192.81
470.462	179.81
470.681	187.81
470.901	183.81
471.12	192.81
471.339	184.81
471.558	181.81
471.777	193.81
471.997	207.81
472.216	207.81
472.435	209.81
472.654	204.81
472.873	201.81
473.092	197.81
473.311	195.81
473.53	197.81
473.749	185.81
473.968	198.81
474.187	203.81
474.406	188.81
474.625	180.81
474.844	191.81
475.063	208.81
475.282	206.81
475.501	209.81
475.72	267.81
475.939	224.81
476.158	204.81
476.377	254.81
476.596	281.81
476.814	297.81
477.033	248.81
477.252	191.81
477.471	183.81
477.69	188.81
477.908	212.81
478.127	217.81
478.346	213.81
478.564	252.81
478.783	225.81
479.002	223.81
479.22	247.81
479.439	253.81
479.658	235.81
479.876	208.81
480.095	213.81
480.313	228.81
480.532	215.81
480.751	209.81
480.969	215.81
481.188	214.81
481.406	231.81
481.624	214.81
481.843	206.81
482.061	200.81
482.28	223.81
482.498	307.81
482.717	305.81
482.935	232.81
483.153	239.81
483.372	206.81
483.59	196.81
483.808	181.81
484.027	217.81
484.245	197.81
484.463	192.81
484.681	209.81
484.9	215.81
485.118	220.81
485.336	220.81
485.554	196.81
485.772	188.81
485.99	231.81
486.209	232.81
486.427	228.81
486.645	240.81
486.863	220.81
487.081	215.81
487.299	275.81
487.517	257.81
487.735	202.81
487.953	220.81
488.171	228.81
488.389	224.81
488.607	213.81
488.825	233.81
489.043	223.81
489.261	251.81
489.479	293.81
489.696	239.81
489.914	222.81
490.132	216.81
490.35	197.81
490.568	210.81
490.786	202.81
491.003	217.81
491.221	213.81
491.439	196.81
491.657	199.81
491.874	217.81
492.092	260.81
492.31	323.81
492.527	327.81
492.745	269.81
492.963	244.81
493.18	226.81
493.398	241.81
493.615	229.81
493.833	245.81
494.05	227.81
494.268	216.81
494.485	228.81
494.703	222.81
494.92	242.81
495.138	230.81
495.355	214.81
495.573	214.81
495.79	247.81
496.008	350.81
496.225	279.81
496.442	250.81
496.66	241.81
496.877	249.81
497.094	239.81
497.312	241.81
497.529	233.81
497.746	241.81
497.963	242.81
498.181	261.81
498.398	281.81
498.615	307.81
498.832	319.81
499.049	307.81
499.267	273.81
499.484	282.81
499.701	292.81
499.918	322.81
500.135	346.81
500.352	374.81
500.569	363.81
500.786	368.81
501.003	361.81
501.22	321.81
501.437	321.81
501.654	302.81
501.871	289.81
502.088	285.81
502.305	240.81
502.522	269.81
502.739	276.81
