Data from NickelSpatula.Lamp.E5.5.P2_HRD10591_11-53-43-548.txt Node
Date: Tue Jul 23 11:53:43 EDT 2019
User: cochatt
Spectrometer: HR+D1059
Trigger mode: 1
Integration Time (sec): 1.000000E-1
Scans to average: 1
Electric dark correction enabled: true
Nonlinearity correction enabled: false
Boxcar width: 0
XAxis mode: Wavelengths
Number of Pixels in Spectrum: 2048
>>>>>Begin Spectral Data<<<<<
223.165	-16.25
223.4	-16.25
223.635	-16.25
223.869	-21.25
224.104	-15.25
224.338	-12.25
224.573	-11.25
224.808	-25.25
225.042	-12.25
225.277	-0.25
225.511	6.75
225.746	5.75
225.98	5.75
226.215	4.75
226.449	19.75
226.683	21.75
226.918	20.75
227.152	28.75
227.387	44.75
227.621	41.75
227.856	54.75
228.09	43.75
228.324	50.75
228.559	55.75
228.793	63.75
229.027	51.75
229.262	87.75
229.496	90.75
229.73	83.75
229.964	85.75
230.199	97.75
230.433	108.75
230.667	95.75
230.901	97.75
231.136	98.75
231.37	92.75
231.604	99.75
231.838	113.75
232.072	110.75
232.306	100.75
232.541	107.75
232.775	103.75
233.009	98.75
233.243	104.75
233.477	114.75
233.711	121.75
233.945	125.75
234.179	127.75
234.413	133.75
234.647	122.75
234.881	141.75
235.115	146.75
235.349	109.75
235.583	122.75
235.817	138.75
236.051	145.75
236.285	133.75
236.519	128.75
236.753	137.75
236.987	141.75
237.221	123.75
237.455	141.75
237.689	143.75
237.922	139.75
238.156	138.75
238.39	158.75
238.624	176.75
238.858	162.75
239.091	139.75
239.325	139.75
239.559	149.75
239.793	154.75
240.027	185.75
240.26	162.75
240.494	170.75
240.728	159.75
240.961	180.75
241.195	176.75
241.429	169.75
241.662	165.75
241.896	160.75
242.13	142.75
242.363	144.75
242.597	136.75
242.83	154.75
243.064	155.75
243.298	178.75
243.531	181.75
243.765	168.75
243.998	170.75
244.232	162.75
244.465	187.75
244.699	170.75
244.932	183.75
245.166	168.75
245.399	142.75
245.633	149.75
245.866	154.75
246.099	163.75
246.333	191.75
246.566	190.75
246.8	204.75
247.033	192.75
247.266	195.75
247.5	179.75
247.733	169.75
247.966	170.75
248.2	171.75
248.433	178.75
248.666	204.75
248.899	209.75
249.133	208.75
249.366	235.75
249.599	243.75
249.832	226.75
250.066	202.75
250.299	205.75
250.532	207.75
250.765	203.75
250.998	198.75
251.231	183.75
251.465	210.75
251.698	188.75
251.931	212.75
252.164	204.75
252.397	218.75
252.63	234.75
252.863	257.75
253.096	263.75
253.329	275.75
253.562	260.75
253.795	294.75
254.028	280.75
254.261	296.75
254.494	279.75
254.727	251.75
254.96	264.75
255.193	257.75
255.426	269.75
255.659	217.75
255.892	196.75
256.124	216.75
256.357	244.75
256.59	281.75
256.823	249.75
257.056	223.75
257.289	195.75
257.521	246.75
257.754	272.75
257.987	299.75
258.22	247.75
258.452	238.75
258.685	259.75
258.918	291.75
259.151	290.75
259.383	296.75
259.616	340.75
259.849	334.75
260.081	352.75
260.314	401.75
260.547	321.75
260.779	332.75
261.012	373.75
261.244	367.75
261.477	376.75
261.71	321.75
261.942	281.75
262.175	283.75
262.407	280.75
262.64	291.75
262.872	324.75
263.105	347.75
263.337	383.75
263.57	335.75
263.802	265.75
264.035	226.75
264.267	230.75
264.499	172.75
264.732	179.75
264.964	183.75
265.197	188.75
265.429	188.75
265.661	206.75
265.894	208.75
266.126	233.75
266.358	254.75
266.591	283.75
266.823	326.75
267.055	316.75
267.287	291.75
267.52	294.75
267.752	310.75
267.984	313.75
268.216	311.75
268.448	276.75
268.681	263.75
268.913	265.75
269.145	299.75
269.377	287.75
269.609	301.75
269.841	278.75
270.073	297.75
270.306	300.75
270.538	310.75
270.77	326.75
271.002	333.75
271.234	340.75
271.466	344.75
271.698	303.75
271.93	295.75
272.162	295.75
272.394	293.75
272.626	303.75
272.858	316.75
273.09	323.75
273.322	277.75
273.553	280.75
273.785	308.75
274.017	376.75
274.249	475.75
274.481	500.75
274.713	508.75
274.945	600.75
275.176	639.75
275.408	571.75
275.64	521.75
275.872	531.75
276.104	465.75
276.335	409.75
276.567	400.75
276.799	410.75
277.031	425.75
277.262	355.75
277.494	275.75
277.726	284.75
277.957	290.75
278.189	311.75
278.421	293.75
278.652	328.75
278.884	299.75
279.115	288.75
279.347	289.75
279.579	284.75
279.81	266.75
280.042	279.75
280.273	263.75
280.505	256.75
280.736	232.75
280.968	257.75
281.199	259.75
281.431	285.75
281.662	273.75
281.894	266.75
282.125	284.75
282.356	285.75
282.588	303.75
282.819	275.75
283.051	280.75
283.282	356.75
283.513	410.75
283.745	444.75
283.976	432.75
284.207	405.75
284.439	432.75
284.67	432.75
284.901	377.75
285.132	386.75
285.364	426.75
285.595	392.75
285.826	409.75
286.057	417.75
286.288	412.75
286.52	409.75
286.751	425.75
286.982	424.75
287.213	374.75
287.444	384.75
287.675	380.75
287.906	379.75
288.138	351.75
288.369	305.75
288.6	299.75
288.831	299.75
289.062	363.75
289.293	372.75
289.524	347.75
289.755	359.75
289.986	379.75
290.217	314.75
290.448	258.75
290.679	222.75
290.91	217.75
291.141	221.75
291.371	226.75
291.602	240.75
291.833	240.75
292.064	244.75
292.295	264.75
292.526	299.75
292.757	327.75
292.987	333.75
293.218	357.75
293.449	358.75
293.68	384.75
293.91	340.75
294.141	377.75
294.372	367.75
294.603	305.75
294.833	332.75
295.064	399.75
295.295	389.75
295.525	293.75
295.756	260.75
295.987	234.75
296.217	220.75
296.448	250.75
296.679	249.75
296.909	248.75
297.14	287.75
297.37	325.75
297.601	285.75
297.831	275.75
298.062	275.75
298.292	321.75
298.523	345.75
298.753	356.75
298.984	327.75
299.214	282.75
299.445	270.75
299.675	259.75
299.905	250.75
300.136	259.75
300.366	240.75
300.597	273.75
300.827	232.75
301.057	229.75
301.288	243.75
301.518	269.75
301.748	271.75
301.979	320.75
302.209	314.75
302.439	325.75
302.669	263.75
302.9	271.75
303.13	276.75
303.36	257.75
303.59	267.75
303.82	249.75
304.051	269.75
304.281	303.75
304.511	297.75
304.741	264.75
304.971	261.75
305.201	278.75
305.431	285.75
305.661	234.75
305.891	243.75
306.121	247.75
306.352	224.75
306.582	223.75
306.812	219.75
307.042	212.75
307.272	210.75
307.502	205.75
307.731	195.75
307.961	211.75
308.191	209.75
308.421	205.75
308.651	204.75
308.881	200.75
309.111	182.75
309.341	203.75
309.571	209.75
309.8	224.75
310.03	219.75
310.26	257.75
310.49	227.75
310.72	205.75
310.949	217.75
311.179	234.75
311.409	219.75
311.639	238.75
311.868	297.75
312.098	375.75
312.328	419.75
312.557	396.75
312.787	395.75
313.017	349.75
313.246	368.75
313.476	417.75
313.706	345.75
313.935	289.75
314.165	227.75
314.394	217.75
314.624	243.75
314.853	240.75
315.083	231.75
315.312	227.75
315.542	240.75
315.771	226.75
316.001	216.75
316.23	211.75
316.46	213.75
316.689	220.75
316.919	210.75
317.148	200.75
317.377	197.75
317.607	214.75
317.836	227.75
318.065	249.75
318.295	298.75
318.524	259.75
318.753	220.75
318.983	217.75
319.212	209.75
319.441	230.75
319.67	241.75
319.9	255.75
320.129	265.75
320.358	224.75
320.587	210.75
320.816	236.75
321.046	243.75
321.275	290.75
321.504	241.75
321.733	269.75
321.962	249.75
322.191	257.75
322.42	252.75
322.649	247.75
322.878	250.75
323.108	264.75
323.337	234.75
323.566	235.75
323.795	250.75
324.024	245.75
324.253	228.75
324.482	231.75
324.71	245.75
324.939	271.75
325.168	255.75
325.397	233.75
325.626	223.75
325.855	231.75
326.084	210.75
326.313	219.75
326.542	209.75
326.77	216.75
326.999	205.75
327.228	223.75
327.457	233.75
327.686	232.75
327.914	218.75
328.143	199.75
328.372	210.75
328.6	200.75
328.829	200.75
329.058	213.75
329.287	213.75
329.515	216.75
329.744	213.75
329.972	224.75
330.201	217.75
330.43	212.75
330.658	239.75
330.887	256.75
331.115	240.75
331.344	233.75
331.572	229.75
331.801	230.75
332.03	227.75
332.258	204.75
332.486	221.75
332.715	242.75
332.943	228.75
333.172	241.75
333.4	240.75
333.629	250.75
333.857	262.75
334.085	273.75
334.314	262.75
334.542	271.75
334.771	256.75
334.999	242.75
335.227	224.75
335.455	239.75
335.684	247.75
335.912	248.75
336.14	288.75
336.369	300.75
336.597	274.75
336.825	314.75
337.053	340.75
337.281	266.75
337.51	236.75
337.738	253.75
337.966	241.75
338.194	280.75
338.422	251.75
338.65	235.75
338.878	215.75
339.106	209.75
339.334	257.75
339.562	247.75
339.79	227.75
340.018	211.75
340.246	227.75
340.474	241.75
340.702	280.75
340.93	283.75
341.158	293.75
341.386	252.75
341.614	250.75
341.842	254.75
342.07	253.75
342.298	289.75
342.526	317.75
342.754	275.75
342.981	234.75
343.209	235.75
343.437	280.75
343.665	273.75
343.893	277.75
344.12	322.75
344.348	362.75
344.576	337.75
344.804	268.75
345.031	244.75
345.259	230.75
345.487	235.75
345.714	213.75
345.942	261.75
346.17	288.75
346.397	261.75
346.625	251.75
346.853	214.75
347.08	243.75
347.308	223.75
347.535	277.75
347.763	275.75
347.99	248.75
348.218	235.75
348.445	246.75
348.673	257.75
348.9	235.75
349.128	252.75
349.355	260.75
349.583	243.75
349.81	243.75
350.037	240.75
350.265	219.75
350.492	203.75
350.72	175.75
350.947	204.75
351.174	214.75
351.402	226.75
351.629	248.75
351.856	236.75
352.083	211.75
352.311	236.75
352.538	250.75
352.765	259.75
352.992	252.75
353.22	242.75
353.447	242.75
353.674	219.75
353.901	228.75
354.128	218.75
354.355	239.75
354.583	216.75
354.81	239.75
355.037	252.75
355.264	247.75
355.491	258.75
355.718	268.75
355.945	271.75
356.172	255.75
356.399	256.75
356.626	299.75
356.853	334.75
357.08	365.75
357.307	387.75
357.534	311.75
357.761	307.75
357.988	375.75
358.215	433.75
358.441	407.75
358.668	347.75
358.895	325.75
359.122	293.75
359.349	300.75
359.576	327.75
359.802	266.75
360.029	229.75
360.256	230.75
360.483	303.75
360.709	343.75
360.936	360.75
361.163	315.75
361.39	248.75
361.616	237.75
361.843	259.75
362.07	333.75
362.296	304.75
362.523	227.75
362.749	216.75
362.976	232.75
363.203	266.75
363.429	281.75
363.656	239.75
363.882	234.75
364.109	244.75
364.335	245.75
364.562	219.75
364.788	241.75
365.015	292.75
365.241	268.75
365.468	229.75
365.694	200.75
365.92	208.75
366.147	183.75
366.373	213.75
366.599	187.75
366.826	202.75
367.052	200.75
367.278	201.75
367.505	218.75
367.731	217.75
367.957	247.75
368.184	255.75
368.41	226.75
368.636	224.75
368.862	264.75
369.089	250.75
369.315	224.75
369.541	220.75
369.767	223.75
369.993	204.75
370.219	216.75
370.445	226.75
370.672	242.75
370.898	277.75
371.124	259.75
371.35	246.75
371.576	221.75
371.802	225.75
372.028	263.75
372.254	316.75
372.48	287.75
372.706	259.75
372.932	264.75
373.158	267.75
373.384	303.75
373.61	371.75
373.835	375.75
374.061	314.75
374.287	268.75
374.513	316.75
374.739	355.75
374.965	390.75
375.191	366.75
375.416	273.75
375.642	246.75
375.868	280.75
376.094	304.75
376.319	280.75
376.545	293.75
376.771	303.75
376.997	269.75
377.222	224.75
377.448	204.75
377.674	205.75
377.899	193.75
378.125	186.75
378.35	204.75
378.576	199.75
378.802	205.75
379.027	228.75
379.253	220.75
379.478	239.75
379.704	231.75
379.929	245.75
380.155	245.75
380.38	239.75
380.606	256.75
380.831	273.75
381.057	262.75
381.282	244.75
381.507	256.75
381.733	305.75
381.958	322.75
382.184	346.75
382.409	359.75
382.634	371.75
382.86	367.75
383.085	312.75
383.31	269.75
383.535	280.75
383.761	293.75
383.986	277.75
384.211	315.75
384.436	297.75
384.662	255.75
384.887	267.75
385.112	242.75
385.337	251.75
385.562	257.75
385.787	284.75
386.013	298.75
386.238	296.75
386.463	252.75
386.688	256.75
386.913	240.75
387.138	231.75
387.363	224.75
387.588	247.75
387.813	236.75
388.038	273.75
388.263	233.75
388.488	255.75
388.713	264.75
388.938	281.75
389.163	239.75
389.387	221.75
389.612	215.75
389.837	231.75
390.062	238.75
390.287	245.75
390.512	242.75
390.736	204.75
390.961	211.75
391.186	218.75
391.411	218.75
391.636	232.75
391.86	224.75
392.085	264.75
392.31	265.75
392.534	237.75
392.759	254.75
392.984	236.75
393.208	242.75
393.433	238.75
393.658	213.75
393.882	215.75
394.107	232.75
394.331	203.75
394.556	197.75
394.78	207.75
395.005	220.75
395.229	229.75
395.454	218.75
395.678	222.75
395.903	227.75
396.127	220.75
396.352	220.75
396.576	251.75
396.801	234.75
397.025	255.75
397.249	267.75
397.474	227.75
397.698	217.75
397.922	249.75
398.147	223.75
398.371	216.75
398.595	241.75
398.82	245.75
399.044	260.75
399.268	275.75
399.492	286.75
399.717	281.75
399.941	284.75
400.165	273.75
400.389	253.75
400.613	251.75
400.837	228.75
401.062	235.75
401.286	229.75
401.51	233.75
401.734	219.75
401.958	258.75
402.182	243.75
402.406	251.75
402.63	247.75
402.854	270.75
403.078	285.75
403.302	373.75
403.526	370.75
403.75	332.75
403.974	294.75
404.198	307.75
404.422	315.75
404.645	349.75
404.869	370.75
405.093	306.75
405.317	260.75
405.541	258.75
405.765	260.75
405.988	257.75
406.212	267.75
406.436	305.75
406.66	333.75
406.883	277.75
407.107	307.75
407.331	334.75
407.555	307.75
407.778	302.75
408.002	257.75
408.226	284.75
408.449	283.75
408.673	256.75
408.896	257.75
409.12	239.75
409.344	245.75
409.567	231.75
409.791	259.75
410.014	243.75
410.238	253.75
410.461	236.75
410.685	231.75
410.908	245.75
411.132	255.75
411.355	259.75
411.578	243.75
411.802	230.75
412.025	242.75
412.249	236.75
412.472	241.75
412.695	240.75
412.919	236.75
413.142	247.75
413.365	265.75
413.589	237.75
413.812	234.75
414.035	234.75
414.258	227.75
414.482	246.75
414.705	255.75
414.928	235.75
415.151	204.75
415.374	222.75
415.597	238.75
415.821	240.75
416.044	223.75
416.267	237.75
416.49	243.75
416.713	229.75
416.936	233.75
417.159	237.75
417.382	234.75
417.605	221.75
417.828	227.75
418.051	232.75
418.274	246.75
418.497	259.75
418.72	248.75
418.943	246.75
419.166	259.75
419.389	267.75
419.611	258.75
419.834	264.75
420.057	267.75
420.28	263.75
420.503	267.75
420.726	243.75
420.948	239.75
421.171	246.75
421.394	222.75
421.617	231.75
421.839	231.75
422.062	231.75
422.285	253.75
422.507	251.75
422.73	257.75
422.953	269.75
423.175	257.75
423.398	256.75
423.621	259.75
423.843	247.75
424.066	255.75
424.288	243.75
424.511	232.75
424.733	221.75
424.956	244.75
425.178	292.75
425.401	317.75
425.623	381.75
425.846	317.75
426.068	258.75
426.291	265.75
426.513	267.75
426.735	243.75
426.958	235.75
427.18	282.75
427.402	336.75
427.625	367.75
427.847	331.75
428.069	253.75
428.292	243.75
428.514	245.75
428.736	218.75
428.958	258.75
429.181	299.75
429.403	243.75
429.625	217.75
429.847	229.75
430.069	230.75
430.292	242.75
430.514	216.75
430.736	231.75
430.958	272.75
431.18	280.75
431.402	224.75
431.624	220.75
431.846	209.75
432.068	229.75
432.29	226.75
432.512	255.75
432.734	281.75
432.956	263.75
433.178	241.75
433.4	223.75
433.622	218.75
433.844	235.75
434.066	267.75
434.287	248.75
434.509	236.75
434.731	263.75
434.953	236.75
435.175	259.75
435.397	277.75
435.618	241.75
435.84	230.75
436.062	237.75
436.284	224.75
436.505	220.75
436.727	206.75
436.949	209.75
437.17	222.75
437.392	222.75
437.614	231.75
437.835	229.75
438.057	228.75
438.278	253.75
438.5	331.75
438.721	327.75
438.943	245.75
439.165	217.75
439.386	207.75
439.608	220.75
439.829	214.75
440.05	206.75
440.272	240.75
440.493	271.75
440.715	299.75
440.936	248.75
441.158	233.75
441.379	225.75
441.6	242.75
441.822	262.75
442.043	244.75
442.264	253.75
442.486	244.75
442.707	237.75
442.928	239.75
443.149	243.75
443.371	222.75
443.592	247.75
443.813	242.75
444.034	240.75
444.255	240.75
444.476	252.75
444.698	265.75
444.919	269.75
445.14	348.75
445.361	294.75
445.582	267.75
445.803	239.75
446.024	241.75
446.245	249.75
446.466	236.75
446.687	230.75
446.908	234.75
447.129	220.75
447.35	220.75
447.571	224.75
447.792	208.75
448.013	218.75
448.234	198.75
448.455	207.75
448.675	233.75
448.896	199.75
449.117	217.75
449.338	214.75
449.559	219.75
449.779	235.75
450	229.75
450.221	231.75
450.442	216.75
450.662	220.75
450.883	219.75
451.104	211.75
451.324	210.75
451.545	237.75
451.766	217.75
451.986	216.75
452.207	217.75
452.428	209.75
452.648	204.75
452.869	225.75
453.089	225.75
453.31	223.75
453.53	205.75
453.751	209.75
453.971	222.75
454.192	199.75
454.412	227.75
454.633	197.75
454.853	211.75
455.073	184.75
455.294	198.75
455.514	197.75
455.734	216.75
455.955	200.75
456.175	206.75
456.395	210.75
456.616	204.75
456.836	196.75
457.056	202.75
457.276	187.75
457.497	204.75
457.717	198.75
457.937	191.75
458.157	196.75
458.377	204.75
458.598	212.75
458.818	221.75
459.038	224.75
459.258	216.75
459.478	231.75
459.698	234.75
459.918	230.75
460.138	243.75
460.358	260.75
460.578	247.75
460.798	232.75
461.018	247.75
461.238	235.75
461.458	241.75
461.678	250.75
461.898	276.75
462.118	255.75
462.338	263.75
462.558	260.75
462.777	273.75
462.997	289.75
463.217	297.75
463.437	295.75
463.657	293.75
463.876	279.75
464.096	267.75
464.316	283.75
464.536	274.75
464.755	277.75
464.975	281.75
465.195	256.75
465.414	259.75
465.634	241.75
465.854	227.75
466.073	223.75
466.293	222.75
466.512	243.75
466.732	246.75
466.951	261.75
467.171	240.75
467.391	222.75
467.61	213.75
467.829	239.75
468.049	216.75
468.268	225.75
468.488	210.75
468.707	235.75
468.927	276.75
469.146	275.75
469.365	256.75
469.585	252.75
469.804	243.75
470.023	294.75
470.243	247.75
470.462	241.75
470.681	255.75
470.901	235.75
471.12	239.75
471.339	239.75
471.558	240.75
471.777	228.75
471.997	250.75
472.216	272.75
472.435	255.75
472.654	243.75
472.873	238.75
473.092	235.75
473.311	248.75
473.53	233.75
473.749	237.75
473.968	239.75
474.187	235.75
474.406	239.75
474.625	249.75
474.844	226.75
475.063	222.75
475.282	244.75
475.501	266.75
475.72	291.75
475.939	268.75
476.158	261.75
476.377	284.75
476.596	308.75
476.814	363.75
477.033	294.75
477.252	254.75
477.471	235.75
477.69	233.75
477.908	258.75
478.127	294.75
478.346	261.75
478.564	283.75
478.783	287.75
479.002	267.75
479.22	294.75
479.439	347.75
479.658	290.75
479.876	289.75
480.095	282.75
480.313	294.75
480.532	295.75
480.751	272.75
480.969	275.75
481.188	289.75
481.406	315.75
481.624	279.75
481.843	283.75
482.061	255.75
482.28	278.75
482.498	345.75
482.717	327.75
482.935	291.75
483.153	278.75
483.372	260.75
483.59	277.75
483.808	247.75
484.027	247.75
484.245	237.75
484.463	247.75
484.681	255.75
484.9	268.75
485.118	296.75
485.336	265.75
485.554	267.75
485.772	269.75
485.99	281.75
486.209	307.75
486.427	294.75
486.645	272.75
486.863	299.75
487.081	287.75
487.299	315.75
487.517	321.75
487.735	282.75
487.953	275.75
488.171	287.75
488.389	269.75
488.607	265.75
488.825	281.75
489.043	294.75
489.261	343.75
489.479	329.75
489.696	317.75
489.914	277.75
490.132	267.75
490.35	275.75
490.568	272.75
490.786	275.75
491.003	266.75
491.221	265.75
491.439	266.75
491.657	267.75
491.874	290.75
492.092	321.75
492.31	348.75
492.527	358.75
492.745	328.75
492.963	294.75
493.18	300.75
493.398	306.75
493.615	296.75
493.833	281.75
494.05	285.75
494.268	305.75
494.485	289.75
494.703	282.75
494.92	280.75
495.138	289.75
495.355	293.75
495.573	287.75
495.79	307.75
496.008	392.75
496.225	337.75
496.442	312.75
496.66	299.75
496.877	335.75
497.094	315.75
497.312	305.75
497.529	288.75
497.746	287.75
497.963	308.75
498.181	371.75
498.398	358.75
498.615	361.75
498.832	375.75
499.049	401.75
499.267	373.75
499.484	395.75
499.701	406.75
499.918	453.75
500.135	479.75
500.352	509.75
500.569	523.75
500.786	567.75
501.003	530.75
501.22	489.75
501.437	420.75
501.654	409.75
501.871	374.75
502.088	389.75
502.305	347.75
502.522	361.75
