Data from NickelSpatula.Lamp.E5.5.P2_HRD10591_11-52-11-556.txt Node
Date: Tue Jul 23 11:52:11 EDT 2019
User: cochatt
Spectrometer: HR+D1059
Trigger mode: 1
Integration Time (sec): 1.000000E-1
Scans to average: 1
Electric dark correction enabled: true
Nonlinearity correction enabled: false
Boxcar width: 0
XAxis mode: Wavelengths
Number of Pixels in Spectrum: 2048
>>>>>Begin Spectral Data<<<<<
223.165	-24.5
223.4	-24.5
223.635	-24.5
223.869	-17.5
224.104	-23.5
224.338	-13.5
224.573	-21.5
224.808	-10.5
225.042	-10.5
225.277	8.5
225.511	-2.5
225.746	-2.5
225.98	-1.5
226.215	9.5
226.449	24.5
226.683	37.5
226.918	18.5
227.152	29.5
227.387	28.5
227.621	31.5
227.856	58.5
228.09	51.5
228.324	46.5
228.559	62.5
228.793	63.5
229.027	70.5
229.262	75.5
229.496	74.5
229.73	79.5
229.964	94.5
230.199	88.5
230.433	92.5
230.667	95.5
230.901	78.5
231.136	77.5
231.37	88.5
231.604	98.5
231.838	110.5
232.072	115.5
232.306	96.5
232.541	100.5
232.775	101.5
233.009	109.5
233.243	115.5
233.477	107.5
233.711	120.5
233.945	126.5
234.179	129.5
234.413	134.5
234.647	136.5
234.881	148.5
235.115	127.5
235.349	126.5
235.583	123.5
235.817	130.5
236.051	117.5
236.285	128.5
236.519	141.5
236.753	132.5
236.987	132.5
237.221	142.5
237.455	125.5
237.689	133.5
237.922	146.5
238.156	141.5
238.39	154.5
238.624	177.5
238.858	158.5
239.091	133.5
239.325	145.5
239.559	143.5
239.793	152.5
240.027	177.5
240.26	167.5
240.494	159.5
240.728	179.5
240.961	185.5
241.195	161.5
241.429	159.5
241.662	168.5
241.896	151.5
242.13	139.5
242.363	133.5
242.597	145.5
242.83	161.5
243.064	147.5
243.298	180.5
243.531	177.5
243.765	164.5
243.998	178.5
244.232	175.5
244.465	155.5
244.699	166.5
244.932	185.5
245.166	160.5
245.399	151.5
245.633	159.5
245.866	164.5
246.099	174.5
246.333	175.5
246.566	200.5
246.8	209.5
247.033	198.5
247.266	173.5
247.5	181.5
247.733	174.5
247.966	181.5
248.2	166.5
248.433	185.5
248.666	204.5
248.899	223.5
249.133	203.5
249.366	217.5
249.599	223.5
249.832	230.5
250.066	196.5
250.299	193.5
250.532	191.5
250.765	209.5
250.998	183.5
251.231	169.5
251.465	192.5
251.698	211.5
251.931	186.5
252.164	191.5
252.397	231.5
252.63	233.5
252.863	246.5
253.096	271.5
253.329	248.5
253.562	248.5
253.795	272.5
254.028	320.5
254.261	328.5
254.494	271.5
254.727	254.5
254.96	240.5
255.193	275.5
255.426	262.5
255.659	219.5
255.892	203.5
256.124	203.5
256.357	251.5
256.59	271.5
256.823	272.5
257.056	241.5
257.289	203.5
257.521	224.5
257.754	255.5
257.987	319.5
258.22	279.5
258.452	239.5
258.685	267.5
258.918	286.5
259.151	287.5
259.383	308.5
259.616	363.5
259.849	363.5
260.081	387.5
260.314	397.5
260.547	342.5
260.779	324.5
261.012	394.5
261.244	353.5
261.477	369.5
261.71	355.5
261.942	288.5
262.175	290.5
262.407	275.5
262.64	292.5
262.872	326.5
263.105	359.5
263.337	372.5
263.57	361.5
263.802	242.5
264.035	218.5
264.267	227.5
264.499	186.5
264.732	198.5
264.964	181.5
265.197	173.5
265.429	201.5
265.661	189.5
265.894	220.5
266.126	225.5
266.358	233.5
266.591	271.5
266.823	335.5
267.055	328.5
267.287	286.5
267.52	295.5
267.752	308.5
267.984	325.5
268.216	297.5
268.448	267.5
268.681	246.5
268.913	271.5
269.145	292.5
269.377	315.5
269.609	295.5
269.841	294.5
270.073	305.5
270.306	307.5
270.538	314.5
270.77	342.5
271.002	328.5
271.234	331.5
271.466	333.5
271.698	323.5
271.93	315.5
272.162	315.5
272.394	310.5
272.626	305.5
272.858	310.5
273.09	308.5
273.322	286.5
273.553	266.5
273.785	319.5
274.017	399.5
274.249	473.5
274.481	488.5
274.713	538.5
274.945	636.5
275.176	663.5
275.408	570.5
275.64	533.5
275.872	522.5
276.104	448.5
276.335	410.5
276.567	403.5
276.799	430.5
277.031	408.5
277.262	363.5
277.494	283.5
277.726	269.5
277.957	286.5
278.189	298.5
278.421	306.5
278.652	317.5
278.884	301.5
279.115	286.5
279.347	265.5
279.579	278.5
279.81	282.5
280.042	295.5
280.273	275.5
280.505	265.5
280.736	216.5
280.968	231.5
281.199	242.5
281.431	287.5
281.662	273.5
281.894	255.5
282.125	275.5
282.356	327.5
282.588	304.5
282.819	263.5
283.051	298.5
283.282	351.5
283.513	405.5
283.745	447.5
283.976	445.5
284.207	402.5
284.439	407.5
284.67	425.5
284.901	384.5
285.132	391.5
285.364	405.5
285.595	393.5
285.826	418.5
286.057	392.5
286.288	393.5
286.52	403.5
286.751	435.5
286.982	452.5
287.213	380.5
287.444	385.5
287.675	404.5
287.906	404.5
288.138	337.5
288.369	285.5
288.6	277.5
288.831	306.5
289.062	352.5
289.293	381.5
289.524	360.5
289.755	359.5
289.986	372.5
290.217	314.5
290.448	259.5
290.679	219.5
290.91	225.5
291.141	210.5
291.371	225.5
291.602	224.5
291.833	220.5
292.064	240.5
292.295	255.5
292.526	309.5
292.757	314.5
292.987	334.5
293.218	345.5
293.449	353.5
293.68	370.5
293.91	350.5
294.141	378.5
294.372	370.5
294.603	310.5
294.833	341.5
295.064	407.5
295.295	395.5
295.525	327.5
295.756	271.5
295.987	249.5
296.217	255.5
296.448	254.5
296.679	264.5
296.909	264.5
297.14	283.5
297.37	297.5
297.601	298.5
297.831	260.5
298.062	285.5
298.292	310.5
298.523	326.5
298.753	369.5
298.984	338.5
299.214	292.5
299.445	265.5
299.675	261.5
299.905	202.5
300.136	222.5
300.366	259.5
300.597	230.5
300.827	229.5
301.057	214.5
301.288	237.5
301.518	246.5
301.748	277.5
301.979	294.5
302.209	288.5
302.439	323.5
302.669	282.5
302.9	280.5
303.13	277.5
303.36	265.5
303.59	238.5
303.82	250.5
304.051	279.5
304.281	307.5
304.511	301.5
304.741	256.5
304.971	264.5
305.201	303.5
305.431	281.5
305.661	248.5
305.891	240.5
306.121	241.5
306.352	228.5
306.582	213.5
306.812	194.5
307.042	214.5
307.272	195.5
307.502	191.5
307.731	215.5
307.961	204.5
308.191	201.5
308.421	227.5
308.651	199.5
308.881	180.5
309.111	213.5
309.341	209.5
309.571	209.5
309.8	211.5
310.03	217.5
310.26	218.5
310.49	235.5
310.72	219.5
310.949	209.5
311.179	193.5
311.409	210.5
311.639	259.5
311.868	289.5
312.098	374.5
312.328	415.5
312.557	373.5
312.787	383.5
313.017	341.5
313.246	389.5
313.476	405.5
313.706	355.5
313.935	311.5
314.165	229.5
314.394	216.5
314.624	218.5
314.853	240.5
315.083	240.5
315.312	233.5
315.542	239.5
315.771	217.5
316.001	205.5
316.23	195.5
316.46	203.5
316.689	177.5
316.919	211.5
317.148	218.5
317.377	216.5
317.607	208.5
317.836	220.5
318.065	237.5
318.295	266.5
318.524	259.5
318.753	231.5
318.983	217.5
319.212	208.5
319.441	208.5
319.67	247.5
319.9	262.5
320.129	238.5
320.358	232.5
320.587	219.5
320.816	216.5
321.046	229.5
321.275	274.5
321.504	265.5
321.733	271.5
321.962	263.5
322.191	247.5
322.42	222.5
322.649	238.5
322.878	262.5
323.108	256.5
323.337	240.5
323.566	241.5
323.795	219.5
324.024	245.5
324.253	225.5
324.482	208.5
324.71	230.5
324.939	253.5
325.168	247.5
325.397	217.5
325.626	220.5
325.855	215.5
326.084	215.5
326.313	223.5
326.542	211.5
326.77	209.5
326.999	209.5
327.228	231.5
327.457	229.5
327.686	223.5
327.914	216.5
328.143	202.5
328.372	213.5
328.6	199.5
328.829	203.5
329.058	206.5
329.287	204.5
329.515	218.5
329.744	201.5
329.972	206.5
330.201	209.5
330.43	207.5
330.658	214.5
330.887	225.5
331.115	234.5
331.344	219.5
331.572	218.5
331.801	224.5
332.03	204.5
332.258	214.5
332.486	228.5
332.715	238.5
332.943	214.5
333.172	224.5
333.4	216.5
333.629	231.5
333.857	253.5
334.085	262.5
334.314	276.5
334.542	253.5
334.771	246.5
334.999	237.5
335.227	219.5
335.455	224.5
335.684	242.5
335.912	271.5
336.14	291.5
336.369	292.5
336.597	275.5
336.825	305.5
337.053	340.5
337.281	277.5
337.51	240.5
337.738	240.5
337.966	257.5
338.194	262.5
338.422	243.5
338.65	229.5
338.878	209.5
339.106	221.5
339.334	225.5
339.562	247.5
339.79	240.5
340.018	221.5
340.246	245.5
340.474	259.5
340.702	264.5
340.93	258.5
341.158	289.5
341.386	253.5
341.614	250.5
341.842	255.5
342.07	264.5
342.298	280.5
342.526	295.5
342.754	259.5
342.981	244.5
343.209	252.5
343.437	257.5
343.665	274.5
343.893	275.5
344.12	318.5
344.348	347.5
344.576	323.5
344.804	252.5
345.031	224.5
345.259	239.5
345.487	243.5
345.714	226.5
345.942	251.5
346.17	267.5
346.397	244.5
346.625	234.5
346.853	229.5
347.08	214.5
347.308	228.5
347.535	257.5
347.763	293.5
347.99	237.5
348.218	229.5
348.445	230.5
348.673	234.5
348.9	242.5
349.128	247.5
349.355	245.5
349.583	263.5
349.81	224.5
350.037	223.5
350.265	194.5
350.492	200.5
350.72	202.5
350.947	210.5
351.174	201.5
351.402	211.5
351.629	219.5
351.856	228.5
352.083	203.5
352.311	230.5
352.538	227.5
352.765	249.5
352.992	229.5
353.22	217.5
353.447	233.5
353.674	222.5
353.901	226.5
354.128	227.5
354.355	231.5
354.583	216.5
354.81	237.5
355.037	245.5
355.264	227.5
355.491	249.5
355.718	239.5
355.945	238.5
356.172	241.5
356.399	259.5
356.626	280.5
356.853	326.5
357.08	337.5
357.307	342.5
357.534	286.5
357.761	297.5
357.988	344.5
358.215	415.5
358.441	391.5
358.668	330.5
358.895	311.5
359.122	280.5
359.349	262.5
359.576	315.5
359.802	275.5
360.029	225.5
360.256	243.5
360.483	289.5
360.709	330.5
360.936	334.5
361.163	327.5
361.39	256.5
361.616	222.5
361.843	263.5
362.07	286.5
362.296	272.5
362.523	241.5
362.749	232.5
362.976	218.5
363.203	242.5
363.429	285.5
363.656	249.5
363.882	221.5
364.109	238.5
364.335	228.5
364.562	240.5
364.788	234.5
365.015	255.5
365.241	246.5
365.468	217.5
365.694	221.5
365.92	199.5
366.147	181.5
366.373	190.5
366.599	201.5
366.826	196.5
367.052	193.5
367.278	198.5
367.505	206.5
367.731	215.5
367.957	234.5
368.184	242.5
368.41	216.5
368.636	231.5
368.862	220.5
369.089	222.5
369.315	218.5
369.541	223.5
369.767	186.5
369.993	203.5
370.219	198.5
370.445	210.5
370.672	242.5
370.898	242.5
371.124	232.5
371.35	235.5
371.576	218.5
371.802	210.5
372.028	254.5
372.254	271.5
372.48	264.5
372.706	230.5
372.932	255.5
373.158	262.5
373.384	279.5
373.61	356.5
373.835	358.5
374.061	283.5
374.287	264.5
374.513	285.5
374.739	344.5
374.965	354.5
375.191	373.5
375.416	263.5
375.642	270.5
375.868	277.5
376.094	308.5
376.319	246.5
376.545	271.5
376.771	287.5
376.997	263.5
377.222	194.5
377.448	205.5
377.674	193.5
377.899	187.5
378.125	191.5
378.35	182.5
378.576	189.5
378.802	207.5
379.027	218.5
379.253	203.5
379.478	214.5
379.704	254.5
379.929	253.5
380.155	259.5
380.38	225.5
380.606	237.5
380.831	250.5
381.057	233.5
381.282	228.5
381.507	259.5
381.733	304.5
381.958	328.5
382.184	323.5
382.409	370.5
382.634	346.5
382.86	359.5
383.085	311.5
383.31	267.5
383.535	281.5
383.761	291.5
383.986	262.5
384.211	294.5
384.436	296.5
384.662	263.5
384.887	243.5
385.112	255.5
385.337	250.5
385.562	233.5
385.787	252.5
386.013	276.5
386.238	295.5
386.463	266.5
386.688	229.5
386.913	231.5
387.138	211.5
387.363	213.5
387.588	231.5
387.813	244.5
388.038	259.5
388.263	223.5
388.488	231.5
388.713	257.5
388.938	277.5
389.163	245.5
389.387	217.5
389.612	229.5
389.837	213.5
390.062	244.5
390.287	244.5
390.512	229.5
390.736	228.5
390.961	230.5
391.186	231.5
391.411	221.5
391.636	226.5
391.86	218.5
392.085	238.5
392.31	242.5
392.534	253.5
392.759	239.5
392.984	242.5
393.208	248.5
393.433	216.5
393.658	200.5
393.882	210.5
394.107	203.5
394.331	198.5
394.556	215.5
394.78	207.5
395.005	223.5
395.229	209.5
395.454	211.5
395.678	217.5
395.903	238.5
396.127	214.5
396.352	232.5
396.576	227.5
396.801	234.5
397.025	261.5
397.249	261.5
397.474	239.5
397.698	220.5
397.922	231.5
398.147	232.5
398.371	210.5
398.595	245.5
398.82	238.5
399.044	238.5
399.268	255.5
399.492	289.5
399.717	297.5
399.941	294.5
400.165	260.5
400.389	244.5
400.613	254.5
400.837	248.5
401.062	243.5
401.286	231.5
401.51	241.5
401.734	230.5
401.958	225.5
402.182	222.5
402.406	245.5
402.63	235.5
402.854	248.5
403.078	285.5
403.302	372.5
403.526	379.5
403.75	327.5
403.974	275.5
404.198	289.5
404.422	311.5
404.645	330.5
404.869	339.5
405.093	276.5
405.317	266.5
405.541	258.5
405.765	265.5
405.988	265.5
406.212	272.5
406.436	303.5
406.66	338.5
406.883	283.5
407.107	290.5
407.331	308.5
407.555	307.5
407.778	267.5
408.002	265.5
408.226	262.5
408.449	267.5
408.673	271.5
408.896	238.5
409.12	248.5
409.344	253.5
409.567	244.5
409.791	241.5
410.014	247.5
410.238	242.5
410.461	237.5
410.685	237.5
410.908	243.5
411.132	235.5
411.355	225.5
411.578	241.5
411.802	232.5
412.025	239.5
412.249	232.5
412.472	226.5
412.695	239.5
412.919	246.5
413.142	233.5
413.365	259.5
413.589	272.5
413.812	247.5
414.035	241.5
414.258	237.5
414.482	251.5
414.705	267.5
414.928	233.5
415.151	234.5
415.374	239.5
415.597	230.5
415.821	234.5
416.044	241.5
416.267	234.5
416.49	227.5
416.713	214.5
416.936	218.5
417.159	236.5
417.382	230.5
417.605	225.5
417.828	226.5
418.051	237.5
418.274	238.5
418.497	250.5
418.72	235.5
418.943	243.5
419.166	257.5
419.389	251.5
419.611	234.5
419.834	248.5
420.057	259.5
420.28	262.5
420.503	259.5
420.726	222.5
420.948	227.5
421.171	218.5
421.394	224.5
421.617	234.5
421.839	217.5
422.062	237.5
422.285	252.5
422.507	243.5
422.73	247.5
422.953	257.5
423.175	232.5
423.398	240.5
423.621	251.5
423.843	265.5
424.066	243.5
424.288	241.5
424.511	250.5
424.733	249.5
424.956	243.5
425.178	260.5
425.401	317.5
425.623	355.5
425.846	305.5
426.068	253.5
426.291	269.5
426.513	238.5
426.735	234.5
426.958	249.5
427.18	266.5
427.402	343.5
427.625	325.5
427.847	297.5
428.069	239.5
428.292	218.5
428.514	232.5
428.736	237.5
428.958	257.5
429.181	291.5
429.403	259.5
429.625	227.5
429.847	200.5
430.069	231.5
430.292	245.5
430.514	201.5
430.736	235.5
430.958	273.5
431.18	254.5
431.402	235.5
431.624	223.5
431.846	220.5
432.068	219.5
432.29	230.5
432.512	240.5
432.734	272.5
432.956	282.5
433.178	221.5
433.4	216.5
433.622	243.5
433.844	226.5
434.066	247.5
434.287	235.5
434.509	227.5
434.731	253.5
434.953	230.5
435.175	249.5
435.397	267.5
435.618	234.5
435.84	225.5
436.062	224.5
436.284	212.5
436.505	199.5
436.727	205.5
436.949	209.5
437.17	224.5
437.392	241.5
437.614	221.5
437.835	219.5
438.057	223.5
438.278	231.5
438.5	318.5
438.721	304.5
438.943	233.5
439.165	208.5
439.386	217.5
439.608	230.5
439.829	193.5
440.05	217.5
440.272	229.5
440.493	237.5
440.715	294.5
440.936	257.5
441.158	211.5
441.379	240.5
441.6	250.5
441.822	240.5
442.043	215.5
442.264	225.5
442.486	228.5
442.707	229.5
442.928	219.5
443.149	237.5
443.371	241.5
443.592	242.5
443.813	246.5
444.034	218.5
444.255	251.5
444.476	255.5
444.698	241.5
444.919	245.5
445.14	354.5
445.361	290.5
445.582	256.5
445.803	246.5
446.024	252.5
446.245	234.5
446.466	239.5
446.687	251.5
446.908	219.5
447.129	205.5
447.35	214.5
447.571	208.5
447.792	211.5
448.013	209.5
448.234	211.5
448.455	209.5
448.675	210.5
448.896	218.5
449.117	209.5
449.338	216.5
449.559	199.5
449.779	230.5
450	228.5
450.221	219.5
450.442	231.5
450.662	218.5
450.883	218.5
451.104	216.5
451.324	209.5
451.545	202.5
451.766	223.5
451.986	220.5
452.207	210.5
452.428	216.5
452.648	202.5
452.869	204.5
453.089	222.5
453.31	217.5
453.53	197.5
453.751	210.5
453.971	206.5
454.192	212.5
454.412	204.5
454.633	192.5
454.853	211.5
455.073	214.5
455.294	185.5
455.514	190.5
455.734	211.5
455.955	228.5
456.175	210.5
456.395	205.5
456.616	187.5
456.836	178.5
457.056	198.5
457.276	210.5
457.497	199.5
457.717	201.5
457.937	207.5
458.157	191.5
458.377	192.5
458.598	202.5
458.818	206.5
459.038	224.5
459.258	216.5
459.478	230.5
459.698	234.5
459.918	247.5
460.138	227.5
460.358	248.5
460.578	232.5
460.798	233.5
461.018	234.5
461.238	230.5
461.458	231.5
461.678	242.5
461.898	242.5
462.118	237.5
462.338	239.5
462.558	228.5
462.777	270.5
462.997	275.5
463.217	308.5
463.437	294.5
463.657	290.5
463.876	260.5
464.096	258.5
464.316	288.5
464.536	281.5
464.755	282.5
464.975	277.5
465.195	265.5
465.414	274.5
465.634	232.5
465.854	240.5
466.073	222.5
466.293	213.5
466.512	235.5
466.732	262.5
466.951	265.5
467.171	236.5
467.391	234.5
467.61	215.5
467.829	223.5
468.049	240.5
468.268	211.5
468.488	225.5
468.707	238.5
468.927	267.5
469.146	287.5
469.365	255.5
469.585	236.5
469.804	249.5
470.023	275.5
470.243	257.5
470.462	240.5
470.681	222.5
470.901	259.5
471.12	277.5
471.339	260.5
471.558	263.5
471.777	226.5
471.997	249.5
472.216	273.5
472.435	243.5
472.654	244.5
472.873	238.5
473.092	237.5
473.311	248.5
473.53	231.5
473.749	223.5
473.968	251.5
474.187	243.5
474.406	235.5
474.625	229.5
474.844	213.5
475.063	256.5
475.282	242.5
475.501	230.5
475.72	256.5
475.939	243.5
476.158	261.5
476.377	304.5
476.596	350.5
476.814	354.5
477.033	295.5
477.252	259.5
477.471	241.5
477.69	258.5
477.908	255.5
478.127	265.5
478.346	261.5
478.564	302.5
478.783	260.5
479.002	251.5
479.22	310.5
479.439	334.5
479.658	313.5
479.876	267.5
480.095	305.5
480.313	286.5
480.532	280.5
480.751	277.5
480.969	282.5
481.188	295.5
481.406	314.5
481.624	299.5
481.843	262.5
482.061	252.5
482.28	290.5
482.498	338.5
482.717	352.5
482.935	279.5
483.153	271.5
483.372	265.5
483.59	261.5
483.808	257.5
484.027	237.5
484.245	249.5
484.463	232.5
484.681	249.5
484.9	273.5
485.118	313.5
485.336	285.5
485.554	258.5
485.772	262.5
485.99	290.5
486.209	299.5
486.427	301.5
486.645	282.5
486.863	289.5
487.081	297.5
487.299	317.5
487.517	306.5
487.735	276.5
487.953	261.5
488.171	304.5
488.389	262.5
488.607	232.5
488.825	265.5
489.043	298.5
489.261	308.5
489.479	322.5
489.696	296.5
489.914	284.5
490.132	258.5
490.35	281.5
490.568	283.5
490.786	274.5
491.003	259.5
491.221	264.5
491.439	264.5
491.657	274.5
491.874	279.5
492.092	335.5
492.31	373.5
492.527	349.5
492.745	310.5
492.963	311.5
493.18	299.5
493.398	297.5
493.615	294.5
493.833	278.5
494.05	281.5
494.268	282.5
494.485	293.5
494.703	285.5
494.92	289.5
495.138	280.5
495.355	277.5
495.573	282.5
495.79	327.5
496.008	369.5
496.225	317.5
496.442	305.5
496.66	314.5
496.877	320.5
497.094	317.5
497.312	285.5
497.529	311.5
497.746	308.5
497.963	303.5
498.181	341.5
498.398	377.5
498.615	373.5
498.832	385.5
499.049	403.5
499.267	356.5
499.484	387.5
499.701	414.5
499.918	471.5
500.135	506.5
500.352	515.5
500.569	550.5
500.786	533.5
501.003	527.5
501.22	458.5
501.437	421.5
501.654	398.5
501.871	381.5
502.088	365.5
502.305	360.5
502.522	348.5
502.739	356.5
502.956	326.5
503.172	312.5
503.389	301.5
503.606	316.5
503.823	301.5
504.04	307.5
504.256	315.5
504.473	299.5
504.69	314.5
504.907	323.5
505.123	326.5
505.34	326.5
505.557	323.5
505.773	305.5
505.99	281.5
506.207	316.5
506.423	285.5
506.64	281.5
506.856	262.5
507.073	295.5
507.289	296.5
507.506	298.5
507.722	325.5
507.939	331.5
508.155	342.5
508.372	296.5
508.588	291.5
508.805	286.5
509.021	290.5
509.238	279.5
509.454	263.5
509.67	268.5
509.887	265.5
510.103	306.5
510.319	295.5
510.536	308.5
510.752	257.5
510.968	242.5
511.184	231.5
511.401	235.5
511.617	262.5
511.833	272.5
512.049	254.5
512.265	255.5
512.481	274.5
512.698	295.5
512.914	321.5
513.13	291.5
513.346	256.5
513.562	282.5
513.778	259.5
513.994	252.5
514.21	274.5
514.426	293.5
514.642	277.5
514.858	258.5
515.074	271.5
515.29	293.5
515.506	331.5
515.721	312.5
515.937	280.5
516.153	288.5
516.369	288.5
516.585	281.5
516.801	313.5
517.016	347.5
517.232	345.5
517.448	368.5
517.664	337.5
517.879	313.5
518.095	330.5
518.311	318.5
518.527	317.5
518.742	319.5
518.958	346.5
519.173	354.5
519.389	316.5
519.605	318.5
519.82	339.5
520.036	377.5
520.251	385.5
520.467	364.5
