Data from NickelSpatula.Lamp.E5.5.P2_HRD10591_11-51-04-563.txt Node
Date: Tue Jul 23 11:51:04 EDT 2019
User: cochatt
Spectrometer: HR+D1059
Trigger mode: 1
Integration Time (sec): 1.000000E-1
Scans to average: 1
Electric dark correction enabled: true
Nonlinearity correction enabled: false
Boxcar width: 0
XAxis mode: Wavelengths
Number of Pixels in Spectrum: 2048
>>>>>Begin Spectral Data<<<<<
223.165	-12.31
223.4	-12.31
223.635	-12.31
223.869	-5.31
224.104	-24.31
224.338	-19.31
224.573	-15.31
224.808	-13.31
225.042	-14.31
225.277	-18.31
225.511	8.69
225.746	4.69
225.98	9.69
226.215	0.69
226.449	18.69
226.683	16.69
226.918	30.69
227.152	32.69
227.387	34.69
227.621	36.69
227.856	48.69
228.09	40.69
228.324	51.69
228.559	59.69
228.793	71.69
229.027	72.69
229.262	77.69
229.496	83.69
229.73	84.69
229.964	91.69
230.199	83.69
230.433	88.69
230.667	95.69
230.901	85.69
231.136	104.69
231.37	104.69
231.604	94.69
231.838	102.69
232.072	99.69
232.306	109.69
232.541	110.69
232.775	101.69
233.009	114.69
233.243	116.69
233.477	109.69
233.711	104.69
233.945	120.69
234.179	132.69
234.413	104.69
234.647	119.69
234.881	122.69
235.115	118.69
235.349	122.69
235.583	109.69
235.817	116.69
236.051	118.69
236.285	132.69
236.519	124.69
236.753	108.69
236.987	136.69
237.221	125.69
237.455	128.69
237.689	105.69
237.922	124.69
238.156	130.69
238.39	132.69
238.624	139.69
238.858	137.69
239.091	120.69
239.325	124.69
239.559	122.69
239.793	150.69
240.027	148.69
240.26	135.69
240.494	150.69
240.728	137.69
240.961	147.69
241.195	158.69
241.429	141.69
241.662	149.69
241.896	133.69
242.13	130.69
242.363	124.69
242.597	136.69
242.83	130.69
243.064	136.69
243.298	136.69
243.531	142.69
243.765	148.69
243.998	153.69
244.232	142.69
244.465	139.69
244.699	144.69
244.932	147.69
245.166	161.69
245.399	149.69
245.633	143.69
245.866	151.69
246.099	128.69
246.333	161.69
246.566	183.69
246.8	168.69
247.033	162.69
247.266	169.69
247.5	169.69
247.733	174.69
247.966	159.69
248.2	143.69
248.433	182.69
248.666	197.69
248.899	169.69
249.133	172.69
249.366	188.69
249.599	217.69
249.832	197.69
250.066	188.69
250.299	165.69
250.532	167.69
250.765	165.69
250.998	161.69
251.231	176.69
251.465	168.69
251.698	182.69
251.931	167.69
252.164	185.69
252.397	197.69
252.63	209.69
252.863	233.69
253.096	232.69
253.329	229.69
253.562	216.69
253.795	224.69
254.028	245.69
254.261	249.69
254.494	244.69
254.727	216.69
254.96	215.69
255.193	236.69
255.426	231.69
255.659	178.69
255.892	182.69
256.124	188.69
256.357	212.69
256.59	229.69
256.823	244.69
257.056	199.69
257.289	181.69
257.521	210.69
257.754	226.69
257.987	257.69
258.22	239.69
258.452	211.69
258.685	221.69
258.918	233.69
259.151	243.69
259.383	252.69
259.616	287.69
259.849	297.69
260.081	284.69
260.314	314.69
260.547	274.69
260.779	289.69
261.012	321.69
261.244	292.69
261.477	284.69
261.71	294.69
261.942	241.69
262.175	237.69
262.407	227.69
262.64	252.69
262.872	279.69
263.105	289.69
263.337	294.69
263.57	287.69
263.802	214.69
264.035	195.69
264.267	212.69
264.499	167.69
264.732	180.69
264.964	174.69
265.197	178.69
265.429	180.69
265.661	185.69
265.894	184.69
266.126	202.69
266.358	215.69
266.591	241.69
266.823	268.69
267.055	273.69
267.287	251.69
267.52	252.69
267.752	286.69
267.984	290.69
268.216	260.69
268.448	249.69
268.681	224.69
268.913	228.69
269.145	260.69
269.377	244.69
269.609	265.69
269.841	258.69
270.073	269.69
270.306	284.69
270.538	276.69
270.77	287.69
271.002	285.69
271.234	304.69
271.466	294.69
271.698	263.69
271.93	246.69
272.162	262.69
272.394	270.69
272.626	267.69
272.858	277.69
273.09	263.69
273.322	256.69
273.553	221.69
273.785	263.69
274.017	329.69
274.249	377.69
274.481	401.69
274.713	429.69
274.945	457.69
275.176	513.69
275.408	442.69
275.64	402.69
275.872	421.69
276.104	383.69
276.335	354.69
276.567	329.69
276.799	347.69
277.031	356.69
277.262	305.69
277.494	240.69
277.726	240.69
277.957	257.69
278.189	264.69
278.421	266.69
278.652	271.69
278.884	257.69
279.115	254.69
279.347	242.69
279.579	244.69
279.81	242.69
280.042	257.69
280.273	255.69
280.505	253.69
280.736	217.69
280.968	215.69
281.199	230.69
281.431	248.69
281.662	248.69
281.894	234.69
282.125	258.69
282.356	270.69
282.588	265.69
282.819	241.69
283.051	257.69
283.282	336.69
283.513	337.69
283.745	370.69
283.976	367.69
284.207	354.69
284.439	352.69
284.67	366.69
284.901	305.69
285.132	338.69
285.364	371.69
285.595	329.69
285.826	359.69
286.057	360.69
286.288	341.69
286.52	365.69
286.751	360.69
286.982	380.69
287.213	317.69
287.444	329.69
287.675	328.69
287.906	346.69
288.138	314.69
288.369	279.69
288.6	257.69
288.831	265.69
289.062	310.69
289.293	337.69
289.524	294.69
289.755	297.69
289.986	312.69
290.217	276.69
290.448	253.69
290.679	220.69
290.91	200.69
291.141	202.69
291.371	209.69
291.602	224.69
291.833	214.69
292.064	214.69
292.295	246.69
292.526	288.69
292.757	293.69
292.987	302.69
293.218	295.69
293.449	321.69
293.68	328.69
293.91	310.69
294.141	318.69
294.372	302.69
294.603	271.69
294.833	281.69
295.064	344.69
295.295	336.69
295.525	277.69
295.756	238.69
295.987	218.69
296.217	213.69
296.448	244.69
296.679	238.69
296.909	255.69
297.14	255.69
297.37	285.69
297.601	266.69
297.831	245.69
298.062	249.69
298.292	272.69
298.523	291.69
298.753	317.69
298.984	306.69
299.214	266.69
299.445	238.69
299.675	209.69
299.905	229.69
300.136	240.69
300.366	249.69
300.597	230.69
300.827	237.69
301.057	230.69
301.288	206.69
301.518	230.69
301.748	276.69
301.979	262.69
302.209	279.69
302.439	295.69
302.669	253.69
302.9	281.69
303.13	250.69
303.36	233.69
303.59	233.69
303.82	247.69
304.051	256.69
304.281	260.69
304.511	273.69
304.741	253.69
304.971	252.69
305.201	272.69
305.431	256.69
305.661	241.69
305.891	224.69
306.121	219.69
306.352	218.69
306.582	190.69
306.812	190.69
307.042	199.69
307.272	192.69
307.502	196.69
307.731	194.69
307.961	192.69
308.191	200.69
308.421	195.69
308.651	201.69
308.881	195.69
309.111	189.69
309.341	202.69
309.571	226.69
309.8	202.69
310.03	216.69
310.26	216.69
310.49	202.69
310.72	201.69
310.949	208.69
311.179	198.69
311.409	202.69
311.639	222.69
311.868	268.69
312.098	331.69
312.328	357.69
312.557	338.69
312.787	342.69
313.017	314.69
313.246	331.69
313.476	361.69
313.706	296.69
313.935	280.69
314.165	225.69
314.394	226.69
314.624	217.69
314.853	234.69
315.083	220.69
315.312	223.69
315.542	215.69
315.771	213.69
316.001	194.69
316.23	178.69
316.46	192.69
316.689	176.69
316.919	195.69
317.148	185.69
317.377	198.69
317.607	180.69
317.836	209.69
318.065	218.69
318.295	247.69
318.524	240.69
318.753	215.69
318.983	196.69
319.212	199.69
319.441	225.69
319.67	221.69
319.9	237.69
320.129	236.69
320.358	208.69
320.587	203.69
320.816	205.69
321.046	229.69
321.275	258.69
321.504	230.69
321.733	232.69
321.962	248.69
322.191	236.69
322.42	233.69
322.649	226.69
322.878	253.69
323.108	240.69
323.337	224.69
323.566	245.69
323.795	232.69
324.024	209.69
324.253	217.69
324.482	207.69
324.71	223.69
324.939	236.69
325.168	233.69
325.397	201.69
325.626	217.69
325.855	216.69
326.084	218.69
326.313	213.69
326.542	199.69
326.77	196.69
326.999	187.69
327.228	208.69
327.457	227.69
327.686	220.69
327.914	198.69
328.143	207.69
328.372	197.69
328.6	178.69
328.829	207.69
329.058	195.69
329.287	208.69
329.515	198.69
329.744	206.69
329.972	200.69
330.201	202.69
330.43	203.69
330.658	201.69
330.887	224.69
331.115	210.69
331.344	210.69
331.572	204.69
331.801	218.69
332.03	191.69
332.258	197.69
332.486	185.69
332.715	212.69
332.943	190.69
333.172	223.69
333.4	221.69
333.629	222.69
333.857	245.69
334.085	231.69
334.314	257.69
334.542	218.69
334.771	231.69
334.999	206.69
335.227	194.69
335.455	217.69
335.684	236.69
335.912	231.69
336.14	274.69
336.369	263.69
336.597	244.69
336.825	264.69
337.053	306.69
337.281	258.69
337.51	216.69
337.738	204.69
337.966	229.69
338.194	230.69
338.422	227.69
338.65	189.69
338.878	200.69
339.106	202.69
339.334	219.69
339.562	226.69
339.79	199.69
340.018	206.69
340.246	222.69
340.474	244.69
340.702	252.69
340.93	265.69
341.158	252.69
341.386	248.69
341.614	230.69
341.842	229.69
342.07	245.69
342.298	269.69
342.526	261.69
342.754	253.69
342.981	220.69
343.209	213.69
343.437	237.69
343.665	270.69
343.893	261.69
344.12	287.69
344.348	323.69
344.576	300.69
344.804	268.69
345.031	222.69
345.259	200.69
345.487	222.69
345.714	242.69
345.942	230.69
346.17	243.69
346.397	236.69
346.625	200.69
346.853	206.69
347.08	206.69
347.308	224.69
347.535	248.69
347.763	255.69
347.99	218.69
348.218	214.69
348.445	225.69
348.673	234.69
348.9	223.69
349.128	227.69
349.355	228.69
349.583	219.69
349.81	221.69
350.037	209.69
350.265	205.69
350.492	193.69
350.72	189.69
350.947	172.69
351.174	194.69
351.402	222.69
351.629	202.69
351.856	221.69
352.083	200.69
352.311	229.69
352.538	221.69
352.765	239.69
352.992	214.69
353.22	195.69
353.447	216.69
353.674	216.69
353.901	212.69
354.128	216.69
354.355	215.69
354.583	220.69
354.81	199.69
355.037	245.69
355.264	217.69
355.491	227.69
355.718	247.69
355.945	238.69
356.172	222.69
356.399	242.69
356.626	266.69
356.853	296.69
357.08	317.69
357.307	321.69
357.534	270.69
357.761	281.69
357.988	335.69
358.215	390.69
358.441	366.69
358.668	308.69
358.895	297.69
359.122	244.69
359.349	258.69
359.576	294.69
359.802	261.69
360.029	215.69
360.256	235.69
360.483	265.69
360.709	303.69
360.936	308.69
361.163	289.69
361.39	252.69
361.616	242.69
361.843	244.69
362.07	295.69
362.296	275.69
362.523	225.69
362.749	201.69
362.976	213.69
363.203	248.69
363.429	248.69
363.656	227.69
363.882	213.69
364.109	228.69
364.335	200.69
364.562	210.69
364.788	215.69
365.015	259.69
365.241	231.69
365.468	205.69
365.694	209.69
365.92	202.69
366.147	199.69
366.373	177.69
366.599	197.69
366.826	183.69
367.052	183.69
367.278	184.69
367.505	190.69
367.731	202.69
367.957	216.69
368.184	232.69
368.41	218.69
368.636	212.69
368.862	228.69
369.089	220.69
369.315	206.69
369.541	209.69
369.767	216.69
369.993	195.69
370.219	202.69
370.445	216.69
370.672	220.69
370.898	232.69
371.124	224.69
371.35	222.69
371.576	209.69
371.802	217.69
372.028	237.69
372.254	274.69
372.48	243.69
372.706	236.69
372.932	238.69
373.158	213.69
373.384	272.69
373.61	318.69
373.835	330.69
374.061	283.69
374.287	246.69
374.513	295.69
374.739	335.69
374.965	333.69
375.191	329.69
375.416	253.69
375.642	226.69
375.868	265.69
376.094	275.69
376.319	238.69
376.545	252.69
376.771	256.69
376.997	238.69
377.222	204.69
377.448	179.69
377.674	184.69
377.899	185.69
378.125	199.69
378.35	205.69
378.576	201.69
378.802	210.69
379.027	222.69
379.253	222.69
379.478	201.69
379.704	229.69
379.929	222.69
380.155	242.69
380.38	223.69
380.606	219.69
380.831	260.69
381.057	243.69
381.282	214.69
381.507	257.69
381.733	280.69
381.958	284.69
382.184	329.69
382.409	326.69
382.634	333.69
382.86	347.69
383.085	284.69
383.31	252.69
383.535	259.69
383.761	281.69
383.986	238.69
384.211	290.69
384.436	278.69
384.662	256.69
384.887	235.69
385.112	233.69
385.337	257.69
385.562	249.69
385.787	246.69
386.013	272.69
386.238	273.69
386.463	242.69
386.688	225.69
386.913	236.69
387.138	212.69
387.363	209.69
387.588	215.69
387.813	229.69
388.038	254.69
388.263	240.69
388.488	231.69
388.713	261.69
388.938	278.69
389.163	225.69
389.387	211.69
389.612	203.69
389.837	213.69
390.062	219.69
390.287	229.69
390.512	226.69
390.736	214.69
390.961	215.69
391.186	212.69
391.411	208.69
391.636	217.69
391.86	232.69
392.085	247.69
392.31	229.69
392.534	213.69
392.759	212.69
392.984	210.69
393.208	248.69
393.433	210.69
393.658	203.69
393.882	202.69
394.107	204.69
394.331	203.69
394.556	214.69
394.78	205.69
395.005	211.69
395.229	215.69
395.454	218.69
395.678	225.69
395.903	210.69
396.127	238.69
396.352	210.69
396.576	226.69
396.801	217.69
397.025	222.69
397.249	246.69
397.474	213.69
397.698	212.69
397.922	228.69
398.147	212.69
398.371	214.69
398.595	232.69
398.82	224.69
399.044	216.69
399.268	251.69
399.492	288.69
399.717	282.69
399.941	301.69
400.165	256.69
400.389	248.69
400.613	253.69
400.837	245.69
401.062	214.69
401.286	210.69
401.51	216.69
401.734	226.69
401.958	232.69
402.182	231.69
402.406	237.69
402.63	243.69
402.854	260.69
403.078	270.69
403.302	362.69
403.526	359.69
403.75	308.69
403.974	287.69
404.198	304.69
404.422	304.69
404.645	315.69
404.869	327.69
405.093	285.69
405.317	260.69
405.541	243.69
405.765	271.69
405.988	278.69
406.212	259.69
406.436	268.69
406.66	318.69
406.883	274.69
407.107	294.69
407.331	308.69
407.555	296.69
407.778	294.69
408.002	274.69
408.226	278.69
408.449	264.69
408.673	263.69
408.896	259.69
409.12	239.69
409.344	256.69
409.567	216.69
409.791	229.69
410.014	239.69
410.238	222.69
410.461	242.69
410.685	226.69
410.908	227.69
411.132	229.69
411.355	227.69
411.578	249.69
411.802	231.69
412.025	231.69
412.249	244.69
412.472	236.69
412.695	246.69
412.919	241.69
413.142	231.69
413.365	238.69
413.589	252.69
413.812	226.69
414.035	227.69
414.258	225.69
414.482	232.69
414.705	238.69
414.928	220.69
415.151	220.69
415.374	227.69
415.597	201.69
415.821	227.69
416.044	236.69
416.267	222.69
416.49	217.69
416.713	206.69
416.936	233.69
417.159	246.69
417.382	234.69
417.605	233.69
417.828	230.69
418.051	227.69
418.274	247.69
418.497	230.69
418.72	215.69
418.943	229.69
419.166	252.69
419.389	262.69
419.611	257.69
419.834	245.69
420.057	260.69
420.28	256.69
420.503	254.69
420.726	224.69
420.948	219.69
421.171	224.69
421.394	231.69
421.617	225.69
421.839	234.69
422.062	237.69
422.285	233.69
422.507	238.69
422.73	230.69
422.953	243.69
423.175	236.69
423.398	225.69
423.621	253.69
423.843	267.69
424.066	236.69
424.288	228.69
424.511	242.69
424.733	234.69
424.956	239.69
425.178	258.69
425.401	291.69
425.623	349.69
425.846	308.69
426.068	254.69
426.291	271.69
426.513	246.69
426.735	233.69
426.958	244.69
427.18	250.69
427.402	333.69
427.625	337.69
427.847	321.69
428.069	241.69
428.292	221.69
428.514	223.69
428.736	226.69
428.958	259.69
429.181	293.69
429.403	265.69
429.625	223.69
429.847	210.69
430.069	211.69
430.292	238.69
430.514	200.69
430.736	227.69
430.958	266.69
431.18	261.69
431.402	215.69
431.624	208.69
431.846	224.69
432.068	216.69
432.29	221.69
432.512	221.69
432.734	241.69
432.956	245.69
433.178	219.69
433.4	207.69
433.622	210.69
433.844	216.69
434.066	255.69
434.287	245.69
434.509	206.69
434.731	241.69
434.953	232.69
435.175	215.69
435.397	258.69
435.618	231.69
435.84	207.69
436.062	223.69
436.284	202.69
436.505	218.69
436.727	216.69
436.949	207.69
437.17	221.69
437.392	224.69
437.614	211.69
437.835	202.69
438.057	210.69
438.278	232.69
438.5	286.69
438.721	304.69
438.943	214.69
439.165	223.69
439.386	211.69
439.608	199.69
439.829	209.69
440.05	194.69
440.272	213.69
440.493	225.69
440.715	293.69
440.936	237.69
441.158	215.69
441.379	225.69
441.6	233.69
441.822	265.69
442.043	245.69
442.264	231.69
442.486	236.69
442.707	220.69
442.928	227.69
443.149	220.69
443.371	232.69
443.592	227.69
443.813	224.69
444.034	215.69
444.255	231.69
444.476	253.69
444.698	254.69
444.919	263.69
445.14	370.69
445.361	296.69
445.582	254.69
445.803	262.69
446.024	253.69
446.245	220.69
446.466	245.69
446.687	236.69
446.908	247.69
447.129	216.69
447.35	210.69
447.571	205.69
447.792	205.69
448.013	200.69
448.234	203.69
448.455	214.69
448.675	215.69
448.896	215.69
449.117	208.69
449.338	194.69
449.559	210.69
449.779	229.69
450	218.69
450.221	208.69
450.442	220.69
450.662	217.69
450.883	217.69
451.104	213.69
451.324	202.69
451.545	213.69
451.766	221.69
451.986	204.69
452.207	184.69
452.428	204.69
452.648	207.69
452.869	223.69
453.089	213.69
453.31	217.69
453.53	206.69
453.751	202.69
453.971	204.69
454.192	207.69
454.412	214.69
454.633	200.69
454.853	206.69
455.073	209.69
455.294	193.69
455.514	199.69
455.734	197.69
455.955	201.69
456.175	180.69
456.395	195.69
456.616	198.69
456.836	179.69
457.056	189.69
457.276	192.69
457.497	182.69
457.717	188.69
457.937	205.69
458.157	204.69
458.377	205.69
458.598	194.69
458.818	212.69
459.038	219.69
459.258	208.69
459.478	214.69
459.698	238.69
459.918	237.69
460.138	238.69
460.358	246.69
460.578	212.69
460.798	239.69
461.018	243.69
461.238	218.69
461.458	225.69
461.678	245.69
461.898	238.69
462.118	229.69
462.338	252.69
462.558	260.69
462.777	256.69
462.997	249.69
463.217	271.69
463.437	291.69
463.657	265.69
463.876	258.69
464.096	262.69
464.316	263.69
464.536	262.69
464.755	265.69
464.975	268.69
465.195	271.69
465.414	241.69
465.634	217.69
465.854	215.69
466.073	226.69
466.293	237.69
466.512	211.69
466.732	220.69
466.951	230.69
467.171	240.69
467.391	216.69
467.61	214.69
467.829	223.69
468.049	217.69
468.268	213.69
468.488	216.69
468.707	213.69
468.927	250.69
469.146	242.69
469.365	222.69
469.585	228.69
469.804	241.69
470.023	242.69
470.243	231.69
470.462	224.69
470.681	212.69
470.901	220.69
471.12	234.69
471.339	244.69
471.558	213.69
471.777	239.69
471.997	226.69
472.216	240.69
472.435	228.69
472.654	223.69
472.873	230.69
473.092	238.69
473.311	238.69
473.53	207.69
473.749	209.69
473.968	225.69
474.187	232.69
474.406	198.69
474.625	216.69
474.844	233.69
475.063	223.69
475.282	230.69
475.501	242.69
475.72	269.69
475.939	253.69
476.158	252.69
476.377	280.69
476.596	298.69
476.814	309.69
477.033	288.69
477.252	258.69
477.471	232.69
477.69	217.69
477.908	257.69
478.127	264.69
478.346	254.69
478.564	273.69
478.783	258.69
479.002	255.69
479.22	287.69
479.439	306.69
479.658	257.69
479.876	268.69
480.095	270.69
480.313	285.69
480.532	265.69
480.751	265.69
480.969	265.69
481.188	257.69
481.406	273.69
481.624	274.69
481.843	267.69
482.061	256.69
482.28	283.69
482.498	314.69
482.717	332.69
482.935	256.69
483.153	256.69
483.372	244.69
483.59	241.69
483.808	238.69
484.027	244.69
484.245	240.69
484.463	228.69
484.681	246.69
484.9	238.69
485.118	278.69
485.336	256.69
485.554	248.69
485.772	265.69
485.99	279.69
486.209	286.69
486.427	262.69
486.645	273.69
486.863	271.69
487.081	269.69
487.299	298.69
487.517	288.69
487.735	293.69
487.953	270.69
488.171	286.69
488.389	265.69
488.607	257.69
488.825	258.69
489.043	281.69
489.261	295.69
489.479	320.69
489.696	284.69
489.914	262.69
490.132	255.69
490.35	262.69
490.568	271.69
490.786	248.69
491.003	242.69
491.221	270.69
491.439	265.69
491.657	268.69
491.874	275.69
492.092	306.69
492.31	346.69
492.527	343.69
492.745	300.69
492.963	293.69
493.18	293.69
493.398	267.69
493.615	289.69
493.833	268.69
494.05	270.69
494.268	271.69
494.485	284.69
494.703	263.69
494.92	264.69
495.138	243.69
495.355	272.69
495.573	280.69
495.79	284.69
496.008	346.69
496.225	316.69
496.442	289.69
496.66	303.69
496.877	297.69
497.094	273.69
497.312	270.69
497.529	289.69
497.746	285.69
497.963	291.69
498.181	319.69
498.398	307.69
498.615	318.69
498.832	351.69
499.049	352.69
499.267	350.69
499.484	392.69
499.701	393.69
499.918	445.69
500.135	471.69
500.352	538.69
500.569	534.69
500.786	532.69
501.003	532.69
501.22	482.69
501.437	418.69
501.654	399.69
501.871	350.69
502.088	364.69
502.305	325.69
502.522	336.69
