Data from NickelSpatula.Lamp.E10.P2_HRD10591_11-56-53-535.txt Node
Date: Tue Jul 23 11:56:53 EDT 2019
User: cochatt
Spectrometer: HR+D1059
Trigger mode: 1
Integration Time (sec): 1.000000E-1
Scans to average: 1
Electric dark correction enabled: true
Nonlinearity correction enabled: false
Boxcar width: 0
XAxis mode: Wavelengths
Number of Pixels in Spectrum: 2048
>>>>>Begin Spectral Data<<<<<
223.165	-7.5
223.4	-7.5
223.635	-7.5
223.869	-3.5
224.104	-14.5
224.338	-14.5
224.573	-3.5
224.808	-23.5
225.042	-6.5
225.277	7.5
225.511	-9.5
225.746	-12.5
225.98	-0.5
226.215	7.5
226.449	16.5
226.683	10.5
226.918	35.5
227.152	18.5
227.387	29.5
227.621	36.5
227.856	36.5
228.09	43.5
228.324	53.5
228.559	53.5
228.793	73.5
229.027	132.5
229.262	139.5
229.496	138.5
229.73	150.5
229.964	187.5
230.199	203.5
230.433	191.5
230.667	195.5
230.901	183.5
231.136	184.5
231.37	187.5
231.604	213.5
231.838	218.5
232.072	242.5
232.306	244.5
232.541	218.5
232.775	232.5
233.009	235.5
233.243	257.5
233.477	293.5
233.711	314.5
233.945	307.5
234.179	284.5
234.413	337.5
234.647	340.5
234.881	404.5
235.115	385.5
235.349	378.5
235.583	340.5
235.817	311.5
236.051	329.5
236.285	374.5
236.519	395.5
236.753	384.5
236.987	403.5
237.221	375.5
237.455	379.5
237.689	391.5
237.922	409.5
238.156	423.5
238.39	525.5
238.624	588.5
238.858	515.5
239.091	441.5
239.325	455.5
239.559	450.5
239.793	490.5
240.027	579.5
240.26	535.5
240.494	514.5
240.728	552.5
240.961	631.5
241.195	582.5
241.429	540.5
241.662	537.5
241.896	471.5
242.13	443.5
242.363	406.5
242.597	432.5
242.83	488.5
243.064	495.5
243.298	522.5
243.531	568.5
243.765	579.5
243.998	573.5
244.232	578.5
244.465	541.5
244.699	543.5
244.932	607.5
245.166	596.5
245.399	511.5
245.633	491.5
245.866	529.5
246.099	549.5
246.333	658.5
246.566	685.5
246.8	676.5
247.033	667.5
247.266	628.5
247.5	617.5
247.733	583.5
247.966	597.5
248.2	585.5
248.433	679.5
248.666	752.5
248.899	736.5
249.133	753.5
249.366	837.5
249.599	923.5
249.832	833.5
250.066	723.5
250.299	751.5
250.532	713.5
250.765	727.5
250.998	633.5
251.231	659.5
251.465	722.5
251.698	745.5
251.931	724.5
252.164	748.5
252.397	856.5
252.63	925.5
252.863	1006.5
253.096	1049.5
253.329	1014.5
253.562	988.5
253.795	1075.5
254.028	1185.5
254.261	1203.5
254.494	1093.5
254.727	997.5
254.96	983.5
255.193	1042.5
255.426	984.5
255.659	753.5
255.892	730.5
256.124	801.5
256.357	945.5
256.59	1083.5
256.823	1028.5
257.056	851.5
257.289	850.5
257.521	866.5
257.754	1062.5
257.987	1163.5
258.22	1031.5
258.452	921.5
258.685	1018.5
258.918	1132.5
259.151	1139.5
259.383	1194.5
259.616	1365.5
259.849	1419.5
260.081	1539.5
260.314	1693.5
260.547	1336.5
260.779	1339.5
261.012	1517.5
261.244	1449.5
261.477	1430.5
261.71	1368.5
261.942	1179.5
262.175	1155.5
262.407	1106.5
262.64	1118.5
262.872	1329.5
263.105	1447.5
263.337	1499.5
263.57	1348.5
263.802	959.5
264.035	834.5
264.267	830.5
264.499	740.5
264.732	664.5
264.964	639.5
265.197	671.5
265.429	740.5
265.661	748.5
265.894	790.5
266.126	855.5
266.358	920.5
266.591	1130.5
266.823	1386.5
267.055	1297.5
267.287	1146.5
267.52	1172.5
267.752	1213.5
267.984	1324.5
268.216	1285.5
268.448	1067.5
268.681	1065.5
268.913	1098.5
269.145	1191.5
269.377	1203.5
269.609	1201.5
269.841	1132.5
270.073	1207.5
270.306	1240.5
270.538	1304.5
270.77	1292.5
271.002	1310.5
271.234	1348.5
271.466	1366.5
271.698	1267.5
271.93	1257.5
272.162	1259.5
272.394	1252.5
272.626	1228.5
272.858	1278.5
273.09	1307.5
273.322	1153.5
273.553	1117.5
273.785	1275.5
274.017	1704.5
274.249	2116.5
274.481	2155.5
274.713	2337.5
274.945	2724.5
275.176	2799.5
275.408	2437.5
275.64	2283.5
275.872	2289.5
276.104	1953.5
276.335	1736.5
276.567	1710.5
276.799	1776.5
277.031	1837.5
277.262	1463.5
277.494	1151.5
277.726	1101.5
277.957	1196.5
278.189	1352.5
278.421	1312.5
278.652	1300.5
278.884	1248.5
279.115	1147.5
279.347	1075.5
279.579	1093.5
279.81	1127.5
280.042	1123.5
280.273	1149.5
280.505	1050.5
280.736	944.5
280.968	953.5
281.199	1040.5
281.431	1172.5
281.662	1131.5
281.894	1102.5
282.125	1158.5
282.356	1274.5
282.588	1277.5
282.819	1165.5
283.051	1259.5
283.282	1524.5
283.513	1765.5
283.745	1960.5
283.976	1944.5
284.207	1821.5
284.439	1919.5
284.67	1814.5
284.901	1645.5
285.132	1746.5
285.364	1805.5
285.595	1669.5
285.826	1739.5
286.057	1796.5
286.288	1768.5
286.52	1809.5
286.751	1897.5
286.982	1898.5
287.213	1654.5
287.444	1592.5
287.675	1691.5
287.906	1661.5
288.138	1416.5
288.369	1285.5
288.6	1212.5
288.831	1273.5
289.062	1460.5
289.293	1599.5
289.524	1499.5
289.755	1458.5
289.986	1532.5
290.217	1349.5
290.448	1046.5
290.679	925.5
290.91	846.5
291.141	849.5
291.371	875.5
291.602	905.5
291.833	929.5
292.064	960.5
292.295	1139.5
292.526	1289.5
292.757	1340.5
292.987	1448.5
293.218	1423.5
293.449	1500.5
293.68	1546.5
293.91	1499.5
294.141	1520.5
294.372	1391.5
294.603	1315.5
294.833	1443.5
295.064	1717.5
295.295	1641.5
295.525	1204.5
295.756	1049.5
295.987	928.5
296.217	927.5
296.448	908.5
296.679	965.5
296.909	1081.5
297.14	1139.5
297.37	1267.5
297.601	1169.5
297.831	1060.5
298.062	1111.5
298.292	1243.5
298.523	1364.5
298.753	1524.5
298.984	1397.5
299.214	1140.5
299.445	955.5
299.675	898.5
299.905	877.5
300.136	897.5
300.366	1000.5
300.597	968.5
300.827	880.5
301.057	850.5
301.288	876.5
301.518	940.5
301.748	1031.5
301.979	1078.5
302.209	1147.5
302.439	1185.5
302.669	1059.5
302.9	1079.5
303.13	1023.5
303.36	959.5
303.59	939.5
303.82	979.5
304.051	1129.5
304.281	1201.5
304.511	1156.5
304.741	1036.5
304.971	1049.5
305.201	1144.5
305.431	1071.5
305.661	937.5
305.891	929.5
306.121	931.5
306.352	849.5
306.582	795.5
306.812	773.5
307.042	793.5
307.272	735.5
307.502	718.5
307.731	779.5
307.961	825.5
308.191	771.5
308.421	760.5
308.651	721.5
308.881	712.5
309.111	728.5
309.341	737.5
309.571	815.5
309.8	851.5
310.03	835.5
310.26	871.5
310.49	845.5
310.72	798.5
310.949	805.5
311.179	802.5
311.409	879.5
311.639	1007.5
311.868	1301.5
312.098	1606.5
312.328	1735.5
312.557	1653.5
312.787	1685.5
313.017	1484.5
313.246	1606.5
313.476	1763.5
313.706	1463.5
313.935	1158.5
314.165	973.5
314.394	888.5
314.624	882.5
314.853	938.5
315.083	962.5
315.312	930.5
315.542	902.5
315.771	858.5
316.001	795.5
316.23	756.5
316.46	756.5
316.689	805.5
316.919	806.5
317.148	823.5
317.377	827.5
317.607	829.5
317.836	858.5
318.065	987.5
318.295	1104.5
318.524	1007.5
318.753	871.5
318.983	858.5
319.212	837.5
319.441	873.5
319.67	992.5
319.9	1042.5
320.129	996.5
320.358	890.5
320.587	867.5
320.816	903.5
321.046	1007.5
321.275	1127.5
321.504	1123.5
321.733	1085.5
321.962	1066.5
322.191	971.5
322.42	957.5
322.649	933.5
322.878	1026.5
323.108	1032.5
323.337	950.5
323.566	957.5
323.795	937.5
324.024	921.5
324.253	884.5
324.482	857.5
324.71	899.5
324.939	1010.5
325.168	961.5
325.397	807.5
325.626	803.5
325.855	860.5
326.084	840.5
326.313	807.5
326.542	759.5
326.77	782.5
326.999	797.5
327.228	879.5
327.457	883.5
327.686	887.5
327.914	813.5
328.143	764.5
328.372	793.5
328.6	778.5
328.829	796.5
329.058	779.5
329.287	796.5
329.515	835.5
329.744	794.5
329.972	793.5
330.201	761.5
330.43	755.5
330.658	866.5
330.887	945.5
331.115	927.5
331.344	921.5
331.572	895.5
331.801	833.5
332.03	787.5
332.258	807.5
332.486	888.5
332.715	906.5
332.943	846.5
333.172	821.5
333.4	906.5
333.629	964.5
333.857	1024.5
334.085	1019.5
334.314	1016.5
334.542	957.5
334.771	891.5
334.999	891.5
335.227	853.5
335.455	858.5
335.684	969.5
335.912	1114.5
336.14	1196.5
336.369	1173.5
336.597	1143.5
336.825	1215.5
337.053	1345.5
337.281	1129.5
337.51	919.5
337.738	891.5
337.966	948.5
338.194	1033.5
338.422	999.5
338.65	858.5
338.878	824.5
339.106	843.5
339.334	934.5
339.562	958.5
339.79	903.5
340.018	870.5
340.246	963.5
340.474	1056.5
340.702	1123.5
340.93	1128.5
341.158	1138.5
341.386	947.5
341.614	943.5
341.842	951.5
342.07	1019.5
342.298	1179.5
342.526	1183.5
342.754	1049.5
342.981	961.5
343.209	961.5
343.437	1026.5
343.665	1039.5
343.893	1026.5
344.12	1168.5
344.348	1381.5
344.576	1259.5
344.804	1029.5
345.031	909.5
345.259	873.5
345.487	889.5
345.714	916.5
345.942	977.5
346.17	1062.5
346.397	990.5
346.625	899.5
346.853	840.5
347.08	830.5
347.308	875.5
347.535	981.5
347.763	994.5
347.99	856.5
348.218	841.5
348.445	909.5
348.673	876.5
348.9	872.5
349.128	914.5
349.355	945.5
349.583	959.5
349.81	910.5
350.037	821.5
350.265	747.5
350.492	756.5
350.72	727.5
350.947	772.5
351.174	796.5
351.402	811.5
351.629	835.5
351.856	800.5
352.083	790.5
352.311	853.5
352.538	876.5
352.765	932.5
352.992	871.5
353.22	839.5
353.447	867.5
353.674	813.5
353.901	822.5
354.128	817.5
354.355	839.5
354.583	855.5
354.81	846.5
355.037	903.5
355.264	879.5
355.491	921.5
355.718	989.5
355.945	920.5
356.172	916.5
356.399	905.5
356.626	1066.5
356.853	1271.5
357.08	1336.5
357.307	1360.5
357.534	1113.5
357.761	1149.5
357.988	1377.5
358.215	1524.5
358.441	1463.5
358.668	1271.5
358.895	1193.5
359.122	985.5
359.349	1026.5
359.576	1103.5
359.802	932.5
360.029	811.5
360.256	873.5
360.483	1052.5
360.709	1288.5
360.936	1320.5
361.163	1140.5
361.39	920.5
361.616	874.5
361.843	971.5
362.07	1147.5
362.296	1086.5
362.523	895.5
362.749	825.5
362.976	807.5
363.203	997.5
363.429	1068.5
363.656	918.5
363.882	842.5
364.109	856.5
364.335	855.5
364.562	810.5
364.788	877.5
365.015	1039.5
365.241	943.5
365.468	824.5
365.694	744.5
365.92	737.5
366.147	726.5
366.373	713.5
366.599	710.5
366.826	726.5
367.052	739.5
367.278	739.5
367.505	741.5
367.731	791.5
367.957	858.5
368.184	872.5
368.41	832.5
368.636	867.5
368.862	897.5
369.089	848.5
369.315	790.5
369.541	765.5
369.767	779.5
369.993	754.5
370.219	793.5
370.445	807.5
370.672	846.5
370.898	900.5
371.124	897.5
371.35	799.5
371.576	800.5
371.802	852.5
372.028	981.5
372.254	1060.5
372.48	902.5
372.706	872.5
372.932	923.5
373.158	937.5
373.384	1074.5
373.61	1411.5
373.835	1404.5
374.061	1079.5
374.287	963.5
374.513	1098.5
374.739	1292.5
374.965	1284.5
375.191	1258.5
375.416	972.5
375.642	884.5
375.868	997.5
376.094	1083.5
376.319	971.5
376.545	1043.5
376.771	1118.5
376.997	940.5
377.222	753.5
377.448	696.5
377.674	699.5
377.899	688.5
378.125	693.5
378.35	684.5
378.576	745.5
378.802	787.5
379.027	785.5
379.253	744.5
379.478	788.5
379.704	890.5
379.929	911.5
380.155	906.5
380.38	825.5
380.606	863.5
380.831	957.5
381.057	903.5
381.282	850.5
381.507	951.5
381.733	1113.5
381.958	1186.5
382.184	1276.5
382.409	1334.5
382.634	1311.5
382.86	1338.5
383.085	1133.5
383.31	960.5
383.535	995.5
383.761	1026.5
383.986	974.5
384.211	1114.5
384.436	1088.5
384.662	899.5
384.887	863.5
385.112	903.5
385.337	920.5
385.562	879.5
385.787	980.5
386.013	1013.5
386.238	1059.5
386.463	900.5
386.688	891.5
386.913	865.5
387.138	856.5
387.363	816.5
387.588	880.5
387.813	881.5
388.038	963.5
388.263	864.5
388.488	864.5
388.713	930.5
388.938	994.5
389.163	864.5
389.387	822.5
389.612	822.5
389.837	852.5
390.062	881.5
390.287	877.5
390.512	891.5
390.736	849.5
390.961	825.5
391.186	809.5
391.411	800.5
391.636	783.5
391.86	820.5
392.085	897.5
392.31	905.5
392.534	860.5
392.759	838.5
392.984	872.5
393.208	872.5
393.433	845.5
393.658	776.5
393.882	783.5
394.107	745.5
394.331	771.5
394.556	754.5
394.78	774.5
395.005	766.5
395.229	790.5
395.454	821.5
395.678	815.5
395.903	833.5
396.127	794.5
396.352	839.5
396.576	889.5
396.801	910.5
397.025	964.5
397.249	1004.5
397.474	868.5
397.698	831.5
397.922	890.5
398.147	851.5
398.371	856.5
398.595	906.5
398.82	888.5
399.044	889.5
399.268	966.5
399.492	1009.5
399.717	1027.5
399.941	1033.5
400.165	996.5
400.389	961.5
400.613	964.5
400.837	957.5
401.062	912.5
401.286	909.5
401.51	874.5
401.734	842.5
401.958	867.5
402.182	863.5
402.406	841.5
402.63	869.5
402.854	916.5
403.078	1013.5
403.302	1217.5
403.526	1221.5
403.75	1109.5
403.974	986.5
404.198	1037.5
404.422	1115.5
404.645	1233.5
404.869	1322.5
405.093	1059.5
405.317	909.5
405.541	931.5
405.765	957.5
405.988	944.5
406.212	997.5
406.436	1099.5
406.66	1217.5
406.883	1000.5
407.107	1043.5
407.331	1161.5
407.555	1151.5
407.778	1035.5
408.002	982.5
408.226	996.5
408.449	981.5
408.673	959.5
408.896	917.5
409.12	884.5
409.344	892.5
409.567	869.5
409.791	884.5
410.014	846.5
410.238	853.5
410.461	851.5
410.685	889.5
410.908	857.5
411.132	901.5
411.355	901.5
411.578	907.5
411.802	917.5
412.025	904.5
412.249	906.5
412.472	917.5
412.695	943.5
412.919	907.5
413.142	898.5
413.365	981.5
413.589	955.5
413.812	892.5
414.035	875.5
414.258	866.5
414.482	917.5
414.705	963.5
414.928	865.5
415.151	836.5
415.374	828.5
415.597	859.5
415.821	868.5
416.044	845.5
416.267	848.5
416.49	857.5
416.713	834.5
416.936	817.5
417.159	829.5
417.382	845.5
417.605	839.5
417.828	841.5
418.051	847.5
418.274	869.5
418.497	836.5
418.72	870.5
418.943	887.5
419.166	903.5
419.389	961.5
419.611	921.5
419.834	943.5
420.057	985.5
420.28	992.5
420.503	933.5
420.726	842.5
420.948	847.5
421.171	860.5
421.394	831.5
421.617	842.5
421.839	832.5
422.062	858.5
422.285	880.5
422.507	888.5
422.73	891.5
422.953	914.5
423.175	877.5
423.398	897.5
423.621	953.5
423.843	931.5
424.066	897.5
424.288	885.5
424.511	866.5
424.733	851.5
424.956	888.5
425.178	969.5
425.401	1071.5
425.623	1159.5
425.846	1032.5
426.068	896.5
426.291	958.5
426.513	919.5
426.735	872.5
426.958	919.5
427.18	1025.5
427.402	1263.5
427.625	1270.5
427.847	1042.5
428.069	848.5
428.292	851.5
428.514	860.5
428.736	816.5
428.958	890.5
429.181	983.5
429.403	895.5
429.625	827.5
429.847	824.5
430.069	822.5
430.292	844.5
430.514	794.5
430.736	883.5
430.958	1011.5
431.18	948.5
431.402	808.5
431.624	777.5
431.846	773.5
432.068	782.5
432.29	787.5
432.512	847.5
432.734	1013.5
432.956	984.5
433.178	823.5
433.4	795.5
433.622	813.5
433.844	824.5
434.066	860.5
434.287	883.5
434.509	829.5
434.731	861.5
434.953	841.5
435.175	869.5
435.397	943.5
435.618	833.5
435.84	798.5
436.062	769.5
436.284	796.5
436.505	771.5
436.727	775.5
436.949	769.5
437.17	804.5
437.392	806.5
437.614	793.5
437.835	790.5
438.057	790.5
438.278	891.5
438.5	1140.5
438.721	1133.5
438.943	860.5
439.165	798.5
439.386	773.5
439.608	738.5
439.829	765.5
440.05	786.5
440.272	808.5
440.493	907.5
440.715	1049.5
440.936	891.5
441.158	819.5
441.379	838.5
441.6	908.5
441.822	933.5
442.043	856.5
442.264	833.5
442.486	830.5
442.707	834.5
442.928	818.5
443.149	858.5
443.371	858.5
443.592	869.5
443.813	892.5
444.034	874.5
444.255	874.5
444.476	918.5
444.698	917.5
444.919	930.5
445.14	1025.5
445.361	952.5
445.582	887.5
445.803	861.5
446.024	891.5
446.245	897.5
446.466	888.5
446.687	821.5
446.908	819.5
447.129	798.5
447.35	779.5
447.571	781.5
447.792	745.5
448.013	757.5
448.234	773.5
448.455	761.5
448.675	751.5
448.896	789.5
449.117	758.5
449.338	785.5
449.559	794.5
449.779	800.5
450	789.5
450.221	804.5
450.442	783.5
450.662	752.5
450.883	760.5
451.104	785.5
451.324	768.5
451.545	769.5
451.766	776.5
451.986	743.5
452.207	743.5
452.428	742.5
452.648	744.5
452.869	742.5
453.089	779.5
453.31	775.5
453.53	724.5
453.751	721.5
453.971	713.5
454.192	726.5
454.412	769.5
454.633	707.5
454.853	709.5
455.073	720.5
455.294	678.5
455.514	703.5
455.734	733.5
455.955	775.5
456.175	758.5
456.395	687.5
456.616	675.5
456.836	673.5
457.056	672.5
457.276	678.5
457.497	694.5
457.717	710.5
457.937	688.5
458.157	698.5
458.377	697.5
458.598	715.5
458.818	745.5
459.038	773.5
459.258	794.5
459.478	829.5
459.698	858.5
459.918	876.5
460.138	837.5
460.358	832.5
460.578	857.5
460.798	849.5
461.018	857.5
461.238	821.5
461.458	829.5
461.678	868.5
461.898	894.5
462.118	877.5
462.338	905.5
462.558	941.5
462.777	929.5
462.997	972.5
463.217	978.5
463.437	1002.5
463.657	957.5
463.876	964.5
464.096	926.5
464.316	933.5
464.536	928.5
464.755	984.5
464.975	953.5
465.195	892.5
465.414	943.5
465.634	881.5
465.854	900.5
466.073	811.5
466.293	832.5
466.512	893.5
466.732	970.5
466.951	957.5
467.171	886.5
467.391	849.5
467.61	828.5
467.829	894.5
468.049	895.5
468.268	828.5
468.488	823.5
468.707	867.5
468.927	996.5
469.146	1083.5
469.365	972.5
469.585	887.5
469.804	960.5
470.023	1035.5
470.243	921.5
470.462	866.5
470.681	892.5
470.901	876.5
471.12	920.5
471.339	936.5
471.558	891.5
471.777	858.5
471.997	946.5
472.216	1012.5
472.435	996.5
472.654	927.5
472.873	901.5
473.092	937.5
473.311	981.5
473.53	904.5
473.749	907.5
473.968	931.5
474.187	921.5
474.406	876.5
474.625	868.5
474.844	913.5
475.063	935.5
475.282	953.5
475.501	989.5
475.72	1026.5
475.939	985.5
476.158	987.5
476.377	1148.5
476.596	1293.5
476.814	1403.5
477.033	1172.5
477.252	992.5
477.471	948.5
477.69	953.5
477.908	1035.5
478.127	1114.5
478.346	954.5
478.564	1101.5
478.783	1031.5
479.002	1036.5
479.22	1183.5
479.439	1308.5
479.658	1141.5
479.876	1061.5
480.095	1127.5
480.313	1128.5
480.532	1081.5
480.751	1044.5
480.969	1087.5
481.188	1190.5
481.406	1212.5
481.624	1155.5
481.843	1045.5
482.061	1013.5
482.28	1136.5
482.498	1349.5
482.717	1291.5
482.935	1134.5
483.153	1061.5
483.372	997.5
483.59	1001.5
483.808	983.5
484.027	972.5
484.245	942.5
484.463	933.5
484.681	977.5
484.9	1035.5
485.118	1103.5
485.336	1058.5
485.554	1012.5
485.772	1011.5
485.99	1145.5
486.209	1168.5
486.427	1139.5
486.645	1065.5
486.863	1149.5
487.081	1118.5
487.299	1204.5
487.517	1166.5
487.735	1148.5
487.953	1147.5
488.171	1171.5
488.389	1091.5
488.607	1050.5
488.825	1083.5
489.043	1136.5
489.261	1263.5
489.479	1328.5
489.696	1153.5
489.914	1091.5
490.132	1049.5
490.35	1035.5
490.568	1066.5
490.786	1069.5
491.003	1064.5
491.221	1097.5
491.439	1091.5
491.657	1076.5
491.874	1138.5
492.092	1298.5
492.31	1490.5
492.527	1472.5
492.745	1327.5
492.963	1231.5
493.18	1179.5
493.398	1207.5
493.615	1185.5
493.833	1137.5
494.05	1185.5
494.268	1182.5
494.485	1186.5
494.703	1155.5
494.92	1149.5
495.138	1135.5
495.355	1160.5
495.573	1163.5
495.79	1225.5
496.008	1470.5
496.225	1343.5
496.442	1270.5
496.66	1247.5
496.877	1294.5
497.094	1289.5
497.312	1249.5
497.529	1224.5
497.746	1236.5
497.963	1296.5
498.181	1376.5
498.398	1466.5
498.615	1467.5
498.832	1544.5
499.049	1611.5
499.267	1479.5
499.484	1501.5
499.701	1524.5
499.918	1677.5
500.135	1808.5
500.352	1804.5
500.569	1880.5
500.786	1887.5
501.003	1896.5
501.22	1732.5
501.437	1633.5
501.654	1566.5
501.871	1508.5
502.088	1537.5
502.305	1421.5
502.522	1417.5
502.739	1378.5
502.956	1290.5
503.172	1282.5
503.389	1243.5
503.606	1209.5
503.823	1219.5
504.04	1234.5
504.256	1279.5
504.473	1289.5
504.69	1287.5
504.907	1297.5
505.123	1261.5
505.34	1335.5
505.557	1332.5
505.773	1228.5
505.99	1205.5
506.207	1256.5
506.423	1161.5
506.64	1119.5
506.856	1154.5
507.073	1271.5
507.289	1244.5
507.506	1230.5
507.722	1324.5
507.939	1299.5
508.155	1347.5
508.372	1222.5
508.588	1167.5
508.805	1135.5
509.021	1148.5
509.238	1087.5
509.454	1091.5
509.67	1089.5
509.887	1090.5
510.103	1219.5
510.319	1179.5
510.536	1087.5
510.752	1019.5
510.968	994.5
511.184	975.5
511.401	987.5
511.617	1003.5
511.833	979.5
512.049	1008.5
512.265	1036.5
512.481	1030.5
512.698	1143.5
512.914	1229.5
513.13	1141.5
513.346	1042.5
513.562	1083.5
