Data from NickelSpatula_HRD10591_16-34-01-125.txt Node
Date: Mon Jul 22 16:34:01 EDT 2019
User: cochatt
Spectrometer: HR+D1059
Trigger mode: 1
Integration Time (sec): 1.000000E-1
Scans to average: 1
Electric dark correction enabled: true
Nonlinearity correction enabled: false
Boxcar width: 0
XAxis mode: Wavelengths
Number of Pixels in Spectrum: 2048
>>>>>Begin Spectral Data<<<<<
223.165	-3.31
223.4	-3.31
223.635	-3.31
223.869	-15.31
224.104	-30.31
224.338	-13.31
224.573	-24.31
224.808	-23.31
225.042	-10.31
225.277	-9.31
225.511	-11.31
225.746	-0.31
225.98	9.69
226.215	17.69
226.449	24.69
226.683	31.69
226.918	28.69
227.152	28.69
227.387	42.69
227.621	31.69
227.856	37.69
228.09	47.69
228.324	38.69
228.559	48.69
228.793	64.69
229.027	67.69
229.262	65.69
229.496	71.69
229.73	68.69
229.964	90.69
230.199	106.69
230.433	81.69
230.667	84.69
230.901	95.69
231.136	83.69
231.37	86.69
231.604	107.69
231.838	99.69
232.072	101.69
232.306	94.69
232.541	95.69
232.775	96.69
233.009	122.69
233.243	103.69
233.477	102.69
233.711	113.69
233.945	116.69
234.179	111.69
234.413	110.69
234.647	115.69
234.881	128.69
235.115	128.69
235.349	125.69
235.583	128.69
235.817	118.69
236.051	126.69
236.285	129.69
236.519	126.69
236.753	122.69
236.987	116.69
237.221	130.69
237.455	112.69
237.689	107.69
237.922	121.69
238.156	122.69
238.39	134.69
238.624	156.69
238.858	138.69
239.091	138.69
239.325	132.69
239.559	127.69
239.793	152.69
240.027	152.69
240.26	150.69
240.494	145.69
240.728	124.69
240.961	164.69
241.195	157.69
241.429	152.69
241.662	166.69
241.896	146.69
242.13	122.69
242.363	126.69
242.597	114.69
242.83	140.69
243.064	142.69
243.298	152.69
243.531	141.69
243.765	155.69
243.998	171.69
244.232	148.69
244.465	159.69
244.699	159.69
244.932	176.69
245.166	154.69
245.399	142.69
245.633	146.69
245.866	149.69
246.099	153.69
246.333	149.69
246.566	180.69
246.8	166.69
247.033	172.69
247.266	189.69
247.5	156.69
247.733	156.69
247.966	153.69
248.2	182.69
248.433	182.69
248.666	196.69
248.899	169.69
249.133	190.69
249.366	203.69
249.599	221.69
249.832	222.69
250.066	217.69
250.299	196.69
250.532	193.69
250.765	183.69
250.998	188.69
251.231	160.69
251.465	180.69
251.698	198.69
251.931	194.69
252.164	199.69
252.397	206.69
252.63	219.69
252.863	250.69
253.096	257.69
253.329	250.69
253.562	230.69
253.795	266.69
254.028	281.69
254.261	283.69
254.494	260.69
254.727	258.69
254.96	257.69
255.193	264.69
255.426	253.69
255.659	194.69
255.892	187.69
256.124	202.69
256.357	220.69
256.59	245.69
256.823	223.69
257.056	222.69
257.289	199.69
257.521	205.69
257.754	248.69
257.987	279.69
258.22	238.69
258.452	215.69
258.685	244.69
258.918	243.69
259.151	239.69
259.383	268.69
259.616	308.69
259.849	307.69
260.081	306.69
260.314	334.69
260.547	289.69
260.779	280.69
261.012	308.69
261.244	313.69
261.477	318.69
261.71	284.69
261.942	254.69
262.175	268.69
262.407	256.69
262.64	240.69
262.872	287.69
263.105	327.69
263.337	321.69
263.57	313.69
263.802	234.69
264.035	216.69
264.267	211.69
264.499	173.69
264.732	168.69
264.964	165.69
265.197	177.69
265.429	179.69
265.661	191.69
265.894	213.69
266.126	215.69
266.358	222.69
266.591	278.69
266.823	305.69
267.055	287.69
267.287	274.69
267.52	272.69
267.752	270.69
267.984	294.69
268.216	292.69
268.448	264.69
268.681	237.69
268.913	274.69
269.145	267.69
269.377	274.69
269.609	286.69
269.841	261.69
270.073	268.69
270.306	269.69
270.538	276.69
270.77	303.69
271.002	308.69
271.234	316.69
271.466	315.69
271.698	298.69
271.93	271.69
272.162	282.69
272.394	281.69
272.626	305.69
272.858	292.69
273.09	290.69
273.322	267.69
273.553	266.69
273.785	302.69
274.017	352.69
274.249	407.69
274.481	446.69
274.713	478.69
274.945	536.69
275.176	543.69
275.408	489.69
275.64	462.69
275.872	464.69
276.104	418.69
276.335	363.69
276.567	376.69
276.799	374.69
277.031	385.69
277.262	322.69
277.494	259.69
277.726	265.69
277.957	262.69
278.189	312.69
278.421	311.69
278.652	319.69
278.884	292.69
279.115	260.69
279.347	254.69
279.579	263.69
279.81	264.69
280.042	255.69
280.273	264.69
280.505	246.69
280.736	222.69
280.968	227.69
281.199	240.69
281.431	267.69
281.662	272.69
281.894	262.69
282.125	264.69
282.356	276.69
282.588	266.69
282.819	241.69
283.051	267.69
283.282	330.69
283.513	386.69
283.745	377.69
283.976	386.69
284.207	373.69
284.439	396.69
284.67	380.69
284.901	338.69
285.132	354.69
285.364	380.69
285.595	362.69
285.826	374.69
286.057	386.69
286.288	358.69
286.52	386.69
286.751	409.69
286.982	394.69
287.213	342.69
287.444	342.69
287.675	341.69
287.906	372.69
288.138	326.69
288.369	290.69
288.6	264.69
288.831	268.69
289.062	317.69
289.293	339.69
289.524	320.69
289.755	305.69
289.986	345.69
290.217	294.69
290.448	242.69
290.679	223.69
290.91	203.69
291.141	208.69
291.371	205.69
291.602	212.69
291.833	210.69
292.064	222.69
292.295	244.69
292.526	301.69
292.757	282.69
292.987	320.69
293.218	321.69
293.449	319.69
293.68	340.69
293.91	321.69
294.141	307.69
294.372	326.69
294.603	278.69
294.833	302.69
295.064	354.69
295.295	350.69
295.525	274.69
295.756	269.69
295.987	223.69
296.217	205.69
296.448	228.69
296.679	226.69
296.909	229.69
297.14	248.69
297.37	282.69
297.601	270.69
297.831	245.69
298.062	256.69
298.292	284.69
298.523	304.69
298.753	330.69
298.984	314.69
299.214	267.69
299.445	231.69
299.675	222.69
299.905	227.69
300.136	232.69
300.366	251.69
300.597	230.69
300.827	223.69
301.057	222.69
301.288	211.69
301.518	238.69
301.748	246.69
301.979	257.69
302.209	256.69
302.439	266.69
302.669	260.69
302.9	269.69
303.13	238.69
303.36	238.69
303.59	227.69
303.82	223.69
304.051	262.69
304.281	281.69
304.511	258.69
304.741	244.69
304.971	223.69
305.201	265.69
305.431	262.69
305.661	219.69
305.891	215.69
306.121	219.69
306.352	199.69
306.582	201.69
306.812	190.69
307.042	193.69
307.272	193.69
307.502	170.69
307.731	194.69
307.961	203.69
308.191	198.69
308.421	164.69
308.651	168.69
308.881	181.69
309.111	179.69
309.341	189.69
309.571	193.69
309.8	208.69
310.03	208.69
310.26	218.69
310.49	198.69
310.72	184.69
310.949	194.69
311.179	199.69
311.409	211.69
311.639	206.69
311.868	267.69
312.098	338.69
312.328	357.69
312.557	362.69
312.787	346.69
313.017	347.69
313.246	340.69
313.476	361.69
313.706	307.69
313.935	266.69
314.165	206.69
314.394	206.69
314.624	203.69
314.853	223.69
315.083	212.69
315.312	220.69
315.542	214.69
315.771	202.69
316.001	200.69
316.23	194.69
316.46	180.69
316.689	193.69
316.919	177.69
317.148	199.69
317.377	179.69
317.607	193.69
317.836	180.69
318.065	232.69
318.295	231.69
318.524	232.69
318.753	206.69
318.983	202.69
319.212	191.69
319.441	215.69
319.67	236.69
319.9	239.69
320.129	234.69
320.358	208.69
320.587	196.69
320.816	204.69
321.046	225.69
321.275	268.69
321.504	278.69
321.733	263.69
321.962	242.69
322.191	243.69
322.42	223.69
322.649	247.69
322.878	238.69
323.108	230.69
323.337	228.69
323.566	230.69
323.795	227.69
324.024	227.69
324.253	215.69
324.482	204.69
324.71	223.69
324.939	239.69
325.168	234.69
325.397	183.69
325.626	198.69
325.855	206.69
326.084	203.69
326.313	201.69
326.542	187.69
326.77	196.69
326.999	188.69
327.228	217.69
327.457	200.69
327.686	191.69
327.914	201.69
328.143	195.69
328.372	187.69
328.6	186.69
328.829	197.69
329.058	191.69
329.287	192.69
329.515	203.69
329.744	178.69
329.972	202.69
330.201	185.69
330.43	205.69
330.658	201.69
330.887	239.69
331.115	224.69
331.344	216.69
331.572	215.69
331.801	183.69
332.03	196.69
332.258	205.69
332.486	208.69
332.715	213.69
332.943	210.69
333.172	196.69
333.4	221.69
333.629	232.69
333.857	254.69
334.085	238.69
334.314	216.69
334.542	225.69
334.771	211.69
334.999	215.69
335.227	193.69
335.455	201.69
335.684	196.69
335.912	242.69
336.14	269.69
336.369	250.69
336.597	253.69
336.825	276.69
337.053	309.69
337.281	268.69
337.51	224.69
337.738	203.69
337.966	217.69
338.194	248.69
338.422	215.69
338.65	186.69
338.878	195.69
339.106	196.69
339.334	207.69
339.562	246.69
339.79	204.69
340.018	193.69
340.246	214.69
340.474	254.69
340.702	250.69
340.93	258.69
341.158	226.69
341.386	225.69
341.614	207.69
341.842	231.69
342.07	215.69
342.298	266.69
342.526	270.69
342.754	244.69
342.981	239.69
343.209	216.69
343.437	226.69
343.665	247.69
343.893	245.69
344.12	268.69
344.348	305.69
344.576	290.69
344.804	242.69
345.031	209.69
345.259	216.69
345.487	203.69
345.714	205.69
345.942	238.69
346.17	217.69
346.397	238.69
346.625	218.69
346.853	196.69
347.08	203.69
347.308	212.69
347.535	233.69
347.763	233.69
347.99	203.69
348.218	203.69
348.445	215.69
348.673	208.69
348.9	208.69
349.128	210.69
349.355	223.69
349.583	197.69
349.81	203.69
350.037	201.69
350.265	186.69
350.492	179.69
350.72	170.69
350.947	191.69
351.174	196.69
351.402	198.69
351.629	174.69
351.856	183.69
352.083	169.69
352.311	174.69
352.538	224.69
352.765	223.69
352.992	239.69
353.22	214.69
353.447	231.69
353.674	197.69
353.901	201.69
354.128	190.69
354.355	203.69
354.583	210.69
354.81	222.69
355.037	223.69
355.264	219.69
355.491	215.69
355.718	224.69
355.945	231.69
356.172	225.69
356.399	226.69
356.626	259.69
356.853	288.69
357.08	344.69
357.307	341.69
357.534	263.69
357.761	258.69
357.988	300.69
358.215	334.69
358.441	333.69
358.668	304.69
358.895	298.69
359.122	216.69
359.349	231.69
359.576	253.69
359.802	210.69
360.029	194.69
360.256	208.69
360.483	234.69
360.709	294.69
360.936	318.69
361.163	287.69
361.39	225.69
361.616	230.69
361.843	225.69
362.07	261.69
362.296	255.69
362.523	209.69
362.749	189.69
362.976	195.69
363.203	220.69
363.429	248.69
363.656	209.69
363.882	189.69
364.109	219.69
364.335	218.69
364.562	201.69
364.788	198.69
365.015	251.69
365.241	230.69
365.468	186.69
365.694	203.69
365.92	176.69
366.147	164.69
366.373	174.69
366.599	174.69
366.826	188.69
367.052	180.69
367.278	168.69
367.505	169.69
367.731	182.69
367.957	211.69
368.184	201.69
368.41	220.69
368.636	218.69
368.862	211.69
369.089	211.69
369.315	193.69
369.541	202.69
369.767	182.69
369.993	177.69
370.219	188.69
370.445	184.69
370.672	200.69
370.898	222.69
371.124	223.69
371.35	190.69
371.576	182.69
371.802	182.69
372.028	210.69
372.254	244.69
372.48	219.69
372.706	201.69
372.932	213.69
373.158	221.69
373.384	254.69
373.61	290.69
373.835	299.69
374.061	250.69
374.287	228.69
374.513	272.69
374.739	292.69
374.965	304.69
375.191	302.69
375.416	237.69
375.642	220.69
375.868	235.69
376.094	266.69
376.319	217.69
376.545	238.69
376.771	236.69
376.997	222.69
377.222	182.69
377.448	180.69
377.674	180.69
377.899	170.69
378.125	166.69
378.35	160.69
378.576	171.69
378.802	163.69
379.027	197.69
379.253	182.69
379.478	200.69
379.704	222.69
379.929	213.69
380.155	221.69
380.38	174.69
380.606	209.69
380.831	238.69
381.057	223.69
381.282	201.69
381.507	208.69
381.733	258.69
381.958	266.69
382.184	267.69
382.409	297.69
382.634	286.69
382.86	294.69
383.085	265.69
383.31	233.69
383.535	242.69
383.761	236.69
383.986	229.69
384.211	270.69
384.436	281.69
384.662	228.69
384.887	220.69
385.112	218.69
385.337	250.69
385.562	202.69
385.787	219.69
386.013	263.69
386.238	246.69
386.463	216.69
386.688	188.69
386.913	196.69
387.138	194.69
387.363	214.69
387.588	224.69
387.813	217.69
388.038	238.69
388.263	217.69
388.488	203.69
388.713	233.69
388.938	262.69
389.163	220.69
389.387	180.69
389.612	172.69
389.837	202.69
390.062	204.69
390.287	199.69
390.512	206.69
390.736	199.69
390.961	210.69
391.186	198.69
391.411	195.69
391.636	191.69
391.86	216.69
392.085	218.69
392.31	223.69
392.534	212.69
392.759	212.69
392.984	223.69
393.208	234.69
393.433	254.69
393.658	231.69
393.882	203.69
394.107	189.69
394.331	202.69
394.556	190.69
394.78	175.69
395.005	186.69
395.229	202.69
395.454	190.69
395.678	207.69
395.903	215.69
396.127	185.69
396.352	207.69
396.576	223.69
396.801	238.69
397.025	268.69
397.249	261.69
397.474	216.69
397.698	201.69
397.922	206.69
398.147	199.69
398.371	212.69
398.595	224.69
398.82	197.69
399.044	203.69
399.268	228.69
399.492	249.69
399.717	229.69
399.941	248.69
400.165	241.69
400.389	235.69
400.613	201.69
400.837	210.69
401.062	199.69
401.286	194.69
401.51	187.69
401.734	198.69
401.958	202.69
402.182	201.69
402.406	191.69
402.63	192.69
402.854	219.69
403.078	227.69
403.302	275.69
403.526	296.69
403.75	270.69
403.974	231.69
404.198	230.69
404.422	250.69
404.645	270.69
404.869	303.69
405.093	255.69
405.317	235.69
405.541	225.69
405.765	226.69
405.988	223.69
406.212	217.69
406.436	232.69
406.66	278.69
406.883	226.69
407.107	254.69
407.331	272.69
407.555	274.69
407.778	232.69
408.002	233.69
408.226	235.69
408.449	234.69
408.673	228.69
408.896	217.69
409.12	216.69
409.344	206.69
409.567	190.69
409.791	194.69
410.014	204.69
410.238	204.69
410.461	208.69
410.685	210.69
410.908	203.69
411.132	214.69
411.355	221.69
411.578	224.69
411.802	220.69
412.025	227.69
412.249	213.69
412.472	211.69
412.695	206.69
412.919	204.69
413.142	204.69
413.365	217.69
413.589	232.69
413.812	212.69
414.035	192.69
414.258	220.69
414.482	208.69
414.705	211.69
414.928	194.69
415.151	200.69
415.374	195.69
415.597	191.69
415.821	213.69
416.044	195.69
416.267	188.69
416.49	195.69
416.713	198.69
416.936	203.69
417.159	212.69
417.382	213.69
417.605	205.69
417.828	201.69
418.051	217.69
418.274	187.69
418.497	212.69
418.72	216.69
418.943	217.69
419.166	219.69
419.389	224.69
419.611	223.69
419.834	227.69
420.057	266.69
420.28	239.69
420.503	238.69
420.726	215.69
420.948	198.69
421.171	209.69
421.394	214.69
421.617	182.69
421.839	187.69
422.062	206.69
422.285	207.69
422.507	218.69
422.73	215.69
422.953	215.69
423.175	205.69
423.398	198.69
423.621	227.69
423.843	232.69
424.066	234.69
424.288	215.69
424.511	195.69
424.733	200.69
424.956	204.69
425.178	219.69
425.401	267.69
425.623	262.69
425.846	237.69
426.068	219.69
426.291	242.69
426.513	229.69
426.735	214.69
426.958	224.69
427.18	233.69
427.402	297.69
427.625	277.69
427.847	250.69
428.069	213.69
428.292	195.69
428.514	209.69
428.736	193.69
428.958	196.69
429.181	239.69
429.403	213.69
429.625	195.69
429.847	192.69
430.069	189.69
430.292	217.69
430.514	195.69
430.736	187.69
430.958	251.69
431.18	224.69
431.402	192.69
431.624	193.69
431.846	183.69
432.068	190.69
432.29	174.69
432.512	195.69
432.734	243.69
432.956	248.69
433.178	202.69
433.4	190.69
433.622	199.69
433.844	184.69
434.066	210.69
434.287	203.69
434.509	191.69
434.731	211.69
434.953	213.69
435.175	211.69
435.397	220.69
435.618	193.69
435.84	195.69
436.062	206.69
436.284	194.69
436.505	172.69
436.727	192.69
436.949	204.69
437.17	182.69
437.392	186.69
437.614	188.69
437.835	177.69
438.057	167.69
438.278	194.69
438.5	260.69
438.721	258.69
438.943	219.69
439.165	197.69
439.386	189.69
439.608	174.69
439.829	184.69
440.05	179.69
440.272	184.69
440.493	208.69
440.715	241.69
440.936	194.69
441.158	206.69
441.379	202.69
441.6	215.69
441.822	223.69
442.043	206.69
442.264	200.69
442.486	202.69
442.707	202.69
442.928	215.69
443.149	196.69
443.371	201.69
443.592	206.69
443.813	204.69
444.034	188.69
444.255	191.69
444.476	218.69
444.698	210.69
444.919	214.69
445.14	335.69
445.361	282.69
445.582	215.69
445.803	208.69
446.024	203.69
446.245	205.69
446.466	220.69
446.687	202.69
446.908	204.69
447.129	190.69
447.35	176.69
447.571	177.69
447.792	181.69
448.013	186.69
448.234	194.69
448.455	167.69
448.675	185.69
448.896	174.69
449.117	177.69
449.338	178.69
449.559	187.69
449.779	180.69
450	198.69
450.221	205.69
450.442	184.69
450.662	182.69
450.883	183.69
451.104	179.69
451.324	178.69
451.545	183.69
451.766	192.69
451.986	195.69
452.207	171.69
452.428	179.69
452.648	190.69
452.869	206.69
453.089	186.69
453.31	197.69
453.53	186.69
453.751	182.69
453.971	178.69
454.192	172.69
454.412	179.69
454.633	180.69
454.853	178.69
455.073	158.69
455.294	165.69
455.514	180.69
455.734	175.69
455.955	167.69
456.175	178.69
456.395	168.69
456.616	165.69
456.836	174.69
457.056	155.69
457.276	179.69
457.497	185.69
457.717	167.69
457.937	158.69
458.157	158.69
458.377	177.69
458.598	182.69
458.818	173.69
459.038	186.69
459.258	197.69
459.478	191.69
459.698	204.69
459.918	207.69
460.138	209.69
460.358	218.69
460.578	208.69
460.798	201.69
461.018	189.69
461.238	188.69
461.458	199.69
461.678	203.69
461.898	218.69
462.118	218.69
462.338	212.69
462.558	220.69
462.777	232.69
462.997	231.69
463.217	221.69
463.437	224.69
463.657	215.69
463.876	217.69
464.096	212.69
464.316	200.69
464.536	217.69
464.755	254.69
464.975	243.69
465.195	200.69
465.414	228.69
465.634	203.69
465.854	211.69
466.073	205.69
466.293	173.69
466.512	192.69
466.732	202.69
466.951	224.69
467.171	208.69
467.391	191.69
467.61	193.69
467.829	201.69
468.049	198.69
468.268	199.69
468.488	177.69
468.707	198.69
468.927	226.69
469.146	223.69
469.365	203.69
469.585	205.69
469.804	204.69
470.023	221.69
470.243	193.69
470.462	196.69
470.681	205.69
470.901	199.69
471.12	216.69
471.339	211.69
471.558	192.69
471.777	192.69
471.997	229.69
472.216	224.69
472.435	210.69
472.654	208.69
472.873	210.69
473.092	217.69
473.311	213.69
473.53	193.69
473.749	188.69
473.968	207.69
474.187	218.69
474.406	203.69
474.625	194.69
474.844	196.69
475.063	199.69
475.282	211.69
475.501	240.69
475.72	256.69
475.939	220.69
476.158	214.69
476.377	251.69
476.596	287.69
476.814	294.69
477.033	255.69
477.252	220.69
477.471	209.69
477.69	207.69
477.908	216.69
478.127	223.69
478.346	225.69
478.564	248.69
478.783	241.69
479.002	225.69
479.22	258.69
479.439	273.69
479.658	244.69
479.876	240.69
480.095	246.69
480.313	262.69
480.532	242.69
480.751	223.69
480.969	217.69
481.188	232.69
481.406	248.69
481.624	236.69
481.843	217.69
482.061	208.69
482.28	229.69
482.498	300.69
482.717	302.69
482.935	249.69
483.153	224.69
483.372	225.69
483.59	219.69
483.808	224.69
484.027	206.69
484.245	214.69
484.463	203.69
484.681	208.69
484.9	211.69
485.118	211.69
485.336	188.69
485.554	220.69
485.772	232.69
485.99	248.69
486.209	266.69
486.427	238.69
486.645	219.69
486.863	250.69
487.081	228.69
487.299	282.69
487.517	289.69
487.735	249.69
487.953	242.69
488.171	248.69
488.389	212.69
488.607	215.69
488.825	227.69
489.043	260.69
489.261	287.69
489.479	319.69
489.696	235.69
489.914	232.69
490.132	229.69
490.35	221.69
490.568	215.69
490.786	227.69
491.003	233.69
491.221	230.69
491.439	227.69
491.657	238.69
491.874	235.69
492.092	287.69
492.31	343.69
492.527	349.69
492.745	299.69
492.963	259.69
493.18	242.69
493.398	242.69
493.615	254.69
493.833	240.69
494.05	244.69
494.268	253.69
494.485	225.69
494.703	245.69
494.92	243.69
495.138	259.69
495.355	243.69
495.573	265.69
495.79	268.69
496.008	351.69
496.225	293.69
496.442	269.69
496.66	235.69
496.877	272.69
497.094	272.69
497.312	261.69
497.529	238.69
497.746	256.69
497.963	258.69
498.181	277.69
498.398	322.69
498.615	320.69
498.832	329.69
499.049	343.69
499.267	319.69
499.484	327.69
499.701	346.69
499.918	368.69
500.135	394.69
500.352	417.69
500.569	439.69
500.786	448.69
501.003	440.69
501.22	382.69
501.437	359.69
501.654	345.69
501.871	333.69
502.088	320.69
502.305	299.69
502.522	286.69
502.739	281.69
