Data from NickelSpatula_HRD10591_16-34-05-126.txt Node
Date: Mon Jul 22 16:34:05 EDT 2019
User: cochatt
Spectrometer: HR+D1059
Trigger mode: 1
Integration Time (sec): 1.000000E-1
Scans to average: 1
Electric dark correction enabled: true
Nonlinearity correction enabled: false
Boxcar width: 0
XAxis mode: Wavelengths
Number of Pixels in Spectrum: 2048
>>>>>Begin Spectral Data<<<<<
223.165	-3.5
223.4	-3.5
223.635	-3.5
223.869	-26.5
224.104	-24.5
224.338	-18.5
224.573	-12.5
224.808	-5.5
225.042	-9.5
225.277	-12.5
225.511	-0.5
225.746	-3.5
225.98	6.5
226.215	14.5
226.449	22.5
226.683	23.5
226.918	19.5
227.152	30.5
227.387	25.5
227.621	21.5
227.856	53.5
228.09	39.5
228.324	48.5
228.559	45.5
228.793	46.5
229.027	69.5
229.262	74.5
229.496	72.5
229.73	76.5
229.964	78.5
230.199	78.5
230.433	87.5
230.667	83.5
230.901	87.5
231.136	92.5
231.37	88.5
231.604	96.5
231.838	87.5
232.072	88.5
232.306	112.5
232.541	103.5
232.775	103.5
233.009	96.5
233.243	120.5
233.477	115.5
233.711	118.5
233.945	103.5
234.179	114.5
234.413	129.5
234.647	116.5
234.881	138.5
235.115	133.5
235.349	128.5
235.583	116.5
235.817	106.5
236.051	132.5
236.285	130.5
236.519	129.5
236.753	140.5
236.987	142.5
237.221	118.5
237.455	118.5
237.689	127.5
237.922	136.5
238.156	131.5
238.39	151.5
238.624	156.5
238.858	164.5
239.091	131.5
239.325	130.5
239.559	134.5
239.793	149.5
240.027	160.5
240.26	165.5
240.494	146.5
240.728	161.5
240.961	167.5
241.195	153.5
241.429	172.5
241.662	159.5
241.896	150.5
242.13	127.5
242.363	126.5
242.597	133.5
242.83	145.5
243.064	151.5
243.298	140.5
243.531	158.5
243.765	167.5
243.998	162.5
244.232	156.5
244.465	161.5
244.699	157.5
244.932	186.5
245.166	151.5
245.399	150.5
245.633	143.5
245.866	135.5
246.099	153.5
246.333	180.5
246.566	202.5
246.8	199.5
247.033	194.5
247.266	179.5
247.5	175.5
247.733	168.5
247.966	170.5
248.2	169.5
248.433	181.5
248.666	199.5
248.899	210.5
249.133	205.5
249.366	213.5
249.599	235.5
249.832	239.5
250.066	190.5
250.299	206.5
250.532	195.5
250.765	197.5
250.998	182.5
251.231	163.5
251.465	167.5
251.698	216.5
251.931	189.5
252.164	194.5
252.397	227.5
252.63	227.5
252.863	261.5
253.096	270.5
253.329	268.5
253.562	263.5
253.795	282.5
254.028	296.5
254.261	307.5
254.494	289.5
254.727	260.5
254.96	269.5
255.193	272.5
255.426	271.5
255.659	194.5
255.892	197.5
256.124	210.5
256.357	243.5
256.59	274.5
256.823	253.5
257.056	220.5
257.289	180.5
257.521	227.5
257.754	240.5
257.987	294.5
258.22	252.5
258.452	226.5
258.685	245.5
258.918	256.5
259.151	286.5
259.383	297.5
259.616	324.5
259.849	348.5
260.081	350.5
260.314	390.5
260.547	302.5
260.779	306.5
261.012	363.5
261.244	360.5
261.477	355.5
261.71	333.5
261.942	270.5
262.175	273.5
262.407	281.5
262.64	284.5
262.872	322.5
263.105	346.5
263.337	363.5
263.57	331.5
263.802	255.5
264.035	236.5
264.267	221.5
264.499	183.5
264.732	160.5
264.964	160.5
265.197	165.5
265.429	192.5
265.661	204.5
265.894	211.5
266.126	208.5
266.358	223.5
266.591	279.5
266.823	321.5
267.055	316.5
267.287	284.5
267.52	285.5
267.752	299.5
267.984	308.5
268.216	291.5
268.448	270.5
268.681	244.5
268.913	270.5
269.145	293.5
269.377	296.5
269.609	290.5
269.841	287.5
270.073	282.5
270.306	315.5
270.538	294.5
270.77	295.5
271.002	323.5
271.234	326.5
271.466	342.5
271.698	317.5
271.93	280.5
272.162	310.5
272.394	312.5
272.626	310.5
272.858	306.5
273.09	328.5
273.322	283.5
273.553	279.5
273.785	306.5
274.017	379.5
274.249	471.5
274.481	506.5
274.713	543.5
274.945	613.5
275.176	636.5
275.408	558.5
275.64	532.5
275.872	528.5
276.104	456.5
276.335	394.5
276.567	407.5
276.799	391.5
277.031	424.5
277.262	350.5
277.494	270.5
277.726	262.5
277.957	300.5
278.189	303.5
278.421	338.5
278.652	311.5
278.884	295.5
279.115	258.5
279.347	262.5
279.579	259.5
279.81	262.5
280.042	248.5
280.273	283.5
280.505	238.5
280.736	211.5
280.968	225.5
281.199	215.5
281.431	266.5
281.662	260.5
281.894	256.5
282.125	288.5
282.356	288.5
282.588	314.5
282.819	266.5
283.051	292.5
283.282	342.5
283.513	396.5
283.745	420.5
283.976	433.5
284.207	404.5
284.439	406.5
284.67	423.5
284.901	338.5
285.132	367.5
285.364	406.5
285.595	387.5
285.826	404.5
286.057	420.5
286.288	402.5
286.52	412.5
286.751	430.5
286.982	416.5
287.213	362.5
287.444	358.5
287.675	384.5
287.906	380.5
288.138	335.5
288.369	296.5
288.6	260.5
288.831	281.5
289.062	338.5
289.293	369.5
289.524	336.5
289.755	328.5
289.986	335.5
290.217	295.5
290.448	274.5
290.679	225.5
290.91	215.5
291.141	209.5
291.371	215.5
291.602	200.5
291.833	204.5
292.064	235.5
292.295	246.5
292.526	286.5
292.757	320.5
292.987	299.5
293.218	323.5
293.449	335.5
293.68	353.5
293.91	334.5
294.141	343.5
294.372	322.5
294.603	298.5
294.833	312.5
295.064	369.5
295.295	366.5
295.525	295.5
295.756	248.5
295.987	206.5
296.217	204.5
296.448	231.5
296.679	222.5
296.909	222.5
297.14	262.5
297.37	291.5
297.601	279.5
297.831	241.5
298.062	258.5
298.292	298.5
298.523	315.5
298.753	351.5
298.984	328.5
299.214	257.5
299.445	232.5
299.675	215.5
299.905	222.5
300.136	215.5
300.366	253.5
300.597	244.5
300.827	212.5
301.057	207.5
301.288	214.5
301.518	247.5
301.748	254.5
301.979	270.5
302.209	286.5
302.439	285.5
302.669	255.5
302.9	270.5
303.13	246.5
303.36	226.5
303.59	221.5
303.82	236.5
304.051	272.5
304.281	265.5
304.511	270.5
304.741	230.5
304.971	254.5
305.201	274.5
305.431	254.5
305.661	215.5
305.891	216.5
306.121	222.5
306.352	202.5
306.582	188.5
306.812	175.5
307.042	177.5
307.272	182.5
307.502	164.5
307.731	195.5
307.961	204.5
308.191	205.5
308.421	188.5
308.651	188.5
308.881	177.5
309.111	165.5
309.341	186.5
309.571	195.5
309.8	191.5
310.03	197.5
310.26	217.5
310.49	216.5
310.72	184.5
310.949	183.5
311.179	192.5
311.409	210.5
311.639	213.5
311.868	275.5
312.098	344.5
312.328	383.5
312.557	360.5
312.787	370.5
313.017	320.5
313.246	336.5
313.476	387.5
313.706	318.5
313.935	256.5
314.165	230.5
314.394	218.5
314.624	206.5
314.853	205.5
315.083	223.5
315.312	200.5
315.542	207.5
315.771	175.5
316.001	188.5
316.23	189.5
316.46	192.5
316.689	181.5
316.919	195.5
317.148	186.5
317.377	189.5
317.607	180.5
317.836	196.5
318.065	211.5
318.295	250.5
318.524	224.5
318.753	213.5
318.983	195.5
319.212	181.5
319.441	204.5
319.67	222.5
319.9	255.5
320.129	220.5
320.358	202.5
320.587	184.5
320.816	203.5
321.046	226.5
321.275	251.5
321.504	262.5
321.733	271.5
321.962	229.5
322.191	223.5
322.42	215.5
322.649	214.5
322.878	226.5
323.108	245.5
323.337	222.5
323.566	234.5
323.795	215.5
324.024	207.5
324.253	205.5
324.482	197.5
324.71	208.5
324.939	237.5
325.168	209.5
325.397	189.5
325.626	183.5
325.855	199.5
326.084	179.5
326.313	181.5
326.542	178.5
326.77	185.5
326.999	197.5
327.228	201.5
327.457	198.5
327.686	206.5
327.914	195.5
328.143	162.5
328.372	178.5
328.6	168.5
328.829	176.5
329.058	181.5
329.287	172.5
329.515	206.5
329.744	186.5
329.972	178.5
330.201	179.5
330.43	200.5
330.658	193.5
330.887	211.5
331.115	198.5
331.344	197.5
331.572	211.5
331.801	200.5
332.03	180.5
332.258	174.5
332.486	206.5
332.715	210.5
332.943	178.5
333.172	198.5
333.4	189.5
333.629	201.5
333.857	218.5
334.085	217.5
334.314	222.5
334.542	226.5
334.771	205.5
334.999	183.5
335.227	180.5
335.455	199.5
335.684	220.5
335.912	227.5
336.14	243.5
336.369	223.5
336.597	236.5
336.825	266.5
337.053	296.5
337.281	250.5
337.51	188.5
337.738	186.5
337.966	204.5
338.194	244.5
338.422	223.5
338.65	198.5
338.878	186.5
339.106	174.5
339.334	190.5
339.562	226.5
339.79	209.5
340.018	187.5
340.246	215.5
340.474	228.5
340.702	231.5
340.93	241.5
341.158	270.5
341.386	210.5
341.614	212.5
341.842	211.5
342.07	209.5
342.298	257.5
342.526	265.5
342.754	236.5
342.981	219.5
343.209	202.5
343.437	212.5
343.665	241.5
343.893	231.5
344.12	263.5
344.348	323.5
344.576	279.5
344.804	227.5
345.031	199.5
345.259	182.5
345.487	197.5
345.714	215.5
345.942	225.5
346.17	230.5
346.397	235.5
346.625	192.5
346.853	205.5
347.08	188.5
347.308	197.5
347.535	214.5
347.763	225.5
347.99	200.5
348.218	190.5
348.445	189.5
348.673	210.5
348.9	202.5
349.128	203.5
349.355	219.5
349.583	197.5
349.81	198.5
350.037	190.5
350.265	185.5
350.492	165.5
350.72	163.5
350.947	167.5
351.174	161.5
351.402	197.5
351.629	197.5
351.856	222.5
352.083	175.5
352.311	191.5
352.538	190.5
352.765	214.5
352.992	213.5
353.22	199.5
353.447	200.5
353.674	199.5
353.901	194.5
354.128	212.5
354.355	206.5
354.583	192.5
354.81	206.5
355.037	215.5
355.264	214.5
355.491	211.5
355.718	228.5
355.945	197.5
356.172	204.5
356.399	216.5
356.626	251.5
356.853	285.5
357.08	319.5
357.307	328.5
357.534	265.5
357.761	254.5
357.988	312.5
358.215	336.5
358.441	327.5
358.668	279.5
358.895	277.5
359.122	235.5
359.349	227.5
359.576	254.5
359.802	212.5
360.029	182.5
360.256	196.5
360.483	239.5
360.709	289.5
360.936	302.5
361.163	254.5
361.39	216.5
361.616	202.5
361.843	214.5
362.07	262.5
362.296	254.5
362.523	202.5
362.749	187.5
362.976	191.5
363.203	228.5
363.429	236.5
363.656	207.5
363.882	175.5
364.109	214.5
364.335	201.5
364.562	202.5
364.788	207.5
365.015	228.5
365.241	224.5
365.468	207.5
365.694	162.5
365.92	167.5
366.147	171.5
366.373	170.5
366.599	154.5
366.826	152.5
367.052	185.5
367.278	178.5
367.505	173.5
367.731	170.5
367.957	192.5
368.184	204.5
368.41	186.5
368.636	197.5
368.862	203.5
369.089	200.5
369.315	174.5
369.541	182.5
369.767	170.5
369.993	160.5
370.219	176.5
370.445	184.5
370.672	195.5
370.898	224.5
371.124	206.5
371.35	178.5
371.576	187.5
371.802	177.5
372.028	210.5
372.254	228.5
372.48	236.5
372.706	187.5
372.932	198.5
373.158	222.5
373.384	246.5
373.61	314.5
373.835	316.5
374.061	235.5
374.287	213.5
374.513	248.5
374.739	277.5
374.965	303.5
375.191	294.5
375.416	221.5
375.642	213.5
375.868	218.5
376.094	240.5
376.319	207.5
376.545	224.5
376.771	245.5
376.997	230.5
377.222	197.5
377.448	155.5
377.674	150.5
377.899	161.5
378.125	176.5
378.35	164.5
378.576	168.5
378.802	179.5
379.027	195.5
379.253	199.5
379.478	196.5
379.704	199.5
379.929	218.5
380.155	214.5
380.38	172.5
380.606	203.5
380.831	219.5
381.057	208.5
381.282	192.5
381.507	209.5
381.733	261.5
381.958	277.5
382.184	298.5
382.409	292.5
382.634	292.5
382.86	307.5
383.085	279.5
383.31	227.5
383.535	223.5
383.761	249.5
383.986	222.5
384.211	262.5
384.436	259.5
384.662	218.5
384.887	195.5
385.112	198.5
385.337	212.5
385.562	215.5
385.787	197.5
386.013	227.5
386.238	220.5
386.463	192.5
386.688	199.5
386.913	186.5
387.138	167.5
387.363	167.5
387.588	198.5
387.813	196.5
388.038	212.5
388.263	208.5
388.488	184.5
388.713	213.5
388.938	240.5
389.163	204.5
389.387	181.5
389.612	194.5
389.837	199.5
390.062	198.5
390.287	190.5
390.512	218.5
390.736	191.5
390.961	188.5
391.186	168.5
391.411	160.5
391.636	179.5
391.86	188.5
392.085	202.5
392.31	214.5
392.534	202.5
392.759	198.5
392.984	203.5
393.208	214.5
393.433	176.5
393.658	170.5
393.882	159.5
394.107	142.5
394.331	171.5
394.556	174.5
394.78	168.5
395.005	180.5
395.229	170.5
395.454	180.5
395.678	179.5
395.903	183.5
396.127	202.5
396.352	183.5
396.576	190.5
396.801	194.5
397.025	225.5
397.249	256.5
397.474	212.5
397.698	197.5
397.922	196.5
398.147	178.5
398.371	182.5
398.595	196.5
398.82	200.5
399.044	196.5
399.268	205.5
399.492	204.5
399.717	221.5
399.941	219.5
400.165	212.5
400.389	199.5
400.613	205.5
400.837	188.5
401.062	178.5
401.286	172.5
401.51	195.5
401.734	197.5
401.958	195.5
402.182	182.5
402.406	197.5
402.63	187.5
402.854	193.5
403.078	220.5
403.302	273.5
403.526	274.5
403.75	267.5
403.974	207.5
404.198	221.5
404.422	239.5
404.645	256.5
404.869	293.5
405.093	217.5
405.317	208.5
405.541	204.5
405.765	204.5
405.988	200.5
406.212	211.5
406.436	242.5
406.66	251.5
406.883	236.5
407.107	219.5
407.331	258.5
407.555	234.5
407.778	211.5
408.002	203.5
408.226	209.5
408.449	203.5
408.673	211.5
408.896	188.5
409.12	180.5
409.344	200.5
409.567	180.5
409.791	190.5
410.014	181.5
410.238	171.5
410.461	176.5
410.685	188.5
410.908	193.5
411.132	190.5
411.355	184.5
411.578	191.5
411.802	184.5
412.025	186.5
412.249	196.5
412.472	202.5
412.695	196.5
412.919	192.5
413.142	189.5
413.365	225.5
413.589	210.5
413.812	199.5
414.035	186.5
414.258	188.5
414.482	194.5
414.705	211.5
414.928	183.5
415.151	188.5
415.374	181.5
415.597	187.5
415.821	186.5
416.044	189.5
416.267	178.5
416.49	165.5
416.713	167.5
416.936	170.5
417.159	177.5
417.382	172.5
417.605	196.5
417.828	186.5
418.051	204.5
418.274	179.5
418.497	191.5
418.72	189.5
418.943	208.5
419.166	202.5
419.389	214.5
419.611	210.5
419.834	209.5
420.057	212.5
420.28	213.5
420.503	208.5
420.726	179.5
420.948	187.5
421.171	188.5
421.394	207.5
421.617	191.5
421.839	179.5
422.062	190.5
422.285	185.5
422.507	179.5
422.73	204.5
422.953	203.5
423.175	200.5
423.398	195.5
423.621	206.5
423.843	209.5
424.066	204.5
424.288	191.5
424.511	198.5
424.733	180.5
424.956	200.5
425.178	208.5
425.401	227.5
425.623	274.5
425.846	248.5
426.068	196.5
426.291	218.5
426.513	196.5
426.735	198.5
426.958	192.5
427.18	213.5
427.402	294.5
427.625	293.5
427.847	244.5
428.069	195.5
428.292	187.5
428.514	189.5
428.736	177.5
428.958	213.5
429.181	244.5
429.403	213.5
429.625	206.5
429.847	186.5
430.069	180.5
430.292	184.5
430.514	184.5
430.736	172.5
430.958	206.5
431.18	219.5
431.402	184.5
431.624	159.5
431.846	162.5
432.068	158.5
432.29	150.5
432.512	193.5
432.734	220.5
432.956	224.5
433.178	189.5
433.4	175.5
433.622	164.5
433.844	188.5
434.066	189.5
434.287	214.5
434.509	167.5
434.731	214.5
434.953	188.5
435.175	189.5
435.397	214.5
435.618	186.5
435.84	191.5
436.062	163.5
436.284	174.5
436.505	155.5
436.727	173.5
436.949	188.5
437.17	176.5
437.392	203.5
437.614	186.5
437.835	177.5
438.057	178.5
438.278	195.5
438.5	255.5
438.721	274.5
438.943	194.5
439.165	157.5
439.386	160.5
439.608	160.5
439.829	171.5
440.05	158.5
440.272	174.5
440.493	175.5
440.715	240.5
440.936	199.5
441.158	173.5
441.379	175.5
441.6	205.5
441.822	214.5
442.043	188.5
442.264	189.5
442.486	178.5
442.707	175.5
442.928	196.5
443.149	194.5
443.371	176.5
443.592	188.5
443.813	171.5
444.034	173.5
444.255	186.5
444.476	206.5
444.698	194.5
444.919	191.5
445.14	321.5
445.361	257.5
445.582	202.5
445.803	191.5
446.024	193.5
446.245	209.5
446.466	199.5
446.687	166.5
446.908	187.5
447.129	174.5
447.35	164.5
447.571	182.5
447.792	164.5
448.013	171.5
448.234	172.5
448.455	157.5
448.675	158.5
448.896	189.5
449.117	164.5
449.338	174.5
449.559	174.5
449.779	176.5
450	186.5
450.221	186.5
450.442	175.5
450.662	164.5
450.883	162.5
451.104	164.5
451.324	163.5
451.545	171.5
451.766	167.5
451.986	151.5
452.207	164.5
452.428	154.5
452.648	155.5
452.869	187.5
453.089	176.5
453.31	192.5
453.53	166.5
453.751	165.5
453.971	168.5
454.192	178.5
454.412	166.5
454.633	160.5
454.853	159.5
455.073	151.5
455.294	139.5
455.514	164.5
455.734	161.5
455.955	178.5
456.175	159.5
456.395	160.5
456.616	148.5
456.836	181.5
457.056	157.5
457.276	151.5
457.497	158.5
457.717	155.5
457.937	148.5
458.157	160.5
458.377	154.5
458.598	161.5
458.818	170.5
459.038	165.5
459.258	178.5
459.478	194.5
459.698	195.5
459.918	191.5
460.138	184.5
460.358	189.5
460.578	178.5
460.798	177.5
461.018	179.5
461.238	175.5
461.458	179.5
461.678	177.5
461.898	203.5
462.118	214.5
462.338	191.5
462.558	206.5
462.777	220.5
462.997	210.5
463.217	203.5
463.437	206.5
463.657	205.5
463.876	204.5
464.096	200.5
464.316	200.5
464.536	195.5
464.755	220.5
464.975	212.5
465.195	197.5
465.414	214.5
465.634	208.5
465.854	207.5
466.073	178.5
466.293	179.5
466.512	198.5
466.732	207.5
466.951	207.5
467.171	165.5
467.391	181.5
467.61	175.5
467.829	179.5
468.049	213.5
468.268	181.5
468.488	175.5
468.707	188.5
468.927	215.5
469.146	215.5
469.365	209.5
469.585	190.5
469.804	205.5
470.023	224.5
470.243	214.5
470.462	180.5
470.681	181.5
470.901	194.5
471.12	209.5
471.339	191.5
471.558	182.5
471.777	195.5
471.997	206.5
472.216	243.5
472.435	215.5
472.654	206.5
472.873	194.5
473.092	200.5
473.311	206.5
473.53	198.5
473.749	194.5
473.968	188.5
474.187	197.5
474.406	211.5
474.625	193.5
474.844	182.5
475.063	188.5
475.282	194.5
475.501	204.5
475.72	239.5
475.939	225.5
476.158	203.5
476.377	247.5
476.596	276.5
476.814	303.5
477.033	255.5
477.252	231.5
477.471	202.5
477.69	196.5
477.908	229.5
478.127	244.5
478.346	234.5
478.564	254.5
478.783	229.5
479.002	222.5
479.22	235.5
479.439	274.5
479.658	232.5
479.876	212.5
480.095	227.5
480.313	240.5
480.532	224.5
480.751	221.5
480.969	224.5
481.188	253.5
481.406	235.5
481.624	271.5
481.843	234.5
482.061	222.5
482.28	221.5
482.498	290.5
482.717	299.5
482.935	246.5
483.153	216.5
483.372	209.5
483.59	208.5
483.808	189.5
484.027	211.5
484.245	202.5
484.463	189.5
484.681	190.5
484.9	221.5
485.118	244.5
485.336	212.5
485.554	206.5
485.772	210.5
485.99	226.5
486.209	239.5
486.427	247.5
486.645	249.5
486.863	245.5
487.081	224.5
487.299	256.5
487.517	270.5
487.735	220.5
487.953	242.5
488.171	253.5
488.389	237.5
488.607	223.5
488.825	223.5
489.043	228.5
489.261	261.5
489.479	303.5
489.696	259.5
489.914	225.5
490.132	216.5
490.35	222.5
490.568	205.5
490.786	199.5
491.003	200.5
491.221	215.5
491.439	220.5
491.657	215.5
491.874	229.5
492.092	293.5
492.31	334.5
492.527	328.5
492.745	279.5
492.963	248.5
493.18	233.5
493.398	239.5
493.615	255.5
493.833	240.5
494.05	230.5
494.268	246.5
494.485	227.5
494.703	213.5
494.92	247.5
495.138	208.5
495.355	234.5
495.573	243.5
495.79	264.5
496.008	341.5
496.225	274.5
496.442	223.5
496.66	256.5
496.877	239.5
497.094	272.5
497.312	260.5
497.529	256.5
497.746	260.5
497.963	235.5
498.181	264.5
498.398	302.5
498.615	304.5
498.832	337.5
499.049	344.5
499.267	299.5
499.484	288.5
499.701	322.5
499.918	332.5
500.135	370.5
500.352	397.5
500.569	412.5
500.786	427.5
501.003	414.5
501.22	370.5
501.437	335.5
501.654	327.5
501.871	300.5
502.088	302.5
502.305	291.5
502.522	274.5
502.739	274.5
502.956	257.5
503.172	255.5
503.389	255.5
503.606	238.5
503.823	260.5
504.04	250.5
504.256	275.5
504.473	274.5
504.69	255.5
504.907	291.5
505.123	251.5
505.34	275.5
505.557	271.5
505.773	260.5
505.99	236.5
506.207	261.5
506.423	243.5
506.64	227.5
506.856	227.5
507.073	257.5
507.289	282.5
507.506	269.5
507.722	279.5
507.939	279.5
508.155	291.5
508.372	265.5
508.588	259.5
508.805	223.5
509.021	247.5
509.238	214.5
509.454	222.5
509.67	230.5
509.887	231.5
510.103	260.5
510.319	248.5
510.536	248.5
510.752	210.5
510.968	215.5
511.184	213.5
511.401	211.5
511.617	189.5
511.833	197.5
512.049	213.5
512.265	207.5
512.481	230.5
512.698	259.5
512.914	266.5
513.13	254.5
513.346	222.5
513.562	231.5
513.778	225.5
513.994	231.5
514.21	242.5
514.426	220.5
514.642	226.5
514.858	219.5
515.074	246.5
515.29	261.5
515.506	271.5
515.721	258.5
515.937	254.5
516.153	237.5
516.369	214.5
516.585	238.5
516.801	264.5
517.016	298.5
517.232	300.5
517.448	304.5
517.664	263.5
517.879	273.5
518.095	260.5
518.311	248.5
518.527	258.5
518.742	256.5
518.958	271.5
519.173	280.5
519.389	249.5
519.605	287.5
519.82	290.5
520.036	311.5
520.251	329.5
520.467	310.5
520.682	464.5
