Data from NickelSpatula.Lamp.E5.5.P2_HRD10591_11-53-55-547.txt Node
Date: Tue Jul 23 11:53:55 EDT 2019
User: cochatt
Spectrometer: HR+D1059
Trigger mode: 1
Integration Time (sec): 1.000000E-1
Scans to average: 1
Electric dark correction enabled: true
Nonlinearity correction enabled: false
Boxcar width: 0
XAxis mode: Wavelengths
Number of Pixels in Spectrum: 2048
>>>>>Begin Spectral Data<<<<<
223.165	-8.62
223.4	-8.62
223.635	-8.62
223.869	-5.62
224.104	-10.62
224.338	-2.62
224.573	-23.62
224.808	-22.62
225.042	-16.62
225.277	-6.62
225.511	1.38
225.746	-5.62
225.98	1.38
226.215	12.38
226.449	20.38
226.683	20.38
226.918	30.38
227.152	16.38
227.387	35.38
227.621	35.38
227.856	37.38
228.09	44.38
228.324	53.38
228.559	48.38
228.793	65.38
229.027	64.38
229.262	66.38
229.496	92.38
229.73	69.38
229.964	82.38
230.199	93.38
230.433	77.38
230.667	83.38
230.901	92.38
231.136	92.38
231.37	98.38
231.604	101.38
231.838	113.38
232.072	97.38
232.306	101.38
232.541	109.38
232.775	119.38
233.009	118.38
233.243	110.38
233.477	122.38
233.711	123.38
233.945	118.38
234.179	116.38
234.413	126.38
234.647	128.38
234.881	149.38
235.115	145.38
235.349	133.38
235.583	119.38
235.817	113.38
236.051	125.38
236.285	137.38
236.519	144.38
236.753	138.38
236.987	140.38
237.221	135.38
237.455	125.38
237.689	131.38
237.922	115.38
238.156	135.38
238.39	148.38
238.624	175.38
238.858	159.38
239.091	164.38
239.325	159.38
239.559	168.38
239.793	143.38
240.027	173.38
240.26	165.38
240.494	158.38
240.728	157.38
240.961	178.38
241.195	186.38
241.429	176.38
241.662	170.38
241.896	150.38
242.13	148.38
242.363	140.38
242.597	155.38
242.83	160.38
243.064	156.38
243.298	174.38
243.531	156.38
243.765	175.38
243.998	171.38
244.232	150.38
244.465	165.38
244.699	161.38
244.932	170.38
245.166	182.38
245.399	132.38
245.633	143.38
245.866	157.38
246.099	163.38
246.333	186.38
246.566	203.38
246.8	189.38
247.033	179.38
247.266	159.38
247.5	180.38
247.733	162.38
247.966	179.38
248.2	197.38
248.433	203.38
248.666	208.38
248.899	206.38
249.133	218.38
249.366	224.38
249.599	240.38
249.832	225.38
250.066	220.38
250.299	202.38
250.532	203.38
250.765	187.38
250.998	190.38
251.231	193.38
251.465	200.38
251.698	180.38
251.931	191.38
252.164	198.38
252.397	230.38
252.63	241.38
252.863	254.38
253.096	287.38
253.329	275.38
253.562	248.38
253.795	280.38
254.028	308.38
254.261	311.38
254.494	282.38
254.727	262.38
254.96	264.38
255.193	282.38
255.426	250.38
255.659	204.38
255.892	189.38
256.124	217.38
256.357	238.38
256.59	290.38
256.823	271.38
257.056	221.38
257.289	219.38
257.521	235.38
257.754	278.38
257.987	295.38
258.22	267.38
258.452	228.38
258.685	250.38
258.918	290.38
259.151	289.38
259.383	315.38
259.616	336.38
259.849	358.38
260.081	354.38
260.314	424.38
260.547	312.38
260.779	343.38
261.012	362.38
261.244	371.38
261.477	358.38
261.71	343.38
261.942	286.38
262.175	312.38
262.407	283.38
262.64	289.38
262.872	325.38
263.105	365.38
263.337	374.38
263.57	360.38
263.802	263.38
264.035	225.38
264.267	227.38
264.499	199.38
264.732	179.38
264.964	181.38
265.197	173.38
265.429	202.38
265.661	191.38
265.894	222.38
266.126	215.38
266.358	235.38
266.591	282.38
266.823	324.38
267.055	314.38
267.287	274.38
267.52	287.38
267.752	299.38
267.984	338.38
268.216	346.38
268.448	277.38
268.681	266.38
268.913	290.38
269.145	283.38
269.377	288.38
269.609	309.38
269.841	281.38
270.073	288.38
270.306	301.38
270.538	327.38
270.77	318.38
271.002	317.38
271.234	351.38
271.466	340.38
271.698	338.38
271.93	302.38
272.162	313.38
272.394	297.38
272.626	292.38
272.858	309.38
273.09	326.38
273.322	286.38
273.553	269.38
273.785	294.38
274.017	403.38
274.249	491.38
274.481	493.38
274.713	517.38
274.945	601.38
275.176	647.38
275.408	566.38
275.64	529.38
275.872	537.38
276.104	462.38
276.335	387.38
276.567	384.38
276.799	426.38
277.031	430.38
277.262	374.38
277.494	289.38
277.726	246.38
277.957	294.38
278.189	306.38
278.421	322.38
278.652	326.38
278.884	296.38
279.115	284.38
279.347	274.38
279.579	255.38
279.81	288.38
280.042	287.38
280.273	286.38
280.505	262.38
280.736	246.38
280.968	239.38
281.199	263.38
281.431	290.38
281.662	286.38
281.894	273.38
282.125	261.38
282.356	301.38
282.588	289.38
282.819	268.38
283.051	286.38
283.282	352.38
283.513	404.38
283.745	455.38
283.976	459.38
284.207	417.38
284.439	438.38
284.67	417.38
284.901	382.38
285.132	403.38
285.364	413.38
285.595	404.38
285.826	412.38
286.057	439.38
286.288	388.38
286.52	404.38
286.751	408.38
286.982	441.38
287.213	387.38
287.444	377.38
287.675	398.38
287.906	386.38
288.138	338.38
288.369	319.38
288.6	288.38
288.831	317.38
289.062	357.38
289.293	386.38
289.524	337.38
289.755	339.38
289.986	359.38
290.217	330.38
290.448	261.38
290.679	230.38
290.91	217.38
291.141	228.38
291.371	243.38
291.602	220.38
291.833	224.38
292.064	232.38
292.295	267.38
292.526	318.38
292.757	325.38
292.987	335.38
293.218	336.38
293.449	348.38
293.68	384.38
293.91	353.38
294.141	387.38
294.372	351.38
294.603	312.38
294.833	335.38
295.064	408.38
295.295	394.38
295.525	295.38
295.756	267.38
295.987	228.38
296.217	225.38
296.448	234.38
296.679	249.38
296.909	278.38
297.14	267.38
297.37	316.38
297.601	311.38
297.831	263.38
298.062	274.38
298.292	303.38
298.523	313.38
298.753	350.38
298.984	340.38
299.214	288.38
299.445	256.38
299.675	243.38
299.905	237.38
300.136	237.38
300.366	261.38
300.597	241.38
300.827	222.38
301.057	239.38
301.288	231.38
301.518	229.38
301.748	269.38
301.979	291.38
302.209	322.38
302.439	323.38
302.669	296.38
302.9	294.38
303.13	277.38
303.36	259.38
303.59	233.38
303.82	241.38
304.051	285.38
304.281	311.38
304.511	298.38
304.741	253.38
304.971	253.38
305.201	293.38
305.431	265.38
305.661	247.38
305.891	251.38
306.121	243.38
306.352	209.38
306.582	224.38
306.812	206.38
307.042	199.38
307.272	202.38
307.502	207.38
307.731	220.38
307.961	218.38
308.191	210.38
308.421	206.38
308.651	216.38
308.881	184.38
309.111	168.38
309.341	199.38
309.571	208.38
309.8	214.38
310.03	211.38
310.26	226.38
310.49	229.38
310.72	198.38
310.949	203.38
311.179	214.38
311.409	205.38
311.639	237.38
311.868	298.38
312.098	388.38
312.328	403.38
312.557	393.38
312.787	381.38
313.017	337.38
313.246	354.38
313.476	398.38
313.706	331.38
313.935	286.38
314.165	257.38
314.394	231.38
314.624	229.38
314.853	221.38
315.083	248.38
315.312	219.38
315.542	229.38
315.771	211.38
316.001	218.38
316.23	209.38
316.46	211.38
316.689	209.38
316.919	195.38
317.148	202.38
317.377	193.38
317.607	226.38
317.836	202.38
318.065	248.38
318.295	256.38
318.524	256.38
318.753	224.38
318.983	211.38
319.212	207.38
319.441	209.38
319.67	238.38
319.9	259.38
320.129	260.38
320.358	216.38
320.587	209.38
320.816	233.38
321.046	255.38
321.275	269.38
321.504	257.38
321.733	275.38
321.962	254.38
322.191	246.38
322.42	230.38
322.649	246.38
322.878	260.38
323.108	273.38
323.337	241.38
323.566	236.38
323.795	244.38
324.024	217.38
324.253	219.38
324.482	211.38
324.71	237.38
324.939	252.38
325.168	245.38
325.397	226.38
325.626	207.38
325.855	204.38
326.084	215.38
326.313	206.38
326.542	198.38
326.77	222.38
326.999	221.38
327.228	205.38
327.457	228.38
327.686	256.38
327.914	224.38
328.143	205.38
328.372	208.38
328.6	208.38
328.829	196.38
329.058	207.38
329.287	194.38
329.515	223.38
329.744	206.38
329.972	189.38
330.201	194.38
330.43	191.38
330.658	206.38
330.887	228.38
331.115	223.38
331.344	226.38
331.572	248.38
331.801	210.38
332.03	202.38
332.258	202.38
332.486	219.38
332.715	227.38
332.943	232.38
333.172	221.38
333.4	223.38
333.629	244.38
333.857	259.38
334.085	266.38
334.314	259.38
334.542	248.38
334.771	221.38
334.999	209.38
335.227	225.38
335.455	211.38
335.684	241.38
335.912	264.38
336.14	284.38
336.369	277.38
336.597	255.38
336.825	291.38
337.053	316.38
337.281	266.38
337.51	226.38
337.738	235.38
337.966	242.38
338.194	276.38
338.422	228.38
338.65	229.38
338.878	216.38
339.106	211.38
339.334	238.38
339.562	258.38
339.79	231.38
340.018	208.38
340.246	233.38
340.474	263.38
340.702	273.38
340.93	261.38
341.158	273.38
341.386	230.38
341.614	224.38
341.842	230.38
342.07	259.38
342.298	280.38
342.526	285.38
342.754	278.38
342.981	219.38
343.209	215.38
343.437	243.38
343.665	272.38
343.893	276.38
344.12	299.38
344.348	372.38
344.576	334.38
344.804	255.38
345.031	242.38
345.259	209.38
345.487	224.38
345.714	222.38
345.942	247.38
346.17	270.38
346.397	257.38
346.625	242.38
346.853	237.38
347.08	228.38
347.308	228.38
347.535	264.38
347.763	258.38
347.99	233.38
348.218	216.38
348.445	243.38
348.673	231.38
348.9	261.38
349.128	239.38
349.355	242.38
349.583	243.38
349.81	229.38
350.037	234.38
350.265	195.38
350.492	207.38
350.72	200.38
350.947	201.38
351.174	204.38
351.402	212.38
351.629	211.38
351.856	227.38
352.083	217.38
352.311	216.38
352.538	245.38
352.765	232.38
352.992	241.38
353.22	226.38
353.447	223.38
353.674	227.38
353.901	214.38
354.128	201.38
354.355	213.38
354.583	220.38
354.81	221.38
355.037	250.38
355.264	234.38
355.491	229.38
355.718	261.38
355.945	263.38
356.172	236.38
356.399	232.38
356.626	267.38
356.853	321.38
357.08	345.38
357.307	347.38
357.534	293.38
357.761	312.38
357.988	381.38
358.215	419.38
358.441	370.38
358.668	337.38
358.895	305.38
359.122	287.38
359.349	289.38
359.576	308.38
359.802	256.38
360.029	214.38
360.256	235.38
360.483	281.38
360.709	343.38
360.936	338.38
361.163	311.38
361.39	232.38
361.616	234.38
361.843	256.38
362.07	292.38
362.296	293.38
362.523	230.38
362.749	203.38
362.976	197.38
363.203	244.38
363.429	289.38
363.656	214.38
363.882	221.38
364.109	225.38
364.335	221.38
364.562	212.38
364.788	239.38
365.015	275.38
365.241	254.38
365.468	195.38
365.694	214.38
365.92	195.38
366.147	194.38
366.373	194.38
366.599	191.38
366.826	179.38
367.052	200.38
367.278	193.38
367.505	197.38
367.731	209.38
367.957	228.38
368.184	235.38
368.41	217.38
368.636	233.38
368.862	232.38
369.089	214.38
369.315	220.38
369.541	230.38
369.767	198.38
369.993	213.38
370.219	198.38
370.445	213.38
370.672	235.38
370.898	238.38
371.124	230.38
371.35	234.38
371.576	213.38
371.802	209.38
372.028	254.38
372.254	275.38
372.48	251.38
372.706	242.38
372.932	255.38
373.158	257.38
373.384	290.38
373.61	354.38
373.835	356.38
374.061	290.38
374.287	246.38
374.513	293.38
374.739	345.38
374.965	337.38
375.191	349.38
375.416	298.38
375.642	247.38
375.868	282.38
376.094	291.38
376.319	269.38
376.545	287.38
376.771	290.38
376.997	257.38
377.222	205.38
377.448	188.38
377.674	195.38
377.899	186.38
378.125	209.38
378.35	204.38
378.576	184.38
378.802	200.38
379.027	218.38
379.253	214.38
379.478	215.38
379.704	232.38
379.929	222.38
380.155	244.38
380.38	217.38
380.606	221.38
380.831	242.38
381.057	237.38
381.282	221.38
381.507	251.38
381.733	269.38
381.958	291.38
382.184	331.38
382.409	351.38
382.634	335.38
382.86	379.38
383.085	317.38
383.31	273.38
383.535	264.38
383.761	256.38
383.986	267.38
384.211	302.38
384.436	285.38
384.662	253.38
384.887	232.38
385.112	244.38
385.337	229.38
385.562	232.38
385.787	267.38
386.013	278.38
386.238	279.38
386.463	245.38
386.688	239.38
386.913	224.38
387.138	218.38
387.363	230.38
387.588	242.38
387.813	228.38
388.038	254.38
388.263	240.38
388.488	223.38
388.713	261.38
388.938	280.38
389.163	221.38
389.387	218.38
389.612	227.38
389.837	222.38
390.062	223.38
390.287	233.38
390.512	241.38
390.736	218.38
390.961	233.38
391.186	219.38
391.411	199.38
391.636	223.38
391.86	209.38
392.085	243.38
392.31	245.38
392.534	249.38
392.759	234.38
392.984	249.38
393.208	244.38
393.433	217.38
393.658	195.38
393.882	214.38
394.107	211.38
394.331	205.38
394.556	217.38
394.78	205.38
395.005	222.38
395.229	203.38
395.454	211.38
395.678	209.38
395.903	226.38
396.127	228.38
396.352	212.38
396.576	251.38
396.801	222.38
397.025	237.38
397.249	259.38
397.474	250.38
397.698	234.38
397.922	241.38
398.147	216.38
398.371	221.38
398.595	241.38
398.82	241.38
399.044	252.38
399.268	273.38
399.492	280.38
399.717	276.38
399.941	279.38
400.165	276.38
400.389	256.38
400.613	256.38
400.837	250.38
401.062	221.38
401.286	233.38
401.51	229.38
401.734	224.38
401.958	220.38
402.182	233.38
402.406	228.38
402.63	240.38
402.854	276.38
403.078	286.38
403.302	346.38
403.526	369.38
403.75	318.38
403.974	273.38
404.198	270.38
404.422	320.38
404.645	303.38
404.869	358.38
405.093	285.38
405.317	247.38
405.541	267.38
405.765	261.38
405.988	254.38
406.212	266.38
406.436	291.38
406.66	308.38
406.883	282.38
407.107	303.38
407.331	317.38
407.555	319.38
407.778	273.38
408.002	265.38
408.226	271.38
408.449	265.38
408.673	276.38
408.896	243.38
409.12	241.38
409.344	254.38
409.567	248.38
409.791	244.38
410.014	253.38
410.238	251.38
410.461	230.38
410.685	220.38
410.908	241.38
411.132	246.38
411.355	257.38
411.578	246.38
411.802	241.38
412.025	249.38
412.249	230.38
412.472	253.38
412.695	234.38
412.919	239.38
413.142	238.38
413.365	261.38
413.589	246.38
413.812	246.38
414.035	218.38
414.258	225.38
414.482	257.38
414.705	242.38
414.928	226.38
415.151	235.38
415.374	222.38
415.597	229.38
415.821	219.38
416.044	207.38
416.267	223.38
416.49	215.38
416.713	218.38
416.936	238.38
417.159	239.38
417.382	243.38
417.605	228.38
417.828	231.38
418.051	232.38
418.274	228.38
418.497	246.38
418.72	222.38
418.943	266.38
419.166	275.38
419.389	257.38
419.611	245.38
419.834	253.38
420.057	275.38
420.28	262.38
420.503	250.38
420.726	226.38
420.948	245.38
421.171	230.38
421.394	210.38
421.617	217.38
421.839	230.38
422.062	236.38
422.285	242.38
422.507	225.38
422.73	229.38
422.953	237.38
423.175	241.38
423.398	247.38
423.621	259.38
423.843	253.38
424.066	243.38
424.288	235.38
424.511	243.38
424.733	228.38
424.956	248.38
425.178	285.38
425.401	302.38
425.623	352.38
425.846	302.38
426.068	254.38
426.291	259.38
426.513	253.38
426.735	241.38
426.958	242.38
427.18	274.38
427.402	334.38
427.625	346.38
427.847	287.38
428.069	222.38
428.292	229.38
428.514	231.38
428.736	216.38
428.958	255.38
429.181	291.38
429.403	257.38
429.625	232.38
429.847	225.38
430.069	203.38
430.292	225.38
430.514	227.38
430.736	233.38
430.958	271.38
431.18	256.38
431.402	209.38
431.624	202.38
431.846	208.38
432.068	230.38
432.29	207.38
432.512	244.38
432.734	264.38
432.956	272.38
433.178	221.38
433.4	200.38
433.622	212.38
433.844	222.38
434.066	252.38
434.287	237.38
434.509	234.38
434.731	249.38
434.953	235.38
435.175	253.38
435.397	244.38
435.618	232.38
435.84	228.38
436.062	210.38
436.284	219.38
436.505	211.38
436.727	203.38
436.949	204.38
437.17	229.38
437.392	217.38
437.614	223.38
437.835	213.38
438.057	206.38
438.278	260.38
438.5	295.38
438.721	306.38
438.943	236.38
439.165	210.38
439.386	222.38
439.608	214.38
439.829	208.38
440.05	211.38
440.272	221.38
440.493	254.38
440.715	281.38
440.936	247.38
441.158	218.38
441.379	216.38
441.6	226.38
441.822	241.38
442.043	230.38
442.264	242.38
442.486	229.38
442.707	215.38
442.928	231.38
443.149	229.38
443.371	228.38
443.592	261.38
443.813	259.38
444.034	221.38
444.255	241.38
444.476	241.38
444.698	250.38
444.919	246.38
445.14	349.38
445.361	317.38
445.582	257.38
445.803	239.38
446.024	267.38
446.245	243.38
446.466	239.38
446.687	237.38
446.908	217.38
447.129	230.38
447.35	201.38
447.571	214.38
447.792	207.38
448.013	219.38
448.234	202.38
448.455	199.38
448.675	203.38
448.896	210.38
449.117	212.38
449.338	206.38
449.559	228.38
449.779	227.38
450	214.38
450.221	209.38
450.442	217.38
450.662	216.38
450.883	212.38
451.104	220.38
451.324	207.38
451.545	235.38
451.766	218.38
451.986	208.38
452.207	208.38
452.428	217.38
452.648	218.38
452.869	216.38
453.089	230.38
453.31	216.38
453.53	182.38
453.751	220.38
453.971	190.38
454.192	192.38
454.412	217.38
454.633	187.38
454.853	192.38
455.073	202.38
455.294	191.38
455.514	191.38
455.734	215.38
455.955	211.38
456.175	205.38
456.395	201.38
456.616	183.38
456.836	183.38
457.056	185.38
457.276	174.38
457.497	197.38
457.717	189.38
457.937	196.38
458.157	188.38
458.377	192.38
458.598	194.38
458.818	195.38
459.038	222.38
459.258	201.38
459.478	237.38
459.698	224.38
459.918	238.38
460.138	226.38
460.358	241.38
460.578	237.38
460.798	234.38
461.018	253.38
461.238	239.38
461.458	230.38
461.678	242.38
461.898	263.38
462.118	239.38
462.338	248.38
462.558	257.38
462.777	240.38
462.997	278.38
463.217	296.38
463.437	308.38
463.657	287.38
463.876	264.38
464.096	249.38
464.316	274.38
464.536	258.38
464.755	273.38
464.975	255.38
465.195	244.38
465.414	266.38
465.634	238.38
465.854	243.38
466.073	238.38
466.293	218.38
466.512	240.38
466.732	265.38
466.951	253.38
467.171	226.38
467.391	235.38
467.61	217.38
467.829	256.38
468.049	227.38
468.268	226.38
468.488	231.38
468.707	242.38
468.927	253.38
469.146	257.38
469.365	247.38
469.585	238.38
469.804	260.38
470.023	267.38
470.243	238.38
470.462	241.38
470.681	233.38
470.901	237.38
471.12	248.38
471.339	262.38
471.558	239.38
471.777	254.38
471.997	258.38
472.216	250.38
472.435	271.38
472.654	253.38
472.873	234.38
473.092	253.38
473.311	267.38
473.53	230.38
473.749	217.38
473.968	266.38
474.187	235.38
474.406	243.38
474.625	231.38
474.844	214.38
475.063	242.38
475.282	261.38
475.501	267.38
475.72	273.38
475.939	259.38
476.158	259.38
476.377	280.38
476.596	335.38
476.814	350.38
477.033	309.38
477.252	248.38
477.471	234.38
477.69	250.38
477.908	265.38
478.127	271.38
478.346	253.38
478.564	282.38
478.783	272.38
479.002	288.38
479.22	288.38
479.439	322.38
479.658	297.38
479.876	257.38
480.095	291.38
480.313	313.38
480.532	282.38
480.751	272.38
480.969	265.38
481.188	308.38
481.406	298.38
481.624	291.38
481.843	288.38
482.061	255.38
482.28	293.38
482.498	331.38
482.717	350.38
482.935	279.38
483.153	274.38
483.372	257.38
483.59	265.38
483.808	241.38
484.027	246.38
484.245	224.38
484.463	232.38
484.681	256.38
484.9	254.38
485.118	277.38
485.336	268.38
485.554	255.38
485.772	278.38
485.99	284.38
486.209	304.38
486.427	313.38
486.645	277.38
486.863	319.38
487.081	277.38
487.299	299.38
487.517	296.38
487.735	296.38
487.953	285.38
488.171	291.38
488.389	259.38
488.607	264.38
488.825	259.38
489.043	289.38
489.261	314.38
489.479	345.38
489.696	306.38
489.914	264.38
490.132	259.38
490.35	273.38
490.568	254.38
490.786	239.38
491.003	258.38
491.221	273.38
491.439	262.38
491.657	263.38
491.874	272.38
492.092	313.38
492.31	353.38
492.527	354.38
492.745	350.38
492.963	286.38
493.18	295.38
493.398	274.38
493.615	302.38
493.833	287.38
494.05	287.38
494.268	290.38
494.485	292.38
494.703	262.38
494.92	288.38
495.138	275.38
495.355	288.38
495.573	284.38
495.79	303.38
496.008	335.38
496.225	311.38
496.442	297.38
496.66	305.38
496.877	325.38
497.094	308.38
497.312	294.38
497.529	294.38
497.746	297.38
497.963	306.38
498.181	339.38
498.398	352.38
498.615	356.38
498.832	363.38
499.049	401.38
499.267	384.38
499.484	375.38
499.701	389.38
499.918	458.38
500.135	483.38
500.352	532.38
500.569	556.38
500.786	558.38
501.003	510.38
501.22	470.38
501.437	434.38
501.654	412.38
501.871	389.38
502.088	355.38
502.305	358.38
502.522	362.38
