Data from NickelSpatula.Lamp.E5.5.P2_HRD10591_11-51-52-557.txt Node
Date: Tue Jul 23 11:51:52 EDT 2019
User: cochatt
Spectrometer: HR+D1059
Trigger mode: 1
Integration Time (sec): 1.000000E-1
Scans to average: 1
Electric dark correction enabled: true
Nonlinearity correction enabled: false
Boxcar width: 0
XAxis mode: Wavelengths
Number of Pixels in Spectrum: 2048
>>>>>Begin Spectral Data<<<<<
223.165	-25.88
223.4	-25.88
223.635	-25.88
223.869	-17.88
224.104	-15.88
224.338	-1.88
224.573	-25.88
224.808	-2.88
225.042	-7.88
225.277	-7.88
225.511	-0.88
225.746	15.12
225.98	2.12
226.215	11.12
226.449	19.12
226.683	7.12
226.918	26.12
227.152	26.12
227.387	43.12
227.621	39.12
227.856	46.12
228.09	34.12
228.324	44.12
228.559	61.12
228.793	49.12
229.027	84.12
229.262	80.12
229.496	82.12
229.73	76.12
229.964	96.12
230.199	108.12
230.433	112.12
230.667	91.12
230.901	96.12
231.136	93.12
231.37	107.12
231.604	107.12
231.838	100.12
232.072	106.12
232.306	109.12
232.541	106.12
232.775	121.12
233.009	107.12
233.243	115.12
233.477	130.12
233.711	131.12
233.945	133.12
234.179	138.12
234.413	137.12
234.647	150.12
234.881	155.12
235.115	132.12
235.349	136.12
235.583	138.12
235.817	126.12
236.051	132.12
236.285	136.12
236.519	154.12
236.753	140.12
236.987	145.12
237.221	134.12
237.455	140.12
237.689	125.12
237.922	140.12
238.156	138.12
238.39	175.12
238.624	170.12
238.858	172.12
239.091	154.12
239.325	150.12
239.559	159.12
239.793	151.12
240.027	190.12
240.26	152.12
240.494	181.12
240.728	172.12
240.961	191.12
241.195	173.12
241.429	158.12
241.662	180.12
241.896	139.12
242.13	136.12
242.363	150.12
242.597	138.12
242.83	155.12
243.064	154.12
243.298	151.12
243.531	175.12
243.765	183.12
243.998	183.12
244.232	166.12
244.465	186.12
244.699	166.12
244.932	185.12
245.166	176.12
245.399	157.12
245.633	137.12
245.866	164.12
246.099	174.12
246.333	196.12
246.566	195.12
246.8	187.12
247.033	179.12
247.266	183.12
247.5	180.12
247.733	179.12
247.966	181.12
248.2	172.12
248.433	200.12
248.666	208.12
248.899	207.12
249.133	196.12
249.366	222.12
249.599	250.12
249.832	240.12
250.066	208.12
250.299	219.12
250.532	214.12
250.765	211.12
250.998	191.12
251.231	212.12
251.465	198.12
251.698	208.12
251.931	211.12
252.164	197.12
252.397	229.12
252.63	257.12
252.863	274.12
253.096	286.12
253.329	257.12
253.562	274.12
253.795	298.12
254.028	328.12
254.261	304.12
254.494	278.12
254.727	265.12
254.96	258.12
255.193	282.12
255.426	272.12
255.659	216.12
255.892	202.12
256.124	207.12
256.357	257.12
256.59	292.12
256.823	284.12
257.056	223.12
257.289	235.12
257.521	235.12
257.754	279.12
257.987	312.12
258.22	268.12
258.452	269.12
258.685	266.12
258.918	285.12
259.151	302.12
259.383	281.12
259.616	363.12
259.849	345.12
260.081	371.12
260.314	396.12
260.547	333.12
260.779	349.12
261.012	382.12
261.244	353.12
261.477	382.12
261.71	336.12
261.942	284.12
262.175	311.12
262.407	304.12
262.64	286.12
262.872	342.12
263.105	378.12
263.337	384.12
263.57	340.12
263.802	262.12
264.035	235.12
264.267	234.12
264.499	208.12
264.732	194.12
264.964	190.12
265.197	184.12
265.429	198.12
265.661	206.12
265.894	222.12
266.126	232.12
266.358	250.12
266.591	296.12
266.823	351.12
267.055	328.12
267.287	314.12
267.52	294.12
267.752	302.12
267.984	332.12
268.216	310.12
268.448	280.12
268.681	281.12
268.913	267.12
269.145	296.12
269.377	320.12
269.609	324.12
269.841	294.12
270.073	314.12
270.306	310.12
270.538	354.12
270.77	340.12
271.002	338.12
271.234	343.12
271.466	345.12
271.698	322.12
271.93	315.12
272.162	309.12
272.394	316.12
272.626	318.12
272.858	331.12
273.09	336.12
273.322	295.12
273.553	261.12
273.785	321.12
274.017	417.12
274.249	518.12
274.481	494.12
274.713	556.12
274.945	634.12
275.176	651.12
275.408	579.12
275.64	526.12
275.872	537.12
276.104	482.12
276.335	404.12
276.567	403.12
276.799	428.12
277.031	461.12
277.262	382.12
277.494	293.12
277.726	261.12
277.957	264.12
278.189	307.12
278.421	333.12
278.652	332.12
278.884	294.12
279.115	286.12
279.347	282.12
279.579	284.12
279.81	294.12
280.042	280.12
280.273	308.12
280.505	265.12
280.736	231.12
280.968	242.12
281.199	265.12
281.431	296.12
281.662	285.12
281.894	288.12
282.125	291.12
282.356	306.12
282.588	314.12
282.819	298.12
283.051	298.12
283.282	364.12
283.513	430.12
283.745	485.12
283.976	459.12
284.207	434.12
284.439	444.12
284.67	438.12
284.901	390.12
285.132	408.12
285.364	435.12
285.595	403.12
285.826	419.12
286.057	427.12
286.288	443.12
286.52	430.12
286.751	443.12
286.982	451.12
287.213	406.12
287.444	382.12
287.675	398.12
287.906	408.12
288.138	368.12
288.369	331.12
288.6	285.12
288.831	319.12
289.062	339.12
289.293	391.12
289.524	366.12
289.755	351.12
289.986	375.12
290.217	346.12
290.448	258.12
290.679	231.12
290.91	226.12
291.141	225.12
291.371	235.12
291.602	238.12
291.833	234.12
292.064	247.12
292.295	284.12
292.526	324.12
292.757	328.12
292.987	362.12
293.218	372.12
293.449	381.12
293.68	389.12
293.91	382.12
294.141	390.12
294.372	347.12
294.603	318.12
294.833	364.12
295.064	416.12
295.295	409.12
295.525	303.12
295.756	274.12
295.987	265.12
296.217	232.12
296.448	246.12
296.679	268.12
296.909	283.12
297.14	287.12
297.37	331.12
297.601	325.12
297.831	291.12
298.062	294.12
298.292	318.12
298.523	337.12
298.753	389.12
298.984	351.12
299.214	300.12
299.445	267.12
299.675	252.12
299.905	261.12
300.136	259.12
300.366	268.12
300.597	264.12
300.827	244.12
301.057	256.12
301.288	258.12
301.518	256.12
301.748	295.12
301.979	313.12
302.209	306.12
302.439	328.12
302.669	295.12
302.9	282.12
303.13	282.12
303.36	264.12
303.59	254.12
303.82	285.12
304.051	280.12
304.281	292.12
304.511	301.12
304.741	274.12
304.971	290.12
305.201	322.12
305.431	289.12
305.661	248.12
305.891	242.12
306.121	258.12
306.352	232.12
306.582	216.12
306.812	208.12
307.042	221.12
307.272	196.12
307.502	212.12
307.731	234.12
307.961	238.12
308.191	203.12
308.421	198.12
308.651	192.12
308.881	207.12
309.111	203.12
309.341	208.12
309.571	222.12
309.8	231.12
310.03	228.12
310.26	228.12
310.49	247.12
310.72	224.12
310.949	219.12
311.179	238.12
311.409	214.12
311.639	259.12
311.868	316.12
312.098	396.12
312.328	421.12
312.557	395.12
312.787	418.12
313.017	350.12
313.246	379.12
313.476	414.12
313.706	370.12
313.935	287.12
314.165	257.12
314.394	231.12
314.624	227.12
314.853	226.12
315.083	238.12
315.312	229.12
315.542	250.12
315.771	233.12
316.001	215.12
316.23	205.12
316.46	206.12
316.689	207.12
316.919	241.12
317.148	239.12
317.377	220.12
317.607	215.12
317.836	230.12
318.065	231.12
318.295	267.12
318.524	258.12
318.753	239.12
318.983	230.12
319.212	232.12
319.441	243.12
319.67	235.12
319.9	278.12
320.129	249.12
320.358	227.12
320.587	223.12
320.816	251.12
321.046	243.12
321.275	282.12
321.504	260.12
321.733	274.12
321.962	262.12
322.191	248.12
322.42	234.12
322.649	245.12
322.878	268.12
323.108	262.12
323.337	254.12
323.566	235.12
323.795	252.12
324.024	235.12
324.253	230.12
324.482	224.12
324.71	241.12
324.939	280.12
325.168	252.12
325.397	225.12
325.626	230.12
325.855	240.12
326.084	226.12
326.313	225.12
326.542	215.12
326.77	223.12
326.999	218.12
327.228	222.12
327.457	247.12
327.686	228.12
327.914	219.12
328.143	209.12
328.372	212.12
328.6	207.12
328.829	208.12
329.058	217.12
329.287	218.12
329.515	222.12
329.744	231.12
329.972	204.12
330.201	198.12
330.43	223.12
330.658	236.12
330.887	251.12
331.115	247.12
331.344	229.12
331.572	227.12
331.801	245.12
332.03	207.12
332.258	218.12
332.486	238.12
332.715	240.12
332.943	234.12
333.172	236.12
333.4	240.12
333.629	243.12
333.857	269.12
334.085	258.12
334.314	280.12
334.542	248.12
334.771	246.12
334.999	216.12
335.227	214.12
335.455	222.12
335.684	255.12
335.912	272.12
336.14	306.12
336.369	287.12
336.597	281.12
336.825	314.12
337.053	347.12
337.281	291.12
337.51	241.12
337.738	227.12
337.966	243.12
338.194	278.12
338.422	262.12
338.65	239.12
338.878	224.12
339.106	228.12
339.334	239.12
339.562	253.12
339.79	230.12
340.018	235.12
340.246	245.12
340.474	258.12
340.702	265.12
340.93	293.12
341.158	298.12
341.386	267.12
341.614	267.12
341.842	247.12
342.07	266.12
342.298	282.12
342.526	309.12
342.754	253.12
342.981	266.12
343.209	241.12
343.437	266.12
343.665	281.12
343.893	295.12
344.12	312.12
344.348	375.12
344.576	359.12
344.804	281.12
345.031	229.12
345.259	238.12
345.487	246.12
345.714	233.12
345.942	248.12
346.17	284.12
346.397	277.12
346.625	246.12
346.853	232.12
347.08	222.12
347.308	240.12
347.535	264.12
347.763	276.12
347.99	238.12
348.218	232.12
348.445	239.12
348.673	236.12
348.9	227.12
349.128	257.12
349.355	242.12
349.583	257.12
349.81	249.12
350.037	229.12
350.265	217.12
350.492	215.12
350.72	214.12
350.947	201.12
351.174	231.12
351.402	221.12
351.629	226.12
351.856	236.12
352.083	224.12
352.311	231.12
352.538	251.12
352.765	251.12
352.992	218.12
353.22	239.12
353.447	247.12
353.674	231.12
353.901	222.12
354.128	213.12
354.355	231.12
354.583	230.12
354.81	256.12
355.037	273.12
355.264	234.12
355.491	239.12
355.718	257.12
355.945	243.12
356.172	244.12
356.399	249.12
356.626	307.12
356.853	319.12
357.08	339.12
357.307	372.12
357.534	295.12
357.761	323.12
357.988	387.12
358.215	432.12
358.441	391.12
358.668	346.12
358.895	313.12
359.122	269.12
359.349	282.12
359.576	326.12
359.802	271.12
360.029	234.12
360.256	244.12
360.483	279.12
360.709	339.12
360.936	355.12
361.163	311.12
361.39	245.12
361.616	231.12
361.843	279.12
362.07	321.12
362.296	288.12
362.523	222.12
362.749	233.12
362.976	224.12
363.203	289.12
363.429	314.12
363.656	259.12
363.882	246.12
364.109	244.12
364.335	233.12
364.562	230.12
364.788	239.12
365.015	270.12
365.241	245.12
365.468	231.12
365.694	202.12
365.92	204.12
366.147	198.12
366.373	202.12
366.599	198.12
366.826	195.12
367.052	196.12
367.278	192.12
367.505	204.12
367.731	224.12
367.957	227.12
368.184	243.12
368.41	243.12
368.636	240.12
368.862	235.12
369.089	233.12
369.315	217.12
369.541	229.12
369.767	211.12
369.993	212.12
370.219	205.12
370.445	231.12
370.672	244.12
370.898	239.12
371.124	247.12
371.35	239.12
371.576	220.12
371.802	220.12
372.028	257.12
372.254	303.12
372.48	260.12
372.706	244.12
372.932	258.12
373.158	268.12
373.384	298.12
373.61	383.12
373.835	390.12
374.061	292.12
374.287	270.12
374.513	308.12
374.739	353.12
374.965	361.12
375.191	363.12
375.416	296.12
375.642	254.12
375.868	288.12
376.094	315.12
376.319	287.12
376.545	287.12
376.771	296.12
376.997	262.12
377.222	218.12
377.448	204.12
377.674	195.12
377.899	196.12
378.125	208.12
378.35	194.12
378.576	198.12
378.802	214.12
379.027	210.12
379.253	212.12
379.478	219.12
379.704	238.12
379.929	247.12
380.155	256.12
380.38	224.12
380.606	231.12
380.831	266.12
381.057	235.12
381.282	241.12
381.507	282.12
381.733	314.12
381.958	312.12
382.184	358.12
382.409	346.12
382.634	358.12
382.86	376.12
383.085	334.12
383.31	276.12
383.535	313.12
383.761	285.12
383.986	268.12
384.211	315.12
384.436	318.12
384.662	256.12
384.887	247.12
385.112	260.12
385.337	255.12
385.562	267.12
385.787	269.12
386.013	297.12
386.238	295.12
386.463	263.12
386.688	235.12
386.913	227.12
387.138	229.12
387.363	222.12
387.588	238.12
387.813	222.12
388.038	254.12
388.263	245.12
388.488	233.12
388.713	284.12
388.938	304.12
389.163	230.12
389.387	235.12
389.612	232.12
389.837	231.12
390.062	239.12
390.287	254.12
390.512	259.12
390.736	237.12
390.961	250.12
391.186	210.12
391.411	215.12
391.636	211.12
391.86	225.12
392.085	242.12
392.31	250.12
392.534	231.12
392.759	240.12
392.984	265.12
393.208	249.12
393.433	227.12
393.658	228.12
393.882	214.12
394.107	220.12
394.331	225.12
394.556	200.12
394.78	213.12
395.005	235.12
395.229	219.12
395.454	246.12
395.678	237.12
395.903	230.12
396.127	233.12
396.352	230.12
396.576	230.12
396.801	240.12
397.025	256.12
397.249	265.12
397.474	240.12
397.698	227.12
397.922	248.12
398.147	230.12
398.371	235.12
398.595	247.12
398.82	231.12
399.044	252.12
399.268	244.12
399.492	305.12
399.717	296.12
399.941	298.12
400.165	281.12
400.389	274.12
400.613	256.12
400.837	252.12
401.062	227.12
401.286	238.12
401.51	228.12
401.734	229.12
401.958	244.12
402.182	249.12
402.406	257.12
402.63	227.12
402.854	250.12
403.078	300.12
403.302	398.12
403.526	386.12
403.75	356.12
403.974	295.12
404.198	294.12
404.422	298.12
404.645	349.12
404.869	344.12
405.093	311.12
405.317	263.12
405.541	245.12
405.765	259.12
405.988	281.12
406.212	290.12
406.436	308.12
406.66	321.12
406.883	303.12
407.107	291.12
407.331	330.12
407.555	326.12
407.778	275.12
408.002	285.12
408.226	276.12
408.449	281.12
408.673	256.12
408.896	263.12
409.12	262.12
409.344	249.12
409.567	247.12
409.791	259.12
410.014	243.12
410.238	256.12
410.461	243.12
410.685	255.12
410.908	243.12
411.132	247.12
411.355	232.12
411.578	254.12
411.802	255.12
412.025	265.12
412.249	252.12
412.472	241.12
412.695	251.12
412.919	253.12
413.142	248.12
413.365	268.12
413.589	262.12
413.812	242.12
414.035	252.12
414.258	234.12
414.482	260.12
414.705	252.12
414.928	261.12
415.151	250.12
415.374	229.12
415.597	244.12
415.821	258.12
416.044	242.12
416.267	231.12
416.49	242.12
416.713	246.12
416.936	228.12
417.159	229.12
417.382	259.12
417.605	243.12
417.828	243.12
418.051	234.12
418.274	239.12
418.497	241.12
418.72	246.12
418.943	259.12
419.166	258.12
419.389	273.12
419.611	260.12
419.834	273.12
420.057	289.12
420.28	268.12
420.503	259.12
420.726	238.12
420.948	234.12
421.171	234.12
421.394	233.12
421.617	241.12
421.839	225.12
422.062	231.12
422.285	245.12
422.507	235.12
422.73	254.12
422.953	242.12
423.175	247.12
423.398	259.12
423.621	289.12
423.843	278.12
424.066	277.12
424.288	242.12
424.511	254.12
424.733	259.12
424.956	256.12
425.178	272.12
425.401	321.12
425.623	366.12
425.846	309.12
426.068	265.12
426.291	284.12
426.513	257.12
426.735	245.12
426.958	281.12
427.18	278.12
427.402	357.12
427.625	384.12
427.847	315.12
428.069	258.12
428.292	247.12
428.514	229.12
428.736	238.12
428.958	267.12
429.181	311.12
429.403	264.12
429.625	242.12
429.847	233.12
430.069	237.12
430.292	226.12
430.514	239.12
430.736	248.12
430.958	284.12
431.18	260.12
431.402	235.12
431.624	226.12
431.846	227.12
432.068	236.12
432.29	227.12
432.512	235.12
432.734	293.12
432.956	269.12
433.178	226.12
433.4	228.12
433.622	222.12
433.844	240.12
434.066	246.12
434.287	249.12
434.509	232.12
434.731	256.12
434.953	224.12
435.175	268.12
435.397	293.12
435.618	254.12
435.84	242.12
436.062	223.12
436.284	228.12
436.505	203.12
436.727	225.12
436.949	215.12
437.17	239.12
437.392	233.12
437.614	225.12
437.835	229.12
438.057	222.12
438.278	235.12
438.5	318.12
438.721	323.12
438.943	222.12
439.165	224.12
439.386	211.12
439.608	225.12
439.829	232.12
440.05	220.12
440.272	239.12
440.493	262.12
440.715	311.12
440.936	259.12
441.158	237.12
441.379	242.12
441.6	269.12
441.822	270.12
442.043	243.12
442.264	235.12
442.486	241.12
442.707	236.12
442.928	226.12
443.149	213.12
443.371	230.12
443.592	252.12
443.813	245.12
444.034	246.12
444.255	261.12
444.476	256.12
444.698	264.12
444.919	264.12
445.14	348.12
445.361	308.12
445.582	246.12
445.803	281.12
446.024	262.12
446.245	274.12
446.466	250.12
446.687	247.12
446.908	245.12
447.129	228.12
447.35	234.12
447.571	225.12
447.792	217.12
448.013	211.12
448.234	217.12
448.455	215.12
448.675	207.12
448.896	216.12
449.117	212.12
449.338	234.12
449.559	218.12
449.779	242.12
450	227.12
450.221	239.12
450.442	214.12
450.662	229.12
450.883	238.12
451.104	230.12
451.324	210.12
451.545	236.12
451.766	226.12
451.986	213.12
452.207	210.12
452.428	214.12
452.648	215.12
452.869	223.12
453.089	240.12
453.31	235.12
453.53	219.12
453.751	215.12
453.971	217.12
454.192	209.12
454.412	219.12
454.633	208.12
454.853	226.12
455.073	209.12
455.294	192.12
455.514	214.12
455.734	212.12
455.955	218.12
456.175	222.12
456.395	195.12
456.616	196.12
456.836	199.12
457.056	188.12
457.276	209.12
457.497	200.12
457.717	217.12
457.937	192.12
458.157	214.12
458.377	222.12
458.598	217.12
458.818	208.12
459.038	219.12
459.258	228.12
459.478	257.12
459.698	241.12
459.918	245.12
460.138	260.12
460.358	257.12
460.578	247.12
460.798	248.12
461.018	231.12
461.238	254.12
461.458	236.12
461.678	247.12
461.898	244.12
462.118	263.12
462.338	251.12
462.558	265.12
462.777	265.12
462.997	288.12
463.217	325.12
463.437	305.12
463.657	279.12
463.876	263.12
464.096	265.12
464.316	271.12
464.536	295.12
464.755	288.12
464.975	283.12
465.195	259.12
465.414	268.12
465.634	253.12
465.854	253.12
466.073	248.12
466.293	220.12
466.512	225.12
466.732	248.12
466.951	258.12
467.171	234.12
467.391	227.12
467.61	221.12
467.829	241.12
468.049	229.12
468.268	220.12
468.488	233.12
468.707	234.12
468.927	257.12
469.146	280.12
469.365	268.12
469.585	240.12
469.804	277.12
470.023	287.12
470.243	261.12
470.462	231.12
470.681	243.12
470.901	254.12
471.12	254.12
471.339	256.12
471.558	243.12
471.777	240.12
471.997	257.12
472.216	262.12
472.435	276.12
472.654	260.12
472.873	258.12
473.092	265.12
473.311	261.12
473.53	240.12
473.749	244.12
473.968	252.12
474.187	247.12
474.406	240.12
474.625	250.12
474.844	259.12
475.063	276.12
475.282	272.12
475.501	268.12
475.72	277.12
475.939	272.12
476.158	276.12
476.377	315.12
476.596	339.12
476.814	375.12
477.033	316.12
477.252	265.12
477.471	251.12
477.69	262.12
477.908	270.12
478.127	285.12
478.346	249.12
478.564	314.12
478.783	303.12
479.002	278.12
479.22	318.12
479.439	345.12
479.658	286.12
479.876	277.12
480.095	291.12
480.313	292.12
480.532	293.12
480.751	283.12
480.969	265.12
481.188	314.12
481.406	295.12
481.624	297.12
481.843	281.12
482.061	261.12
482.28	301.12
482.498	345.12
482.717	339.12
482.935	308.12
483.153	272.12
483.372	275.12
483.59	262.12
483.808	248.12
484.027	281.12
484.245	256.12
484.463	250.12
484.681	271.12
484.9	277.12
485.118	297.12
485.336	284.12
485.554	272.12
485.772	286.12
485.99	312.12
486.209	302.12
486.427	299.12
486.645	282.12
486.863	292.12
487.081	296.12
487.299	329.12
487.517	322.12
487.735	291.12
487.953	307.12
488.171	308.12
488.389	295.12
488.607	282.12
488.825	284.12
489.043	297.12
489.261	327.12
489.479	357.12
489.696	307.12
489.914	289.12
490.132	269.12
490.35	270.12
490.568	260.12
490.786	278.12
491.003	296.12
491.221	285.12
491.439	268.12
491.657	272.12
491.874	291.12
492.092	343.12
492.31	361.12
492.527	377.12
492.745	345.12
492.963	312.12
493.18	291.12
493.398	305.12
493.615	318.12
493.833	303.12
494.05	288.12
494.268	312.12
494.485	302.12
494.703	292.12
494.92	317.12
495.138	278.12
495.355	286.12
495.573	287.12
495.79	328.12
496.008	392.12
496.225	334.12
496.442	312.12
496.66	302.12
496.877	325.12
497.094	310.12
497.312	291.12
497.529	310.12
497.746	316.12
497.963	326.12
498.181	356.12
498.398	349.12
498.615	374.12
498.832	414.12
499.049	399.12
499.267	380.12
499.484	411.12
499.701	414.12
499.918	459.12
500.135	503.12
500.352	527.12
500.569	550.12
500.786	566.12
501.003	530.12
501.22	497.12
501.437	463.12
501.654	422.12
501.871	387.12
502.088	408.12
502.305	377.12
502.522	371.12
