Data from NickelSpatula.Lamp.E10.P2_HRD10591_11-56-44-536.txt Node
Date: Tue Jul 23 11:56:44 EDT 2019
User: cochatt
Spectrometer: HR+D1059
Trigger mode: 1
Integration Time (sec): 1.000000E-1
Scans to average: 1
Electric dark correction enabled: true
Nonlinearity correction enabled: false
Boxcar width: 0
XAxis mode: Wavelengths
Number of Pixels in Spectrum: 2048
>>>>>Begin Spectral Data<<<<<
223.165	-3.75
223.4	-3.75
223.635	-3.75
223.869	-15.75
224.104	-16.75
224.338	-14.75
224.573	-6.75
224.808	-8.75
225.042	-18.75
225.277	-8.75
225.511	1.25
225.746	9.25
225.98	1.25
226.215	8.25
226.449	8.25
226.683	21.25
226.918	24.25
227.152	20.25
227.387	22.25
227.621	40.25
227.856	47.25
228.09	30.25
228.324	41.25
228.559	64.25
228.793	78.25
229.027	121.25
229.262	156.25
229.496	156.25
229.73	153.25
229.964	169.25
230.199	190.25
230.433	177.25
230.667	197.25
230.901	185.25
231.136	174.25
231.37	189.25
231.604	202.25
231.838	219.25
232.072	224.25
232.306	208.25
232.541	210.25
232.775	209.25
233.009	220.25
233.243	244.25
233.477	271.25
233.711	294.25
233.945	283.25
234.179	267.25
234.413	295.25
234.647	334.25
234.881	366.25
235.115	366.25
235.349	344.25
235.583	292.25
235.817	304.25
236.051	321.25
236.285	337.25
236.519	375.25
236.753	364.25
236.987	356.25
237.221	346.25
237.455	358.25
237.689	354.25
237.922	386.25
238.156	397.25
238.39	442.25
238.624	554.25
238.858	484.25
239.091	408.25
239.325	401.25
239.559	406.25
239.793	465.25
240.027	530.25
240.26	504.25
240.494	485.25
240.728	504.25
240.961	548.25
241.195	520.25
241.429	541.25
241.662	510.25
241.896	441.25
242.13	404.25
242.363	390.25
242.597	416.25
242.83	458.25
243.064	463.25
243.298	503.25
243.531	524.25
243.765	529.25
243.998	542.25
244.232	522.25
244.465	516.25
244.699	509.25
244.932	558.25
245.166	521.25
245.399	486.25
245.633	497.25
245.866	524.25
246.099	523.25
246.333	596.25
246.566	630.25
246.8	626.25
247.033	606.25
247.266	548.25
247.5	571.25
247.733	572.25
247.966	552.25
248.2	538.25
248.433	621.25
248.666	676.25
248.899	675.25
249.133	666.25
249.366	769.25
249.599	824.25
249.832	760.25
250.066	684.25
250.299	687.25
250.532	676.25
250.765	644.25
250.998	617.25
251.231	617.25
251.465	661.25
251.698	674.25
251.931	681.25
252.164	704.25
252.397	791.25
252.63	856.25
252.863	920.25
253.096	942.25
253.329	936.25
253.562	893.25
253.795	976.25
254.028	1096.25
254.261	1122.25
254.494	1033.25
254.727	936.25
254.96	929.25
255.193	992.25
255.426	934.25
255.659	759.25
255.892	704.25
256.124	728.25
256.357	876.25
256.59	1008.25
256.823	957.25
257.056	817.25
257.289	779.25
257.521	877.25
257.754	1017.25
257.987	1168.25
258.22	1002.25
258.452	870.25
258.685	977.25
258.918	1098.25
259.151	1077.25
259.383	1174.25
259.616	1336.25
259.849	1335.25
260.081	1410.25
260.314	1598.25
260.547	1255.25
260.779	1300.25
261.012	1478.25
261.244	1388.25
261.477	1395.25
261.71	1245.25
261.942	1113.25
262.175	1090.25
262.407	1025.25
262.64	1075.25
262.872	1241.25
263.105	1333.25
263.337	1413.25
263.57	1286.25
263.802	896.25
264.035	841.25
264.267	842.25
264.499	701.25
264.732	646.25
264.964	654.25
265.197	676.25
265.429	717.25
265.661	745.25
265.894	772.25
266.126	846.25
266.358	924.25
266.591	1093.25
266.823	1310.25
267.055	1238.25
267.287	1098.25
267.52	1159.25
267.752	1227.25
267.984	1344.25
268.216	1235.25
268.448	1033.25
268.681	984.25
268.913	1076.25
269.145	1180.25
269.377	1161.25
269.609	1180.25
269.841	1091.25
270.073	1164.25
270.306	1232.25
270.538	1265.25
270.77	1291.25
271.002	1253.25
271.234	1351.25
271.466	1301.25
271.698	1233.25
271.93	1180.25
272.162	1206.25
272.394	1165.25
272.626	1172.25
272.858	1224.25
273.09	1207.25
273.322	1090.25
273.553	1015.25
273.785	1184.25
274.017	1530.25
274.249	1902.25
274.481	1966.25
274.713	2160.25
274.945	2430.25
275.176	2590.25
275.408	2291.25
275.64	2087.25
275.872	2160.25
276.104	1870.25
276.335	1640.25
276.567	1632.25
276.799	1675.25
277.031	1738.25
277.262	1383.25
277.494	1088.25
277.726	1052.25
277.957	1170.25
278.189	1285.25
278.421	1264.25
278.652	1220.25
278.884	1154.25
279.115	1108.25
279.347	1060.25
279.579	1084.25
279.81	1073.25
280.042	1068.25
280.273	1124.25
280.505	1043.25
280.736	946.25
280.968	940.25
281.199	998.25
281.431	1148.25
281.662	1101.25
281.894	1058.25
282.125	1148.25
282.356	1232.25
282.588	1218.25
282.819	1151.25
283.051	1200.25
283.282	1511.25
283.513	1720.25
283.745	1912.25
283.976	1901.25
284.207	1750.25
284.439	1833.25
284.67	1732.25
284.901	1560.25
285.132	1673.25
285.364	1750.25
285.595	1614.25
285.826	1684.25
286.057	1740.25
286.288	1653.25
286.52	1705.25
286.751	1814.25
286.982	1783.25
287.213	1562.25
287.444	1556.25
287.675	1613.25
287.906	1623.25
288.138	1376.25
288.369	1239.25
288.6	1183.25
288.831	1256.25
289.062	1409.25
289.293	1601.25
289.524	1497.25
289.755	1438.25
289.986	1463.25
290.217	1321.25
290.448	1038.25
290.679	901.25
290.91	857.25
291.141	846.25
291.371	896.25
291.602	896.25
291.833	915.25
292.064	961.25
292.295	1102.25
292.526	1255.25
292.757	1288.25
292.987	1378.25
293.218	1438.25
293.449	1489.25
293.68	1580.25
293.91	1437.25
294.141	1522.25
294.372	1448.25
294.603	1311.25
294.833	1381.25
295.064	1688.25
295.295	1587.25
295.525	1201.25
295.756	1000.25
295.987	870.25
296.217	905.25
296.448	908.25
296.679	914.25
296.909	972.25
297.14	1078.25
297.37	1222.25
297.601	1164.25
297.831	1007.25
298.062	1070.25
298.292	1196.25
298.523	1280.25
298.753	1440.25
298.984	1295.25
299.214	1061.25
299.445	905.25
299.675	877.25
299.905	872.25
300.136	862.25
300.366	892.25
300.597	892.25
300.827	847.25
301.057	801.25
301.288	821.25
301.518	876.25
301.748	956.25
301.979	1037.25
302.209	1066.25
302.439	1052.25
302.669	957.25
302.9	1048.25
303.13	975.25
303.36	956.25
303.59	944.25
303.82	970.25
304.051	1046.25
304.281	1144.25
304.511	1140.25
304.741	997.25
304.971	1034.25
305.201	1085.25
305.431	1040.25
305.661	902.25
305.891	839.25
306.121	816.25
306.352	794.25
306.582	765.25
306.812	735.25
307.042	723.25
307.272	725.25
307.502	722.25
307.731	753.25
307.961	796.25
308.191	739.25
308.421	697.25
308.651	716.25
308.881	700.25
309.111	719.25
309.341	728.25
309.571	811.25
309.8	776.25
310.03	805.25
310.26	810.25
310.49	829.25
310.72	771.25
310.949	799.25
311.179	787.25
311.409	835.25
311.639	980.25
311.868	1198.25
312.098	1509.25
312.328	1641.25
312.557	1602.25
312.787	1631.25
313.017	1464.25
313.246	1550.25
313.476	1675.25
313.706	1367.25
313.935	1112.25
314.165	925.25
314.394	862.25
314.624	836.25
314.853	852.25
315.083	945.25
315.312	906.25
315.542	886.25
315.771	812.25
316.001	768.25
316.23	725.25
316.46	753.25
316.689	768.25
316.919	791.25
317.148	792.25
317.377	776.25
317.607	780.25
317.836	829.25
318.065	932.25
318.295	1049.25
318.524	978.25
318.753	849.25
318.983	796.25
319.212	792.25
319.441	824.25
319.67	910.25
319.9	984.25
320.129	940.25
320.358	842.25
320.587	817.25
320.816	837.25
321.046	940.25
321.275	1018.25
321.504	1004.25
321.733	972.25
321.962	960.25
322.191	932.25
322.42	863.25
322.649	857.25
322.878	913.25
323.108	936.25
323.337	890.25
323.566	897.25
323.795	908.25
324.024	879.25
324.253	827.25
324.482	819.25
324.71	843.25
324.939	926.25
325.168	847.25
325.397	776.25
325.626	764.25
325.855	804.25
326.084	803.25
326.313	784.25
326.542	739.25
326.77	766.25
326.999	792.25
327.228	822.25
327.457	841.25
327.686	800.25
327.914	764.25
328.143	713.25
328.372	714.25
328.6	737.25
328.829	757.25
329.058	768.25
329.287	750.25
329.515	804.25
329.744	792.25
329.972	779.25
330.201	743.25
330.43	768.25
330.658	822.25
330.887	888.25
331.115	889.25
331.344	872.25
331.572	847.25
331.801	825.25
332.03	749.25
332.258	806.25
332.486	845.25
332.715	878.25
332.943	822.25
333.172	791.25
333.4	848.25
333.629	920.25
333.857	1024.25
334.085	976.25
334.314	960.25
334.542	926.25
334.771	863.25
334.999	880.25
335.227	860.25
335.455	841.25
335.684	929.25
335.912	1066.25
336.14	1142.25
336.369	1115.25
336.597	1063.25
336.825	1203.25
337.053	1281.25
337.281	1052.25
337.51	898.25
337.738	848.25
337.966	921.25
338.194	981.25
338.422	932.25
338.65	852.25
338.878	794.25
339.106	801.25
339.334	863.25
339.562	892.25
339.79	851.25
340.018	827.25
340.246	879.25
340.474	1008.25
340.702	1045.25
340.93	1085.25
341.158	1063.25
341.386	887.25
341.614	880.25
341.842	919.25
342.07	952.25
342.298	1126.25
342.526	1138.25
342.754	962.25
342.981	882.25
343.209	886.25
343.437	941.25
343.665	983.25
343.893	978.25
344.12	1104.25
344.348	1253.25
344.576	1164.25
344.804	963.25
345.031	846.25
345.259	826.25
345.487	823.25
345.714	868.25
345.942	914.25
346.17	996.25
346.397	946.25
346.625	839.25
346.853	819.25
347.08	792.25
347.308	846.25
347.535	944.25
347.763	924.25
347.99	830.25
348.218	786.25
348.445	837.25
348.673	833.25
348.9	815.25
349.128	853.25
349.355	880.25
349.583	869.25
349.81	852.25
350.037	805.25
350.265	743.25
350.492	708.25
350.72	708.25
350.947	703.25
351.174	758.25
351.402	762.25
351.629	792.25
351.856	748.25
352.083	749.25
352.311	774.25
352.538	812.25
352.765	820.25
352.992	815.25
353.22	794.25
353.447	801.25
353.674	794.25
353.901	763.25
354.128	758.25
354.355	746.25
354.583	802.25
354.81	788.25
355.037	834.25
355.264	823.25
355.491	800.25
355.718	879.25
355.945	836.25
356.172	846.25
356.399	848.25
356.626	963.25
356.853	1110.25
357.08	1155.25
357.307	1187.25
357.534	990.25
357.761	1029.25
357.988	1212.25
358.215	1302.25
358.441	1264.25
358.668	1120.25
358.895	1066.25
359.122	947.25
359.349	927.25
359.576	975.25
359.802	847.25
360.029	743.25
360.256	816.25
360.483	916.25
360.709	1116.25
360.936	1133.25
361.163	986.25
361.39	850.25
361.616	810.25
361.843	906.25
362.07	983.25
362.296	952.25
362.523	817.25
362.749	727.25
362.976	777.25
363.203	894.25
363.429	930.25
363.656	805.25
363.882	795.25
364.109	795.25
364.335	783.25
364.562	791.25
364.788	849.25
365.015	911.25
365.241	851.25
365.468	770.25
365.694	709.25
365.92	704.25
366.147	689.25
366.373	662.25
366.599	666.25
366.826	681.25
367.052	714.25
367.278	719.25
367.505	706.25
367.731	732.25
367.957	808.25
368.184	813.25
368.41	811.25
368.636	794.25
368.862	812.25
369.089	796.25
369.315	732.25
369.541	754.25
369.767	713.25
369.993	710.25
370.219	697.25
370.445	754.25
370.672	774.25
370.898	808.25
371.124	827.25
371.35	784.25
371.576	748.25
371.802	793.25
372.028	866.25
372.254	950.25
372.48	849.25
372.706	814.25
372.932	848.25
373.158	860.25
373.384	962.25
373.61	1188.25
373.835	1202.25
374.061	960.25
374.287	842.25
374.513	968.25
374.739	1120.25
374.965	1163.25
375.191	1132.25
375.416	915.25
375.642	818.25
375.868	914.25
376.094	956.25
376.319	856.25
376.545	945.25
376.771	929.25
376.997	871.25
377.222	722.25
377.448	684.25
377.674	676.25
377.899	673.25
378.125	687.25
378.35	680.25
378.576	682.25
378.802	719.25
379.027	765.25
379.253	724.25
379.478	746.25
379.704	794.25
379.929	824.25
380.155	816.25
380.38	769.25
380.606	764.25
380.831	847.25
381.057	793.25
381.282	820.25
381.507	883.25
381.733	1010.25
381.958	1053.25
382.184	1117.25
382.409	1145.25
382.634	1144.25
382.86	1129.25
383.085	1011.25
383.31	905.25
383.535	952.25
383.761	938.25
383.986	894.25
384.211	1023.25
384.436	982.25
384.662	842.25
384.887	806.25
385.112	834.25
385.337	836.25
385.562	865.25
385.787	888.25
386.013	922.25
386.238	964.25
386.463	845.25
386.688	811.25
386.913	813.25
387.138	778.25
387.363	792.25
387.588	814.25
387.813	845.25
388.038	876.25
388.263	824.25
388.488	818.25
388.713	904.25
388.938	895.25
389.163	815.25
389.387	794.25
389.612	791.25
389.837	813.25
390.062	794.25
390.287	829.25
390.512	825.25
390.736	815.25
390.961	791.25
391.186	777.25
391.411	752.25
391.636	763.25
391.86	806.25
392.085	868.25
392.31	848.25
392.534	823.25
392.759	820.25
392.984	840.25
393.208	819.25
393.433	797.25
393.658	756.25
393.882	743.25
394.107	739.25
394.331	764.25
394.556	752.25
394.78	750.25
395.005	763.25
395.229	751.25
395.454	787.25
395.678	765.25
395.903	781.25
396.127	776.25
396.352	799.25
396.576	843.25
396.801	853.25
397.025	905.25
397.249	946.25
397.474	836.25
397.698	803.25
397.922	866.25
398.147	841.25
398.371	846.25
398.595	848.25
398.82	865.25
399.044	883.25
399.268	933.25
399.492	983.25
399.717	1041.25
399.941	1007.25
400.165	984.25
400.389	979.25
400.613	946.25
400.837	907.25
401.062	868.25
401.286	823.25
401.51	839.25
401.734	820.25
401.958	845.25
402.182	838.25
402.406	841.25
402.63	870.25
402.854	876.25
403.078	988.25
403.302	1153.25
403.526	1204.25
403.75	1085.25
403.974	951.25
404.198	983.25
404.422	1048.25
404.645	1124.25
404.869	1185.25
405.093	993.25
405.317	922.25
405.541	893.25
405.765	928.25
405.988	950.25
406.212	969.25
406.436	1026.25
406.66	1126.25
406.883	964.25
407.107	1019.25
407.331	1095.25
407.555	1088.25
407.778	993.25
408.002	1007.25
408.226	976.25
408.449	986.25
408.673	928.25
408.896	908.25
409.12	850.25
409.344	863.25
409.567	852.25
409.791	857.25
410.014	892.25
410.238	848.25
410.461	854.25
410.685	860.25
410.908	842.25
411.132	884.25
411.355	866.25
411.578	873.25
411.802	869.25
412.025	882.25
412.249	882.25
412.472	910.25
412.695	893.25
412.919	861.25
413.142	871.25
413.365	909.25
413.589	918.25
413.812	839.25
414.035	846.25
414.258	868.25
414.482	912.25
414.705	904.25
414.928	807.25
415.151	839.25
415.374	822.25
415.597	826.25
415.821	840.25
416.044	836.25
416.267	814.25
416.49	801.25
416.713	805.25
416.936	805.25
417.159	778.25
417.382	798.25
417.605	817.25
417.828	828.25
418.051	855.25
418.274	840.25
418.497	848.25
418.72	814.25
418.943	846.25
419.166	892.25
419.389	907.25
419.611	915.25
419.834	906.25
420.057	918.25
420.28	918.25
420.503	866.25
420.726	803.25
420.948	836.25
421.171	817.25
421.394	812.25
421.617	777.25
421.839	831.25
422.062	846.25
422.285	849.25
422.507	856.25
422.73	869.25
422.953	854.25
423.175	856.25
423.398	841.25
423.621	917.25
423.843	945.25
424.066	872.25
424.288	856.25
424.511	843.25
424.733	860.25
424.956	867.25
425.178	899.25
425.401	1012.25
425.623	1106.25
425.846	993.25
426.068	876.25
426.291	908.25
426.513	880.25
426.735	847.25
426.958	864.25
427.18	985.25
427.402	1140.25
427.625	1137.25
427.847	986.25
428.069	820.25
428.292	816.25
428.514	809.25
428.736	812.25
428.958	860.25
429.181	987.25
429.403	873.25
429.625	796.25
429.847	788.25
430.069	813.25
430.292	783.25
430.514	782.25
430.736	850.25
430.958	929.25
431.18	892.25
431.402	763.25
431.624	727.25
431.846	769.25
432.068	742.25
432.29	773.25
432.512	810.25
432.734	974.25
432.956	920.25
433.178	797.25
433.4	798.25
433.622	802.25
433.844	817.25
434.066	864.25
434.287	838.25
434.509	814.25
434.731	875.25
434.953	818.25
435.175	836.25
435.397	906.25
435.618	830.25
435.84	788.25
436.062	798.25
436.284	796.25
436.505	760.25
436.727	771.25
436.949	767.25
437.17	769.25
437.392	788.25
437.614	769.25
437.835	764.25
438.057	795.25
438.278	842.25
438.5	1023.25
438.721	1060.25
438.943	846.25
439.165	758.25
439.386	722.25
439.608	711.25
439.829	724.25
440.05	742.25
440.272	778.25
440.493	851.25
440.715	943.25
440.936	864.25
441.158	803.25
441.379	818.25
441.6	858.25
441.822	880.25
442.043	806.25
442.264	828.25
442.486	820.25
442.707	774.25
442.928	810.25
443.149	810.25
443.371	822.25
443.592	898.25
443.813	863.25
444.034	872.25
444.255	870.25
444.476	877.25
444.698	892.25
444.919	907.25
445.14	1001.25
445.361	952.25
445.582	919.25
445.803	876.25
446.024	880.25
446.245	850.25
446.466	835.25
446.687	811.25
446.908	830.25
447.129	785.25
447.35	775.25
447.571	742.25
447.792	725.25
448.013	730.25
448.234	776.25
448.455	741.25
448.675	737.25
448.896	764.25
449.117	749.25
449.338	755.25
449.559	774.25
449.779	792.25
450	825.25
450.221	770.25
450.442	761.25
450.662	723.25
450.883	764.25
451.104	778.25
451.324	750.25
451.545	749.25
451.766	745.25
451.986	725.25
452.207	730.25
452.428	734.25
452.648	713.25
452.869	750.25
453.089	740.25
453.31	735.25
453.53	692.25
453.751	701.25
453.971	705.25
454.192	723.25
454.412	724.25
454.633	703.25
454.853	714.25
455.073	673.25
455.294	695.25
455.514	700.25
455.734	738.25
455.955	758.25
456.175	769.25
456.395	697.25
456.616	684.25
456.836	688.25
457.056	673.25
457.276	667.25
457.497	676.25
457.717	697.25
457.937	670.25
458.157	694.25
458.377	705.25
458.598	729.25
458.818	716.25
459.038	728.25
459.258	772.25
459.478	778.25
459.698	815.25
459.918	830.25
460.138	816.25
460.358	833.25
460.578	820.25
460.798	876.25
461.018	854.25
461.238	807.25
461.458	829.25
461.678	847.25
461.898	888.25
462.118	891.25
462.338	854.25
462.558	893.25
462.777	933.25
462.997	909.25
463.217	934.25
463.437	957.25
463.657	937.25
463.876	893.25
464.096	902.25
464.316	904.25
464.536	951.25
464.755	942.25
464.975	953.25
465.195	886.25
465.414	927.25
465.634	854.25
465.854	876.25
466.073	799.25
466.293	801.25
466.512	829.25
466.732	895.25
466.951	936.25
467.171	855.25
467.391	806.25
467.61	774.25
467.829	874.25
468.049	853.25
468.268	808.25
468.488	795.25
468.707	831.25
468.927	950.25
469.146	1004.25
469.365	931.25
469.585	872.25
469.804	887.25
470.023	966.25
470.243	870.25
470.462	850.25
470.681	860.25
470.901	829.25
471.12	863.25
471.339	894.25
471.558	845.25
471.777	856.25
471.997	896.25
472.216	962.25
472.435	981.25
472.654	878.25
472.873	854.25
473.092	916.25
473.311	936.25
473.53	864.25
473.749	859.25
473.968	898.25
474.187	853.25
474.406	837.25
474.625	846.25
474.844	892.25
475.063	928.25
475.282	916.25
475.501	960.25
475.72	1019.25
475.939	935.25
476.158	965.25
476.377	1103.25
476.596	1287.25
476.814	1312.25
477.033	1103.25
477.252	956.25
477.471	871.25
477.69	937.25
477.908	1014.25
478.127	1040.25
478.346	993.25
478.564	1072.25
478.783	994.25
479.002	996.25
479.22	1130.25
479.439	1259.25
479.658	1116.25
479.876	1017.25
480.095	1119.25
480.313	1121.25
480.532	1038.25
480.751	1051.25
480.969	1046.25
481.188	1163.25
481.406	1151.25
481.624	1104.25
481.843	1045.25
482.061	1024.25
482.28	1089.25
482.498	1292.25
482.717	1223.25
482.935	1075.25
483.153	1001.25
483.372	952.25
483.59	968.25
483.808	974.25
484.027	961.25
484.245	947.25
484.463	914.25
484.681	982.25
484.9	975.25
485.118	1070.25
485.336	1039.25
485.554	967.25
485.772	966.25
485.99	1071.25
486.209	1071.25
486.427	1094.25
486.645	1072.25
486.863	1118.25
487.081	1097.25
487.299	1125.25
487.517	1080.25
487.735	1070.25
487.953	1098.25
488.171	1103.25
488.389	1062.25
488.607	1010.25
488.825	1034.25
489.043	1100.25
489.261	1178.25
489.479	1212.25
489.696	1116.25
489.914	1061.25
490.132	1016.25
490.35	1034.25
490.568	1035.25
490.786	1010.25
491.003	1049.25
491.221	1059.25
491.439	1054.25
491.657	1018.25
491.874	1076.25
492.092	1214.25
492.31	1329.25
492.527	1371.25
492.745	1237.25
492.963	1156.25
493.18	1127.25
493.398	1155.25
493.615	1149.25
493.833	1115.25
494.05	1095.25
494.268	1137.25
494.485	1103.25
494.703	1056.25
494.92	1097.25
495.138	1080.25
495.355	1092.25
495.573	1141.25
495.79	1164.25
496.008	1296.25
496.225	1205.25
496.442	1164.25
496.66	1201.25
496.877	1232.25
497.094	1225.25
497.312	1148.25
497.529	1197.25
497.746	1170.25
497.963	1239.25
