Data from NickelSpatula.Lamp.E5.5.P2_HRD10591_11-51-00-563.txt Node
Date: Tue Jul 23 11:51:00 EDT 2019
User: cochatt
Spectrometer: HR+D1059
Trigger mode: 1
Integration Time (sec): 1.000000E-1
Scans to average: 1
Electric dark correction enabled: true
Nonlinearity correction enabled: false
Boxcar width: 0
XAxis mode: Wavelengths
Number of Pixels in Spectrum: 2048
>>>>>Begin Spectral Data<<<<<
223.165	-27.25
223.4	-27.25
223.635	-27.25
223.869	-10.25
224.104	-13.25
224.338	-21.25
224.573	-9.25
224.808	-6.25
225.042	-8.25
225.277	-5.25
225.511	10.75
225.746	-1.25
225.98	-1.25
226.215	5.75
226.449	13.75
226.683	21.75
226.918	22.75
227.152	28.75
227.387	25.75
227.621	34.75
227.856	32.75
228.09	40.75
228.324	58.75
228.559	50.75
228.793	62.75
229.027	54.75
229.262	77.75
229.496	82.75
229.73	96.75
229.964	85.75
230.199	87.75
230.433	86.75
230.667	88.75
230.901	95.75
231.136	76.75
231.37	93.75
231.604	91.75
231.838	107.75
232.072	82.75
232.306	93.75
232.541	103.75
232.775	87.75
233.009	102.75
233.243	102.75
233.477	95.75
233.711	112.75
233.945	87.75
234.179	98.75
234.413	127.75
234.647	109.75
234.881	124.75
235.115	110.75
235.349	115.75
235.583	111.75
235.817	111.75
236.051	104.75
236.285	101.75
236.519	113.75
236.753	117.75
236.987	113.75
237.221	102.75
237.455	122.75
237.689	111.75
237.922	121.75
238.156	126.75
238.39	123.75
238.624	129.75
238.858	126.75
239.091	113.75
239.325	122.75
239.559	132.75
239.793	117.75
240.027	140.75
240.26	145.75
240.494	137.75
240.728	134.75
240.961	135.75
241.195	122.75
241.429	136.75
241.662	135.75
241.896	117.75
242.13	122.75
242.363	120.75
242.597	126.75
242.83	127.75
243.064	124.75
243.298	126.75
243.531	143.75
243.765	137.75
243.998	110.75
244.232	122.75
244.465	126.75
244.699	134.75
244.932	150.75
245.166	127.75
245.399	126.75
245.633	142.75
245.866	116.75
246.099	134.75
246.333	148.75
246.566	170.75
246.8	155.75
247.033	150.75
247.266	143.75
247.5	133.75
247.733	156.75
247.966	149.75
248.2	140.75
248.433	162.75
248.666	161.75
248.899	168.75
249.133	171.75
249.366	172.75
249.599	189.75
249.832	178.75
250.066	156.75
250.299	174.75
250.532	152.75
250.765	166.75
250.998	133.75
251.231	156.75
251.465	168.75
251.698	175.75
251.931	162.75
252.164	159.75
252.397	178.75
252.63	203.75
252.863	186.75
253.096	200.75
253.329	220.75
253.562	208.75
253.795	212.75
254.028	238.75
254.261	238.75
254.494	223.75
254.727	198.75
254.96	193.75
255.193	211.75
255.426	206.75
255.659	153.75
255.892	172.75
256.124	174.75
256.357	184.75
256.59	206.75
256.823	216.75
257.056	185.75
257.289	177.75
257.521	187.75
257.754	210.75
257.987	219.75
258.22	220.75
258.452	184.75
258.685	213.75
258.918	218.75
259.151	223.75
259.383	234.75
259.616	248.75
259.849	273.75
260.081	251.75
260.314	293.75
260.547	255.75
260.779	277.75
261.012	271.75
261.244	254.75
261.477	254.75
261.71	269.75
261.942	218.75
262.175	222.75
262.407	222.75
262.64	219.75
262.872	240.75
263.105	278.75
263.337	267.75
263.57	267.75
263.802	207.75
264.035	180.75
264.267	166.75
264.499	162.75
264.732	163.75
264.964	161.75
265.197	165.75
265.429	167.75
265.661	168.75
265.894	192.75
266.126	198.75
266.358	202.75
266.591	238.75
266.823	264.75
267.055	252.75
267.287	223.75
267.52	258.75
267.752	250.75
267.984	256.75
268.216	259.75
268.448	228.75
268.681	208.75
268.913	241.75
269.145	224.75
269.377	255.75
269.609	231.75
269.841	229.75
270.073	240.75
270.306	252.75
270.538	259.75
270.77	238.75
271.002	278.75
271.234	262.75
271.466	262.75
271.698	263.75
271.93	247.75
272.162	252.75
272.394	250.75
272.626	242.75
272.858	252.75
273.09	263.75
273.322	228.75
273.553	214.75
273.785	254.75
274.017	309.75
274.249	343.75
274.481	365.75
274.713	396.75
274.945	388.75
275.176	420.75
275.408	406.75
275.64	401.75
275.872	362.75
276.104	353.75
276.335	316.75
276.567	333.75
276.799	323.75
277.031	316.75
277.262	284.75
277.494	239.75
277.726	224.75
277.957	236.75
278.189	269.75
278.421	258.75
278.652	238.75
278.884	219.75
279.115	218.75
279.347	208.75
279.579	238.75
279.81	234.75
280.042	243.75
280.273	238.75
280.505	218.75
280.736	208.75
280.968	207.75
281.199	217.75
281.431	227.75
281.662	251.75
281.894	222.75
282.125	235.75
282.356	242.75
282.588	269.75
282.819	218.75
283.051	240.75
283.282	266.75
283.513	318.75
283.745	330.75
283.976	343.75
284.207	325.75
284.439	348.75
284.67	327.75
284.901	290.75
285.132	311.75
285.364	336.75
285.595	306.75
285.826	317.75
286.057	322.75
286.288	306.75
286.52	326.75
286.751	313.75
286.982	328.75
287.213	311.75
287.444	308.75
287.675	306.75
287.906	310.75
288.138	293.75
288.369	262.75
288.6	268.75
288.831	258.75
289.062	282.75
289.293	309.75
289.524	294.75
289.755	288.75
289.986	276.75
290.217	281.75
290.448	223.75
290.679	202.75
290.91	184.75
291.141	209.75
291.371	215.75
291.602	218.75
291.833	194.75
292.064	211.75
292.295	236.75
292.526	264.75
292.757	269.75
292.987	277.75
293.218	281.75
293.449	290.75
293.68	318.75
293.91	293.75
294.141	293.75
294.372	310.75
294.603	259.75
294.833	293.75
295.064	330.75
295.295	323.75
295.525	256.75
295.756	207.75
295.987	205.75
296.217	215.75
296.448	210.75
296.679	212.75
296.909	219.75
297.14	244.75
297.37	270.75
297.601	263.75
297.831	218.75
298.062	235.75
298.292	245.75
298.523	290.75
298.753	315.75
298.984	298.75
299.214	254.75
299.445	224.75
299.675	212.75
299.905	211.75
300.136	197.75
300.366	231.75
300.597	235.75
300.827	221.75
301.057	213.75
301.288	218.75
301.518	208.75
301.748	246.75
301.979	247.75
302.209	278.75
302.439	262.75
302.669	243.75
302.9	257.75
303.13	241.75
303.36	215.75
303.59	212.75
303.82	234.75
304.051	238.75
304.281	267.75
304.511	254.75
304.741	224.75
304.971	229.75
305.201	230.75
305.431	236.75
305.661	201.75
305.891	220.75
306.121	212.75
306.352	202.75
306.582	190.75
306.812	184.75
307.042	185.75
307.272	176.75
307.502	202.75
307.731	210.75
307.961	194.75
308.191	187.75
308.421	198.75
308.651	185.75
308.881	181.75
309.111	184.75
309.341	175.75
309.571	194.75
309.8	204.75
310.03	196.75
310.26	202.75
310.49	210.75
310.72	182.75
310.949	187.75
311.179	195.75
311.409	186.75
311.639	220.75
311.868	246.75
312.098	306.75
312.328	338.75
312.557	305.75
312.787	317.75
313.017	306.75
313.246	307.75
313.476	309.75
313.706	288.75
313.935	254.75
314.165	210.75
314.394	204.75
314.624	208.75
314.853	203.75
315.083	215.75
315.312	194.75
315.542	205.75
315.771	214.75
316.001	183.75
316.23	178.75
316.46	191.75
316.689	172.75
316.919	182.75
317.148	196.75
317.377	174.75
317.607	187.75
317.836	192.75
318.065	223.75
318.295	235.75
318.524	220.75
318.753	199.75
318.983	188.75
319.212	192.75
319.441	208.75
319.67	196.75
319.9	234.75
320.129	219.75
320.358	219.75
320.587	187.75
320.816	202.75
321.046	215.75
321.275	254.75
321.504	246.75
321.733	239.75
321.962	250.75
322.191	231.75
322.42	202.75
322.649	213.75
322.878	229.75
323.108	211.75
323.337	218.75
323.566	202.75
323.795	226.75
324.024	213.75
324.253	197.75
324.482	196.75
324.71	211.75
324.939	229.75
325.168	213.75
325.397	197.75
325.626	206.75
325.855	191.75
326.084	216.75
326.313	190.75
326.542	191.75
326.77	203.75
326.999	194.75
327.228	211.75
327.457	213.75
327.686	218.75
327.914	184.75
328.143	214.75
328.372	182.75
328.6	207.75
328.829	196.75
329.058	196.75
329.287	183.75
329.515	180.75
329.744	190.75
329.972	188.75
330.201	192.75
330.43	178.75
330.658	197.75
330.887	209.75
331.115	224.75
331.344	212.75
331.572	203.75
331.801	205.75
332.03	182.75
332.258	209.75
332.486	203.75
332.715	208.75
332.943	195.75
333.172	197.75
333.4	211.75
333.629	228.75
333.857	228.75
334.085	220.75
334.314	242.75
334.542	236.75
334.771	198.75
334.999	218.75
335.227	206.75
335.455	214.75
335.684	207.75
335.912	240.75
336.14	231.75
336.369	229.75
336.597	231.75
336.825	263.75
337.053	283.75
337.281	252.75
337.51	209.75
337.738	202.75
337.966	217.75
338.194	229.75
338.422	205.75
338.65	222.75
338.878	213.75
339.106	200.75
339.334	223.75
339.562	222.75
339.79	221.75
340.018	201.75
340.246	218.75
340.474	225.75
340.702	231.75
340.93	243.75
341.158	251.75
341.386	230.75
341.614	207.75
341.842	206.75
342.07	217.75
342.298	239.75
342.526	247.75
342.754	227.75
342.981	207.75
343.209	208.75
343.437	242.75
343.665	240.75
343.893	238.75
344.12	263.75
344.348	302.75
344.576	290.75
344.804	234.75
345.031	212.75
345.259	224.75
345.487	223.75
345.714	204.75
345.942	224.75
346.17	234.75
346.397	227.75
346.625	231.75
346.853	190.75
347.08	190.75
347.308	215.75
347.535	224.75
347.763	239.75
347.99	209.75
348.218	200.75
348.445	212.75
348.673	206.75
348.9	207.75
349.128	230.75
349.355	219.75
349.583	248.75
349.81	208.75
350.037	212.75
350.265	203.75
350.492	186.75
350.72	181.75
350.947	199.75
351.174	203.75
351.402	216.75
351.629	204.75
351.856	196.75
352.083	187.75
352.311	206.75
352.538	228.75
352.765	222.75
352.992	214.75
353.22	203.75
353.447	209.75
353.674	210.75
353.901	212.75
354.128	214.75
354.355	215.75
354.583	219.75
354.81	214.75
355.037	233.75
355.264	221.75
355.491	219.75
355.718	246.75
355.945	238.75
356.172	235.75
356.399	213.75
356.626	247.75
356.853	291.75
357.08	316.75
357.307	327.75
357.534	256.75
357.761	271.75
357.988	316.75
358.215	354.75
358.441	325.75
358.668	301.75
358.895	283.75
359.122	243.75
359.349	248.75
359.576	279.75
359.802	239.75
360.029	203.75
360.256	208.75
360.483	250.75
360.709	290.75
360.936	298.75
361.163	275.75
361.39	242.75
361.616	222.75
361.843	232.75
362.07	268.75
362.296	232.75
362.523	229.75
362.749	204.75
362.976	204.75
363.203	227.75
363.429	253.75
363.656	201.75
363.882	184.75
364.109	218.75
364.335	213.75
364.562	199.75
364.788	220.75
365.015	238.75
365.241	242.75
365.468	208.75
365.694	194.75
365.92	176.75
366.147	198.75
366.373	168.75
366.599	177.75
366.826	192.75
367.052	180.75
367.278	168.75
367.505	176.75
367.731	190.75
367.957	212.75
368.184	202.75
368.41	215.75
368.636	223.75
368.862	234.75
369.089	218.75
369.315	194.75
369.541	216.75
369.767	216.75
369.993	197.75
370.219	203.75
370.445	191.75
370.672	200.75
370.898	215.75
371.124	234.75
371.35	206.75
371.576	214.75
371.802	205.75
372.028	222.75
372.254	249.75
372.48	237.75
372.706	213.75
372.932	238.75
373.158	224.75
373.384	259.75
373.61	326.75
373.835	326.75
374.061	258.75
374.287	253.75
374.513	268.75
374.739	303.75
374.965	311.75
375.191	299.75
375.416	250.75
375.642	207.75
375.868	238.75
376.094	255.75
376.319	224.75
376.545	254.75
376.771	272.75
376.997	229.75
377.222	198.75
377.448	180.75
377.674	166.75
377.899	190.75
378.125	184.75
378.35	180.75
378.576	187.75
378.802	181.75
379.027	223.75
379.253	197.75
379.478	194.75
379.704	240.75
379.929	216.75
380.155	219.75
380.38	210.75
380.606	221.75
380.831	236.75
381.057	217.75
381.282	212.75
381.507	230.75
381.733	282.75
381.958	283.75
382.184	292.75
382.409	315.75
382.634	317.75
382.86	324.75
383.085	277.75
383.31	238.75
383.535	258.75
383.761	240.75
383.986	250.75
384.211	273.75
384.436	271.75
384.662	234.75
384.887	232.75
385.112	236.75
385.337	233.75
385.562	220.75
385.787	253.75
386.013	266.75
386.238	277.75
386.463	223.75
386.688	223.75
386.913	225.75
387.138	205.75
387.363	218.75
387.588	223.75
387.813	208.75
388.038	229.75
388.263	212.75
388.488	215.75
388.713	247.75
388.938	256.75
389.163	217.75
389.387	206.75
389.612	208.75
389.837	212.75
390.062	210.75
390.287	214.75
390.512	219.75
390.736	224.75
390.961	208.75
391.186	210.75
391.411	212.75
391.636	211.75
391.86	215.75
392.085	237.75
392.31	221.75
392.534	231.75
392.759	223.75
392.984	226.75
393.208	220.75
393.433	199.75
393.658	192.75
393.882	184.75
394.107	192.75
394.331	203.75
394.556	209.75
394.78	184.75
395.005	190.75
395.229	218.75
395.454	224.75
395.678	215.75
395.903	228.75
396.127	214.75
396.352	191.75
396.576	218.75
396.801	227.75
397.025	240.75
397.249	244.75
397.474	223.75
397.698	214.75
397.922	223.75
398.147	204.75
398.371	216.75
398.595	226.75
398.82	227.75
399.044	235.75
399.268	246.75
399.492	276.75
399.717	297.75
399.941	279.75
400.165	252.75
400.389	246.75
400.613	240.75
400.837	250.75
401.062	217.75
401.286	227.75
401.51	222.75
401.734	217.75
401.958	225.75
402.182	219.75
402.406	225.75
402.63	210.75
402.854	239.75
403.078	284.75
403.302	359.75
403.526	375.75
403.75	314.75
403.974	268.75
404.198	278.75
404.422	303.75
404.645	311.75
404.869	336.75
405.093	293.75
405.317	263.75
405.541	254.75
405.765	245.75
405.988	245.75
406.212	269.75
406.436	263.75
406.66	303.75
406.883	267.75
407.107	285.75
407.331	296.75
407.555	290.75
407.778	250.75
408.002	270.75
408.226	253.75
408.449	264.75
408.673	265.75
408.896	227.75
409.12	231.75
409.344	224.75
409.567	232.75
409.791	243.75
410.014	252.75
410.238	229.75
410.461	214.75
410.685	227.75
410.908	221.75
411.132	227.75
411.355	215.75
411.578	241.75
411.802	236.75
412.025	246.75
412.249	226.75
412.472	223.75
412.695	222.75
412.919	222.75
413.142	218.75
413.365	242.75
413.589	239.75
413.812	222.75
414.035	223.75
414.258	237.75
414.482	252.75
414.705	251.75
414.928	231.75
415.151	210.75
415.374	222.75
415.597	225.75
415.821	236.75
416.044	234.75
416.267	215.75
416.49	223.75
416.713	222.75
416.936	224.75
417.159	224.75
417.382	231.75
417.605	220.75
417.828	216.75
418.051	237.75
418.274	234.75
418.497	224.75
418.72	228.75
418.943	248.75
419.166	246.75
419.389	244.75
419.611	254.75
419.834	247.75
420.057	250.75
420.28	240.75
420.503	242.75
420.726	221.75
420.948	197.75
421.171	224.75
421.394	214.75
421.617	210.75
421.839	205.75
422.062	201.75
422.285	213.75
422.507	223.75
422.73	219.75
422.953	230.75
423.175	236.75
423.398	243.75
423.621	230.75
423.843	253.75
424.066	245.75
424.288	260.75
424.511	222.75
424.733	244.75
424.956	225.75
425.178	254.75
425.401	280.75
425.623	316.75
425.846	265.75
426.068	240.75
426.291	238.75
426.513	219.75
426.735	210.75
426.958	248.75
427.18	261.75
427.402	318.75
427.625	342.75
427.847	285.75
428.069	232.75
428.292	217.75
428.514	232.75
428.736	211.75
428.958	243.75
429.181	276.75
429.403	241.75
429.625	216.75
429.847	214.75
430.069	218.75
430.292	225.75
430.514	203.75
430.736	222.75
430.958	253.75
431.18	236.75
431.402	207.75
431.624	194.75
431.846	207.75
432.068	203.75
432.29	216.75
432.512	232.75
432.734	244.75
432.956	260.75
433.178	221.75
433.4	202.75
433.622	215.75
433.844	215.75
434.066	246.75
434.287	256.75
434.509	233.75
434.731	250.75
434.953	242.75
435.175	244.75
435.397	262.75
435.618	230.75
435.84	236.75
436.062	215.75
436.284	206.75
436.505	214.75
436.727	197.75
436.949	215.75
437.17	218.75
437.392	216.75
437.614	207.75
437.835	210.75
438.057	207.75
438.278	229.75
438.5	278.75
438.721	279.75
438.943	212.75
439.165	204.75
439.386	222.75
439.608	212.75
439.829	188.75
440.05	200.75
440.272	200.75
440.493	229.75
440.715	271.75
440.936	225.75
441.158	239.75
441.379	218.75
441.6	241.75
441.822	248.75
442.043	226.75
442.264	217.75
442.486	225.75
442.707	231.75
442.928	212.75
443.149	218.75
443.371	224.75
443.592	216.75
443.813	237.75
444.034	229.75
444.255	236.75
444.476	244.75
444.698	250.75
444.919	255.75
445.14	376.75
445.361	298.75
445.582	238.75
445.803	240.75
446.024	228.75
446.245	229.75
446.466	228.75
446.687	228.75
446.908	203.75
447.129	198.75
447.35	187.75
447.571	206.75
447.792	200.75
448.013	190.75
448.234	206.75
448.455	184.75
448.675	198.75
448.896	208.75
449.117	205.75
449.338	200.75
449.559	192.75
449.779	214.75
450	208.75
450.221	200.75
450.442	200.75
450.662	207.75
450.883	199.75
451.104	219.75
451.324	195.75
451.545	217.75
451.766	199.75
451.986	202.75
452.207	197.75
452.428	203.75
452.648	216.75
452.869	207.75
453.089	189.75
453.31	222.75
453.53	197.75
453.751	204.75
453.971	202.75
454.192	213.75
454.412	211.75
454.633	198.75
454.853	199.75
455.073	194.75
455.294	192.75
455.514	177.75
455.734	201.75
455.955	195.75
456.175	195.75
456.395	200.75
456.616	181.75
456.836	187.75
457.056	194.75
457.276	183.75
457.497	174.75
457.717	187.75
457.937	186.75
458.157	184.75
458.377	189.75
458.598	184.75
458.818	182.75
459.038	195.75
459.258	205.75
459.478	210.75
459.698	236.75
459.918	228.75
460.138	228.75
460.358	231.75
460.578	215.75
460.798	225.75
461.018	234.75
461.238	236.75
461.458	230.75
461.678	227.75
461.898	250.75
462.118	229.75
462.338	239.75
462.558	254.75
462.777	250.75
462.997	262.75
463.217	295.75
463.437	250.75
463.657	280.75
463.876	261.75
464.096	272.75
464.316	243.75
464.536	250.75
464.755	258.75
464.975	258.75
465.195	231.75
465.414	245.75
465.634	219.75
465.854	230.75
466.073	197.75
466.293	206.75
466.512	225.75
466.732	224.75
466.951	221.75
467.171	232.75
467.391	194.75
467.61	221.75
467.829	216.75
468.049	216.75
468.268	221.75
468.488	208.75
468.707	208.75
468.927	218.75
469.146	246.75
469.365	230.75
469.585	230.75
469.804	223.75
470.023	242.75
470.243	240.75
470.462	236.75
470.681	239.75
470.901	211.75
471.12	223.75
471.339	215.75
471.558	238.75
471.777	235.75
471.997	223.75
472.216	223.75
472.435	238.75
472.654	228.75
472.873	235.75
473.092	223.75
473.311	221.75
473.53	217.75
473.749	212.75
473.968	229.75
474.187	220.75
474.406	217.75
474.625	218.75
474.844	221.75
475.063	208.75
475.282	218.75
475.501	230.75
475.72	254.75
475.939	240.75
476.158	227.75
476.377	268.75
476.596	278.75
476.814	289.75
477.033	256.75
477.252	240.75
477.471	235.75
477.69	228.75
477.908	230.75
478.127	248.75
478.346	265.75
478.564	271.75
478.783	254.75
479.002	264.75
479.22	274.75
479.439	285.75
479.658	274.75
479.876	258.75
480.095	260.75
480.313	271.75
480.532	261.75
480.751	257.75
480.969	238.75
481.188	271.75
481.406	272.75
481.624	259.75
481.843	231.75
482.061	258.75
482.28	256.75
482.498	286.75
482.717	300.75
482.935	251.75
483.153	253.75
483.372	236.75
483.59	234.75
483.808	241.75
484.027	230.75
484.245	221.75
484.463	218.75
484.681	231.75
484.9	244.75
485.118	263.75
485.336	238.75
485.554	248.75
485.772	260.75
485.99	276.75
486.209	259.75
486.427	271.75
486.645	261.75
486.863	258.75
487.081	269.75
487.299	290.75
487.517	263.75
487.735	293.75
487.953	269.75
488.171	275.75
488.389	260.75
488.607	259.75
488.825	251.75
489.043	268.75
489.261	301.75
489.479	315.75
489.696	268.75
489.914	265.75
490.132	261.75
490.35	228.75
490.568	255.75
490.786	236.75
491.003	254.75
491.221	260.75
491.439	262.75
491.657	242.75
491.874	250.75
492.092	275.75
492.31	348.75
492.527	319.75
492.745	302.75
492.963	277.75
493.18	272.75
493.398	275.75
493.615	260.75
493.833	260.75
494.05	267.75
494.268	276.75
494.485	261.75
494.703	266.75
494.92	266.75
495.138	268.75
495.355	254.75
495.573	268.75
495.79	282.75
496.008	343.75
496.225	304.75
496.442	257.75
496.66	265.75
496.877	282.75
497.094	282.75
497.312	274.75
497.529	280.75
497.746	283.75
497.963	291.75
498.181	299.75
498.398	299.75
498.615	322.75
498.832	353.75
499.049	354.75
499.267	355.75
499.484	352.75
499.701	394.75
499.918	432.75
500.135	468.75
500.352	530.75
500.569	532.75
500.786	547.75
501.003	527.75
501.22	449.75
501.437	418.75
501.654	396.75
501.871	330.75
502.088	348.75
502.305	340.75
502.522	319.75
