Data from NickelSpatula_HRD10591_16-35-46-126.txt Node
Date: Mon Jul 22 16:35:46 EDT 2019
User: cochatt
Spectrometer: HR+D1059
Trigger mode: 1
Integration Time (sec): 1.000000E-1
Scans to average: 1
Electric dark correction enabled: true
Nonlinearity correction enabled: false
Boxcar width: 0
XAxis mode: Wavelengths
Number of Pixels in Spectrum: 2048
>>>>>Begin Spectral Data<<<<<
223.165	-4.5
223.4	-4.5
223.635	-4.5
223.869	-8.5
224.104	-16.5
224.338	-36.5
224.573	-0.5
224.808	-8.5
225.042	-8.5
225.277	1.5
225.511	-11.5
225.746	2.5
225.98	-7.5
226.215	5.5
226.449	13.5
226.683	33.5
226.918	14.5
227.152	31.5
227.387	33.5
227.621	34.5
227.856	39.5
228.09	51.5
228.324	59.5
228.559	59.5
228.793	57.5
229.027	77.5
229.262	76.5
229.496	80.5
229.73	69.5
229.964	83.5
230.199	80.5
230.433	87.5
230.667	88.5
230.901	84.5
231.136	97.5
231.37	101.5
231.604	88.5
231.838	75.5
232.072	87.5
232.306	111.5
232.541	91.5
232.775	93.5
233.009	101.5
233.243	99.5
233.477	94.5
233.711	132.5
233.945	104.5
234.179	110.5
234.413	103.5
234.647	105.5
234.881	111.5
235.115	133.5
235.349	116.5
235.583	103.5
235.817	95.5
236.051	118.5
236.285	117.5
236.519	125.5
236.753	117.5
236.987	116.5
237.221	108.5
237.455	127.5
237.689	103.5
237.922	126.5
238.156	115.5
238.39	134.5
238.624	147.5
238.858	145.5
239.091	123.5
239.325	123.5
239.559	132.5
239.793	139.5
240.027	141.5
240.26	135.5
240.494	139.5
240.728	139.5
240.961	155.5
241.195	146.5
241.429	150.5
241.662	135.5
241.896	129.5
242.13	124.5
242.363	119.5
242.597	120.5
242.83	131.5
243.064	140.5
243.298	131.5
243.531	142.5
243.765	154.5
243.998	139.5
244.232	124.5
244.465	140.5
244.699	129.5
244.932	147.5
245.166	134.5
245.399	116.5
245.633	129.5
245.866	135.5
246.099	146.5
246.333	151.5
246.566	170.5
246.8	142.5
247.033	164.5
247.266	156.5
247.5	152.5
247.733	143.5
247.966	135.5
248.2	148.5
248.433	146.5
248.666	167.5
248.899	167.5
249.133	168.5
249.366	191.5
249.599	183.5
249.832	186.5
250.066	162.5
250.299	157.5
250.532	156.5
250.765	167.5
250.998	159.5
251.231	155.5
251.465	151.5
251.698	163.5
251.931	156.5
252.164	165.5
252.397	175.5
252.63	189.5
252.863	209.5
253.096	209.5
253.329	202.5
253.562	199.5
253.795	205.5
254.028	220.5
254.261	225.5
254.494	202.5
254.727	196.5
254.96	184.5
255.193	202.5
255.426	215.5
255.659	179.5
255.892	172.5
256.124	173.5
256.357	199.5
256.59	209.5
256.823	204.5
257.056	180.5
257.289	147.5
257.521	177.5
257.754	202.5
257.987	228.5
258.22	211.5
258.452	196.5
258.685	199.5
258.918	204.5
259.151	206.5
259.383	229.5
259.616	255.5
259.849	229.5
260.081	260.5
260.314	271.5
260.547	227.5
260.779	234.5
261.012	268.5
261.244	248.5
261.477	244.5
261.71	242.5
261.942	219.5
262.175	215.5
262.407	212.5
262.64	204.5
262.872	230.5
263.105	268.5
263.337	260.5
263.57	241.5
263.802	189.5
264.035	171.5
264.267	171.5
264.499	161.5
264.732	149.5
264.964	124.5
265.197	145.5
265.429	146.5
265.661	155.5
265.894	172.5
266.126	194.5
266.358	176.5
266.591	189.5
266.823	231.5
267.055	230.5
267.287	202.5
267.52	218.5
267.752	229.5
267.984	217.5
268.216	225.5
268.448	198.5
268.681	183.5
268.913	212.5
269.145	231.5
269.377	222.5
269.609	232.5
269.841	205.5
270.073	212.5
270.306	224.5
270.538	220.5
270.77	205.5
271.002	219.5
271.234	247.5
271.466	240.5
271.698	220.5
271.93	232.5
272.162	201.5
272.394	221.5
272.626	220.5
272.858	211.5
273.09	235.5
273.322	215.5
273.553	199.5
273.785	228.5
274.017	275.5
274.249	335.5
274.481	340.5
274.713	359.5
274.945	420.5
275.176	424.5
275.408	399.5
275.64	374.5
275.872	353.5
276.104	324.5
276.335	280.5
276.567	276.5
276.799	280.5
277.031	311.5
277.262	244.5
277.494	204.5
277.726	198.5
277.957	209.5
278.189	213.5
278.421	227.5
278.652	232.5
278.884	235.5
279.115	214.5
279.347	211.5
279.579	218.5
279.81	198.5
280.042	188.5
280.273	194.5
280.505	188.5
280.736	174.5
280.968	166.5
281.199	192.5
281.431	222.5
281.662	213.5
281.894	198.5
282.125	199.5
282.356	223.5
282.588	231.5
282.819	200.5
283.051	220.5
283.282	230.5
283.513	311.5
283.745	321.5
283.976	312.5
284.207	289.5
284.439	305.5
284.67	285.5
284.901	270.5
285.132	270.5
285.364	280.5
285.595	279.5
285.826	288.5
286.057	323.5
286.288	287.5
286.52	282.5
286.751	293.5
286.982	303.5
287.213	270.5
287.444	259.5
287.675	257.5
287.906	282.5
288.138	241.5
288.369	197.5
288.6	212.5
288.831	208.5
289.062	232.5
289.293	263.5
289.524	248.5
289.755	245.5
289.986	247.5
290.217	218.5
290.448	194.5
290.679	181.5
290.91	177.5
291.141	147.5
291.371	143.5
291.602	160.5
291.833	179.5
292.064	164.5
292.295	186.5
292.526	205.5
292.757	231.5
292.987	235.5
293.218	237.5
293.449	243.5
293.68	249.5
293.91	252.5
294.141	249.5
294.372	227.5
294.603	224.5
294.833	215.5
295.064	277.5
295.295	259.5
295.525	213.5
295.756	189.5
295.987	163.5
296.217	153.5
296.448	168.5
296.679	168.5
296.909	186.5
297.14	199.5
297.37	209.5
297.601	201.5
297.831	171.5
298.062	188.5
298.292	219.5
298.523	232.5
298.753	237.5
298.984	234.5
299.214	206.5
299.445	170.5
299.675	180.5
299.905	159.5
300.136	171.5
300.366	187.5
300.597	182.5
300.827	178.5
301.057	160.5
301.288	178.5
301.518	181.5
301.748	188.5
301.979	199.5
302.209	193.5
302.439	196.5
302.669	185.5
302.9	207.5
303.13	191.5
303.36	178.5
303.59	183.5
303.82	170.5
304.051	180.5
304.281	203.5
304.511	211.5
304.741	176.5
304.971	174.5
305.201	209.5
305.431	185.5
305.661	160.5
305.891	175.5
306.121	169.5
306.352	161.5
306.582	149.5
306.812	139.5
307.042	139.5
307.272	145.5
307.502	149.5
307.731	153.5
307.961	160.5
308.191	151.5
308.421	120.5
308.651	152.5
308.881	143.5
309.111	147.5
309.341	157.5
309.571	161.5
309.8	157.5
310.03	159.5
310.26	153.5
310.49	145.5
310.72	163.5
310.949	146.5
311.179	149.5
311.409	151.5
311.639	172.5
311.868	212.5
312.098	264.5
312.328	282.5
312.557	267.5
312.787	260.5
313.017	233.5
313.246	243.5
313.476	239.5
313.706	224.5
313.935	198.5
314.165	164.5
314.394	152.5
314.624	149.5
314.853	147.5
315.083	155.5
315.312	156.5
315.542	153.5
315.771	145.5
316.001	128.5
316.23	148.5
316.46	154.5
316.689	156.5
316.919	152.5
317.148	155.5
317.377	159.5
317.607	149.5
317.836	149.5
318.065	176.5
318.295	182.5
318.524	173.5
318.753	170.5
318.983	155.5
319.212	162.5
319.441	157.5
319.67	172.5
319.9	186.5
320.129	170.5
320.358	157.5
320.587	166.5
320.816	162.5
321.046	161.5
321.275	197.5
321.504	185.5
321.733	180.5
321.962	188.5
322.191	177.5
322.42	160.5
322.649	172.5
322.878	184.5
323.108	183.5
323.337	167.5
323.566	183.5
323.795	157.5
324.024	151.5
324.253	142.5
324.482	148.5
324.71	159.5
324.939	175.5
325.168	162.5
325.397	156.5
325.626	151.5
325.855	156.5
326.084	151.5
326.313	140.5
326.542	150.5
326.77	152.5
326.999	152.5
327.228	172.5
327.457	161.5
327.686	145.5
327.914	144.5
328.143	143.5
328.372	123.5
328.6	142.5
328.829	125.5
329.058	144.5
329.287	135.5
329.515	154.5
329.744	143.5
329.972	134.5
330.201	123.5
330.43	157.5
330.658	152.5
330.887	168.5
331.115	158.5
331.344	148.5
331.572	163.5
331.801	139.5
332.03	145.5
332.258	142.5
332.486	141.5
332.715	158.5
332.943	164.5
333.172	153.5
333.4	129.5
333.629	151.5
333.857	163.5
334.085	159.5
334.314	189.5
334.542	141.5
334.771	159.5
334.999	146.5
335.227	147.5
335.455	161.5
335.684	165.5
335.912	181.5
336.14	188.5
336.369	170.5
336.597	195.5
336.825	207.5
337.053	227.5
337.281	182.5
337.51	161.5
337.738	151.5
337.966	175.5
338.194	180.5
338.422	164.5
338.65	156.5
338.878	145.5
339.106	157.5
339.334	163.5
339.562	165.5
339.79	162.5
340.018	159.5
340.246	155.5
340.474	171.5
340.702	183.5
340.93	183.5
341.158	201.5
341.386	159.5
341.614	162.5
341.842	166.5
342.07	184.5
342.298	192.5
342.526	195.5
342.754	179.5
342.981	164.5
343.209	175.5
343.437	166.5
343.665	196.5
343.893	172.5
344.12	188.5
344.348	215.5
344.576	210.5
344.804	168.5
345.031	169.5
345.259	151.5
345.487	163.5
345.714	152.5
345.942	166.5
346.17	160.5
346.397	188.5
346.625	149.5
346.853	155.5
347.08	141.5
347.308	142.5
347.535	165.5
347.763	181.5
347.99	170.5
348.218	155.5
348.445	135.5
348.673	147.5
348.9	162.5
349.128	166.5
349.355	164.5
349.583	177.5
349.81	161.5
350.037	153.5
350.265	150.5
350.492	142.5
350.72	139.5
350.947	139.5
351.174	145.5
351.402	153.5
351.629	163.5
351.856	159.5
352.083	149.5
352.311	155.5
352.538	162.5
352.765	167.5
352.992	171.5
353.22	168.5
353.447	157.5
353.674	171.5
353.901	151.5
354.128	170.5
354.355	151.5
354.583	165.5
354.81	150.5
355.037	167.5
355.264	154.5
355.491	170.5
355.718	172.5
355.945	186.5
356.172	162.5
356.399	172.5
356.626	194.5
356.853	210.5
357.08	235.5
357.307	251.5
357.534	201.5
357.761	203.5
357.988	242.5
358.215	253.5
358.441	256.5
358.668	209.5
358.895	225.5
359.122	175.5
359.349	172.5
359.576	183.5
359.802	157.5
360.029	159.5
360.256	165.5
360.483	184.5
360.709	203.5
360.936	223.5
361.163	210.5
361.39	172.5
361.616	172.5
361.843	178.5
362.07	196.5
362.296	185.5
362.523	161.5
362.749	157.5
362.976	161.5
363.203	184.5
363.429	201.5
363.656	164.5
363.882	142.5
364.109	159.5
364.335	165.5
364.562	152.5
364.788	153.5
365.015	194.5
365.241	167.5
365.468	162.5
365.694	144.5
365.92	154.5
366.147	145.5
366.373	142.5
366.599	145.5
366.826	148.5
367.052	123.5
367.278	149.5
367.505	134.5
367.731	164.5
367.957	157.5
368.184	155.5
368.41	149.5
368.636	165.5
368.862	191.5
369.089	161.5
369.315	155.5
369.541	135.5
369.767	152.5
369.993	134.5
370.219	133.5
370.445	158.5
370.672	155.5
370.898	172.5
371.124	155.5
371.35	137.5
371.576	141.5
371.802	159.5
372.028	189.5
372.254	190.5
372.48	163.5
372.706	168.5
372.932	151.5
373.158	165.5
373.384	192.5
373.61	215.5
373.835	241.5
374.061	207.5
374.287	181.5
374.513	186.5
374.739	227.5
374.965	223.5
375.191	214.5
375.416	177.5
375.642	166.5
375.868	179.5
376.094	183.5
376.319	179.5
376.545	182.5
376.771	192.5
376.997	171.5
377.222	139.5
377.448	125.5
377.674	124.5
377.899	142.5
378.125	132.5
378.35	137.5
378.576	138.5
378.802	136.5
379.027	166.5
379.253	138.5
379.478	162.5
379.704	163.5
379.929	169.5
380.155	163.5
380.38	158.5
380.606	150.5
380.831	162.5
381.057	180.5
381.282	154.5
381.507	180.5
381.733	205.5
381.958	212.5
382.184	209.5
382.409	218.5
382.634	224.5
382.86	212.5
383.085	197.5
383.31	181.5
383.535	187.5
383.761	198.5
383.986	176.5
384.211	201.5
384.436	183.5
384.662	166.5
384.887	158.5
385.112	161.5
385.337	158.5
385.562	177.5
385.787	161.5
386.013	189.5
386.238	179.5
386.463	168.5
386.688	163.5
386.913	165.5
387.138	148.5
387.363	158.5
387.588	164.5
387.813	166.5
388.038	157.5
388.263	163.5
388.488	172.5
388.713	168.5
388.938	168.5
389.163	171.5
389.387	133.5
389.612	149.5
389.837	156.5
390.062	147.5
390.287	167.5
390.512	154.5
390.736	167.5
390.961	149.5
391.186	148.5
391.411	145.5
391.636	142.5
391.86	159.5
392.085	181.5
392.31	169.5
392.534	143.5
392.759	141.5
392.984	149.5
393.208	161.5
393.433	141.5
393.658	137.5
393.882	147.5
394.107	143.5
394.331	148.5
394.556	136.5
394.78	144.5
395.005	141.5
395.229	155.5
395.454	129.5
395.678	155.5
395.903	159.5
396.127	145.5
396.352	137.5
396.576	165.5
396.801	153.5
397.025	166.5
397.249	165.5
397.474	153.5
397.698	150.5
397.922	163.5
398.147	171.5
398.371	138.5
398.595	157.5
398.82	164.5
399.044	153.5
399.268	165.5
399.492	176.5
399.717	165.5
399.941	164.5
400.165	161.5
400.389	156.5
400.613	150.5
400.837	156.5
401.062	160.5
401.286	165.5
401.51	153.5
401.734	157.5
401.958	140.5
402.182	156.5
402.406	151.5
402.63	157.5
402.854	164.5
403.078	177.5
403.302	211.5
403.526	205.5
403.75	198.5
403.974	170.5
404.198	164.5
404.422	204.5
404.645	202.5
404.869	215.5
405.093	189.5
405.317	151.5
405.541	163.5
405.765	167.5
405.988	164.5
406.212	173.5
406.436	184.5
406.66	212.5
406.883	154.5
407.107	175.5
407.331	185.5
407.555	185.5
407.778	172.5
408.002	168.5
408.226	167.5
408.449	156.5
408.673	173.5
408.896	165.5
409.12	150.5
409.344	151.5
409.567	139.5
409.791	137.5
410.014	162.5
410.238	143.5
410.461	147.5
410.685	160.5
410.908	157.5
411.132	162.5
411.355	153.5
411.578	151.5
411.802	159.5
412.025	166.5
412.249	154.5
412.472	132.5
412.695	158.5
412.919	153.5
413.142	161.5
413.365	180.5
413.589	176.5
413.812	151.5
414.035	154.5
414.258	159.5
414.482	172.5
414.705	169.5
414.928	149.5
415.151	143.5
415.374	154.5
415.597	159.5
415.821	153.5
416.044	153.5
416.267	138.5
416.49	152.5
416.713	137.5
416.936	144.5
417.159	155.5
417.382	151.5
417.605	163.5
417.828	153.5
418.051	147.5
418.274	166.5
418.497	159.5
418.72	172.5
418.943	165.5
419.166	164.5
419.389	154.5
419.611	172.5
419.834	168.5
420.057	167.5
420.28	170.5
420.503	159.5
420.726	161.5
420.948	144.5
421.171	163.5
421.394	146.5
421.617	140.5
421.839	140.5
422.062	148.5
422.285	133.5
422.507	154.5
422.73	139.5
422.953	159.5
423.175	153.5
423.398	164.5
423.621	169.5
423.843	164.5
424.066	167.5
424.288	154.5
424.511	147.5
424.733	155.5
424.956	149.5
425.178	167.5
425.401	193.5
425.623	204.5
425.846	169.5
426.068	165.5
426.291	193.5
426.513	160.5
426.735	147.5
426.958	149.5
427.18	191.5
427.402	234.5
427.625	210.5
427.847	182.5
428.069	151.5
428.292	150.5
428.514	136.5
428.736	163.5
428.958	164.5
429.181	177.5
429.403	184.5
429.625	149.5
429.847	168.5
430.069	151.5
430.292	163.5
430.514	137.5
430.736	151.5
430.958	186.5
431.18	161.5
431.402	136.5
431.624	166.5
431.846	151.5
432.068	139.5
432.29	147.5
432.512	167.5
432.734	181.5
432.956	182.5
433.178	154.5
433.4	144.5
433.622	160.5
433.844	151.5
434.066	167.5
434.287	162.5
434.509	161.5
434.731	168.5
434.953	161.5
435.175	160.5
435.397	176.5
435.618	147.5
435.84	135.5
436.062	147.5
436.284	156.5
436.505	162.5
436.727	137.5
436.949	135.5
437.17	150.5
437.392	157.5
437.614	168.5
437.835	141.5
438.057	138.5
438.278	158.5
438.5	203.5
438.721	212.5
438.943	157.5
439.165	136.5
439.386	139.5
439.608	133.5
439.829	147.5
440.05	135.5
440.272	138.5
440.493	180.5
440.715	185.5
440.936	152.5
441.158	140.5
441.379	161.5
441.6	160.5
441.822	177.5
442.043	131.5
442.264	148.5
442.486	146.5
442.707	149.5
442.928	140.5
443.149	159.5
443.371	160.5
443.592	166.5
443.813	149.5
444.034	155.5
444.255	160.5
444.476	163.5
444.698	166.5
444.919	143.5
445.14	303.5
445.361	228.5
445.582	176.5
445.803	161.5
446.024	152.5
446.245	156.5
446.466	164.5
446.687	158.5
446.908	155.5
447.129	140.5
447.35	129.5
447.571	138.5
447.792	132.5
448.013	137.5
448.234	140.5
448.455	152.5
448.675	149.5
448.896	143.5
449.117	152.5
449.338	151.5
449.559	141.5
449.779	160.5
450	153.5
450.221	145.5
450.442	146.5
450.662	136.5
450.883	139.5
451.104	129.5
451.324	138.5
451.545	129.5
451.766	149.5
451.986	138.5
452.207	129.5
452.428	143.5
452.648	147.5
452.869	165.5
453.089	150.5
453.31	156.5
453.53	136.5
453.751	137.5
453.971	140.5
454.192	152.5
454.412	141.5
454.633	145.5
454.853	152.5
455.073	138.5
455.294	138.5
455.514	140.5
455.734	138.5
455.955	149.5
456.175	150.5
456.395	146.5
456.616	131.5
456.836	145.5
457.056	129.5
457.276	129.5
457.497	134.5
457.717	127.5
457.937	139.5
458.157	135.5
458.377	139.5
458.598	137.5
458.818	145.5
459.038	157.5
459.258	153.5
459.478	157.5
459.698	154.5
459.918	152.5
460.138	157.5
460.358	159.5
460.578	159.5
460.798	155.5
461.018	168.5
461.238	137.5
461.458	149.5
461.678	161.5
461.898	160.5
462.118	163.5
462.338	160.5
462.558	169.5
462.777	164.5
462.997	163.5
463.217	167.5
463.437	179.5
463.657	162.5
463.876	141.5
464.096	168.5
464.316	154.5
464.536	168.5
464.755	193.5
464.975	163.5
465.195	163.5
465.414	154.5
465.634	155.5
465.854	165.5
466.073	153.5
466.293	143.5
466.512	153.5
466.732	180.5
466.951	167.5
467.171	170.5
467.391	144.5
467.61	151.5
467.829	159.5
468.049	149.5
468.268	159.5
468.488	158.5
468.707	159.5
468.927	165.5
469.146	168.5
469.365	182.5
469.585	162.5
469.804	165.5
470.023	180.5
470.243	155.5
470.462	168.5
470.681	155.5
470.901	163.5
471.12	168.5
471.339	154.5
471.558	159.5
471.777	172.5
471.997	177.5
472.216	174.5
472.435	162.5
472.654	176.5
472.873	170.5
473.092	187.5
473.311	181.5
473.53	157.5
473.749	169.5
473.968	172.5
474.187	179.5
474.406	182.5
474.625	164.5
474.844	151.5
475.063	167.5
475.282	155.5
475.501	185.5
475.72	198.5
475.939	175.5
476.158	188.5
476.377	202.5
476.596	227.5
476.814	225.5
477.033	203.5
477.252	178.5
477.471	164.5
477.69	159.5
477.908	168.5
478.127	177.5
478.346	172.5
478.564	197.5
478.783	177.5
479.002	178.5
479.22	186.5
479.439	220.5
479.658	196.5
479.876	167.5
480.095	185.5
480.313	187.5
480.532	186.5
480.751	193.5
480.969	172.5
481.188	189.5
481.406	202.5
481.624	191.5
481.843	168.5
482.061	175.5
482.28	186.5
482.498	238.5
482.717	213.5
482.935	205.5
483.153	175.5
483.372	167.5
483.59	171.5
483.808	170.5
484.027	163.5
484.245	158.5
484.463	160.5
484.681	173.5
484.9	183.5
485.118	192.5
485.336	184.5
485.554	170.5
485.772	169.5
485.99	187.5
486.209	183.5
486.427	183.5
486.645	180.5
486.863	197.5
487.081	205.5
487.299	211.5
487.517	213.5
487.735	204.5
487.953	191.5
488.171	195.5
488.389	179.5
488.607	154.5
488.825	187.5
489.043	197.5
489.261	228.5
489.479	231.5
489.696	200.5
489.914	180.5
490.132	170.5
490.35	171.5
490.568	171.5
490.786	171.5
491.003	170.5
491.221	188.5
491.439	191.5
491.657	182.5
491.874	184.5
492.092	225.5
492.31	280.5
492.527	245.5
492.745	228.5
492.963	207.5
493.18	204.5
493.398	193.5
493.615	199.5
493.833	197.5
494.05	211.5
494.268	191.5
494.485	196.5
494.703	181.5
494.92	178.5
495.138	187.5
495.355	203.5
495.573	204.5
495.79	215.5
496.008	263.5
496.225	225.5
496.442	199.5
496.66	195.5
496.877	201.5
497.094	197.5
497.312	199.5
497.529	202.5
497.746	196.5
497.963	205.5
498.181	211.5
498.398	211.5
498.615	246.5
498.832	227.5
499.049	229.5
499.267	229.5
499.484	220.5
499.701	236.5
499.918	253.5
500.135	263.5
500.352	285.5
500.569	288.5
500.786	289.5
501.003	280.5
501.22	259.5
501.437	250.5
501.654	248.5
501.871	216.5
502.088	226.5
502.305	223.5
502.522	220.5
502.739	218.5
502.956	207.5
503.172	218.5
503.389	203.5
503.606	207.5
503.823	196.5
504.04	199.5
504.256	181.5
504.473	203.5
504.69	191.5
504.907	202.5
505.123	215.5
505.34	220.5
505.557	221.5
505.773	192.5
505.99	197.5
506.207	221.5
506.423	211.5
506.64	182.5
506.856	175.5
507.073	205.5
507.289	203.5
507.506	221.5
507.722	220.5
507.939	213.5
508.155	225.5
508.372	198.5
508.588	187.5
508.805	198.5
509.021	206.5
509.238	180.5
509.454	173.5
509.67	187.5
509.887	175.5
510.103	201.5
510.319	196.5
510.536	186.5
510.752	179.5
510.968	167.5
511.184	156.5
511.401	185.5
511.617	170.5
511.833	179.5
512.049	169.5
512.265	179.5
512.481	187.5
512.698	193.5
512.914	201.5
513.13	195.5
513.346	164.5
513.562	195.5
513.778	191.5
513.994	197.5
514.21	207.5
514.426	201.5
514.642	187.5
514.858	191.5
515.074	200.5
515.29	204.5
515.506	232.5
515.721	206.5
515.937	190.5
516.153	188.5
516.369	187.5
516.585	203.5
516.801	218.5
517.016	259.5
517.232	243.5
517.448	240.5
517.664	224.5
517.879	197.5
518.095	217.5
518.311	200.5
518.527	216.5
518.742	220.5
518.958	226.5
519.173	221.5
519.389	202.5
519.605	213.5
519.82	214.5
520.036	253.5
520.251	257.5
520.467	261.5
520.682	377.5
